Timestamp,EEG.Counter,EEG.Interpolated,EEG.AF3,EEG.F7,EEG.F3,EEG.FC5,EEG.T7,EEG.P7,EEG.O1,EEG.O2,EEG.P8,EEG.T8,EEG.FC6,EEG.F4,EEG.F8,EEG.AF4,POW.AF3.Theta,POW.AF3.Alpha,POW.AF3.BetaL,POW.AF3.BetaH,POW.AF3.Gamma,POW.F7.Theta,POW.F7.Alpha,POW.F7.BetaL,POW.F7.BetaH,POW.F7.Gamma,POW.F3.Theta,POW.F3.Alpha,POW.F3.BetaL,POW.F3.BetaH,POW.F3.Gamma,POW.FC5.Theta,POW.FC5.Alpha,POW.FC5.BetaL,POW.FC5.BetaH,POW.FC5.Gamma,POW.T7.Theta,POW.T7.Alpha,POW.T7.BetaL,POW.T7.BetaH,POW.T7.Gamma,POW.P7.Theta,POW.P7.Alpha,POW.P7.BetaL,POW.P7.BetaH,POW.P7.Gamma,POW.O1.Theta,POW.O1.Alpha,POW.O1.BetaL,POW.O1.BetaH,POW.O1.Gamma,POW.O2.Theta,POW.O2.Alpha,POW.O2.BetaL,POW.O2.BetaH,POW.O2.Gamma,POW.P8.Theta,POW.P8.Alpha,POW.P8.BetaL,POW.P8.BetaH,POW.P8.Gamma,POW.T8.Theta,POW.T8.Alpha,POW.T8.BetaL,POW.T8.BetaH,POW.T8.Gamma,POW.FC6.Theta,POW.FC6.Alpha,POW.FC6.BetaL,POW.FC6.BetaH,POW.FC6.Gamma,POW.F4.Theta,POW.F4.Alpha,POW.F4.BetaL,POW.F4.BetaH,POW.F4.Gamma,POW.F8.Theta,POW.F8.Alpha,POW.F8.BetaL,POW.F8.BetaH,POW.F8.Gamma,POW.AF4.Theta,POW.AF4.Alpha,POW.AF4.BetaL,POW.AF4.BetaH,POW.AF4.Gamma
1720075279,88,0,4405.897461,4342.94873,4440.512695,4426.410156,4398.333496,4450.641113,4460.384766,4410.384766,4351.282227,4354.615234,4222.179688,4536.666504,4098.333496,4182.692383,,,,,,,,,,,,,,,,,,,,,,,,,,,,,,,,,,,,,,,,,,,,,,,,,,,,,,,,,,,,,,,,,,,,,,
1720075279,89,0,4404.487305,4342.820313,4440.128418,4423.461426,4399.871582,4444.102539,4456.410156,4399.743652,4340.256348,4340.128418,4210.641113,4524.102539,4097.94873,4175,,,,,,,,,,,,,,,,,,,,,,,,,,,,,,,,,,,,,,,,,,,,,,,,,,,,,,,,,,,,,,,,,,,,,,
1720075279,90,0,4412.94873,4346.922852,4453.461426,4430.256348,4410.512695,4458.205078,4460.641113,4402.307617,4347.307617,4342.563965,4226.410156,4532.05127,4108.974121,4179.487305,,,,,,,,,,,,,,,,,,,,,,,,,,,,,,,,,,,,,,,,,,,,,,,,,,,,,,,,,,,,,,,,,,,,,,
1720075279,91,0,4411.794922,4348.461426,4466.794922,4431.922852,4408.333496,4463.717773,4464.871582,4410.897461,4353.333496,4350.641113,4234.358887,4538.717773,4108.846191,4184.358887,,,,,,,,,,,,,,,,,,,,,,,,,,,,,,,,,,,,,,,,,,,,,,,,,,,,,,,,,,,,,,,,,,,,,,
1720075279,92,0,4402.94873,4345,4461.025879,4420.641113,4403.077148,4450.641113,4462.05127,4406.410156,4343.333496,4342.94873,4219.102539,4526.153809,4094.487061,4173.333496,,,,,,,,,,,,,,,,,,,,,,,,,,,,,,,,,,,,,,,,,,,,,,,,,,,,,,,,,,,,,,,,,,,,,,
1720075279,93,0,4407.692383,4344.871582,4454.743652,4420.384766,4405,4446.922852,4461.282227,4404.102539,4343.589844,4340.769043,4221.153809,4521.025879,4093.333252,4171.922852,,,,,,,,,,,,,,,,,,,,,,,,,,,,,,,,,,,,,,,,,,,,,,,,,,,,,,,,,,,,,,,,,,,,,,
1720075279,94,0,4406.410156,4348.974121,4461.282227,4427.05127,4402.563965,4451.410156,4463.333496,4414.743652,4360.256348,4349.230957,4232.94873,4528.846191,4097.692383,4180.897461,,,,,,,,,,,,,,,,,,,,,,,,,,,,,,,,,,,,,,,,,,,,,,,,,,,,,,,,,,,,,,,,,,,,,,
1720075279,95,0,4390.384766,4345.512695,4463.846191,4419.230957,4397.94873,4446.922852,4460,4412.94873,4358.846191,4348.205078,4225.769043,4523.589844,4088.846191,4181.153809,,,,,,,,,,,,,,,,,,,,,,,,,,,,,,,,,,,,,,,,,,,,,,,,,,,,,,,,,,,,,,,,,,,,,,
1720075279,96,0,4389.230957,4338.846191,4460.384766,4408.589844,4398.333496,4441.538574,4454.358887,4402.94873,4341.025879,4344.358887,4220.512695,4509.230957,4083.461426,4176.794922,,,,,,,,,,,,,,,,,,,,,,,,,,,,,,,,,,,,,,,,,,,,,,,,,,,,,,,,,,,,,,,,,,,,,,
1720075279,97,0,4398.846191,4341.410156,4465.128418,4411.410156,4397.94873,4445,4459.358887,4409.358887,4342.436035,4350.897461,4230.384766,4511.794922,4092.820557,4181.922852,1.275937,0.835001,0.434884,0.406346,0.209027,0.172617,0.083625,0.199823,0.113878,0.069363,83.479507,4.011011,1.192466,0.623197,0.250571,0.759511,0.470781,0.373408,0.350302,0.260544,0.479089,0.557641,0.412692,0.203886,0.155099,0.744699,0.439208,0.313967,0.218791,0.057987,0.708774,0.389831,0.144291,0.154007,0.07341,1.155593,1.234662,0.262667,0.267112,0.103615,1.161958,1.336138,0.761812,0.278451,0.17178,0.714254,0.576131,0.363703,0.281384,0.167707,1.383138,1.10501,0.63624,0.48519,0.251808,2.643819,1.040966,0.698275,0.376737,0.293098,6.689441,0.661902,0.452485,0.315333,0.233782,1.701236,0.689357,0.338484,0.542769,0.337139
1720075279,98,0,4398.717773,4343.974121,4473.461426,4416.666504,4394.871582,4447.307617,4464.358887,4413.974121,4346.922852,4354.743652,4233.717773,4520,4091.666748,4188.589844,,,,,,,,,,,,,,,,,,,,,,,,,,,,,,,,,,,,,,,,,,,,,,,,,,,,,,,,,,,,,,,,,,,,,,
1720075279,99,0,4398.974121,4340,4475.641113,4416.025879,4395.256348,4442.94873,4460.641113,4406.922852,4333.077148,4347.179688,4228.461426,4515.769043,4075.897461,4189.615234,,,,,,,,,,,,,,,,,,,,,,,,,,,,,,,,,,,,,,,,,,,,,,,,,,,,,,,,,,,,,,,,,,,,,,
1720075279,100,0,4404.230957,4338.589844,4481.410156,4413.589844,4397.563965,4444.358887,4466.538574,4415.641113,4331.794922,4346.794922,4232.94873,4518.077148,4077.435791,4193.717773,,,,,,,,,,,,,,,,,,,,,,,,,,,,,,,,,,,,,,,,,,,,,,,,,,,,,,,,,,,,,,,,,,,,,,
1720075279,101,0,4398.717773,4339.615234,4489.102539,4411.538574,4401.410156,4449.487305,4474.871582,4424.358887,4340.384766,4357.820313,4241.666504,4528.846191,4082.179443,4197.820313,,,,,,,,,,,,,,,,,,,,,,,,,,,,,,,,,,,,,,,,,,,,,,,,,,,,,,,,,,,,,,,,,,,,,,
1720075279,102,0,4391.794922,4338.846191,4489.102539,4411.153809,4402.94873,4449.102539,4468.974121,4415.128418,4334.743652,4359.102539,4241.410156,4530.641113,4073.461426,4197.692383,,,,,,,,,,,,,,,,,,,,,,,,,,,,,,,,,,,,,,,,,,,,,,,,,,,,,,,,,,,,,,,,,,,,,,
1720075279,103,0,4388.205078,4335.512695,4487.179688,4406.922852,4396.794922,4445.641113,4461.794922,4410.641113,4331.410156,4348.333496,4232.563965,4520.512695,4068.461426,4194.102539,,,,,,,,,,,,,,,,,,,,,,,,,,,,,,,,,,,,,,,,,,,,,,,,,,,,,,,,,,,,,,,,,,,,,,
1720075279,104,0,4385,4331.153809,4490.256348,4403.974121,4393.589844,4443.846191,4467.05127,4414.230957,4336.794922,4346.794922,4231.025879,4511.153809,4065.384521,4191.282227,,,,,,,,,,,,,,,,,,,,,,,,,,,,,,,,,,,,,,,,,,,,,,,,,,,,,,,,,,,,,,,,,,,,,,
1720075279,105,0,4392.563965,4334.102539,4500.641113,4410.128418,4400.641113,4444.102539,4474.487305,4416.922852,4340,4355.256348,4242.692383,4517.179688,4063.974365,4192.436035,,,,,,,,,,,,,,,,,,,,,,,,,,,,,,,,,,,,,,,,,,,,,,,,,,,,,,,,,,,,,,,,,,,,,,
1720075279,106,0,4398.717773,4340.641113,4506.794922,4414.230957,4402.94873,4445.641113,4474.871582,4418.333496,4343.077148,4357.820313,4247.179688,4529.102539,4065.384521,4194.615234,,,,,,,,,,,,,,,,,,,,,,,,,,,,,,,,,,,,,,,,,,,,,,,,,,,,,,,,,,,,,,,,,,,,,,
1720075279,107,0,4391.282227,4337.563965,4494.230957,4410.897461,4396.153809,4445.897461,4468.205078,4414.230957,4344.615234,4355.512695,4238.846191,4523.205078,4059.102539,4197.563965,,,,,,,,,,,,,,,,,,,,,,,,,,,,,,,,,,,,,,,,,,,,,,,,,,,,,,,,,,,,,,,,,,,,,,
1720075279,108,0,4385.769043,4333.333496,4479.230957,4407.94873,4393.461426,4443.461426,4459.358887,4402.820313,4335.897461,4351.794922,4231.922852,4508.461426,4048.333252,4198.974121,,,,,,,,,,,,,,,,,,,,,,,,,,,,,,,,,,,,,,,,,,,,,,,,,,,,,,,,,,,,,,,,,,,,,,
1720075279,109,0,4392.94873,4336.794922,4486.025879,4410.512695,4398.717773,4443.846191,4458.846191,4397.820313,4329.615234,4349.230957,4232.179688,4507.05127,4044.871826,4197.179688,,,,,,,,,,,,,,,,,,,,,,,,,,,,,,,,,,,,,,,,,,,,,,,,,,,,,,,,,,,,,,,,,,,,,,
1720075279,110,0,4402.05127,4340.384766,4496.538574,4413.717773,4401.410156,4446.282227,4461.410156,4403.717773,4335.512695,4351.410156,4238.333496,4509.615234,4042.94873,4196.282227,,,,,,,,,,,,,,,,,,,,,,,,,,,,,,,,,,,,,,,,,,,,,,,,,,,,,,,,,,,,,,,,,,,,,,
1720075279,111,0,4403.333496,4339.743652,4494.615234,4413.205078,4398.461426,4445,4463.333496,4410,4340.384766,4358.205078,4240.512695,4512.179688,4037.692383,4202.436035,,,,,,,,,,,,,,,,,,,,,,,,,,,,,,,,,,,,,,,,,,,,,,,,,,,,,,,,,,,,,,,,,,,,,,
1720075279,112,0,4396.153809,4338.846191,4491.025879,4410.641113,4397.820313,4443.333496,4463.333496,4405.641113,4333.461426,4353.974121,4235,4507.820313,4031.794922,4208.589844,,,,,,,,,,,,,,,,,,,,,,,,,,,,,,,,,,,,,,,,,,,,,,,,,,,,,,,,,,,,,,,,,,,,,,
1720075279,113,0,4395.256348,4338.717773,4490.897461,4412.563965,4402.436035,4444.487305,4460,4396.153809,4328.205078,4343.974121,4232.307617,4492.563965,4021.666748,4207.563965,1.102053,0.699159,0.426055,0.428876,0.216498,0.136447,0.089752,0.164006,0.1233,0.06543,74.138443,4.343266,1.353336,0.752805,0.246679,0.673892,0.418469,0.385799,0.382027,0.262038,0.444354,0.348141,0.332227,0.247943,0.17124,0.826121,0.374826,0.267037,0.255239,0.058351,0.770957,0.3331,0.165291,0.18984,0.071081,1.216438,1.098955,0.285869,0.313928,0.098555,1.253469,1.536111,0.708734,0.314883,0.16873,0.719461,0.533691,0.381699,0.32245,0.166046,1.356485,0.952758,0.692051,0.578966,0.238535,2.654683,0.889224,0.695177,0.462413,0.286814,6.834727,0.657102,0.454094,0.352656,0.224123,1.678675,0.638118,0.432455,0.500832,0.336585
1720075279,114,0,4403.717773,4338.974121,4491.538574,4413.461426,4399.743652,4445.384766,4457.179688,4398.077148,4334.487305,4344.743652,4228.205078,4486.025879,4013.974365,4203.077148,,,,,,,,,,,,,,,,,,,,,,,,,,,,,,,,,,,,,,,,,,,,,,,,,,,,,,,,,,,,,,,,,,,,,,
1720075279,115,0,4407.436035,4336.794922,4491.410156,4410.897461,4394.102539,4442.692383,4455.897461,4400.512695,4334.871582,4349.743652,4222.94873,4493.077148,4015.256348,4203.461426,,,,,,,,,,,,,,,,,,,,,,,,,,,,,,,,,,,,,,,,,,,,,,,,,,,,,,,,,,,,,,,,,,,,,,
1720075279,116,0,4415.897461,4336.794922,4498.077148,4419.615234,4404.358887,4444.102539,4460.384766,4405.512695,4336.153809,4354.230957,4244.615234,4506.538574,4025.641113,4220.641113,,,,,,,,,,,,,,,,,,,,,,,,,,,,,,,,,,,,,,,,,,,,,,,,,,,,,,,,,,,,,,,,,,,,,,
1720075279,117,0,4426.025879,4337.94873,4507.436035,4432.94873,4415,4448.589844,4465.128418,4414.230957,4347.692383,4361.153809,4269.487305,4516.794922,4032.435791,4233.589844,,,,,,,,,,,,,,,,,,,,,,,,,,,,,,,,,,,,,,,,,,,,,,,,,,,,,,,,,,,,,,,,,,,,,,
1720075279,118,0,4422.436035,4336.153809,4507.05127,4427.563965,4408.846191,4447.692383,4461.282227,4408.077148,4345.641113,4357.692383,4251.282227,4507.05127,4020.512939,4220.641113,,,,,,,,,,,,,,,,,,,,,,,,,,,,,,,,,,,,,,,,,,,,,,,,,,,,,,,,,,,,,,,,,,,,,,
1720075279,119,0,4411.666504,4337.436035,4500.641113,4414.487305,4402.307617,4444.102539,4456.282227,4396.282227,4332.307617,4345.769043,4222.692383,4491.153809,4008.974365,4207.307617,,,,,,,,,,,,,,,,,,,,,,,,,,,,,,,,,,,,,,,,,,,,,,,,,,,,,,,,,,,,,,,,,,,,,,
1720075279,120,0,4400.384766,4337.179688,4497.436035,4412.05127,4402.179688,4437.94873,4455.641113,4393.077148,4329.102539,4342.820313,4219.358887,4488.205078,4005.769287,4205,,,,,,,,,,,,,,,,,,,,,,,,,,,,,,,,,,,,,,,,,,,,,,,,,,,,,,,,,,,,,,,,,,,,,,
1720075279,121,0,4395.128418,4330.641113,4490.256348,4412.563965,4398.974121,4430.384766,4451.922852,4392.307617,4332.179688,4343.846191,4219.358887,4486.666504,4001.025635,4207.94873,,,,,,,,,,,,,,,,,,,,,,,,,,,,,,,,,,,,,,,,,,,,,,,,,,,,,,,,,,,,,,,,,,,,,,
1720075279,122,0,4398.974121,4332.05127,4475,4410.256348,4395.512695,4428.205078,4446.538574,4389.743652,4331.922852,4343.333496,4216.153809,4479.871582,3995.256348,4217.820313,,,,,,,,,,,,,,,,,,,,,,,,,,,,,,,,,,,,,,,,,,,,,,,,,,,,,,,,,,,,,,,,,,,,,,
1720075279,123,0,4401.794922,4339.230957,4467.820313,4410.897461,4396.410156,4428.077148,4445,4391.282227,4330.897461,4343.333496,4221.153809,4475.897461,3993.333252,4219.871582,,,,,,,,,,,,,,,,,,,,,,,,,,,,,,,,,,,,,,,,,,,,,,,,,,,,,,,,,,,,,,,,,,,,,,
1720075279,124,0,4399.871582,4335.128418,4471.538574,4411.410156,4396.794922,4425.641113,4443.846191,4388.974121,4331.282227,4341.410156,4223.846191,4471.025879,3993.718018,4207.94873,,,,,,,,,,,,,,,,,,,,,,,,,,,,,,,,,,,,,,,,,,,,,,,,,,,,,,,,,,,,,,,,,,,,,,
1720075279,125,0,4403.333496,4329.615234,4475.384766,4411.410156,4395.512695,4427.307617,4444.487305,4387.436035,4337.436035,4344.358887,4219.615234,4471.025879,3994.743652,4206.153809,,,,,,,,,,,,,,,,,,,,,,,,,,,,,,,,,,,,,,,,,,,,,,,,,,,,,,,,,,,,,,,,,,,,,,
1720075279,126,0,4404.358887,4331.282227,4476.410156,4412.05127,4396.538574,4431.153809,4446.025879,4391.794922,4344.358887,4348.205078,4216.282227,4471.666504,3992.94873,4213.974121,,,,,,,,,,,,,,,,,,,,,,,,,,,,,,,,,,,,,,,,,,,,,,,,,,,,,,,,,,,,,,,,,,,,,,
1720075279,127,0,4395.769043,4331.538574,4477.692383,4407.563965,4395.384766,4429.487305,4445.256348,4388.846191,4344.743652,4344.358887,4218.717773,4461.153809,3987.94873,4209.230957,,,,,,,,,,,,,,,,,,,,,,,,,,,,,,,,,,,,,,,,,,,,,,,,,,,,,,,,,,,,,,,,,,,,,,
1720075279,0,0,4395.128418,4333.461426,4479.102539,4403.589844,4391.025879,4428.846191,4447.05127,4390,4347.05127,4343.333496,4227.436035,4458.974121,3989.615479,4207.307617,,,,,,,,,,,,,,,,,,,,,,,,,,,,,,,,,,,,,,,,,,,,,,,,,,,,,,,,,,,,,,,,,,,,,,
1720075279,1,0,4401.794922,4335,4481.025879,4408.846191,4395.128418,4430.641113,4449.487305,4400,4352.05127,4351.538574,4234.102539,4471.025879,3993.974365,4217.94873,0.926775,0.604983,0.392542,0.429524,0.22393,0.121955,0.104314,0.132967,0.130939,0.067415,60.25264,4.600815,1.463463,0.860197,0.240594,0.598173,0.392261,0.394147,0.402083,0.252971,0.38931,0.211153,0.271033,0.289263,0.183413,0.871959,0.348869,0.232155,0.286353,0.069091,0.850586,0.320575,0.194031,0.229841,0.069719,1.271715,0.95658,0.304604,0.350731,0.09881,1.360266,1.732282,0.595816,0.336944,0.163892,0.70121,0.523218,0.375088,0.361226,0.16238,1.319657,0.869772,0.702927,0.654582,0.22792,2.54966,0.825668,0.659408,0.538424,0.271596,7.155519,0.751522,0.447569,0.385858,0.21526,1.557421,0.65863,0.573549,0.480582,0.334374
1720075279,2,0,4402.05127,4333.077148,4483.717773,4412.179688,4398.717773,4430.897461,4446.922852,4400.384766,4350.128418,4352.05127,4231.153809,4471.282227,3990.512939,4221.282227,,,,,,,,,,,,,,,,,,,,,,,,,,,,,,,,,,,,,,,,,,,,,,,,,,,,,,,,,,,,,,,,,,,,,,
1720075279,3,0,4397.436035,4332.05127,4480.256348,4403.974121,4393.461426,4428.077148,4442.05127,4390.256348,4340.769043,4343.077148,4223.589844,4461.666504,3987.435791,4219.358887,,,,,,,,,,,,,,,,,,,,,,,,,,,,,,,,,,,,,,,,,,,,,,,,,,,,,,,,,,,,,,,,,,,,,,
1720075279,4,0,4396.922852,4332.05127,4467.179688,4396.922852,4391.922852,4421.282227,4440.512695,4382.692383,4333.077148,4340,4220.128418,4460.769043,3989.230713,4222.307617,,,,,,,,,,,,,,,,,,,,,,,,,,,,,,,,,,,,,,,,,,,,,,,,,,,,,,,,,,,,,,,,,,,,,,
1720075279,5,0,4396.922852,4330.128418,4445.897461,4395.641113,4392.307617,4416.922852,4441.922852,4377.94873,4332.05127,4341.153809,4218.333496,4461.153809,3985.256348,4222.179688,,,,,,,,,,,,,,,,,,,,,,,,,,,,,,,,,,,,,,,,,,,,,,,,,,,,,,,,,,,,,,,,,,,,,,
1720075279,6,0,4396.666504,4327.179688,4413.974121,4395.128418,4388.077148,4422.307617,4443.461426,4379.358887,4334.743652,4341.922852,4222.307617,4461.666504,3985.128174,4218.846191,,,,,,,,,,,,,,,,,,,,,,,,,,,,,,,,,,,,,,,,,,,,,,,,,,,,,,,,,,,,,,,,,,,,,,
1720075279,7,0,4399.230957,4331.410156,4371.922852,4402.307617,4391.922852,4429.358887,4443.717773,4386.025879,4336.153809,4341.922852,4230.769043,4467.05127,3995.128174,4220.256348,,,,,,,,,,,,,,,,,,,,,,,,,,,,,,,,,,,,,,,,,,,,,,,,,,,,,,,,,,,,,,,,,,,,,,
1720075279,8,0,4403.717773,4340,4344.487305,4413.333496,4401.410156,4428.461426,4441.922852,4384.230957,4339.230957,4342.563965,4233.589844,4471.794922,4006.281982,4227.307617,,,,,,,,,,,,,,,,,,,,,,,,,,,,,,,,,,,,,,,,,,,,,,,,,,,,,,,,,,,,,,,,,,,,,,
1720075279,9,0,4410.384766,4337.307617,4338.333496,4413.205078,4400.256348,4423.717773,4441.922852,4383.846191,4347.692383,4344.615234,4233.846191,4476.282227,4031.538574,4238.846191,,,,,,,,,,,,,,,,,,,,,,,,,,,,,,,,,,,,,,,,,,,,,,,,,,,,,,,,,,,,,,,,,,,,,,
1720075279,10,0,4410.769043,4328.589844,4331.282227,4408.846191,4395.897461,4425.128418,4443.333496,4385,4348.333496,4342.94873,4233.461426,4471.025879,4056.538574,4240.256348,,,,,,,,,,,,,,,,,,,,,,,,,,,,,,,,,,,,,,,,,,,,,,,,,,,,,,,,,,,,,,,,,,,,,,
1720075279,11,0,4406.794922,4333.974121,4326.153809,4414.358887,4397.05127,4430.512695,4444.358887,4384.102539,4350.512695,4340.897461,4233.205078,4467.05127,4071.281982,4233.589844,,,,,,,,,,,,,,,,,,,,,,,,,,,,,,,,,,,,,,,,,,,,,,,,,,,,,,,,,,,,,,,,,,,,,,
1720075279,12,0,4402.94873,4340.128418,4328.461426,4413.333496,4396.922852,4426.025879,4443.589844,4387.307617,4359.615234,4341.794922,4232.436035,4471.410156,4094.871826,4232.563965,,,,,,,,,,,,,,,,,,,,,,,,,,,,,,,,,,,,,,,,,,,,,,,,,,,,,,,,,,,,,,,,,,,,,,
1720075279,13,0,4399.358887,4329.871582,4327.307617,4400.128418,4391.666504,4418.333496,4441.410156,4384.358887,4357.05127,4342.307617,4233.589844,4464.615234,4115.128418,4231.538574,,,,,,,,,,,,,,,,,,,,,,,,,,,,,,,,,,,,,,,,,,,,,,,,,,,,,,,,,,,,,,,,,,,,,,
1720075279,14,0,4403.077148,4324.743652,4332.307617,4401.282227,4389.230957,4422.820313,4443.974121,4383.205078,4362.307617,4343.205078,4243.461426,4460.769043,4134.487305,4238.461426,,,,,,,,,,,,,,,,,,,,,,,,,,,,,,,,,,,,,,,,,,,,,,,,,,,,,,,,,,,,,,,,,,,,,,
1720075279,15,0,4403.974121,4329.871582,4342.692383,4408.846191,4394.487305,4430.128418,4447.820313,4385.641113,4378.589844,4342.563965,4246.666504,4468.333496,4154.230957,4248.846191,,,,,,,,,,,,,,,,,,,,,,,,,,,,,,,,,,,,,,,,,,,,,,,,,,,,,,,,,,,,,,,,,,,,,,
1720075279,16,0,4395.384766,4331.538574,4346.282227,4406.538574,4397.179688,4427.179688,4444.487305,4381.153809,4379.487305,4343.205078,4239.615234,4463.589844,4159.358887,4249.230957,,,,,,,,,,,,,,,,,,,,,,,,,,,,,,,,,,,,,,,,,,,,,,,,,,,,,,,,,,,,,,,,,,,,,,
1720075279,17,0,4396.794922,4332.05127,4352.820313,4407.436035,4397.307617,4427.05127,4443.333496,4384.743652,4382.563965,4352.05127,4246.025879,4459.615234,4169.487305,4257.307617,0.778789,0.530505,0.3511,0.404629,0.227428,0.123506,0.11669,0.113017,0.132204,0.075177,45.476944,4.638791,1.477617,0.908799,0.235697,0.539205,0.371148,0.388073,0.399686,0.236497,0.335665,0.146008,0.227995,0.310809,0.192002,0.868046,0.359951,0.206044,0.296718,0.087209,0.917548,0.347373,0.210857,0.260203,0.069126,1.318722,0.848762,0.303376,0.365573,0.103652,1.40236,1.877872,0.464582,0.336433,0.16196,0.679471,0.537521,0.338226,0.383045,0.160452,1.280286,0.845709,0.663419,0.683811,0.228412,2.294635,0.811845,0.585178,0.57654,0.255429,7.552804,0.893133,0.445079,0.398848,0.211013,1.394032,0.701719,0.703341,0.478847,0.334902
1720075279,18,0,4404.102539,4334.615234,4362.94873,4416.025879,4400.641113,4431.538574,4447.563965,4392.820313,4392.94873,4355.769043,4256.282227,4468.077148,4188.846191,4268.333496,,,,,,,,,,,,,,,,,,,,,,,,,,,,,,,,,,,,,,,,,,,,,,,,,,,,,,,,,,,,,,,,,,,,,,
1720075279,19,0,4399.615234,4334.615234,4361.025879,4412.307617,4400.641113,4427.307617,4443.077148,4386.538574,4385.128418,4345.769043,4249.743652,4464.230957,4195.769043,4265.897461,,,,,,,,,,,,,,,,,,,,,,,,,,,,,,,,,,,,,,,,,,,,,,,,,,,,,,,,,,,,,,,,,,,,,,
1720075279,20,0,4393.333496,4333.333496,4356.922852,4403.333496,4401.538574,4424.358887,4438.461426,4379.871582,4372.692383,4342.05127,4245.256348,4452.179688,4196.538574,4262.563965,,,,,,,,,,,,,,,,,,,,,,,,,,,,,,,,,,,,,,,,,,,,,,,,,,,,,,,,,,,,,,,,,,,,,,
1720075279,21,0,4399.871582,4334.743652,4358.461426,4408.589844,4405.384766,4428.846191,4444.871582,4384.871582,4381.922852,4351.153809,4250.256348,4454.743652,4206.282227,4264.615234,,,,,,,,,,,,,,,,,,,,,,,,,,,,,,,,,,,,,,,,,,,,,,,,,,,,,,,,,,,,,,,,,,,,,,
1720075279,22,0,4406.282227,4335.512695,4357.436035,4413.974121,4401.025879,4426.410156,4444.102539,4385.897461,4393.974121,4353.974121,4249.871582,4461.153809,4216.153809,4267.692383,,,,,,,,,,,,,,,,,,,,,,,,,,,,,,,,,,,,,,,,,,,,,,,,,,,,,,,,,,,,,,,,,,,,,,
1720075279,23,0,4403.846191,4332.820313,4357.05127,4410.384766,4395.897461,4421.410156,4432.692383,4381.538574,4394.615234,4351.153809,4248.846191,4458.205078,4215.897461,4274.230957,,,,,,,,,,,,,,,,,,,,,,,,,,,,,,,,,,,,,,,,,,,,,,,,,,,,,,,,,,,,,,,,,,,,,,
1720075279,24,0,4404.487305,4331.153809,4364.230957,4410.769043,4399.743652,4424.871582,4430,4380.128418,4395.128418,4349.358887,4250.897461,4455.769043,4213.589844,4275,,,,,,,,,,,,,,,,,,,,,,,,,,,,,,,,,,,,,,,,,,,,,,,,,,,,,,,,,,,,,,,,,,,,,,
1720075279,25,0,4408.717773,4331.666504,4370.256348,4413.461426,4401.025879,4429.615234,4438.589844,4383.461426,4397.820313,4348.974121,4250,4460.512695,4222.05127,4269.230957,,,,,,,,,,,,,,,,,,,,,,,,,,,,,,,,,,,,,,,,,,,,,,,,,,,,,,,,,,,,,,,,,,,,,,
1720075279,26,0,4403.077148,4327.820313,4369.615234,4408.333496,4396.410156,4427.436035,4443.205078,4390.384766,4398.077148,4352.307617,4248.717773,4461.153809,4234.230957,4270.256348,,,,,,,,,,,,,,,,,,,,,,,,,,,,,,,,,,,,,,,,,,,,,,,,,,,,,,,,,,,,,,,,,,,,,,
1720075279,27,0,4395.128418,4325.897461,4367.436035,4406.666504,4396.922852,4427.692383,4443.589844,4394.871582,4401.538574,4356.153809,4254.743652,4456.538574,4234.358887,4273.589844,,,,,,,,,,,,,,,,,,,,,,,,,,,,,,,,,,,,,,,,,,,,,,,,,,,,,,,,,,,,,,,,,,,,,,
1720075279,28,0,4398.205078,4328.717773,4368.846191,4406.922852,4398.974121,4430.769043,4446.153809,4400.384766,4412.563965,4358.974121,4265.512695,4462.692383,4239.743652,4280.512695,,,,,,,,,,,,,,,,,,,,,,,,,,,,,,,,,,,,,,,,,,,,,,,,,,,,,,,,,,,,,,,,,,,,,,
1720075279,29,0,4400,4326.538574,4370.128418,4395.769043,4396.025879,4428.846191,4447.307617,4400.256348,4412.436035,4358.846191,4263.974121,4464.102539,4252.820313,4287.05127,,,,,,,,,,,,,,,,,,,,,,,,,,,,,,,,,,,,,,,,,,,,,,,,,,,,,,,,,,,,,,,,,,,,,,
1720075279,30,0,4397.692383,4324.871582,4372.563965,4397.179688,4395.128418,4425.512695,4444.102539,4389.743652,4399.230957,4349.102539,4248.461426,4448.333496,4250.641113,4282.05127,,,,,,,,,,,,,,,,,,,,,,,,,,,,,,,,,,,,,,,,,,,,,,,,,,,,,,,,,,,,,,,,,,,,,,
1720075279,31,0,4405,4332.179688,4380,4411.794922,4398.205078,4426.282227,4442.94873,4390,4398.333496,4342.179688,4247.692383,4446.794922,4250.769043,4286.410156,,,,,,,,,,,,,,,,,,,,,,,,,,,,,,,,,,,,,,,,,,,,,,,,,,,,,,,,,,,,,,,,,,,,,,
1720075279,32,0,4410,4336.538574,4382.05127,4408.846191,4399.102539,4429.102539,4446.410156,4396.153809,4402.563965,4347.820313,4258.589844,4457.179688,4262.692383,4297.563965,,,,,,,,,,,,,,,,,,,,,,,,,,,,,,,,,,,,,,,,,,,,,,,,,,,,,,,,,,,,,,,,,,,,,,
1720075279,33,0,4408.589844,4330.897461,4374.615234,4397.692383,4397.692383,4425.897461,4443.205078,4388.333496,4394.743652,4349.102539,4255.641113,4451.538574,4261.922852,4292.94873,0.711352,0.466778,0.32906,0.362479,0.225975,0.138748,0.117881,0.103393,0.124681,0.086026,32.864555,4.534171,1.422424,0.891014,0.236872,0.492436,0.341251,0.366485,0.372404,0.218119,0.29773,0.126736,0.199833,0.302876,0.198931,0.816351,0.386349,0.185372,0.278313,0.108555,0.95184,0.38958,0.207299,0.271915,0.069755,1.347231,0.780149,0.279637,0.355666,0.112548,1.330619,1.929404,0.358304,0.313336,0.167635,0.657251,0.550929,0.286494,0.380071,0.163505,1.197267,0.847786,0.596338,0.666455,0.246512,1.979159,0.793445,0.490185,0.56601,0.247474,7.650445,1.023296,0.45216,0.384966,0.214375,1.230763,0.725134,0.771521,0.482682,0.339674
1720075279,34,0,4408.077148,4326.794922,4357.692383,4395,4394.230957,4415.256348,4431.794922,4378.846191,4388.333496,4342.563965,4246.794922,4441.410156,4253.589844,4283.589844,,,,,,,,,,,,,,,,,,,,,,,,,,,,,,,,,,,,,,,,,,,,,,,,,,,,,,,,,,,,,,,,,,,,,,
1720075279,35,0,4404.230957,4326.538574,4336.153809,4390.897461,4388.461426,4410.128418,4425,4378.974121,4386.666504,4339.358887,4244.230957,4437.563965,4254.743652,4281.794922,,,,,,,,,,,,,,,,,,,,,,,,,,,,,,,,,,,,,,,,,,,,,,,,,,,,,,,,,,,,,,,,,,,,,,
1720075279,36,0,4400.897461,4330.512695,4332.307617,4392.05127,4388.461426,4417.692383,4435.256348,4385.512695,4386.794922,4342.436035,4247.05127,4438.205078,4255.897461,4287.692383,,,,,,,,,,,,,,,,,,,,,,,,,,,,,,,,,,,,,,,,,,,,,,,,,,,,,,,,,,,,,,,,,,,,,,
1720075279,37,0,4410.128418,4336.794922,4344.615234,4401.410156,4397.563965,4427.307617,4446.282227,4395.256348,4393.717773,4348.589844,4259.487305,4448.461426,4261.282227,4302.820313,,,,,,,,,,,,,,,,,,,,,,,,,,,,,,,,,,,,,,,,,,,,,,,,,,,,,,,,,,,,,,,,,,,,,,
1720075279,38,0,4417.307617,4334.615234,4346.025879,4401.794922,4402.820313,4426.025879,4438.589844,4393.077148,4395.256348,4349.487305,4266.794922,4451.410156,4271.282227,4306.153809,,,,,,,,,,,,,,,,,,,,,,,,,,,,,,,,,,,,,,,,,,,,,,,,,,,,,,,,,,,,,,,,,,,,,,
1720075279,39,0,4410,4329.358887,4337.179688,4395.512695,4396.922852,4415.512695,4427.307617,4379.230957,4385.512695,4342.436035,4253.077148,4434.358887,4267.94873,4291.666504,,,,,,,,,,,,,,,,,,,,,,,,,,,,,,,,,,,,,,,,,,,,,,,,,,,,,,,,,,,,,,,,,,,,,,
1720075279,40,0,4405.128418,4332.692383,4336.025879,4393.974121,4393.333496,4412.94873,4428.205078,4377.436035,4382.563965,4338.461426,4242.94873,4423.974121,4264.358887,4291.025879,,,,,,,,,,,,,,,,,,,,,,,,,,,,,,,,,,,,,,,,,,,,,,,,,,,,,,,,,,,,,,,,,,,,,,
1720075279,41,0,4410.769043,4339.615234,4342.820313,4399.102539,4400.897461,4426.153809,4432.179688,4384.487305,4387.692383,4342.820313,4254.743652,4433.077148,4273.077148,4297.563965,,,,,,,,,,,,,,,,,,,,,,,,,,,,,,,,,,,,,,,,,,,,,,,,,,,,,,,,,,,,,,,,,,,,,,
1720075279,42,0,4412.563965,4340.384766,4347.436035,4406.666504,4406.922852,4430.512695,4431.025879,4384.615234,4388.461426,4343.077148,4264.487305,4438.846191,4280,4294.487305,,,,,,,,,,,,,,,,,,,,,,,,,,,,,,,,,,,,,,,,,,,,,,,,,,,,,,,,,,,,,,,,,,,,,,
1720075279,43,0,4402.820313,4336.410156,4344.358887,4402.563965,4399.871582,4416.153809,4428.589844,4380.384766,4387.436035,4339.615234,4261.794922,4434.743652,4276.410156,4295,,,,,,,,,,,,,,,,,,,,,,,,,,,,,,,,,,,,,,,,,,,,,,,,,,,,,,,,,,,,,,,,,,,,,,
1720075279,44,0,4399.487305,4335.897461,4347.307617,4397.94873,4396.153809,4410.384766,4430.641113,4384.230957,4392.05127,4344.743652,4261.922852,4436.794922,4278.333496,4297.307617,,,,,,,,,,,,,,,,,,,,,,,,,,,,,,,,,,,,,,,,,,,,,,,,,,,,,,,,,,,,,,,,,,,,,,
1720075279,45,0,4408.846191,4342.179688,4364.743652,4408.205078,4404.615234,4419.871582,4440.769043,4394.615234,4398.846191,4352.94873,4268.589844,4442.436035,4295.512695,4296.794922,,,,,,,,,,,,,,,,,,,,,,,,,,,,,,,,,,,,,,,,,,,,,,,,,,,,,,,,,,,,,,,,,,,,,,
1720075279,46,0,4407.05127,4344.358887,4368.077148,4410.769043,4408.589844,4420,4445.897461,4395.641113,4399.743652,4354.102539,4267.307617,4439.102539,4301.666504,4292.94873,,,,,,,,,,,,,,,,,,,,,,,,,,,,,,,,,,,,,,,,,,,,,,,,,,,,,,,,,,,,,,,,,,,,,,
1720075279,47,0,4396.538574,4340.384766,4354.102539,4400.256348,4404.871582,4415.128418,4439.102539,4390.256348,4400.256348,4354.358887,4262.179688,4436.794922,4292.94873,4288.589844,,,,,,,,,,,,,,,,,,,,,,,,,,,,,,,,,,,,,,,,,,,,,,,,,,,,,,,,,,,,,,,,,,,,,,
1720075279,48,0,4402.307617,4340.769043,4352.436035,4397.05127,4399.230957,4411.794922,4432.307617,4388.974121,4404.230957,4355.128418,4268.333496,4443.717773,4295.384766,4295,,,,,,,,,,,,,,,,,,,,,,,,,,,,,,,,,,,,,,,,,,,,,,,,,,,,,,,,,,,,,,,,,,,,,,
1720075279,49,0,4411.666504,4339.871582,4360.128418,4399.358887,4397.05127,4405.512695,4431.666504,4386.025879,4401.410156,4349.871582,4277.179688,4446.025879,4306.025879,4308.846191,0.761399,0.413646,0.343722,0.318571,0.220396,0.154019,0.106053,0.098336,0.109321,0.096592,24.740261,4.564539,1.338214,0.824252,0.244883,0.504868,0.3035,0.338225,0.328972,0.203041,0.283762,0.125842,0.183123,0.268519,0.204784,0.735135,0.403149,0.171666,0.235151,0.128345,0.929191,0.426533,0.185111,0.264068,0.071647,1.32848,0.729297,0.243248,0.328814,0.123863,1.161993,1.871623,0.303287,0.275436,0.181715,0.631026,0.537121,0.236544,0.353189,0.171783,1.090725,0.844238,0.536038,0.627009,0.280784,1.74195,0.739707,0.403345,0.517052,0.25218,7.52232,1.116909,0.472997,0.348235,0.224128,1.11327,0.705998,0.752962,0.479943,0.345349
1720075279,50,0,4410.256348,4339.230957,4362.820313,4399.743652,4403.846191,4407.307617,4433.333496,4381.666504,4396.410156,4347.436035,4276.666504,4440,4306.153809,4313.205078,,,,,,,,,,,,,,,,,,,,,,,,,,,,,,,,,,,,,,,,,,,,,,,,,,,,,,,,,,,,,,,,,,,,,,
1720075279,51,0,4411.410156,4342.179688,4364.871582,4400.384766,4409.743652,4411.153809,4432.05127,4382.179688,4396.666504,4351.538574,4273.333496,4435,4303.077148,4306.794922,,,,,,,,,,,,,,,,,,,,,,,,,,,,,,,,,,,,,,,,,,,,,,,,,,,,,,,,,,,,,,,,,,,,,,
1720075279,52,0,4414.102539,4342.563965,4372.436035,4398.461426,4404.743652,4404.871582,4426.410156,4379.102539,4394.615234,4352.179688,4273.974121,4434.102539,4305.384766,4304.358887,,,,,,,,,,,,,,,,,,,,,,,,,,,,,,,,,,,,,,,,,,,,,,,,,,,,,,,,,,,,,,,,,,,,,,
1720075279,53,0,4414.230957,4341.794922,4384.230957,4400.512695,4401.025879,4406.153809,4426.410156,4378.846191,4396.794922,4351.794922,4278.205078,4440.641113,4311.153809,4310.512695,,,,,,,,,,,,,,,,,,,,,,,,,,,,,,,,,,,,,,,,,,,,,,,,,,,,,,,,,,,,,,,,,,,,,,
1720075279,54,0,4412.563965,4343.333496,4382.307617,4403.846191,4406.410156,4414.102539,4432.436035,4389.358887,4404.871582,4352.94873,4281.410156,4445.512695,4317.436035,4317.820313,,,,,,,,,,,,,,,,,,,,,,,,,,,,,,,,,,,,,,,,,,,,,,,,,,,,,,,,,,,,,,,,,,,,,,
1720075279,55,0,4403.717773,4345.512695,4365.128418,4398.846191,4409.487305,4409.743652,4430.512695,4387.179688,4399.615234,4352.05127,4278.461426,4437.436035,4312.307617,4315.641113,,,,,,,,,,,,,,,,,,,,,,,,,,,,,,,,,,,,,,,,,,,,,,,,,,,,,,,,,,,,,,,,,,,,,,
1720075279,56,0,4401.922852,4349.871582,4365.512695,4404.743652,4411.153809,4406.025879,4426.025879,4379.487305,4396.666504,4355.512695,4283.846191,4433.461426,4308.205078,4313.589844,,,,,,,,,,,,,,,,,,,,,,,,,,,,,,,,,,,,,,,,,,,,,,,,,,,,,,,,,,,,,,,,,,,,,,
1720075279,57,0,4419.230957,4354.230957,4377.820313,4417.05127,4413.974121,4413.333496,4430.128418,4385.384766,4408.974121,4364.102539,4297.05127,4443.974121,4315.384766,4323.461426,,,,,,,,,,,,,,,,,,,,,,,,,,,,,,,,,,,,,,,,,,,,,,,,,,,,,,,,,,,,,,,,,,,,,,
1720075280,58,0,4427.563965,4348.974121,4366.282227,4407.820313,4407.563965,4413.846191,4432.436035,4385,4405.641113,4360.897461,4291.922852,4443.974121,4310.256348,4325.384766,,,,,,,,,,,,,,,,,,,,,,,,,,,,,,,,,,,,,,,,,,,,,,,,,,,,,,,,,,,,,,,,,,,,,,
1720075280,59,0,4420.641113,4341.666504,4343.077148,4392.436035,4397.307617,4407.436035,4428.846191,4374.615234,4394.358887,4347.94873,4275.512695,4425.769043,4301.410156,4309.358887,,,,,,,,,,,,,,,,,,,,,,,,,,,,,,,,,,,,,,,,,,,,,,,,,,,,,,,,,,,,,,,,,,,,,,
1720075280,60,0,4424.102539,4344.615234,4331.666504,4394.487305,4397.436035,4408.589844,4427.307617,4376.922852,4398.717773,4348.461426,4276.666504,4421.025879,4306.794922,4304.230957,,,,,,,,,,,,,,,,,,,,,,,,,,,,,,,,,,,,,,,,,,,,,,,,,,,,,,,,,,,,,,,,,,,,,,
1720075280,61,0,4431.153809,4350.769043,4327.307617,4398.717773,4401.922852,4413.589844,4429.871582,4385.769043,4402.692383,4356.025879,4284.487305,4431.153809,4310.897461,4312.94873,,,,,,,,,,,,,,,,,,,,,,,,,,,,,,,,,,,,,,,,,,,,,,,,,,,,,,,,,,,,,,,,,,,,,,
1720075280,62,0,4431.153809,4352.179688,4326.922852,4394.102539,4398.461426,4411.922852,4429.743652,4383.077148,4400.769043,4351.538574,4279.230957,4426.666504,4307.94873,4308.589844,,,,,,,,,,,,,,,,,,,,,,,,,,,,,,,,,,,,,,,,,,,,,,,,,,,,,,,,,,,,,,,,,,,,,,
1720075280,63,0,4437.820313,4354.102539,4338.333496,4398.974121,4399.487305,4414.871582,4427.94873,4381.153809,4406.153809,4351.410156,4279.487305,4426.025879,4308.589844,4304.358887,,,,,,,,,,,,,,,,,,,,,,,,,,,,,,,,,,,,,,,,,,,,,,,,,,,,,,,,,,,,,,,,,,,,,,
1720075280,64,0,4450.641113,4359.358887,4356.538574,4412.563965,4410.512695,4427.307617,4432.179688,4391.666504,4412.436035,4362.692383,4294.102539,4448.717773,4311.025879,4325.384766,,,,,,,,,,,,,,,,,,,,,,,,,,,,,,,,,,,,,,,,,,,,,,,,,,,,,,,,,,,,,,,,,,,,,,
1720075280,65,0,4453.974121,4358.589844,4365.512695,4416.025879,4413.333496,4427.436035,4436.794922,4399.102539,4408.846191,4365.769043,4306.666504,4465,4316.794922,4344.358887,0.915074,0.378228,0.394073,0.28755,0.2114,0.175133,0.089356,0.092799,0.090302,0.1045,21.885757,5.076539,1.264896,0.742572,0.254319,0.560719,0.273485,0.320597,0.285097,0.193774,0.292201,0.131688,0.17866,0.220343,0.207615,0.639589,0.393575,0.171844,0.180637,0.142779,0.849562,0.443386,0.156039,0.242464,0.074885,1.243422,0.677757,0.214464,0.29738,0.135589,0.96358,1.74099,0.300954,0.235203,0.200491,0.591111,0.487905,0.200415,0.310322,0.182246,0.955042,0.828206,0.512706,0.597532,0.321774,1.602263,0.651284,0.350091,0.452579,0.267289,7.325916,1.178513,0.502012,0.300584,0.235285,1.076202,0.651159,0.659716,0.468817,0.345825
1720075280,66,0,4451.794922,4355.256348,4367.563965,4408.846191,4409.871582,4412.563965,4431.666504,4393.846191,4401.153809,4357.563965,4305.384766,4456.922852,4319.102539,4343.205078,,,,,,,,,,,,,,,,,,,,,,,,,,,,,,,,,,,,,,,,,,,,,,,,,,,,,,,,,,,,,,,,,,,,,,
1720075280,67,0,4454.487305,4359.615234,4380.897461,4408.461426,4411.025879,4413.717773,4427.307617,4388.461426,4398.333496,4355.897461,4303.333496,4451.153809,4315.384766,4342.307617,,,,,,,,,,,,,,,,,,,,,,,,,,,,,,,,,,,,,,,,,,,,,,,,,,,,,,,,,,,,,,,,,,,,,,
1720075280,68,0,4461.410156,4363.077148,4397.94873,4417.820313,4412.307617,4429.358887,4432.94873,4395.512695,4404.743652,4364.230957,4314.871582,4460.641113,4322.307617,4352.563965,,,,,,,,,,,,,,,,,,,,,,,,,,,,,,,,,,,,,,,,,,,,,,,,,,,,,,,,,,,,,,,,,,,,,,
1720075280,69,0,4464.487305,4359.871582,4394.358887,4421.153809,4411.025879,4428.974121,4434.487305,4400.128418,4409.230957,4370.641113,4322.563965,4464.102539,4323.589844,4356.153809,,,,,,,,,,,,,,,,,,,,,,,,,,,,,,,,,,,,,,,,,,,,,,,,,,,,,,,,,,,,,,,,,,,,,,
1720075280,70,0,4460.384766,4361.025879,4383.077148,4415.384766,4411.922852,4418.461426,4428.333496,4394.615234,4402.05127,4367.563965,4315.769043,4459.615234,4314.487305,4347.05127,,,,,,,,,,,,,,,,,,,,,,,,,,,,,,,,,,,,,,,,,,,,,,,,,,,,,,,,,,,,,,,,,,,,,,
1720075280,71,0,4452.05127,4365.128418,4383.717773,4411.922852,4412.436035,4422.05127,4427.820313,4390.256348,4398.205078,4360.897461,4309.615234,4456.410156,4316.666504,4339.871582,,,,,,,,,,,,,,,,,,,,,,,,,,,,,,,,,,,,,,,,,,,,,,,,,,,,,,,,,,,,,,,,,,,,,,
1720075280,72,0,4448.461426,4363.333496,4374.615234,4413.846191,4412.436035,4429.615234,4429.615234,4388.717773,4398.846191,4360.256348,4312.05127,4453.333496,4318.205078,4339.102539,,,,,,,,,,,,,,,,,,,,,,,,,,,,,,,,,,,,,,,,,,,,,,,,,,,,,,,,,,,,,,,,,,,,,,
1720075280,73,0,4452.307617,4362.563965,4338.461426,4413.333496,4412.307617,4423.717773,4429.102539,4387.692383,4393.846191,4356.666504,4306.794922,4445.641113,4311.282227,4335.128418,,,,,,,,,,,,,,,,,,,,,,,,,,,,,,,,,,,,,,,,,,,,,,,,,,,,,,,,,,,,,,,,,,,,,,
1720075280,74,0,4451.025879,4364.871582,4296.410156,4410.641113,4405.897461,4416.153809,4428.077148,4384.102539,4381.410156,4345.256348,4294.743652,4434.102539,4308.077148,4325.128418,,,,,,,,,,,,,,,,,,,,,,,,,,,,,,,,,,,,,,,,,,,,,,,,,,,,,,,,,,,,,,,,,,,,,,
1720075280,75,0,4442.307617,4365.128418,4270.256348,4410.128418,4400.384766,4415.128418,4422.563965,4378.205078,4376.410156,4341.666504,4289.871582,4424.230957,4304.487305,4323.589844,,,,,,,,,,,,,,,,,,,,,,,,,,,,,,,,,,,,,,,,,,,,,,,,,,,,,,,,,,,,,,,,,,,,,,
1720075280,76,0,4433.846191,4364.102539,4260,4407.179688,4404.615234,4413.974121,4418.461426,4377.563965,4384.871582,4351.538574,4292.307617,4425,4299.743652,4333.717773,,,,,,,,,,,,,,,,,,,,,,,,,,,,,,,,,,,,,,,,,,,,,,,,,,,,,,,,,,,,,,,,,,,,,,
1720075280,77,0,4432.820313,4367.94873,4262.179688,4405.384766,4409.743652,4418.846191,4425.256348,4387.94873,4398.333496,4363.333496,4308.333496,4441.666504,4310.512695,4345.512695,,,,,,,,,,,,,,,,,,,,,,,,,,,,,,,,,,,,,,,,,,,,,,,,,,,,,,,,,,,,,,,,,,,,,,
1720075280,78,0,4446.282227,4378.077148,4273.077148,4418.461426,4412.436035,4428.333496,4431.538574,4398.461426,4408.077148,4373.333496,4330.512695,4458.461426,4327.820313,4363.717773,,,,,,,,,,,,,,,,,,,,,,,,,,,,,,,,,,,,,,,,,,,,,,,,,,,,,,,,,,,,,,,,,,,,,,
1720075280,79,0,4459.871582,4380.512695,4280,4429.102539,4416.666504,4429.358887,4429.615234,4396.025879,4406.153809,4380,4337.563965,4462.307617,4334.230957,4378.077148,,,,,,,,,,,,,,,,,,,,,,,,,,,,,,,,,,,,,,,,,,,,,,,,,,,,,,,,,,,,,,,,,,,,,,
1720075280,80,0,4449.487305,4370.641113,4281.794922,4421.666504,4420.641113,4427.179688,4428.589844,4387.179688,4397.820313,4375.512695,4330.384766,4460.128418,4329.230957,4371.538574,,,,,,,,,,,,,,,,,,,,,,,,,,,,,,,,,,,,,,,,,,,,,,,,,,,,,,,,,,,,,,,,,,,,,,
1720075280,81,0,4441.922852,4373.205078,4285.897461,4421.153809,4424.102539,4430.256348,4429.615234,4383.589844,4394.871582,4368.333496,4325.897461,4460.641113,4322.05127,4358.846191,1.070593,0.367326,0.463019,0.2757,0.20003,0.187677,0.076777,0.083934,0.073039,0.10899,23.366371,6.219828,1.213725,0.679711,0.258324,0.66762,0.267401,0.320029,0.255208,0.19037,0.320957,0.148296,0.180679,0.172479,0.20478,0.541042,0.361321,0.186307,0.130152,0.151208,0.724922,0.439653,0.135467,0.216271,0.080404,1.093771,0.629651,0.213989,0.27111,0.146445,0.829795,1.59898,0.333494,0.204848,0.21787,0.536011,0.417247,0.186199,0.262838,0.190444,0.81308,0.810913,0.529202,0.599478,0.35735,1.583203,0.557203,0.338242,0.39637,0.286828,7.48966,1.236036,0.530344,0.255661,0.242044,1.074578,0.592241,0.530115,0.458213,0.336637
1720075280,82,0,4455.897461,4384.615234,4284.871582,4430.256348,4423.717773,4427.179688,4428.974121,4384.743652,4399.871582,4367.436035,4322.307617,4457.179688,4324.102539,4361.025879,,,,,,,,,,,,,,,,,,,,,,,,,,,,,,,,,,,,,,,,,,,,,,,,,,,,,,,,,,,,,,,,,,,,,,
1720075280,83,0,4458.461426,4382.307617,4277.05127,4423.461426,4415.897461,4415.512695,4426.666504,4377.820313,4393.846191,4361.666504,4309.743652,4442.94873,4317.307617,4357.436035,,,,,,,,,,,,,,,,,,,,,,,,,,,,,,,,,,,,,,,,,,,,,,,,,,,,,,,,,,,,,,,,,,,,,,
1720075280,84,0,4444.615234,4377.307617,4281.025879,4415,4412.563965,4410.256348,4425,4368.846191,4380.128418,4355.512695,4300.256348,4440.384766,4299.743652,4344.487305,,,,,,,,,,,,,,,,,,,,,,,,,,,,,,,,,,,,,,,,,,,,,,,,,,,,,,,,,,,,,,,,,,,,,,
1720075280,85,0,4441.410156,4387.436035,4297.436035,4424.230957,4421.410156,4414.230957,4427.436035,4374.871582,4384.358887,4360,4305.128418,4451.410156,4302.05127,4352.179688,,,,,,,,,,,,,,,,,,,,,,,,,,,,,,,,,,,,,,,,,,,,,,,,,,,,,,,,,,,,,,,,,,,,,,
1720075280,86,0,4448.205078,4395.641113,4307.307617,4430.641113,4430.128418,4416.666504,4428.205078,4383.205078,4391.794922,4363.974121,4311.153809,4450.128418,4313.589844,4362.307617,,,,,,,,,,,,,,,,,,,,,,,,,,,,,,,,,,,,,,,,,,,,,,,,,,,,,,,,,,,,,,,,,,,,,,
1720075280,87,0,4446.282227,4392.05127,4310.897461,4428.077148,4428.717773,4415.128418,4426.666504,4385.256348,4390,4365,4312.05127,4446.538574,4306.666504,4359.230957,,,,,,,,,,,,,,,,,,,,,,,,,,,,,,,,,,,,,,,,,,,,,,,,,,,,,,,,,,,,,,,,,,,,,,
1720075280,88,0,4439.871582,4386.922852,4320.256348,4428.717773,4422.179688,4413.846191,4427.179688,4385.769043,4392.05127,4370,4316.025879,4456.666504,4301.153809,4359.743652,,,,,,,,,,,,,,,,,,,,,,,,,,,,,,,,,,,,,,,,,,,,,,,,,,,,,,,,,,,,,,,,,,,,,,
1720075280,89,0,4441.410156,4387.307617,4336.794922,4425.512695,4419.358887,4413.717773,4429.358887,4389.358887,4399.487305,4375,4325.641113,4464.871582,4314.102539,4362.563965,,,,,,,,,,,,,,,,,,,,,,,,,,,,,,,,,,,,,,,,,,,,,,,,,,,,,,,,,,,,,,,,,,,,,,
1720075280,90,0,4446.538574,4394.102539,4355,4419.615234,4420.512695,4413.589844,4434.487305,4396.794922,4402.179688,4377.692383,4333.717773,4466.025879,4326.794922,4363.974121,,,,,,,,,,,,,,,,,,,,,,,,,,,,,,,,,,,,,,,,,,,,,,,,,,,,,,,,,,,,,,,,,,,,,,
1720075280,91,0,4439.102539,4393.974121,4356.153809,4411.538574,4417.05127,4411.282227,4434.102539,4395.256348,4396.666504,4369.871582,4329.615234,4456.666504,4319.871582,4359.102539,,,,,,,,,,,,,,,,,,,,,,,,,,,,,,,,,,,,,,,,,,,,,,,,,,,,,,,,,,,,,,,,,,,,,,
1720075280,92,0,4428.205078,4388.589844,4349.358887,4406.025879,4412.94873,4409.871582,4430,4386.025879,4390.641113,4358.974121,4321.538574,4441.538574,4311.153809,4349.230957,,,,,,,,,,,,,,,,,,,,,,,,,,,,,,,,,,,,,,,,,,,,,,,,,,,,,,,,,,,,,,,,,,,,,,
1720075280,93,0,4437.05127,4392.820313,4366.025879,4412.05127,4415.128418,4413.205078,4432.179688,4389.615234,4393.461426,4363.333496,4325.641113,4447.436035,4319.358887,4350.897461,,,,,,,,,,,,,,,,,,,,,,,,,,,,,,,,,,,,,,,,,,,,,,,,,,,,,,,,,,,,,,,,,,,,,,
1720075280,94,0,4447.94873,4401.282227,4393.333496,4419.871582,4416.794922,4414.230957,4433.333496,4396.410156,4401.666504,4373.974121,4331.282227,4463.333496,4326.538574,4363.333496,,,,,,,,,,,,,,,,,,,,,,,,,,,,,,,,,,,,,,,,,,,,,,,,,,,,,,,,,,,,,,,,,,,,,,
1720075280,95,0,4447.692383,4397.563965,4401.538574,4417.307617,4414.871582,4410.769043,4425.769043,4388.589844,4401.025879,4371.666504,4327.307617,4459.871582,4325.384766,4368.205078,,,,,,,,,,,,,,,,,,,,,,,,,,,,,,,,,,,,,,,,,,,,,,,,,,,,,,,,,,,,,,,,,,,,,,
1720075280,96,0,4450.384766,4392.692383,4401.666504,4413.333496,4413.846191,4411.922852,4424.871582,4389.615234,4399.871582,4365.256348,4325.384766,4457.307617,4334.358887,4369.230957,,,,,,,,,,,,,,,,,,,,,,,,,,,,,,,,,,,,,,,,,,,,,,,,,,,,,,,,,,,,,,,,,,,,,,
1720075280,97,0,4450.128418,4397.563965,4404.743652,4415.128418,4412.307617,4413.589844,4432.179688,4400.256348,4401.410156,4366.922852,4322.563965,4459.615234,4346.282227,4369.871582,1.170785,0.383448,0.519595,0.279787,0.188651,0.196441,0.074252,0.073039,0.062255,0.110462,26.690142,7.886074,1.166091,0.658944,0.254703,0.762397,0.28845,0.327309,0.247029,0.191375,0.349923,0.177557,0.182786,0.13578,0.195073,0.449852,0.320038,0.209285,0.096933,0.157061,0.581862,0.424244,0.136595,0.193138,0.089312,0.909817,0.597077,0.253487,0.252865,0.156417,0.839871,1.479563,0.374585,0.192419,0.22862,0.485165,0.348074,0.197216,0.221145,0.193058,0.706873,0.803375,0.558076,0.627564,0.37861,1.604689,0.498801,0.355328,0.363041,0.305767,8.27734,1.296952,0.537972,0.219933,0.241203,1.070197,0.581647,0.404371,0.453959,0.319005
1720075280,98,0,4434.102539,4396.922852,4399.358887,4408.077148,4406.153809,4406.410156,4426.794922,4391.025879,4397.05127,4364.743652,4309.615234,4445.256348,4354.102539,4356.538574,,,,,,,,,,,,,,,,,,,,,,,,,,,,,,,,,,,,,,,,,,,,,,,,,,,,,,,,,,,,,,,,,,,,,,
1720075280,99,0,4423.846191,4391.922852,4394.487305,4396.282227,4399.615234,4401.153809,4417.05127,4380.641113,4396.922852,4360,4306.794922,4437.179688,4375.769043,4345.256348,,,,,,,,,,,,,,,,,,,,,,,,,,,,,,,,,,,,,,,,,,,,,,,,,,,,,,,,,,,,,,,,,,,,,,
1720075280,100,0,4434.102539,4393.974121,4398.589844,4400,4393.974121,4405.384766,4420.128418,4384.743652,4403.974121,4357.820313,4312.436035,4446.153809,4400.128418,4345.512695,,,,,,,,,,,,,,,,,,,,,,,,,,,,,,,,,,,,,,,,,,,,,,,,,,,,,,,,,,,,,,,,,,,,,,
1720075280,101,0,4438.717773,4398.205078,4396.666504,4404.615234,4388.846191,4411.666504,4426.538574,4385.897461,4409.358887,4358.205078,4309.615234,4446.025879,4416.538574,4347.820313,,,,,,,,,,,,,,,,,,,,,,,,,,,,,,,,,,,,,,,,,,,,,,,,,,,,,,,,,,,,,,,,,,,,,,
1720075280,102,0,4427.307617,4395.641113,4390,4395,4390.512695,4411.794922,4422.563965,4379.487305,4409.230957,4359.230957,4305.641113,4434.358887,4434.230957,4347.820313,,,,,,,,,,,,,,,,,,,,,,,,,,,,,,,,,,,,,,,,,,,,,,,,,,,,,,,,,,,,,,,,,,,,,,
1720075280,103,0,4420.769043,4393.974121,4388.205078,4388.205078,4394.487305,4407.307617,4411.794922,4371.282227,4401.922852,4349.230957,4297.692383,4424.871582,4445.897461,4337.05127,,,,,,,,,,,,,,,,,,,,,,,,,,,,,,,,,,,,,,,,,,,,,,,,,,,,,,,,,,,,,,,,,,,,,,
1720075280,104,0,4428.077148,4398.717773,4393.589844,4394.743652,4396.025879,4407.820313,4410.128418,4367.692383,4397.05127,4339.358887,4287.692383,4423.717773,4457.05127,4334.358887,,,,,,,,,,,,,,,,,,,,,,,,,,,,,,,,,,,,,,,,,,,,,,,,,,,,,,,,,,,,,,,,,,,,,,
1720075280,105,0,4434.487305,4401.666504,4405.641113,4400.641113,4399.487305,4414.230957,4418.333496,4372.179688,4405.384766,4346.538574,4295.769043,4431.153809,4472.820313,4348.077148,,,,,,,,,,,,,,,,,,,,,,,,,,,,,,,,,,,,,,,,,,,,,,,,,,,,,,,,,,,,,,,,,,,,,,
1720075280,106,0,4430.384766,4400.512695,4415.256348,4402.05127,4401.794922,4414.358887,4421.922852,4377.307617,4413.717773,4353.589844,4307.05127,4437.307617,4487.179688,4352.05127,,,,,,,,,,,,,,,,,,,,,,,,,,,,,,,,,,,,,,,,,,,,,,,,,,,,,,,,,,,,,,,,,,,,,,
1720075280,107,0,4417.307617,4398.974121,4413.589844,4398.974121,4397.179688,4408.205078,4415.897461,4374.743652,4409.358887,4343.333496,4301.538574,4432.563965,4493.333496,4341.410156,,,,,,,,,,,,,,,,,,,,,,,,,,,,,,,,,,,,,,,,,,,,,,,,,,,,,,,,,,,,,,,,,,,,,,
1720075280,108,0,4414.871582,4402.179688,4413.846191,4396.666504,4396.538574,4408.205078,4412.820313,4375.641113,4406.410156,4343.077148,4301.794922,4434.487305,4501.025879,4341.922852,,,,,,,,,,,,,,,,,,,,,,,,,,,,,,,,,,,,,,,,,,,,,,,,,,,,,,,,,,,,,,,,,,,,,,
1720075280,109,0,4429.615234,4403.333496,4417.307617,4402.436035,4401.922852,4413.461426,4419.358887,4384.102539,4413.333496,4356.922852,4315.384766,4446.153809,4515.769043,4353.589844,,,,,,,,,,,,,,,,,,,,,,,,,,,,,,,,,,,,,,,,,,,,,,,,,,,,,,,,,,,,,,,,,,,,,,
1720075280,110,0,4427.820313,4400.512695,4399.358887,4402.436035,4398.717773,4412.563965,4422.436035,4386.666504,4416.153809,4351.794922,4311.282227,4444.230957,4518.974121,4351.794922,,,,,,,,,,,,,,,,,,,,,,,,,,,,,,,,,,,,,,,,,,,,,,,,,,,,,,,,,,,,,,,,,,,,,,
1720075280,111,0,4410.897461,4401.666504,4374.487305,4394.358887,4392.563965,4409.102539,4417.563965,4380,4408.717773,4341.666504,4296.282227,4433.717773,4513.461426,4343.461426,,,,,,,,,,,,,,,,,,,,,,,,,,,,,,,,,,,,,,,,,,,,,,,,,,,,,,,,,,,,,,,,,,,,,,
1720075280,112,0,4410.384766,4404.743652,4370.769043,4395,4396.794922,4410.512695,4413.846191,4375.641113,4403.205078,4347.692383,4296.538574,4435.384766,4519.487305,4341.666504,,,,,,,,,,,,,,,,,,,,,,,,,,,,,,,,,,,,,,,,,,,,,,,,,,,,,,,,,,,,,,,,,,,,,,
1720075280,113,0,4416.153809,4408.205078,4365.641113,4400.384766,4402.179688,4413.974121,4414.487305,4376.538574,4407.563965,4350.512695,4298.974121,4435.256348,4529.487305,4345.384766,1.209684,0.428986,0.537439,0.291255,0.181514,0.196292,0.083004,0.063755,0.060052,0.110387,30.291306,9.683973,1.11648,0.687636,0.248171,0.842558,0.337631,0.330066,0.259661,0.195844,0.381644,0.220568,0.183635,0.116103,0.180288,0.372223,0.284576,0.235956,0.087185,0.165965,0.45402,0.401915,0.162827,0.176108,0.101764,0.738604,0.579265,0.334465,0.2378,0.166184,1.001722,1.38643,0.416644,0.19937,0.230777,0.448691,0.305014,0.24568,0.193075,0.189081,0.635664,0.835782,0.58926,0.658406,0.383019,1.621645,0.52129,0.395955,0.35664,0.321397,9.543816,1.370477,0.516551,0.194505,0.233616,1.038237,0.699799,0.327826,0.458967,0.29952
1720075280,114,0,4410.128418,4408.333496,4348.717773,4397.307617,4398.717773,4413.717773,4414.615234,4373.333496,4410.128418,4345.641113,4292.94873,4425.256348,4526.410156,4346.025879,,,,,,,,,,,,,,,,,,,,,,,,,,,,,,,,,,,,,,,,,,,,,,,,,,,,,,,,,,,,,,,,,,,,,,
1720075280,115,0,4407.820313,4406.153809,4336.538574,4389.871582,4393.077148,4412.692383,4411.922852,4370.512695,4410,4346.410156,4295.769043,4428.974121,4526.666504,4348.077148,,,,,,,,,,,,,,,,,,,,,,,,,,,,,,,,,,,,,,,,,,,,,,,,,,,,,,,,,,,,,,,,,,,,,,
1720075280,116,0,4419.230957,4408.205078,4336.282227,4389.487305,4395.641113,4411.922852,4409.743652,4377.436035,4421.025879,4355.897461,4313.461426,4442.692383,4538.974121,4360.512695,,,,,,,,,,,,,,,,,,,,,,,,,,,,,,,,,,,,,,,,,,,,,,,,,,,,,,,,,,,,,,,,,,,,,,
1720075280,117,0,4429.487305,4413.846191,4342.436035,4400.384766,4402.05127,4412.179688,4411.794922,4386.282227,4432.692383,4363.717773,4323.205078,4447.692383,4546.410156,4366.922852,,,,,,,,,,,,,,,,,,,,,,,,,,,,,,,,,,,,,,,,,,,,,,,,,,,,,,,,,,,,,,,,,,,,,,
1720075280,118,0,4434.871582,4413.589844,4351.410156,4407.179688,4403.333496,4412.05127,4415.641113,4387.563965,4429.871582,4362.820313,4317.307617,4445.897461,4551.025879,4365.256348,,,,,,,,,,,,,,,,,,,,,,,,,,,,,,,,,,,,,,,,,,,,,,,,,,,,,,,,,,,,,,,,,,,,,,
1720075280,119,0,4443.077148,4411.153809,4361.025879,4402.05127,4402.436035,4411.794922,4416.282227,4385.769043,4427.820313,4358.589844,4312.307617,4447.692383,4558.846191,4368.974121,,,,,,,,,,,,,,,,,,,,,,,,,,,,,,,,,,,,,,,,,,,,,,,,,,,,,,,,,,,,,,,,,,,,,,
1720075280,120,0,4448.461426,4415.512695,4367.563965,4405.128418,4405.128418,4410.769043,4413.333496,4386.666504,4430.128418,4359.487305,4315.128418,4451.025879,4561.410156,4372.436035,,,,,,,,,,,,,,,,,,,,,,,,,,,,,,,,,,,,,,,,,,,,,,,,,,,,,,,,,,,,,,,,,,,,,,
1720075280,121,0,4445.769043,4418.205078,4368.717773,4411.410156,4405.384766,4407.563965,4411.922852,4386.538574,4422.94873,4360.384766,4315.769043,4448.589844,4562.820313,4366.922852,,,,,,,,,,,,,,,,,,,,,,,,,,,,,,,,,,,,,,,,,,,,,,,,,,,,,,,,,,,,,,,,,,,,,,
1720075280,122,0,4443.846191,4419.102539,4371.410156,4406.282227,4401.153809,4405.256348,4413.461426,4382.820313,4413.717773,4357.94873,4312.179688,4445.256348,4563.846191,4363.974121,,,,,,,,,,,,,,,,,,,,,,,,,,,,,,,,,,,,,,,,,,,,,,,,,,,,,,,,,,,,,,,,,,,,,,
1720075280,123,0,4447.307617,4418.974121,4378.717773,4401.025879,4401.410156,4401.922852,4412.692383,4380.384766,4412.563965,4357.820313,4313.974121,4447.179688,4557.307617,4371.025879,,,,,,,,,,,,,,,,,,,,,,,,,,,,,,,,,,,,,,,,,,,,,,,,,,,,,,,,,,,,,,,,,,,,,,
1720075280,124,0,4448.974121,4417.692383,4373.974121,4400.897461,4406.666504,4399.615234,4406.538574,4384.230957,4414.615234,4358.077148,4321.282227,4451.538574,4559.102539,4377.820313,,,,,,,,,,,,,,,,,,,,,,,,,,,,,,,,,,,,,,,,,,,,,,,,,,,,,,,,,,,,,,,,,,,,,,
1720075280,125,0,4450.128418,4418.205078,4354.615234,4397.94873,4405,4400.128418,4402.179688,4386.282227,4414.102539,4357.563965,4319.358887,4450.256348,4563.461426,4380.384766,,,,,,,,,,,,,,,,,,,,,,,,,,,,,,,,,,,,,,,,,,,,,,,,,,,,,,,,,,,,,,,,,,,,,,
1720075280,126,0,4449.487305,4421.025879,4338.077148,4394.615234,4397.94873,4398.974121,4405.897461,4385.641113,4415.512695,4359.230957,4314.358887,4448.589844,4558.846191,4389.487305,,,,,,,,,,,,,,,,,,,,,,,,,,,,,,,,,,,,,,,,,,,,,,,,,,,,,,,,,,,,,,,,,,,,,,
1720075280,127,0,4444.871582,4426.025879,4330.128418,4400.897461,4398.846191,4400.384766,4411.410156,4387.563965,4420.769043,4359.230957,4320.128418,4446.794922,4559.102539,4398.461426,,,,,,,,,,,,,,,,,,,,,,,,,,,,,,,,,,,,,,,,,,,,,,,,,,,,,,,,,,,,,,,,,,,,,,
1720075280,0,0,4447.820313,4429.871582,4327.820313,4409.230957,4409.102539,4406.410156,4410.897461,4390,4422.307617,4358.974121,4326.538574,4443.205078,4562.692383,4394.102539,,,,,,,,,,,,,,,,,,,,,,,,,,,,,,,,,,,,,,,,,,,,,,,,,,,,,,,,,,,,,,,,,,,,,,
1720075280,1,0,4455.769043,4430,4326.666504,4411.794922,4415,4411.666504,4405.128418,4390.897461,4423.461426,4364.358887,4324.743652,4445.641113,4561.538574,4394.230957,1.271917,0.506241,0.509613,0.302127,0.183877,0.189363,0.09788,0.06019,0.065486,0.11107,33.708279,11.205155,1.085356,0.755145,0.246935,0.871694,0.409791,0.327315,0.285806,0.203287,0.420427,0.276316,0.189021,0.113996,0.164367,0.318331,0.267389,0.261855,0.098381,0.181186,0.357442,0.377393,0.204629,0.163085,0.116322,0.626956,0.575748,0.448437,0.218608,0.176843,1.234775,1.301104,0.464733,0.221646,0.22598,0.425273,0.315965,0.347631,0.183171,0.180349,0.586939,0.974411,0.642597,0.667578,0.373345,1.62052,0.666493,0.472058,0.376731,0.332908,10.980053,1.456779,0.485647,0.176684,0.223699,0.929723,1.017429,0.350288,0.472717,0.284865
1720075280,2,0,4457.563965,4428.461426,4320.512695,4410.512695,4413.846191,4411.153809,4404.743652,4390,4429.615234,4369.102539,4327.820313,4449.487305,4560.512695,4404.102539,,,,,,,,,,,,,,,,,,,,,,,,,,,,,,,,,,,,,,,,,,,,,,,,,,,,,,,,,,,,,,,,,,,,,,
1720075280,3,0,4457.179688,4427.436035,4312.820313,4411.282227,4413.333496,4408.846191,4409.358887,4390.384766,4431.538574,4363.974121,4337.563965,4454.230957,4563.846191,4404.230957,,,,,,,,,,,,,,,,,,,,,,,,,,,,,,,,,,,,,,,,,,,,,,,,,,,,,,,,,,,,,,,,,,,,,,
1720075280,4,0,4455.512695,4427.94873,4303.205078,4408.717773,4414.102539,4405.512695,4407.94873,4392.563965,4427.820313,4356.794922,4335.512695,4455.512695,4561.922852,4398.461426,,,,,,,,,,,,,,,,,,,,,,,,,,,,,,,,,,,,,,,,,,,,,,,,,,,,,,,,,,,,,,,,,,,,,,
1720075280,5,0,4446.538574,4428.461426,4297.820313,4402.692383,4413.333496,4404.487305,4404.230957,4391.282227,4429.230957,4356.922852,4329.358887,4449.487305,4558.461426,4398.846191,,,,,,,,,,,,,,,,,,,,,,,,,,,,,,,,,,,,,,,,,,,,,,,,,,,,,,,,,,,,,,,,,,,,,,
1720075280,6,0,4441.282227,4429.230957,4303.974121,4403.589844,4412.563965,4406.538574,4404.487305,4387.692383,4432.692383,4361.282227,4333.461426,4451.282227,4565.256348,4400.769043,,,,,,,,,,,,,,,,,,,,,,,,,,,,,,,,,,,,,,,,,,,,,,,,,,,,,,,,,,,,,,,,,,,,,,
1720075280,7,0,4443.846191,4429.230957,4302.563965,4400.897461,4411.282227,4400.641113,4400.512695,4388.717773,4432.436035,4364.487305,4332.692383,4455.256348,4570,4397.820313,,,,,,,,,,,,,,,,,,,,,,,,,,,,,,,,,,,,,,,,,,,,,,,,,,,,,,,,,,,,,,,,,,,,,,
1720075280,8,0,4441.794922,4429.358887,4293.333496,4396.666504,4413.205078,4397.05127,4395.641113,4391.922852,4430.641113,4365.256348,4328.077148,4447.05127,4569.358887,4399.230957,,,,,,,,,,,,,,,,,,,,,,,,,,,,,,,,,,,,,,,,,,,,,,,,,,,,,,,,,,,,,,,,,,,,,,
1720075280,9,0,4440.641113,4429.615234,4299.358887,4400.641113,4417.436035,4402.179688,4400.897461,4393.974121,4429.102539,4365.384766,4335.256348,4443.461426,4572.692383,4405.384766,,,,,,,,,,,,,,,,,,,,,,,,,,,,,,,,,,,,,,,,,,,,,,,,,,,,,,,,,,,,,,,,,,,,,,
1720075280,10,0,4444.615234,4428.846191,4316.794922,4400.128418,4410.128418,4402.179688,4405.769043,4398.974121,4431.538574,4367.94873,4343.461426,4454.871582,4578.333496,4405.641113,,,,,,,,,,,,,,,,,,,,,,,,,,,,,,,,,,,,,,,,,,,,,,,,,,,,,,,,,,,,,,,,,,,,,,
1720075280,11,0,4448.205078,4432.692383,4327.94873,4397.692383,4400.128418,4395.897461,4399.871582,4397.307617,4429.743652,4364.358887,4339.102539,4457.179688,4575.256348,4401.282227,,,,,,,,,,,,,,,,,,,,,,,,,,,,,,,,,,,,,,,,,,,,,,,,,,,,,,,,,,,,,,,,,,,,,,
1720075280,12,0,4456.025879,4438.589844,4338.333496,4408.205078,4403.589844,4394.871582,4399.358887,4386.922852,4422.05127,4355.769043,4340,4453.974121,4572.179688,4409.358887,,,,,,,,,,,,,,,,,,,,,,,,,,,,,,,,,,,,,,,,,,,,,,,,,,,,,,,,,,,,,,,,,,,,,,
1720075280,13,0,4468.461426,4439.358887,4350.769043,4415.769043,4411.153809,4403.333496,4410.641113,4388.205078,4421.922852,4357.94873,4351.538574,4460.897461,4577.307617,4427.05127,,,,,,,,,,,,,,,,,,,,,,,,,,,,,,,,,,,,,,,,,,,,,,,,,,,,,,,,,,,,,,,,,,,,,,
1720075280,14,0,4471.282227,4435,4355.256348,4409.871582,4412.692383,4411.153809,4414.743652,4396.153809,4430.128418,4366.666504,4358.205078,4465.641113,4578.717773,4433.333496,,,,,,,,,,,,,,,,,,,,,,,,,,,,,,,,,,,,,,,,,,,,,,,,,,,,,,,,,,,,,,,,,,,,,,
1720075280,15,0,4462.05127,4433.333496,4340.769043,4403.589844,4408.077148,4406.666504,4409.743652,4392.436035,4430.384766,4366.922852,4354.230957,4463.205078,4576.025879,4425.512695,,,,,,,,,,,,,,,,,,,,,,,,,,,,,,,,,,,,,,,,,,,,,,,,,,,,,,,,,,,,,,,,,,,,,,
1720075280,16,0,4455.769043,4436.794922,4303.205078,4398.333496,4401.666504,4396.153809,4408.589844,4387.692383,4424.743652,4361.410156,4344.230957,4457.94873,4568.461426,4417.692383,,,,,,,,,,,,,,,,,,,,,,,,,,,,,,,,,,,,,,,,,,,,,,,,,,,,,,,,,,,,,,,,,,,,,,
1720075280,17,0,4459.487305,4441.666504,4271.794922,4401.922852,4403.333496,4401.025879,4412.692383,4393.717773,4432.307617,4365.897461,4348.846191,4457.05127,4563.589844,4424.871582,1.432592,0.609324,0.446348,0.310437,0.200602,0.183099,0.111238,0.064307,0.074747,0.114115,35.877953,12.101208,1.128224,0.836856,0.25785,0.869021,0.498621,0.3281,0.314346,0.212829,0.469967,0.34157,0.205488,0.125381,0.15056,0.284463,0.268763,0.282905,0.120618,0.201132,0.310163,0.349844,0.245666,0.149383,0.130786,0.621343,0.583477,0.580818,0.191814,0.188622,1.43611,1.190533,0.530624,0.251988,0.218196,0.452965,0.387559,0.507825,0.191223,0.171516,0.574036,1.258528,0.748218,0.645301,0.355835,1.580476,0.949195,0.601141,0.42035,0.340628,12.188883,1.52841,0.474265,0.16325,0.217297,0.853375,1.526,0.499533,0.490873,0.278583
1720075280,18,0,4462.436035,4443.333496,4266.282227,4413.717773,4411.410156,4410.256348,4415.769043,4405.128418,4445.769043,4374.615234,4366.922852,4464.230957,4569.358887,4436.410156,,,,,,,,,,,,,,,,,,,,,,,,,,,,,,,,,,,,,,,,,,,,,,,,,,,,,,,,,,,,,,,,,,,,,,
1720075280,19,0,4457.179688,4437.179688,4258.717773,4413.077148,4411.410156,4406.410156,4412.436035,4410.384766,4443.846191,4373.717773,4370.512695,4464.102539,4569.615234,4433.077148,,,,,,,,,,,,,,,,,,,,,,,,,,,,,,,,,,,,,,,,,,,,,,,,,,,,,,,,,,,,,,,,,,,,,,
1720075280,20,0,4456.538574,4436.025879,4244.871582,4407.692383,4410.384766,4406.538574,4413.717773,4411.025879,4439.102539,4370.384766,4363.333496,4461.410156,4564.871582,4430.384766,,,,,,,,,,,,,,,,,,,,,,,,,,,,,,,,,,,,,,,,,,,,,,,,,,,,,,,,,,,,,,,,,,,,,,
1720075280,21,0,4461.410156,4441.922852,4249.102539,4411.153809,4414.615234,4414.358887,4422.05127,4414.230957,4443.333496,4371.666504,4365.897461,4470.384766,4562.94873,4435.384766,,,,,,,,,,,,,,,,,,,,,,,,,,,,,,,,,,,,,,,,,,,,,,,,,,,,,,,,,,,,,,,,,,,,,,
1720075280,22,0,4454.871582,4440.897461,4260.897461,4406.794922,4412.05127,4413.333496,4421.410156,4416.410156,4438.077148,4371.153809,4365.897461,4472.307617,4559.230957,4434.487305,,,,,,,,,,,,,,,,,,,,,,,,,,,,,,,,,,,,,,,,,,,,,,,,,,,,,,,,,,,,,,,,,,,,,,
1720075280,23,0,4450.641113,4438.205078,4264.487305,4396.794922,4409.871582,4410.512695,4413.077148,4415.512695,4433.205078,4372.820313,4361.282227,4468.205078,4554.102539,4431.025879,,,,,,,,,,,,,,,,,,,,,,,,,,,,,,,,,,,,,,,,,,,,,,,,,,,,,,,,,,,,,,,,,,,,,,
1720075280,24,0,4453.846191,4441.538574,4268.717773,4397.307617,4411.538574,4411.794922,4411.794922,4414.871582,4440,4373.717773,4362.692383,4470.256348,4550.641113,4427.307617,,,,,,,,,,,,,,,,,,,,,,,,,,,,,,,,,,,,,,,,,,,,,,,,,,,,,,,,,,,,,,,,,,,,,,
1720075280,25,0,4449.743652,4443.461426,4277.179688,4399.358887,4409.358887,4411.922852,4413.974121,4409.358887,4436.153809,4366.922852,4360.897461,4468.205078,4544.743652,4421.922852,,,,,,,,,,,,,,,,,,,,,,,,,,,,,,,,,,,,,,,,,,,,,,,,,,,,,,,,,,,,,,,,,,,,,,
1720075280,26,0,4448.205078,4441.794922,4286.666504,4399.871582,4413.077148,4413.974121,4409.358887,4398.333496,4427.05127,4367.307617,4356.153809,4462.820313,4548.077148,4431.153809,,,,,,,,,,,,,,,,,,,,,,,,,,,,,,,,,,,,,,,,,,,,,,,,,,,,,,,,,,,,,,,,,,,,,,
1720075280,27,0,4455.897461,4444.230957,4298.461426,4402.692383,4420.384766,4416.794922,4404.487305,4394.358887,4429.743652,4374.358887,4354.102539,4463.205078,4556.410156,4440.512695,,,,,,,,,,,,,,,,,,,,,,,,,,,,,,,,,,,,,,,,,,,,,,,,,,,,,,,,,,,,,,,,,,,,,,
1720075280,28,0,4457.436035,4445.512695,4312.94873,4403.974121,4422.692383,4417.563965,4406.282227,4395.641113,4432.692383,4372.179688,4355.256348,4460.384766,4550.641113,4430.128418,,,,,,,,,,,,,,,,,,,,,,,,,,,,,,,,,,,,,,,,,,,,,,,,,,,,,,,,,,,,,,,,,,,,,,
1720075280,29,0,4456.025879,4443.205078,4325.256348,4406.538574,4424.743652,4420.256348,4413.077148,4401.922852,4430.384766,4370.512695,4363.717773,4462.179688,4546.666504,4427.94873,,,,,,,,,,,,,,,,,,,,,,,,,,,,,,,,,,,,,,,,,,,,,,,,,,,,,,,,,,,,,,,,,,,,,,
1720075280,30,0,4463.974121,4445.384766,4336.538574,4410.641113,4427.692383,4421.794922,4415.512695,4411.538574,4431.666504,4375.897461,4373.205078,4474.358887,4553.077148,4438.974121,,,,,,,,,,,,,,,,,,,,,,,,,,,,,,,,,,,,,,,,,,,,,,,,,,,,,,,,,,,,,,,,,,,,,,
1720075280,31,0,4466.794922,4448.717773,4349.743652,4411.282227,4425.769043,4417.563965,4411.410156,4412.820313,4428.589844,4378.205078,4372.179688,4476.794922,4552.692383,4439.615234,,,,,,,,,,,,,,,,,,,,,,,,,,,,,,,,,,,,,,,,,,,,,,,,,,,,,,,,,,,,,,,,,,,,,,
1720075280,32,0,4460.512695,4450.128418,4361.666504,4411.153809,4426.153809,4412.94873,4411.410156,4411.025879,4427.307617,4380.128418,4370.769043,4473.333496,4548.461426,4439.358887,,,,,,,,,,,,,,,,,,,,,,,,,,,,,,,,,,,,,,,,,,,,,,,,,,,,,,,,,,,,,,,,,,,,,,
1720075280,33,0,4462.94873,4447.820313,4365.384766,4412.820313,4426.410156,4412.05127,4411.794922,4409.615234,4430.384766,4382.692383,4374.102539,4474.487305,4543.974121,4444.743652,1.724689,0.731928,0.368749,0.320631,0.231938,0.166854,0.117803,0.073584,0.083416,0.119104,36.484173,12.319645,1.299894,0.905773,0.281698,0.823255,0.595523,0.347163,0.333725,0.222291,0.534021,0.410221,0.23679,0.143421,0.140228,0.270134,0.280776,0.295222,0.141653,0.219024,0.315923,0.316524,0.270616,0.131966,0.142673,0.72905,0.594154,0.713746,0.159843,0.199711,1.48805,1.053331,0.618624,0.281192,0.210753,0.511674,0.498136,0.705705,0.211187,0.167066,0.615997,1.657611,0.918551,0.60144,0.336575,1.623521,1.324029,0.783747,0.481669,0.344357,12.528868,1.557257,0.509384,0.152974,0.217649,0.72229,2.123256,0.765039,0.507797,0.279818
1720075280,34,0,4470.897461,4445.897461,4374.487305,4413.846191,4422.307617,4409.871582,4410.897461,4406.410156,4428.077148,4381.153809,4375.512695,4479.358887,4542.307617,4442.179688,,,,,,,,,,,,,,,,,,,,,,,,,,,,,,,,,,,,,,,,,,,,,,,,,,,,,,,,,,,,,,,,,,,,,,
1720075280,35,0,4471.153809,4452.94873,4391.666504,4416.922852,4424.871582,4411.153809,4412.94873,4410.769043,4427.692383,4385.384766,4380.128418,4489.230957,4548.846191,4441.794922,,,,,,,,,,,,,,,,,,,,,,,,,,,,,,,,,,,,,,,,,,,,,,,,,,,,,,,,,,,,,,,,,,,,,,
1720075280,36,0,4462.94873,4461.025879,4395.641113,4419.871582,4430.512695,4417.692383,4416.282227,4419.615234,4432.05127,4389.230957,4385.641113,4495.128418,4552.179688,4449.871582,,,,,,,,,,,,,,,,,,,,,,,,,,,,,,,,,,,,,,,,,,,,,,,,,,,,,,,,,,,,,,,,,,,,,,
1720075280,37,0,4455.384766,4457.05127,4390.769043,4415.512695,4427.307617,4418.717773,4412.563965,4414.871582,4429.743652,4381.282227,4379.102539,4487.179688,4541.794922,4444.615234,,,,,,,,,,,,,,,,,,,,,,,,,,,,,,,,,,,,,,,,,,,,,,,,,,,,,,,,,,,,,,,,,,,,,,
1720075280,38,0,4450.256348,4446.538574,4387.94873,4403.717773,4422.94873,4412.179688,4405.512695,4407.563965,4423.589844,4371.153809,4366.410156,4477.05127,4532.307617,4432.94873,,,,,,,,,,,,,,,,,,,,,,,,,,,,,,,,,,,,,,,,,,,,,,,,,,,,,,,,,,,,,,,,,,,,,,
1720075280,39,0,4451.794922,4444.871582,4385.256348,4398.846191,4425.256348,4412.05127,4407.563965,4411.153809,4429.871582,4374.487305,4367.307617,4481.153809,4531.153809,4437.436035,,,,,,,,,,,,,,,,,,,,,,,,,,,,,,,,,,,,,,,,,,,,,,,,,,,,,,,,,,,,,,,,,,,,,,
1720075280,40,0,4461.153809,4452.820313,4389.743652,4408.333496,4428.589844,4422.436035,4413.077148,4417.436035,4443.205078,4390.512695,4382.563965,4489.615234,4540.256348,4450.897461,,,,,,,,,,,,,,,,,,,,,,,,,,,,,,,,,,,,,,,,,,,,,,,,,,,,,,,,,,,,,,,,,,,,,,
1720075280,41,0,4461.410156,4457.307617,4401.794922,4415.128418,4426.666504,4427.05127,4416.922852,4426.025879,4449.358887,4401.794922,4391.153809,4490.384766,4547.94873,4455.512695,,,,,,,,,,,,,,,,,,,,,,,,,,,,,,,,,,,,,,,,,,,,,,,,,,,,,,,,,,,,,,,,,,,,,,
1720075280,42,0,4457.05127,4455.769043,4414.230957,4413.846191,4427.436035,4420.384766,4414.615234,4426.025879,4442.563965,4393.846191,4386.666504,4486.538574,4538.461426,4453.589844,,,,,,,,,,,,,,,,,,,,,,,,,,,,,,,,,,,,,,,,,,,,,,,,,,,,,,,,,,,,,,,,,,,,,,
1720075280,43,0,4468.333496,4457.307617,4430.512695,4418.974121,4435.769043,4414.615234,4407.179688,4419.615234,4437.94873,4385.897461,4384.743652,4490.512695,4530.641113,4458.846191,,,,,,,,,,,,,,,,,,,,,,,,,,,,,,,,,,,,,,,,,,,,,,,,,,,,,,,,,,,,,,,,,,,,,,
1720075280,44,0,4479.615234,4461.922852,4445.641113,4428.205078,4443.974121,4417.05127,4404.615234,4422.692383,4442.692383,4395.769043,4387.94873,4496.666504,4532.563965,4464.615234,,,,,,,,,,,,,,,,,,,,,,,,,,,,,,,,,,,,,,,,,,,,,,,,,,,,,,,,,,,,,,,,,,,,,,
1720075280,45,0,4472.692383,4461.538574,4453.589844,4428.461426,4442.05127,4420.128418,4406.282227,4423.077148,4437.307617,4396.282227,4382.436035,4489.615234,4523.974121,4455,,,,,,,,,,,,,,,,,,,,,,,,,,,,,,,,,,,,,,,,,,,,,,,,,,,,,,,,,,,,,,,,,,,,,,
1720075280,46,0,4464.358887,4460.897461,4459.358887,4423.205078,4435.769043,4416.282227,4400.897461,4411.922852,4421.666504,4380.897461,4368.846191,4476.025879,4513.461426,4440.641113,,,,,,,,,,,,,,,,,,,,,,,,,,,,,,,,,,,,,,,,,,,,,,,,,,,,,,,,,,,,,,,,,,,,,,
1720075280,47,0,4469.615234,4463.717773,4467.436035,4423.974121,4436.282227,4413.589844,4391.922852,4404.230957,4415.256348,4377.179688,4365.384766,4472.436035,4515.384766,4436.538574,,,,,,,,,,,,,,,,,,,,,,,,,,,,,,,,,,,,,,,,,,,,,,,,,,,,,,,,,,,,,,,,,,,,,,
1720075280,48,0,4474.487305,4463.974121,4476.666504,4424.615234,4441.025879,4413.589844,4389.743652,4403.974121,4415.512695,4379.487305,4365.897461,4474.230957,4512.563965,4434.358887,,,,,,,,,,,,,,,,,,,,,,,,,,,,,,,,,,,,,,,,,,,,,,,,,,,,,,,,,,,,,,,,,,,,,,
1720075280,49,0,4466.922852,4462.563965,4479.487305,4419.871582,4443.333496,4412.563965,4387.307617,4396.410156,4410.512695,4368.077148,4355.384766,4464.230957,4497.820313,4430.256348,2.132343,0.869271,0.302816,0.337538,0.270983,0.161871,0.115547,0.083514,0.088191,0.123447,36.202335,12.092287,1.62459,0.94137,0.311275,0.740297,0.686776,0.393876,0.336286,0.227763,0.590374,0.470749,0.276681,0.161217,0.132741,0.257274,0.299418,0.297237,0.15353,0.22669,0.351021,0.278657,0.273404,0.11199,0.150134,0.914007,0.597501,0.831519,0.131238,0.206738,1.393695,0.922485,0.716654,0.301399,0.204393,0.608341,0.607913,0.897834,0.234644,0.168295,0.76084,2.072741,1.127414,0.558014,0.318587,1.654313,1.697465,0.996194,0.549292,0.342027,12.399963,1.528367,0.579248,0.147014,0.222261,0.768386,2.649361,1.081654,0.516707,0.284537
1720075280,50,0,4461.666504,4462.436035,4472.820313,4416.025879,4440.641113,4413.461426,4383.717773,4394.871582,4409.102539,4359.102539,4348.717773,4456.282227,4493.589844,4436.538574,,,,,,,,,,,,,,,,,,,,,,,,,,,,,,,,,,,,,,,,,,,,,,,,,,,,,,,,,,,,,,,,,,,,,,
1720075280,51,0,4460.256348,4460.512695,4464.102539,4415.897461,4435.256348,4417.94873,4386.922852,4405.769043,4411.794922,4368.589844,4356.794922,4459.871582,4498.974121,4440.256348,,,,,,,,,,,,,,,,,,,,,,,,,,,,,,,,,,,,,,,,,,,,,,,,,,,,,,,,,,,,,,,,,,,,,,
1720075280,52,0,4459.615234,4459.230957,4461.153809,4417.692383,4430.897461,4417.307617,4394.487305,4411.538574,4417.179688,4380.769043,4366.538574,4461.922852,4500.384766,4433.077148,,,,,,,,,,,,,,,,,,,,,,,,,,,,,,,,,,,,,,,,,,,,,,,,,,,,,,,,,,,,,,,,,,,,,,
1720075280,53,0,4461.282227,4462.563965,4455,4416.025879,4428.205078,4409.230957,4396.794922,4413.077148,4426.922852,4383.077148,4366.922852,4463.461426,4500.512695,4431.025879,,,,,,,,,,,,,,,,,,,,,,,,,,,,,,,,,,,,,,,,,,,,,,,,,,,,,,,,,,,,,,,,,,,,,,
1720075280,54,0,4461.282227,4463.461426,4449.871582,4413.589844,4426.538574,4414.230957,4399.102539,4418.077148,4428.846191,4380.256348,4366.025879,4468.846191,4498.589844,4435.897461,,,,,,,,,,,,,,,,,,,,,,,,,,,,,,,,,,,,,,,,,,,,,,,,,,,,,,,,,,,,,,,,,,,,,,
1720075280,55,0,4460.641113,4460.897461,4453.461426,4416.538574,4425,4428.846191,4411.410156,4430.897461,4433.717773,4384.102539,4375.769043,4478.077148,4498.974121,4442.563965,,,,,,,,,,,,,,,,,,,,,,,,,,,,,,,,,,,,,,,,,,,,,,,,,,,,,,,,,,,,,,,,,,,,,,
1720075280,56,0,4461.282227,4461.153809,4451.410156,4419.743652,4425.384766,4427.05127,4413.077148,4435.128418,4445,4391.282227,4382.94873,4481.153809,4497.94873,4442.179688,,,,,,,,,,,,,,,,,,,,,,,,,,,,,,,,,,,,,,,,,,,,,,,,,,,,,,,,,,,,,,,,,,,,,,
1720075280,57,0,4461.282227,4461.922852,4441.410156,4412.94873,4425.512695,4415.128418,4398.974121,4423.333496,4443.461426,4389.487305,4374.743652,4473.461426,4488.717773,4432.307617,,,,,,,,,,,,,,,,,,,,,,,,,,,,,,,,,,,,,,,,,,,,,,,,,,,,,,,,,,,,,,,,,,,,,,
1720075281,58,0,4457.820313,4462.05127,4447.563965,4409.230957,4426.025879,4416.538574,4394.743652,4414.743652,4432.820313,4383.717773,4365.897461,4472.307617,4490,4430.512695,,,,,,,,,,,,,,,,,,,,,,,,,,,,,,,,,,,,,,,,,,,,,,,,,,,,,,,,,,,,,,,,,,,,,,
1720075281,59,0,4450.256348,4463.846191,4463.333496,4415.384766,4425.128418,4421.282227,4394.358887,4409.743652,4422.436035,4379.358887,4363.077148,4473.589844,4492.820313,4432.563965,,,,,,,,,,,,,,,,,,,,,,,,,,,,,,,,,,,,,,,,,,,,,,,,,,,,,,,,,,,,,,,,,,,,,,
1720075281,60,0,4442.436035,4463.717773,4460.641113,4414.102539,4422.436035,4414.615234,4384.615234,4401.282227,4413.846191,4374.743652,4355.256348,4466.794922,4493.333496,4424.615234,,,,,,,,,,,,,,,,,,,,,,,,,,,,,,,,,,,,,,,,,,,,,,,,,,,,,,,,,,,,,,,,,,,,,,
1720075281,61,0,4444.743652,4464.615234,4458.205078,4412.179688,4423.461426,4410.769043,4382.307617,4396.666504,4409.230957,4371.410156,4350.641113,4466.794922,4511.282227,4421.794922,,,,,,,,,,,,,,,,,,,,,,,,,,,,,,,,,,,,,,,,,,,,,,,,,,,,,,,,,,,,,,,,,,,,,,
1720075281,62,0,4454.102539,4469.871582,4472.94873,4421.153809,4428.461426,4414.230957,4388.077148,4399.358887,4406.410156,4372.820313,4352.563965,4474.743652,4529.358887,4428.589844,,,,,,,,,,,,,,,,,,,,,,,,,,,,,,,,,,,,,,,,,,,,,,,,,,,,,,,,,,,,,,,,,,,,,,
1720075281,63,0,4457.179688,4471.282227,4478.205078,4421.666504,4427.820313,4414.871582,4387.179688,4400.769043,4405.128418,4373.461426,4351.153809,4476.410156,4543.717773,4432.179688,,,,,,,,,,,,,,,,,,,,,,,,,,,,,,,,,,,,,,,,,,,,,,,,,,,,,,,,,,,,,,,,,,,,,,
1720075281,64,0,4460.769043,4470.897461,4466.794922,4415.128418,4420,4412.436035,4386.922852,4401.922852,4410.641113,4373.461426,4353.846191,4477.563965,4569.358887,4435,,,,,,,,,,,,,,,,,,,,,,,,,,,,,,,,,,,,,,,,,,,,,,,,,,,,,,,,,,,,,,,,,,,,,,
1720075281,65,0,4457.179688,4467.820313,4450.128418,4411.922852,4418.077148,4411.922852,4392.179688,4403.717773,4417.436035,4373.333496,4352.563965,4474.615234,4580.897461,4425.256348,2.553306,1.011107,0.270044,0.358586,0.305222,0.142155,0.106227,0.089557,0.087995,0.12433,34.960186,11.715003,2.067289,0.930125,0.33468,0.63239,0.762743,0.46815,0.320744,0.225521,0.611103,0.509847,0.31208,0.173645,0.126224,0.248036,0.320778,0.289697,0.154082,0.219483,0.406779,0.236614,0.258018,0.093349,0.152554,1.103804,0.590158,0.921061,0.114728,0.206024,1.151999,0.827761,0.798765,0.305356,0.197516,0.680556,0.670497,1.032584,0.251398,0.172899,0.871234,2.362116,1.318575,0.529557,0.301092,1.702145,1.94787,1.184153,0.601266,0.330147,11.313272,1.444566,0.661225,0.144903,0.224456,0.737441,2.944072,1.352924,0.512253,0.287777
1720075281,66,0,4444.615234,4461.282227,4433.846191,4408.077148,4424.487305,4415.769043,4395.769043,4407.05127,4422.05127,4371.794922,4342.563965,4465.769043,4581.538574,4412.692383,,,,,,,,,,,,,,,,,,,,,,,,,,,,,,,,,,,,,,,,,,,,,,,,,,,,,,,,,,,,,,,,,,,,,,
1720075281,67,0,4446.410156,4462.820313,4422.820313,4406.922852,4427.563965,4421.410156,4396.922852,4411.153809,4434.230957,4377.05127,4349.487305,4467.563965,4604.358887,4425,,,,,,,,,,,,,,,,,,,,,,,,,,,,,,,,,,,,,,,,,,,,,,,,,,,,,,,,,,,,,,,,,,,,,,
1720075281,68,0,4457.05127,4467.94873,4423.589844,4411.025879,4425.512695,4426.282227,4397.307617,4412.179688,4439.871582,4387.179688,4369.871582,4476.666504,4629.102539,4442.307617,,,,,,,,,,,,,,,,,,,,,,,,,,,,,,,,,,,,,,,,,,,,,,,,,,,,,,,,,,,,,,,,,,,,,,
1720075281,69,0,4451.794922,4462.563965,4427.307617,4413.077148,4425.256348,4423.589844,4399.743652,4418.077148,4436.153809,4388.077148,4373.717773,4482.436035,4633.846191,4447.307617,,,,,,,,,,,,,,,,,,,,,,,,,,,,,,,,,,,,,,,,,,,,,,,,,,,,,,,,,,,,,,,,,,,,,,
1720075281,70,0,4439.615234,4457.05127,4427.692383,4410.128418,4425.641113,4413.333496,4397.692383,4422.05127,4438.717773,4380.641113,4366.153809,4485.384766,4638.974121,4455,,,,,,,,,,,,,,,,,,,,,,,,,,,,,,,,,,,,,,,,,,,,,,,,,,,,,,,,,,,,,,,,,,,,,,
1720075281,71,0,4446.282227,4460.512695,4437.436035,4408.974121,4424.487305,4412.307617,4393.717773,4420,4445.128418,4381.153809,4369.871582,4492.05127,4647.436035,4466.025879,,,,,,,,,,,,,,,,,,,,,,,,,,,,,,,,,,,,,,,,,,,,,,,,,,,,,,,,,,,,,,,,,,,,,,
1720075281,72,0,4459.871582,4462.436035,4450.512695,4416.025879,4427.820313,4425.256348,4402.820313,4424.358887,4447.692383,4392.307617,4379.230957,4504.871582,4651.282227,4468.589844,,,,,,,,,,,,,,,,,,,,,,,,,,,,,,,,,,,,,,,,,,,,,,,,,,,,,,,,,,,,,,,,,,,,,,
1720075281,73,0,4462.692383,4464.102539,4450.128418,4427.692383,4435.769043,4432.307617,4409.615234,4430.769043,4445.641113,4399.743652,4382.820313,4512.563965,4657.820313,4475.769043,,,,,,,,,,,,,,,,,,,,,,,,,,,,,,,,,,,,,,,,,,,,,,,,,,,,,,,,,,,,,,,,,,,,,,
1720075281,74,0,4459.487305,4464.487305,4435.769043,4429.743652,4436.153809,4426.666504,4401.153809,4425.641113,4444.358887,4397.179688,4381.410156,4509.487305,4661.922852,4484.102539,,,,,,,,,,,,,,,,,,,,,,,,,,,,,,,,,,,,,,,,,,,,,,,,,,,,,,,,,,,,,,,,,,,,,,
1720075281,75,0,4456.794922,4460.256348,4407.692383,4419.743652,4427.179688,4424.743652,4395.897461,4422.692383,4443.077148,4393.205078,4380.256348,4504.487305,4659.743652,4472.820313,,,,,,,,,,,,,,,,,,,,,,,,,,,,,,,,,,,,,,,,,,,,,,,,,,,,,,,,,,,,,,,,,,,,,,
1720075281,76,0,4454.230957,4458.846191,4365.897461,4415.256348,4429.102539,4428.846191,4399.487305,4428.077148,4445.384766,4397.05127,4381.282227,4500.769043,4661.025879,4459.743652,,,,,,,,,,,,,,,,,,,,,,,,,,,,,,,,,,,,,,,,,,,,,,,,,,,,,,,,,,,,,,,,,,,,,,
1720075281,77,0,4449.743652,4461.025879,4325.256348,4418.846191,4444.487305,4430.256348,4404.102539,4428.974121,4450,4402.820313,4382.179688,4497.94873,4665.769043,4461.922852,,,,,,,,,,,,,,,,,,,,,,,,,,,,,,,,,,,,,,,,,,,,,,,,,,,,,,,,,,,,,,,,,,,,,,
1720075281,78,0,4448.077148,4460.897461,4293.461426,4415.384766,4445.512695,4430.512695,4410.897461,4431.025879,4450.641113,4402.436035,4383.205078,4500.256348,4666.025879,4461.153809,,,,,,,,,,,,,,,,,,,,,,,,,,,,,,,,,,,,,,,,,,,,,,,,,,,,,,,,,,,,,,,,,,,,,,
1720075281,79,0,4443.846191,4458.717773,4262.692383,4403.846191,4430.256348,4428.589844,4410.512695,4428.846191,4444.102539,4393.461426,4374.230957,4494.871582,4654.230957,4443.461426,,,,,,,,,,,,,,,,,,,,,,,,,,,,,,,,,,,,,,,,,,,,,,,,,,,,,,,,,,,,,,,,,,,,,,
1720075281,80,0,4443.717773,4459.487305,4255.641113,4405.128418,4425.512695,4425.384766,4403.333496,4427.563965,4440.769043,4387.563965,4364.615234,4487.05127,4646.282227,4435.256348,,,,,,,,,,,,,,,,,,,,,,,,,,,,,,,,,,,,,,,,,,,,,,,,,,,,,,,,,,,,,,,,,,,,,,
1720075281,81,0,4453.077148,4462.05127,4272.436035,4412.05127,4430.769043,4426.666504,4407.94873,4438.333496,4451.282227,4390.256348,4369.358887,4493.077148,4655.769043,4446.282227,2.841476,1.147482,0.281077,0.374139,0.323261,0.14008,0.096145,0.090782,0.084281,0.120413,33.765896,11.320618,2.521683,0.876086,0.341536,0.528612,0.823818,0.556416,0.292428,0.214278,0.612998,0.518836,0.327784,0.178976,0.119094,0.244216,0.338998,0.272091,0.145238,0.198959,0.456952,0.199877,0.237849,0.08047,0.150573,1.241512,0.596553,0.97727,0.114751,0.195825,0.929935,0.806563,0.838363,0.289861,0.188274,0.723094,0.669459,1.073435,0.25594,0.177974,1.026954,2.420881,1.428532,0.516811,0.282152,1.66577,1.983924,1.297424,0.615227,0.307176,10.394688,1.331751,0.706844,0.146291,0.218419,0.785326,2.915223,1.491829,0.491832,0.286821
1720075281,82,0,4447.307617,4461.538574,4273.589844,4406.922852,4427.94873,4428.461426,4412.692383,4437.692383,4455.384766,4388.717773,4371.410156,4491.794922,4661.282227,4445,,,,,,,,,,,,,,,,,,,,,,,,,,,,,,,,,,,,,,,,,,,,,,,,,,,,,,,,,,,,,,,,,,,,,,
1720075281,83,0,4433.717773,4460.256348,4266.153809,4404.871582,4423.461426,4428.205078,4405.384766,4425.641113,4447.436035,4383.717773,4363.205078,4484.358887,4653.077148,4438.717773,,,,,,,,,,,,,,,,,,,,,,,,,,,,,,,,,,,,,,,,,,,,,,,,,,,,,,,,,,,,,,,,,,,,,,
1720075281,84,0,4437.436035,4461.538574,4279.871582,4412.692383,4426.922852,4424.358887,4398.461426,4424.487305,4443.717773,4382.94873,4361.410156,4492.436035,4650.897461,4445.256348,,,,,,,,,,,,,,,,,,,,,,,,,,,,,,,,,,,,,,,,,,,,,,,,,,,,,,,,,,,,,,,,,,,,,,
1720075281,85,0,4439.615234,4461.410156,4296.153809,4410.641113,4429.615234,4416.153809,4395.128418,4422.563965,4445.897461,4382.436035,4360.897461,4493.205078,4647.692383,4445.641113,,,,,,,,,,,,,,,,,,,,,,,,,,,,,,,,,,,,,,,,,,,,,,,,,,,,,,,,,,,,,,,,,,,,,,
1720075281,86,0,4427.436035,4458.846191,4290.769043,4400.256348,4427.05127,4413.974121,4394.743652,4412.179688,4444.487305,4378.846191,4351.410156,4476.794922,4630.641113,4433.333496,,,,,,,,,,,,,,,,,,,,,,,,,,,,,,,,,,,,,,,,,,,,,,,,,,,,,,,,,,,,,,,,,,,,,,
1720075281,87,0,4424.230957,4459.102539,4285.769043,4398.205078,4426.538574,4418.333496,4395,4413.589844,4439.871582,4377.692383,4346.025879,4465.769043,4620.769043,4422.692383,,,,,,,,,,,,,,,,,,,,,,,,,,,,,,,,,,,,,,,,,,,,,,,,,,,,,,,,,,,,,,,,,,,,,,
1720075281,88,0,4431.922852,4460.384766,4298.846191,4402.307617,4429.230957,4416.153809,4395,4424.743652,4441.410156,4382.307617,4352.05127,4472.563965,4628.205078,4428.077148,,,,,,,,,,,,,,,,,,,,,,,,,,,,,,,,,,,,,,,,,,,,,,,,,,,,,,,,,,,,,,,,,,,,,,
1720075281,89,0,4432.820313,4459.743652,4311.666504,4406.153809,4429.102539,4412.436035,4399.102539,4429.871582,4442.179688,4385.384766,4359.871582,4483.974121,4633.974121,4442.436035,,,,,,,,,,,,,,,,,,,,,,,,,,,,,,,,,,,,,,,,,,,,,,,,,,,,,,,,,,,,,,,,,,,,,,
1720075281,90,0,4433.589844,4458.461426,4317.820313,4401.538574,4426.666504,4413.077148,4400.641113,4425.128418,4432.436035,4382.05127,4357.820313,4483.205078,4627.307617,4444.230957,,,,,,,,,,,,,,,,,,,,,,,,,,,,,,,,,,,,,,,,,,,,,,,,,,,,,,,,,,,,,,,,,,,,,,
1720075281,91,0,4440,4459.487305,4330.512695,4394.743652,4428.205078,4413.974121,4397.179688,4418.589844,4425.897461,4378.717773,4351.794922,4479.487305,4620.512695,4440,,,,,,,,,,,,,,,,,,,,,,,,,,,,,,,,,,,,,,,,,,,,,,,,,,,,,,,,,,,,,,,,,,,,,,
1720075281,92,0,4443.717773,4462.436035,4347.179688,4399.102539,4428.717773,4421.922852,4397.05127,4424.871582,4433.589844,4384.487305,4358.333496,4487.179688,4624.230957,4449.358887,,,,,,,,,,,,,,,,,,,,,,,,,,,,,,,,,,,,,,,,,,,,,,,,,,,,,,,,,,,,,,,,,,,,,,
1720075281,93,0,4442.179688,4462.436035,4355,4402.692383,4426.666504,4427.179688,4398.717773,4426.410156,4428.333496,4387.436035,4366.282227,4493.974121,4627.94873,4456.666504,,,,,,,,,,,,,,,,,,,,,,,,,,,,,,,,,,,,,,,,,,,,,,,,,,,,,,,,,,,,,,,,,,,,,,
1720075281,94,0,4441.282227,4461.666504,4362.05127,4399.230957,4425.897461,4420.256348,4397.94873,4414.487305,4408.974121,4381.538574,4358.846191,4488.846191,4619.871582,4445.512695,,,,,,,,,,,,,,,,,,,,,,,,,,,,,,,,,,,,,,,,,,,,,,,,,,,,,,,,,,,,,,,,,,,,,,
1720075281,95,0,4445.256348,4468.333496,4373.205078,4402.436035,4427.05127,4420.641113,4399.615234,4416.922852,4406.666504,4379.102539,4352.179688,4491.282227,4616.538574,4439.743652,,,,,,,,,,,,,,,,,,,,,,,,,,,,,,,,,,,,,,,,,,,,,,,,,,,,,,,,,,,,,,,,,,,,,,
1720075281,96,0,4446.666504,4472.820313,4377.692383,4412.692383,4433.717773,4429.743652,4399.871582,4428.589844,4411.794922,4381.282227,4360,4496.922852,4620.769043,4445.769043,,,,,,,,,,,,,,,,,,,,,,,,,,,,,,,,,,,,,,,,,,,,,,,,,,,,,,,,,,,,,,,,,,,,,,
1720075281,97,0,4440.384766,4466.282227,4386.666504,4416.282227,4439.102539,4431.025879,4404.102539,4428.717773,4418.205078,4381.153809,4364.615234,4495.256348,4612.307617,4444.615234,2.940325,1.259313,0.334727,0.374188,0.320457,0.123782,0.092256,0.088291,0.079727,0.112267,33.223152,11.023029,2.871802,0.791334,0.329268,0.450657,0.874734,0.636695,0.259543,0.196012,0.588162,0.499845,0.314714,0.177743,0.111669,0.249974,0.3506,0.243528,0.132373,0.173202,0.521521,0.202233,0.22687,0.07578,0.145927,1.317616,0.678604,0.994978,0.129154,0.177859,0.851178,0.931619,0.817238,0.257383,0.176478,0.712052,0.642786,1.011437,0.247331,0.182413,1.130127,2.256532,1.417691,0.508542,0.262741,1.565094,1.789878,1.304933,0.57854,0.27594,9.759792,1.203373,0.697378,0.15146,0.20424,0.81877,2.584851,1.46849,0.457182,0.282833
1720075281,98,0,4431.410156,4460.128418,4400,4410.769043,4437.94873,4427.563965,4407.692383,4426.794922,4425.512695,4378.974121,4357.307617,4493.589844,4599.871582,4438.974121,,,,,,,,,,,,,,,,,,,,,,,,,,,,,,,,,,,,,,,,,,,,,,,,,,,,,,,,,,,,,,,,,,,,,,
1720075281,99,0,4429.230957,4461.922852,4395.512695,4404.487305,4434.871582,4426.666504,4399.358887,4427.179688,4418.205078,4378.846191,4351.666504,4485.769043,4602.820313,4436.410156,,,,,,,,,,,,,,,,,,,,,,,,,,,,,,,,,,,,,,,,,,,,,,,,,,,,,,,,,,,,,,,,,,,,,,
1720075281,100,0,4430.641113,4460.512695,4386.922852,4397.05127,4432.563965,4427.563965,4402.179688,4428.717773,4413.589844,4380.256348,4358.077148,4482.692383,4615.769043,4439.743652,,,,,,,,,,,,,,,,,,,,,,,,,,,,,,,,,,,,,,,,,,,,,,,,,,,,,,,,,,,,,,,,,,,,,,
1720075281,101,0,4420,4450.256348,4390.769043,4384.615234,4429.102539,4426.025879,4412.307617,4429.487305,4424.230957,4379.615234,4365.897461,4487.94873,4620.256348,4442.179688,,,,,,,,,,,,,,,,,,,,,,,,,,,,,,,,,,,,,,,,,,,,,,,,,,,,,,,,,,,,,,,,,,,,,,
1720075281,102,0,4408.589844,4443.717773,4395.769043,4372.94873,4422.820313,4420.512695,4406.538574,4427.436035,4428.333496,4382.820313,4370.256348,4489.487305,4621.922852,4443.077148,,,,,,,,,,,,,,,,,,,,,,,,,,,,,,,,,,,,,,,,,,,,,,,,,,,,,,,,,,,,,,,,,,,,,,
1720075281,103,0,4413.717773,4445.641113,4404.743652,4373.974121,4418.461426,4421.025879,4406.153809,4435.512695,4427.179688,4395,4384.230957,4495.256348,4627.820313,4454.487305,,,,,,,,,,,,,,,,,,,,,,,,,,,,,,,,,,,,,,,,,,,,,,,,,,,,,,,,,,,,,,,,,,,,,,
1720075281,104,0,4411.538574,4445.897461,4416.922852,4376.282227,4416.153809,4423.205078,4416.538574,4444.102539,4436.025879,4403.717773,4393.717773,4506.282227,4627.05127,4462.94873,,,,,,,,,,,,,,,,,,,,,,,,,,,,,,,,,,,,,,,,,,,,,,,,,,,,,,,,,,,,,,,,,,,,,,
1720075281,105,0,4390.256348,4442.820313,4406.538574,4363.205078,4413.846191,4414.102539,4406.666504,4430.897461,4431.025879,4392.820313,4381.794922,4499.615234,4617.820313,4452.179688,,,,,,,,,,,,,,,,,,,,,,,,,,,,,,,,,,,,,,,,,,,,,,,,,,,,,,,,,,,,,,,,,,,,,,
1720075281,106,0,4381.794922,4440.128418,4396.410156,4354.230957,4414.743652,4409.102539,4392.179688,4419.871582,4413.846191,4383.205078,4373.461426,4488.846191,4612.05127,4447.692383,,,,,,,,,,,,,,,,,,,,,,,,,,,,,,,,,,,,,,,,,,,,,,,,,,,,,,,,,,,,,,,,,,,,,,
1720075281,107,0,4390.512695,4440,4409.615234,4358.717773,4418.461426,4413.974121,4396.410156,4426.922852,4409.487305,4385,4377.307617,4495.512695,4608.717773,4460.897461,,,,,,,,,,,,,,,,,,,,,,,,,,,,,,,,,,,,,,,,,,,,,,,,,,,,,,,,,,,,,,,,,,,,,,
1720075281,108,0,4390.769043,4438.846191,4412.436035,4358.333496,4418.717773,4413.461426,4397.307617,4427.692383,4408.077148,4380.384766,4375,4493.846191,4598.589844,4462.307617,,,,,,,,,,,,,,,,,,,,,,,,,,,,,,,,,,,,,,,,,,,,,,,,,,,,,,,,,,,,,,,,,,,,,,
1720075281,109,0,4385.512695,4434.487305,4401.410156,4354.358887,4415.128418,4410,4395.897461,4426.794922,4414.358887,4382.05127,4375.897461,4488.461426,4598.974121,4452.563965,,,,,,,,,,,,,,,,,,,,,,,,,,,,,,,,,,,,,,,,,,,,,,,,,,,,,,,,,,,,,,,,,,,,,,
1720075281,110,0,4382.692383,4433.717773,4399.230957,4359.615234,4416.922852,4411.282227,4401.410156,4433.589844,4427.94873,4393.333496,4387.563965,4494.358887,4601.025879,4451.282227,,,,,,,,,,,,,,,,,,,,,,,,,,,,,,,,,,,,,,,,,,,,,,,,,,,,,,,,,,,,,,,,,,,,,,
1720075281,111,0,4376.025879,4433.974121,4392.179688,4363.333496,4421.794922,4412.307617,4405.897461,4432.307617,4427.94873,4391.666504,4383.974121,4491.025879,4588.589844,4448.846191,,,,,,,,,,,,,,,,,,,,,,,,,,,,,,,,,,,,,,,,,,,,,,,,,,,,,,,,,,,,,,,,,,,,,,
1720075281,112,0,4373.717773,4431.282227,4378.846191,4356.410156,4419.102539,4411.538574,4408.333496,4432.179688,4421.282227,4387.563965,4374.615234,4481.538574,4584.615234,4443.461426,,,,,,,,,,,,,,,,,,,,,,,,,,,,,,,,,,,,,,,,,,,,,,,,,,,,,,,,,,,,,,,,,,,,,,
1720075281,113,0,4379.102539,4435.641113,4382.179688,4355,4413.717773,4412.563965,4411.794922,4441.666504,4425.641113,4398.077148,4385.512695,4488.846191,4588.205078,4441.922852,2.796968,1.321355,0.423085,0.354627,0.300536,0.125202,0.09868,0.084931,0.077025,0.101663,33.836239,10.982778,3.124495,0.693307,0.30399,0.399293,0.925302,0.693347,0.230252,0.174955,0.565725,0.465887,0.275212,0.172346,0.106286,0.270602,0.35494,0.207825,0.123066,0.152364,0.593317,0.28153,0.233027,0.079425,0.1406,1.383188,0.894183,0.971165,0.150583,0.156857,1.013668,1.272433,0.735501,0.215869,0.164123,0.697002,0.649685,0.870888,0.230344,0.186969,1.271952,1.973019,1.28521,0.491454,0.246001,1.487795,1.448385,1.223562,0.497599,0.242759,10.11144,1.073358,0.634483,0.16269,0.18767,0.943287,2.089875,1.316841,0.413126,0.279281
1720075281,114,0,4381.922852,4442.692383,4395.512695,4363.589844,4418.974121,4415.384766,4414.743652,4445.512695,4430.769043,4401.410156,4396.025879,4502.692383,4588.333496,4443.461426,,,,,,,,,,,,,,,,,,,,,,,,,,,,,,,,,,,,,,,,,,,,,,,,,,,,,,,,,,,,,,,,,,,,,,
1720075281,115,0,4381.025879,4437.436035,4393.333496,4364.615234,4425.897461,4413.717773,4413.077148,4440.897461,4424.487305,4393.333496,4387.563965,4500.897461,4587.563965,4444.358887,,,,,,,,,,,,,,,,,,,,,,,,,,,,,,,,,,,,,,,,,,,,,,,,,,,,,,,,,,,,,,,,,,,,,,
1720075281,116,0,4385.256348,4434.487305,4380.384766,4359.871582,4422.94873,4409.487305,4410.769043,4440.384766,4419.743652,4394.487305,4378.205078,4494.743652,4582.179688,4441.153809,,,,,,,,,,,,,,,,,,,,,,,,,,,,,,,,,,,,,,,,,,,,,,,,,,,,,,,,,,,,,,,,,,,,,,
1720075281,117,0,4395.256348,4443.333496,4376.538574,4368.205078,4421.794922,4412.820313,4412.94873,4441.922852,4417.563965,4398.205078,4383.461426,4502.563965,4574.230957,4442.563965,,,,,,,,,,,,,,,,,,,,,,,,,,,,,,,,,,,,,,,,,,,,,,,,,,,,,,,,,,,,,,,,,,,,,,
1720075281,118,0,4399.871582,4438.461426,4378.846191,4376.282227,4424.102539,4414.358887,4411.025879,4434.615234,4413.589844,4395.128418,4388.461426,4509.743652,4573.461426,4450.641113,,,,,,,,,,,,,,,,,,,,,,,,,,,,,,,,,,,,,,,,,,,,,,,,,,,,,,,,,,,,,,,,,,,,,,
1720075281,119,0,4391.153809,4426.282227,4369.102539,4363.461426,4413.589844,4405.384766,4402.820313,4430.897461,4416.538574,4392.94873,4380,4500.256348,4568.589844,4445.897461,,,,,,,,,,,,,,,,,,,,,,,,,,,,,,,,,,,,,,,,,,,,,,,,,,,,,,,,,,,,,,,,,,,,,,
1720075281,120,0,4376.794922,4427.820313,4351.282227,4346.282227,4401.666504,4402.692383,4406.666504,4441.794922,4427.820313,4395.512695,4370.128418,4487.436035,4559.615234,4428.974121,,,,,,,,,,,,,,,,,,,,,,,,,,,,,,,,,,,,,,,,,,,,,,,,,,,,,,,,,,,,,,,,,,,,,,
1720075281,121,0,4371.282227,4433.461426,4343.333496,4351.025879,4406.153809,4412.05127,4413.846191,4445.769043,4435.384766,4398.461426,4371.922852,4487.307617,4558.589844,4423.717773,,,,,,,,,,,,,,,,,,,,,,,,,,,,,,,,,,,,,,,,,,,,,,,,,,,,,,,,,,,,,,,,,,,,,,
1720075281,122,0,4375.256348,4432.05127,4349.743652,4366.922852,4415.256348,4413.205078,4403.461426,4432.820313,4427.436035,4398.846191,4377.05127,4488.333496,4558.461426,4430,,,,,,,,,,,,,,,,,,,,,,,,,,,,,,,,,,,,,,,,,,,,,,,,,,,,,,,,,,,,,,,,,,,,,,
1720075281,123,0,4376.794922,4428.205078,4350.641113,4362.94873,4412.692383,4405.256348,4393.974121,4426.922852,4418.461426,4397.563965,4368.461426,4482.179688,4557.436035,4426.410156,,,,,,,,,,,,,,,,,,,,,,,,,,,,,,,,,,,,,,,,,,,,,,,,,,,,,,,,,,,,,,,,,,,,,,
1720075281,124,0,4372.179688,4426.666504,4331.922852,4341.922852,4404.487305,4400.897461,4393.717773,4422.179688,4411.922852,4391.922852,4352.05127,4466.282227,4549.102539,4411.410156,,,,,,,,,,,,,,,,,,,,,,,,,,,,,,,,,,,,,,,,,,,,,,,,,,,,,,,,,,,,,,,,,,,,,,
1720075281,125,0,4373.077148,4429.615234,4322.692383,4339.230957,4406.025879,4398.205078,4389.230957,4408.205078,4401.794922,4384.102539,4342.179688,4452.820313,4535.769043,4405.769043,,,,,,,,,,,,,,,,,,,,,,,,,,,,,,,,,,,,,,,,,,,,,,,,,,,,,,,,,,,,,,,,,,,,,,
1720075281,126,0,4377.563965,4431.153809,4335.641113,4351.282227,4413.717773,4397.05127,4383.717773,4405.512695,4401.282227,4380.128418,4342.307617,4459.871582,4534.743652,4410.256348,,,,,,,,,,,,,,,,,,,,,,,,,,,,,,,,,,,,,,,,,,,,,,,,,,,,,,,,,,,,,,,,,,,,,,
1720075281,127,0,4375.384766,4429.358887,4339.615234,4353.717773,4413.461426,4401.410156,4384.743652,4412.820313,4410.897461,4384.102539,4349.358887,4473.974121,4538.461426,4408.461426,,,,,,,,,,,,,,,,,,,,,,,,,,,,,,,,,,,,,,,,,,,,,,,,,,,,,,,,,,,,,,,,,,,,,,
1720075281,0,0,4376.025879,4435.256348,4336.153809,4355.897461,4409.102539,4404.615234,4391.794922,4420,4415.897461,4392.436035,4360.512695,4482.94873,4535,4412.692383,,,,,,,,,,,,,,,,,,,,,,,,,,,,,,,,,,,,,,,,,,,,,,,,,,,,,,,,,,,,,,,,,,,,,,
1720075281,1,0,4388.333496,4443.974121,4342.692383,4365.897461,4410,4401.666504,4395.384766,4424.615234,4414.230957,4398.333496,4369.230957,4491.666504,4537.307617,4431.922852,2.542655,1.312259,0.532966,0.318969,0.272705,0.134414,0.115244,0.083788,0.076947,0.090827,35.294685,11.368562,3.358545,0.599884,0.276883,0.410329,0.982407,0.717361,0.209958,0.156021,0.564859,0.431717,0.22129,0.165526,0.105099,0.319961,0.352276,0.171567,0.12226,0.142811,0.684994,0.451388,0.253032,0.090074,0.135804,1.495772,1.245894,0.907572,0.172754,0.138472,1.410319,1.834888,0.610112,0.17949,0.154206,0.738022,0.729213,0.696671,0.214407,0.192042,1.555983,1.711002,1.073036,0.461548,0.234495,1.554084,1.097519,1.107388,0.396818,0.214366,11.523852,0.968335,0.555972,0.184176,0.175913,1.429289,1.637998,1.128213,0.368842,0.279551
1720075281,2,0,4399.358887,4443.333496,4348.589844,4371.153809,4412.692383,4398.077148,4392.563965,4420.128418,4411.153809,4398.717773,4368.461426,4496.794922,4542.94873,4438.333496,,,,,,,,,,,,,,,,,,,,,,,,,,,,,,,,,,,,,,,,,,,,,,,,,,,,,,,,,,,,,,,,,,,,,,
1720075281,3,0,4396.410156,4439.358887,4347.307617,4367.563965,4411.922852,4397.94873,4390.641113,4415.128418,4407.179688,4394.743652,4360.384766,4491.922852,4532.820313,4420.512695,,,,,,,,,,,,,,,,,,,,,,,,,,,,,,,,,,,,,,,,,,,,,,,,,,,,,,,,,,,,,,,,,,,,,,
1720075281,4,0,4386.282227,4436.282227,4338.077148,4364.743652,4411.025879,4396.794922,4390.897461,4417.05127,4399.743652,4389.743652,4352.05127,4477.307617,4518.461426,4405.512695,,,,,,,,,,,,,,,,,,,,,,,,,,,,,,,,,,,,,,,,,,,,,,,,,,,,,,,,,,,,,,,,,,,,,,
1720075281,5,0,4378.846191,4431.410156,4305.897461,4364.871582,4410.897461,4395.897461,4387.179688,4414.102539,4394.102539,4387.563965,4350.128418,4463.974121,4515.384766,4406.666504,,,,,,,,,,,,,,,,,,,,,,,,,,,,,,,,,,,,,,,,,,,,,,,,,,,,,,,,,,,,,,,,,,,,,,
1720075281,6,0,4368.333496,4426.282227,4259.102539,4360.897461,4407.692383,4401.153809,4390.769043,4417.563965,4398.205078,4388.333496,4354.102539,4467.179688,4511.153809,4403.077148,,,,,,,,,,,,,,,,,,,,,,,,,,,,,,,,,,,,,,,,,,,,,,,,,,,,,,,,,,,,,,,,,,,,,,
1720075281,7,0,4362.436035,4423.974121,4220.641113,4355.641113,4402.436035,4405.641113,4398.461426,4430.512695,4405.897461,4387.05127,4350.384766,4473.333496,4500.128418,4386.794922,,,,,,,,,,,,,,,,,,,,,,,,,,,,,,,,,,,,,,,,,,,,,,,,,,,,,,,,,,,,,,,,,,,,,,
1720075281,8,0,4378.589844,4430,4194.487305,4359.358887,4403.717773,4402.179688,4392.820313,4426.410156,4405.256348,4386.666504,4339.358887,4461.538574,4489.615234,4376.794922,,,,,,,,,,,,,,,,,,,,,,,,,,,,,,,,,,,,,,,,,,,,,,,,,,,,,,,,,,,,,,,,,,,,,,
1720075281,9,0,4395.769043,4441.025879,4187.820313,4370,4409.230957,4400,4387.179688,4421.538574,4408.589844,4387.692383,4336.410156,4457.05127,4484.358887,4383.077148,,,,,,,,,,,,,,,,,,,,,,,,,,,,,,,,,,,,,,,,,,,,,,,,,,,,,,,,,,,,,,,,,,,,,,
1720075281,10,0,4401.153809,4446.922852,4201.282227,4381.538574,4412.436035,4402.179688,4390.384766,4426.153809,4416.666504,4383.974121,4337.307617,4472.05127,4479.102539,4393.461426,,,,,,,,,,,,,,,,,,,,,,,,,,,,,,,,,,,,,,,,,,,,,,,,,,,,,,,,,,,,,,,,,,,,,,
1720075281,11,0,4415.769043,4450.769043,4214.615234,4393.333496,4410.897461,4398.846191,4387.179688,4418.333496,4409.358887,4375.512695,4327.436035,4474.358887,4469.102539,4395.512695,,,,,,,,,,,,,,,,,,,,,,,,,,,,,,,,,,,,,,,,,,,,,,,,,,,,,,,,,,,,,,,,,,,,,,
1720075281,12,0,4435.256348,4458.846191,4221.153809,4398.333496,4408.461426,4397.820313,4380.769043,4408.846191,4395.256348,4365.256348,4316.410156,4464.102539,4456.922852,4388.974121,,,,,,,,,,,,,,,,,,,,,,,,,,,,,,,,,,,,,,,,,,,,,,,,,,,,,,,,,,,,,,,,,,,,,,
1720075281,13,0,4440.897461,4461.282227,4234.487305,4401.666504,4410.897461,4403.589844,4380.384766,4409.871582,4387.307617,4358.461426,4308.205078,4462.436035,4445,4376.666504,,,,,,,,,,,,,,,,,,,,,,,,,,,,,,,,,,,,,,,,,,,,,,,,,,,,,,,,,,,,,,,,,,,,,,
1720075281,14,0,4449.615234,4460.384766,4252.94873,4409.743652,4416.538574,4404.102539,4380.128418,4411.025879,4380,4355.128418,4296.794922,4465.256348,4440.384766,4368.333496,,,,,,,,,,,,,,,,,,,,,,,,,,,,,,,,,,,,,,,,,,,,,,,,,,,,,,,,,,,,,,,,,,,,,,
1720075281,15,0,4464.871582,4468.717773,4264.487305,4414.102539,4421.025879,4404.102539,4379.615234,4411.025879,4382.307617,4356.666504,4293.461426,4466.282227,4438.974121,4369.102539,,,,,,,,,,,,,,,,,,,,,,,,,,,,,,,,,,,,,,,,,,,,,,,,,,,,,,,,,,,,,,,,,,,,,,
1720075281,16,0,4463.589844,4476.794922,4266.025879,4414.358887,4420.512695,4409.615234,4383.205078,4411.922852,4392.563965,4361.538574,4294.230957,4464.743652,4429.871582,4366.153809,,,,,,,,,,,,,,,,,,,,,,,,,,,,,,,,,,,,,,,,,,,,,,,,,,,,,,,,,,,,,,,,,,,,,,
1720075281,17,0,4457.94873,4472.436035,4265.897461,4415.256348,4418.717773,4409.230957,4388.077148,4413.461426,4396.153809,4361.025879,4289.871582,4461.538574,4422.05127,4357.179688,2.333327,1.230523,0.644531,0.277495,0.248283,0.185863,0.138715,0.088653,0.077982,0.081928,37.855782,12.198967,3.63872,0.522096,0.258475,0.533627,1.047016,0.70926,0.200533,0.144152,0.611855,0.406119,0.172841,0.159195,0.108529,0.413912,0.341352,0.141154,0.12966,0.144656,0.790032,0.686983,0.276072,0.104044,0.132038,1.659114,1.663684,0.81185,0.192074,0.127307,1.904396,2.522022,0.472179,0.164508,0.148612,0.853931,0.880349,0.534993,0.206842,0.19665,1.965711,1.578437,0.842252,0.424549,0.230071,1.824069,0.877192,1.013479,0.304369,0.19613,12.954467,0.912337,0.505012,0.217576,0.173619,2.185283,1.399609,0.98818,0.333661,0.285861
1720075281,18,0,4457.94873,4462.436035,4270.128418,4415.897461,4418.589844,4406.025879,4395.128418,4423.846191,4399.102539,4359.871582,4292.307617,4463.333496,4423.461426,4353.461426,,,,,,,,,,,,,,,,,,,,,,,,,,,,,,,,,,,,,,,,,,,,,,,,,,,,,,,,,,,,,,,,,,,,,,
1720075281,19,0,4450.897461,4459.358887,4268.974121,4413.333496,4415.512695,4408.846191,4397.820313,4427.179688,4400,4359.358887,4299.743652,4465.384766,4426.538574,4351.282227,,,,,,,,,,,,,,,,,,,,,,,,,,,,,,,,,,,,,,,,,,,,,,,,,,,,,,,,,,,,,,,,,,,,,,
1720075281,20,0,4442.307617,4462.179688,4259.743652,4404.615234,4409.743652,4406.282227,4390.769043,4416.025879,4387.94873,4351.153809,4296.666504,4460.641113,4425.897461,4343.846191,,,,,,,,,,,,,,,,,,,,,,,,,,,,,,,,,,,,,,,,,,,,,,,,,,,,,,,,,,,,,,,,,,,,,,
1720075281,21,0,4441.410156,4461.538574,4263.077148,4398.717773,4407.179688,4398.589844,4384.615234,4412.563965,4376.282227,4335.769043,4286.794922,4458.974121,4425.897461,4339.743652,,,,,,,,,,,,,,,,,,,,,,,,,,,,,,,,,,,,,,,,,,,,,,,,,,,,,,,,,,,,,,,,,,,,,,
1720075281,22,0,4435.256348,4458.077148,4276.922852,4398.717773,4404.230957,4395.769043,4380.897461,4410.512695,4375.256348,4326.410156,4278.333496,4455.897461,4425.897461,4341.794922,,,,,,,,,,,,,,,,,,,,,,,,,,,,,,,,,,,,,,,,,,,,,,,,,,,,,,,,,,,,,,,,,,,,,,
1720075281,23,0,4429.743652,4456.538574,4287.307617,4394.871582,4399.102539,4395.512695,4381.922852,4410.512695,4379.871582,4328.717773,4273.589844,4450.769043,4435.384766,4343.846191,,,,,,,,,,,,,,,,,,,,,,,,,,,,,,,,,,,,,,,,,,,,,,,,,,,,,,,,,,,,,,,,,,,,,,
1720075281,24,0,4439.230957,4457.179688,4305.769043,4399.358887,4404.487305,4396.282227,4389.743652,4418.333496,4395.256348,4337.307617,4282.179688,4457.05127,4454.615234,4345.128418,,,,,,,,,,,,,,,,,,,,,,,,,,,,,,,,,,,,,,,,,,,,,,,,,,,,,,,,,,,,,,,,,,,,,,
1720075281,25,0,4442.692383,4457.94873,4326.282227,4408.717773,4408.974121,4397.94873,4390.128418,4417.820313,4413.205078,4343.461426,4288.717773,4463.846191,4469.743652,4344.102539,,,,,,,,,,,,,,,,,,,,,,,,,,,,,,,,,,,,,,,,,,,,,,,,,,,,,,,,,,,,,,,,,,,,,,
1720075281,26,0,4428.589844,4455.256348,4328.846191,4398.717773,4400,4397.563965,4387.179688,4417.820313,4416.922852,4341.025879,4283.589844,4458.717773,4481.410156,4341.794922,,,,,,,,,,,,,,,,,,,,,,,,,,,,,,,,,,,,,,,,,,,,,,,,,,,,,,,,,,,,,,,,,,,,,,
1720075281,27,0,4419.358887,4450.128418,4324.102539,4388.461426,4399.487305,4397.307617,4391.153809,4426.025879,4413.846191,4341.410156,4285.128418,4454.358887,4489.615234,4338.589844,,,,,,,,,,,,,,,,,,,,,,,,,,,,,,,,,,,,,,,,,,,,,,,,,,,,,,,,,,,,,,,,,,,,,,
1720075281,28,0,4423.589844,4453.077148,4331.666504,4400.128418,4411.922852,4404.358887,4396.282227,4426.922852,4415.897461,4351.153809,4298.717773,4464.358887,4494.487305,4339.102539,,,,,,,,,,,,,,,,,,,,,,,,,,,,,,,,,,,,,,,,,,,,,,,,,,,,,,,,,,,,,,,,,,,,,,
1720075281,29,0,4429.102539,4456.922852,4341.410156,4408.077148,4415.897461,4412.563965,4396.282227,4423.077148,4417.820313,4358.589844,4305.256348,4474.230957,4502.692383,4345,,,,,,,,,,,,,,,,,,,,,,,,,,,,,,,,,,,,,,,,,,,,,,,,,,,,,,,,,,,,,,,,,,,,,,
1720075281,30,0,4429.487305,4454.102539,4337.94873,4402.820313,4413.077148,4414.871582,4397.563965,4427.563965,4414.615234,4358.461426,4303.077148,4470,4511.666504,4348.461426,,,,,,,,,,,,,,,,,,,,,,,,,,,,,,,,,,,,,,,,,,,,,,,,,,,,,,,,,,,,,,,,,,,,,,
1720075281,31,0,4420.384766,4454.743652,4315.256348,4398.974121,4413.974121,4414.230957,4400.384766,4429.230957,4412.307617,4352.563965,4295.512695,4457.179688,4508.717773,4341.282227,,,,,,,,,,,,,,,,,,,,,,,,,,,,,,,,,,,,,,,,,,,,,,,,,,,,,,,,,,,,,,,,,,,,,,
1720075281,32,0,4408.717773,4454.615234,4292.179688,4395.384766,4411.794922,4414.358887,4397.94873,4421.282227,4413.589844,4347.820313,4283.717773,4452.307617,4501.282227,4332.436035,,,,,,,,,,,,,,,,,,,,,,,,,,,,,,,,,,,,,,,,,,,,,,,,,,,,,,,,,,,,,,,,,,,,,,
1720075281,33,0,4412.820313,4450.641113,4295.128418,4393.589844,4408.846191,4413.717773,4394.487305,4416.153809,4414.358887,4352.692383,4282.436035,4461.410156,4503.077148,4336.922852,2.305932,1.141764,0.73446,0.243318,0.234994,0.278526,0.180314,0.102307,0.078242,0.076907,40.494247,13.363392,3.957404,0.466376,0.255959,0.832532,1.128057,0.676395,0.200767,0.144453,0.714034,0.394199,0.149343,0.153599,0.115435,0.55672,0.320168,0.120288,0.14064,0.152863,0.898781,0.929689,0.291667,0.117666,0.129665,1.869421,2.023395,0.701863,0.210706,0.125659,2.341493,3.160028,0.376568,0.184493,0.14751,1.045126,1.051955,0.421741,0.2098,0.198756,2.5391,1.595114,0.65697,0.389797,0.233345,2.252209,0.864096,0.973921,0.241596,0.191115,14.24028,0.93705,0.505951,0.258248,0.180699,3.292454,1.429458,0.935138,0.312238,0.298084
1720075281,34,0,4424.871582,4452.692383,4310.641113,4396.666504,4410.512695,4410.769043,4394.487305,4413.333496,4412.179688,4361.538574,4282.94873,4464.230957,4500.256348,4344.615234,,,,,,,,,,,,,,,,,,,,,,,,,,,,,,,,,,,,,,,,,,,,,,,,,,,,,,,,,,,,,,,,,,,,,,
1720075281,35,0,4430.384766,4457.307617,4321.666504,4400.641113,4411.922852,4411.025879,4396.794922,4416.282227,4412.692383,4364.871582,4278.974121,4461.153809,4497.436035,4343.846191,,,,,,,,,,,,,,,,,,,,,,,,,,,,,,,,,,,,,,,,,,,,,,,,,,,,,,,,,,,,,,,,,,,,,,
1720075281,36,0,4426.153809,4455.512695,4330.897461,4401.922852,4406.153809,4413.589844,4395.897461,4422.94873,4416.025879,4365.512695,4285,4467.563965,4504.102539,4341.153809,,,,,,,,,,,,,,,,,,,,,,,,,,,,,,,,,,,,,,,,,,,,,,,,,,,,,,,,,,,,,,,,,,,,,,
1720075281,37,0,4419.487305,4452.820313,4338.589844,4398.717773,4398.333496,4412.820313,4394.230957,4423.333496,4414.615234,4366.025879,4295,4471.922852,4508.846191,4343.333496,,,,,,,,,,,,,,,,,,,,,,,,,,,,,,,,,,,,,,,,,,,,,,,,,,,,,,,,,,,,,,,,,,,,,,
1720075281,38,0,4420.897461,4453.846191,4338.077148,4396.153809,4398.717773,4411.794922,4391.794922,4423.717773,4413.717773,4364.487305,4295.128418,4466.410156,4507.563965,4344.487305,,,,,,,,,,,,,,,,,,,,,,,,,,,,,,,,,,,,,,,,,,,,,,,,,,,,,,,,,,,,,,,,,,,,,,
1720075281,39,0,4422.563965,4455.384766,4331.282227,4398.205078,4400.512695,4412.436035,4387.05127,4422.563965,4412.307617,4366.025879,4294.487305,4462.820313,4505.897461,4340.256348,,,,,,,,,,,,,,,,,,,,,,,,,,,,,,,,,,,,,,,,,,,,,,,,,,,,,,,,,,,,,,,,,,,,,,
1720075281,40,0,4414.615234,4452.820313,4318.846191,4397.179688,4396.282227,4411.153809,4387.05127,4417.436035,4407.436035,4365,4294.487305,4462.563965,4503.333496,4337.179688,,,,,,,,,,,,,,,,,,,,,,,,,,,,,,,,,,,,,,,,,,,,,,,,,,,,,,,,,,,,,,,,,,,,,,
1720075281,41,0,4408.205078,4445.256348,4296.794922,4393.589844,4394.871582,4411.025879,4389.871582,4417.307617,4406.282227,4358.974121,4292.563965,4457.94873,4500.641113,4337.179688,,,,,,,,,,,,,,,,,,,,,,,,,,,,,,,,,,,,,,,,,,,,,,,,,,,,,,,,,,,,,,,,,,,,,,
1720075281,42,0,4412.05127,4444.230957,4280.384766,4396.025879,4398.846191,4413.461426,4392.563965,4426.538574,4411.666504,4359.615234,4300.128418,4464.230957,4503.846191,4345,,,,,,,,,,,,,,,,,,,,,,,,,,,,,,,,,,,,,,,,,,,,,,,,,,,,,,,,,,,,,,,,,,,,,,
1720075281,43,0,4413.205078,4450,4272.692383,4398.077148,4397.692383,4412.436035,4394.358887,4430.769043,4415.256348,4364.487305,4304.102539,4477.179688,4507.179688,4353.205078,,,,,,,,,,,,,,,,,,,,,,,,,,,,,,,,,,,,,,,,,,,,,,,,,,,,,,,,,,,,,,,,,,,,,,
1720075281,44,0,4411.282227,4448.461426,4264.102539,4395.769043,4394.615234,4410.769043,4395.128418,4427.820313,4412.94873,4366.025879,4299.487305,4475.512695,4506.282227,4352.307617,,,,,,,,,,,,,,,,,,,,,,,,,,,,,,,,,,,,,,,,,,,,,,,,,,,,,,,,,,,,,,,,,,,,,,
1720075281,45,0,4414.871582,4449.102539,4258.974121,4396.794922,4396.922852,4412.307617,4397.820313,4432.179688,4413.205078,4365.512695,4299.871582,4473.333496,4506.153809,4354.871582,,,,,,,,,,,,,,,,,,,,,,,,,,,,,,,,,,,,,,,,,,,,,,,,,,,,,,,,,,,,,,,,,,,,,,
1720075281,46,0,4418.974121,4456.922852,4261.922852,4399.871582,4398.589844,4411.922852,4400.128418,4433.205078,4415.512695,4362.179688,4300.641113,4478.077148,4504.230957,4361.794922,,,,,,,,,,,,,,,,,,,,,,,,,,,,,,,,,,,,,,,,,,,,,,,,,,,,,,,,,,,,,,,,,,,,,,
1720075281,47,0,4413.461426,4456.282227,4260.512695,4397.05127,4395.769043,4410,4397.179688,4426.282227,4410.897461,4356.410156,4294.102539,4474.487305,4496.538574,4354.102539,,,,,,,,,,,,,,,,,,,,,,,,,,,,,,,,,,,,,,,,,,,,,,,,,,,,,,,,,,,,,,,,,,,,,,
1720075281,48,0,4405.256348,4446.922852,4253.974121,4394.487305,4394.487305,4410.256348,4396.666504,4426.410156,4406.666504,4356.922852,4290.384766,4464.358887,4492.179688,4341.153809,,,,,,,,,,,,,,,,,,,,,,,,,,,,,,,,,,,,,,,,,,,,,,,,,,,,,,,,,,,,,,,,,,,,,,
1720075281,49,0,4408.461426,4446.153809,4260.512695,4396.153809,4398.717773,4412.563965,4395.897461,4428.205078,4410,4365,4294.358887,4462.05127,4495.256348,4340.128418,2.601032,1.160325,0.776582,0.228307,0.233859,0.428953,0.263566,0.122158,0.077435,0.076423,42.940304,14.654366,4.222866,0.437413,0.270605,1.329579,1.245554,0.623151,0.20911,0.15945,0.851915,0.405338,0.154831,0.148045,0.123777,0.728832,0.291296,0.106446,0.149455,0.16024,1.000962,1.116446,0.30118,0.128992,0.129124,2.056728,2.204224,0.607813,0.233447,0.132895,2.576826,3.53424,0.397274,0.24538,0.149761,1.254717,1.165176,0.379304,0.219775,0.195984,3.144693,1.680633,0.562339,0.365006,0.243909,2.66058,1.052055,0.983893,0.217632,0.199765,14.979158,1.008206,0.552525,0.295461,0.192546,4.377903,1.646251,0.950366,0.306384,0.314217
1720075281,50,0,4415.641113,4450.641113,4265,4392.563965,4401.025879,4412.05127,4390.384766,4423.205078,4413.717773,4366.666504,4295.128418,4462.563965,4491.153809,4337.692383,,,,,,,,,,,,,,,,,,,,,,,,,,,,,,,,,,,,,,,,,,,,,,,,,,,,,,,,,,,,,,,,,,,,,,
1720075281,51,0,4419.871582,4448.205078,4252.179688,4384.743652,4398.205078,4408.717773,4392.94873,4423.846191,4411.538574,4359.615234,4292.94873,4459.615234,4481.922852,4332.179688,,,,,,,,,,,,,,,,,,,,,,,,,,,,,,,,,,,,,,,,,,,,,,,,,,,,,,,,,,,,,,,,,,,,,,
1720075281,52,0,4418.846191,4445.897461,4242.94873,4382.94873,4395.256348,4403.077148,4393.589844,4425.128418,4406.794922,4354.743652,4289.230957,4453.333496,4476.282227,4329.102539,,,,,,,,,,,,,,,,,,,,,,,,,,,,,,,,,,,,,,,,,,,,,,,,,,,,,,,,,,,,,,,,,,,,,,
1720075281,53,0,4411.538574,4447.05127,4247.94873,4381.282227,4396.282227,4398.717773,4383.589844,4415.128418,4401.922852,4357.692383,4286.410156,4448.205078,4476.153809,4325.128418,,,,,,,,,,,,,,,,,,,,,,,,,,,,,,,,,,,,,,,,,,,,,,,,,,,,,,,,,,,,,,,,,,,,,,
1720075281,54,0,4406.922852,4446.025879,4252.94873,4378.077148,4395,4397.692383,4379.615234,4411.153809,4397.307617,4357.820313,4287.692383,4451.153809,4482.307617,4327.94873,,,,,,,,,,,,,,,,,,,,,,,,,,,,,,,,,,,,,,,,,,,,,,,,,,,,,,,,,,,,,,,,,,,,,,
1720075281,55,0,4412.05127,4445.769043,4255.897461,4386.153809,4391.153809,4399.871582,4387.692383,4417.436035,4396.666504,4354.871582,4293.589844,4460.384766,4485.897461,4337.563965,,,,,,,,,,,,,,,,,,,,,,,,,,,,,,,,,,,,,,,,,,,,,,,,,,,,,,,,,,,,,,,,,,,,,,
1720075281,56,0,4414.358887,4446.794922,4270,4396.025879,4387.820313,4403.461426,4391.922852,4415.384766,4400,4358.974121,4297.820313,4468.205078,4485.384766,4339.871582,,,,,,,,,,,,,,,,,,,,,,,,,,,,,,,,,,,,,,,,,,,,,,,,,,,,,,,,,,,,,,,,,,,,,,
1720075281,57,0,4412.563965,4447.436035,4283.077148,4394.871582,4385.128418,4405.769043,4392.820313,4413.077148,4401.410156,4362.563965,4296.922852,4470.897461,4486.153809,4340.256348,,,,,,,,,,,,,,,,,,,,,,,,,,,,,,,,,,,,,,,,,,,,,,,,,,,,,,,,,,,,,,,,,,,,,,
1720075282,58,0,4414.102539,4447.05127,4265.128418,4388.717773,4381.153809,4403.717773,4392.692383,4419.102539,4396.538574,4356.410156,4294.871582,4468.333496,4482.436035,4341.025879,,,,,,,,,,,,,,,,,,,,,,,,,,,,,,,,,,,,,,,,,,,,,,,,,,,,,,,,,,,,,,,,,,,,,,
1720075282,59,0,4408.974121,4445.512695,4222.692383,4382.94873,4378.589844,4403.589844,4390.128418,4418.717773,4393.589844,4356.538574,4292.563965,4463.333496,4473.717773,4332.94873,,,,,,,,,,,,,,,,,,,,,,,,,,,,,,,,,,,,,,,,,,,,,,,,,,,,,,,,,,,,,,,,,,,,,,
1720075282,60,0,4399.615234,4445,4198.077148,4383.077148,4380.512695,4409.487305,4393.205078,4415.512695,4396.922852,4366.282227,4293.717773,4461.410156,4472.820313,4330.128418,,,,,,,,,,,,,,,,,,,,,,,,,,,,,,,,,,,,,,,,,,,,,,,,,,,,,,,,,,,,,,,,,,,,,,
1720075282,61,0,4396.794922,4445.256348,4196.538574,4384.871582,4379.102539,4410.384766,4392.307617,4415.897461,4392.820313,4364.230957,4293.717773,4460.641113,4476.282227,4337.179688,,,,,,,,,,,,,,,,,,,,,,,,,,,,,,,,,,,,,,,,,,,,,,,,,,,,,,,,,,,,,,,,,,,,,,
1720075282,62,0,4395,4444.102539,4185.384766,4381.538574,4375.769043,4407.179688,4386.538574,4411.410156,4383.205078,4356.538574,4289.102539,4457.820313,4473.974121,4332.179688,,,,,,,,,,,,,,,,,,,,,,,,,,,,,,,,,,,,,,,,,,,,,,,,,,,,,,,,,,,,,,,,,,,,,,
1720075282,63,0,4396.153809,4443.589844,4176.153809,4378.205078,4374.358887,4409.230957,4388.077148,4412.563965,4383.974121,4362.436035,4291.153809,4460.512695,4471.666504,4327.692383,,,,,,,,,,,,,,,,,,,,,,,,,,,,,,,,,,,,,,,,,,,,,,,,,,,,,,,,,,,,,,,,,,,,,,
1720075282,64,0,4403.333496,4443.333496,4186.666504,4378.333496,4368.461426,4408.461426,4388.333496,4417.94873,4386.666504,4368.077148,4295.384766,4462.436035,4464.487305,4333.846191,,,,,,,,,,,,,,,,,,,,,,,,,,,,,,,,,,,,,,,,,,,,,,,,,,,,,,,,,,,,,,,,,,,,,,
1720075282,65,0,4407.05127,4444.230957,4197.692383,4375.128418,4359.230957,4402.820313,4384.230957,4415.128418,4383.333496,4363.846191,4292.820313,4461.666504,4456.025879,4334.871582,3.353303,1.400378,0.761659,0.239701,0.240277,0.652586,0.407066,0.141914,0.07731,0.079663,44.608891,15.835196,4.299101,0.438324,0.298487,1.991136,1.41703,0.556057,0.223625,0.186842,0.988914,0.448944,0.178626,0.141988,0.131773,0.900371,0.266803,0.095117,0.151772,0.160887,1.073373,1.202975,0.314851,0.137428,0.129717,2.163911,2.13991,0.56046,0.262736,0.144963,2.560926,3.508912,0.599094,0.34053,0.152358,1.449953,1.175517,0.421336,0.231011,0.186623,3.713467,1.7333,0.577586,0.352333,0.258775,2.907496,1.378148,1.01277,0.226904,0.219202,15.506837,1.072541,0.611117,0.318095,0.20203,5.192313,1.912859,0.97735,0.31349,0.329863
1720075282,66,0,4409.230957,4447.307617,4207.820313,4379.230957,4361.794922,4405.128418,4386.153809,4414.230957,4386.153809,4363.974121,4296.025879,4467.692383,4460.769043,4337.820313,,,,,,,,,,,,,,,,,,,,,,,,,,,,,,,,,,,,,,,,,,,,,,,,,,,,,,,,,,,,,,,,,,,,,,
1720075282,67,0,4414.230957,4448.333496,4225,4393.717773,4375.384766,4413.974121,4391.025879,4418.974121,4391.282227,4370.128418,4304.743652,4480.128418,4466.538574,4349.615234,,,,,,,,,,,,,,,,,,,,,,,,,,,,,,,,,,,,,,,,,,,,,,,,,,,,,,,,,,,,,,,,,,,,,,
1720075282,68,0,4410.512695,4446.666504,4231.282227,4393.589844,4376.153809,4410.641113,4387.563965,4414.871582,4388.974121,4365.384766,4300,4477.436035,4457.820313,4345.897461,,,,,,,,,,,,,,,,,,,,,,,,,,,,,,,,,,,,,,,,,,,,,,,,,,,,,,,,,,,,,,,,,,,,,,
1720075282,69,0,4405.641113,4445.128418,4232.307617,4382.05127,4372.563965,4401.922852,4386.538574,4411.025879,4390.256348,4358.205078,4290.769043,4465.641113,4451.025879,4326.666504,,,,,,,,,,,,,,,,,,,,,,,,,,,,,,,,,,,,,,,,,,,,,,,,,,,,,,,,,,,,,,,,,,,,,,
1720075282,70,0,4410.641113,4445.128418,4247.820313,4380.897461,4378.589844,4404.102539,4387.692383,4418.461426,4398.717773,4363.717773,4294.487305,4466.153809,4453.461426,4321.922852,,,,,,,,,,,,,,,,,,,,,,,,,,,,,,,,,,,,,,,,,,,,,,,,,,,,,,,,,,,,,,,,,,,,,,
1720075282,71,0,4409.487305,4444.487305,4260.769043,4383.205078,4380.897461,4409.487305,4384.743652,4419.230957,4398.974121,4370,4298.333496,4466.538574,4448.846191,4325.641113,,,,,,,,,,,,,,,,,,,,,,,,,,,,,,,,,,,,,,,,,,,,,,,,,,,,,,,,,,,,,,,,,,,,,,
1720075282,72,0,4396.025879,4438.333496,4256.153809,4378.846191,4374.871582,4406.666504,4385,4414.871582,4388.717773,4365.641113,4293.077148,4454.871582,4440.256348,4315.769043,,,,,,,,,,,,,,,,,,,,,,,,,,,,,,,,,,,,,,,,,,,,,,,,,,,,,,,,,,,,,,,,,,,,,,
1720075282,73,0,4392.820313,4434.487305,4256.538574,4375.128418,4372.820313,4404.743652,4390.384766,4421.025879,4388.205078,4365.384766,4292.436035,4452.563965,4441.025879,4307.307617,,,,,,,,,,,,,,,,,,,,,,,,,,,,,,,,,,,,,,,,,,,,,,,,,,,,,,,,,,,,,,,,,,,,,,
1720075282,74,0,4401.153809,4438.974121,4271.025879,4375.384766,4377.820313,4403.974121,4389.230957,4423.589844,4395.256348,4371.282227,4298.717773,4461.538574,4445.384766,4315.256348,,,,,,,,,,,,,,,,,,,,,,,,,,,,,,,,,,,,,,,,,,,,,,,,,,,,,,,,,,,,,,,,,,,,,,
1720075282,75,0,4401.794922,4442.94873,4280.384766,4374.102539,4380.256348,4398.461426,4382.563965,4414.230957,4391.794922,4368.333496,4297.94873,4459.615234,4438.589844,4323.205078,,,,,,,,,,,,,,,,,,,,,,,,,,,,,,,,,,,,,,,,,,,,,,,,,,,,,,,,,,,,,,,,,,,,,,
1720075282,76,0,4402.05127,4443.717773,4285.897461,4377.692383,4381.153809,4400,4381.153809,4410.512695,4388.333496,4364.743652,4294.743652,4460.897461,4432.179688,4327.692383,,,,,,,,,,,,,,,,,,,,,,,,,,,,,,,,,,,,,,,,,,,,,,,,,,,,,,,,,,,,,,,,,,,,,,
1720075282,77,0,4410.384766,4445.641113,4295.769043,4385.897461,4383.077148,4403.974121,4382.94873,4414.871582,4391.282227,4365.256348,4297.820313,4474.743652,4434.102539,4332.307617,,,,,,,,,,,,,,,,,,,,,,,,,,,,,,,,,,,,,,,,,,,,,,,,,,,,,,,,,,,,,,,,,,,,,,
1720075282,78,0,4411.410156,4445,4304.743652,4386.666504,4388.205078,4399.743652,4380.641113,4409.743652,4384.487305,4364.102539,4300,4477.692383,4432.307617,4329.358887,,,,,,,,,,,,,,,,,,,,,,,,,,,,,,,,,,,,,,,,,,,,,,,,,,,,,,,,,,,,,,,,,,,,,,
1720075282,79,0,4407.94873,4442.94873,4318.717773,4381.410156,4389.743652,4401.153809,4379.615234,4406.282227,4376.794922,4363.077148,4302.05127,4475.256348,4429.102539,4333.205078,,,,,,,,,,,,,,,,,,,,,,,,,,,,,,,,,,,,,,,,,,,,,,,,,,,,,,,,,,,,,,,,,,,,,,
1720075282,80,0,4411.794922,4443.589844,4331.025879,4380.384766,4385.897461,4411.410156,4382.692383,4412.307617,4381.794922,4360.512695,4302.820313,4480.512695,4427.563965,4342.05127,,,,,,,,,,,,,,,,,,,,,,,,,,,,,,,,,,,,,,,,,,,,,,,,,,,,,,,,,,,,,,,,,,,,,,
1720075282,81,0,4407.05127,4442.436035,4330.641113,4381.153809,4391.282227,4411.794922,4382.05127,4412.307617,4382.436035,4357.05127,4297.563965,4478.717773,4419.487305,4335.769043,4.539656,1.877253,0.697712,0.278003,0.247238,0.926993,0.603152,0.155511,0.08071,0.084908,45.335819,16.911079,4.138474,0.472567,0.331523,2.707201,1.635496,0.482217,0.242282,0.219028,1.093033,0.52147,0.202094,0.135848,0.137585,1.03757,0.263545,0.086313,0.146904,0.15238,1.094732,1.181293,0.341336,0.14315,0.129228,2.146443,1.851025,0.570062,0.29553,0.156129,2.363278,3.083503,0.987903,0.449315,0.151841,1.595625,1.085458,0.543557,0.239325,0.171181,4.121841,1.686824,0.692507,0.347972,0.271911,2.855313,1.748422,1.024089,0.254102,0.243826,15.682296,1.088362,0.647748,0.320202,0.202743,5.448496,2.124253,0.963063,0.326736,0.339575
1720075282,82,0,4399.102539,4443.974121,4331.666504,4383.077148,4396.538574,4404.743652,4383.077148,4418.589844,4387.94873,4362.05127,4300.128418,4476.410156,4420.384766,4333.333496,,,,,,,,,,,,,,,,,,,,,,,,,,,,,,,,,,,,,,,,,,,,,,,,,,,,,,,,,,,,,,,,,,,,,,
1720075282,83,0,4403.077148,4444.102539,4339.743652,4386.025879,4390.384766,4403.461426,4386.153809,4428.717773,4400.512695,4371.410156,4308.974121,4483.974121,4426.666504,4342.179688,,,,,,,,,,,,,,,,,,,,,,,,,,,,,,,,,,,,,,,,,,,,,,,,,,,,,,,,,,,,,,,,,,,,,,
1720075282,84,0,4404.743652,4438.461426,4337.820313,4379.743652,4387.563965,4403.846191,4379.743652,4416.794922,4389.615234,4366.025879,4297.307617,4473.846191,4413.589844,4331.538574,,,,,,,,,,,,,,,,,,,,,,,,,,,,,,,,,,,,,,,,,,,,,,,,,,,,,,,,,,,,,,,,,,,,,,
1720075282,85,0,4404.615234,4439.487305,4338.077148,4373.974121,4394.615234,4405.128418,4381.410156,4410.256348,4378.333496,4356.538574,4285.256348,4462.307617,4403.717773,4319.615234,,,,,,,,,,,,,,,,,,,,,,,,,,,,,,,,,,,,,,,,,,,,,,,,,,,,,,,,,,,,,,,,,,,,,,
1720075282,86,0,4407.94873,4446.025879,4344.615234,4381.282227,4401.410156,4411.410156,4393.846191,4422.436035,4388.461426,4357.820313,4292.820313,4470.384766,4410.384766,4326.538574,,,,,,,,,,,,,,,,,,,,,,,,,,,,,,,,,,,,,,,,,,,,,,,,,,,,,,,,,,,,,,,,,,,,,,
1720075282,87,0,4400.128418,4444.871582,4334.871582,4385.256348,4401.282227,4415.256348,4394.102539,4422.307617,4388.589844,4358.333496,4289.743652,4468.974121,4404.102539,4320.128418,,,,,,,,,,,,,,,,,,,,,,,,,,,,,,,,,,,,,,,,,,,,,,,,,,,,,,,,,,,,,,,,,,,,,,
1720075282,88,0,4388.717773,4441.410156,4326.153809,4378.974121,4396.025879,4411.282227,4389.871582,4414.743652,4377.563965,4355.256348,4277.307617,4460.512695,4391.922852,4302.436035,,,,,,,,,,,,,,,,,,,,,,,,,,,,,,,,,,,,,,,,,,,,,,,,,,,,,,,,,,,,,,,,,,,,,,
1720075282,89,0,4396.410156,4443.589844,4342.05127,4382.563965,4398.077148,4410,4396.922852,4420.769043,4383.717773,4360.641113,4286.922852,4473.333496,4397.692383,4310.384766,,,,,,,,,,,,,,,,,,,,,,,,,,,,,,,,,,,,,,,,,,,,,,,,,,,,,,,,,,,,,,,,,,,,,,
1720075282,90,0,4416.410156,4446.025879,4367.563965,4395.256348,4410.256348,4413.974121,4399.743652,4425,4392.05127,4365.641113,4306.794922,4492.307617,4405.384766,4334.615234,,,,,,,,,,,,,,,,,,,,,,,,,,,,,,,,,,,,,,,,,,,,,,,,,,,,,,,,,,,,,,,,,,,,,,
1720075282,91,0,4428.589844,4446.025879,4386.666504,4400.512695,4415,4415.641113,4396.794922,4427.179688,4389.487305,4364.615234,4312.94873,4500,4403.077148,4341.282227,,,,,,,,,,,,,,,,,,,,,,,,,,,,,,,,,,,,,,,,,,,,,,,,,,,,,,,,,,,,,,,,,,,,,,
1720075282,92,0,4425.384766,4445,4388.461426,4398.205078,4412.179688,4413.846191,4397.820313,4431.794922,4392.563965,4368.974121,4312.307617,4500.256348,4406.025879,4331.410156,,,,,,,,,,,,,,,,,,,,,,,,,,,,,,,,,,,,,,,,,,,,,,,,,,,,,,,,,,,,,,,,,,,,,,
1720075282,93,0,4412.820313,4442.307617,4381.794922,4394.615234,4411.922852,4411.282227,4396.794922,4426.922852,4395.128418,4371.922852,4306.153809,4486.922852,4404.615234,4322.94873,,,,,,,,,,,,,,,,,,,,,,,,,,,,,,,,,,,,,,,,,,,,,,,,,,,,,,,,,,,,,,,,,,,,,,
1720075282,94,0,4411.794922,4443.333496,4392.692383,4396.153809,4412.307617,4412.179688,4399.743652,4426.282227,4391.794922,4367.94873,4301.666504,4483.077148,4395.769043,4326.282227,,,,,,,,,,,,,,,,,,,,,,,,,,,,,,,,,,,,,,,,,,,,,,,,,,,,,,,,,,,,,,,,,,,,,,
1720075282,95,0,4414.871582,4446.666504,4401.410156,4396.538574,4413.717773,4413.461426,4402.692383,4430.769043,4388.589844,4363.205078,4302.820313,4491.153809,4394.230957,4327.94873,,,,,,,,,,,,,,,,,,,,,,,,,,,,,,,,,,,,,,,,,,,,,,,,,,,,,,,,,,,,,,,,,,,,,,
1720075282,96,0,4409.230957,4440.769043,4383.205078,4388.077148,4412.563965,4411.410156,4396.153809,4422.692383,4385.641113,4359.615234,4298.717773,4480.512695,4389.871582,4316.922852,,,,,,,,,,,,,,,,,,,,,,,,,,,,,,,,,,,,,,,,,,,,,,,,,,,,,,,,,,,,,,,,,,,,,,
1720075282,97,0,4407.820313,4435.897461,4372.820313,4381.410156,4404.871582,4410.128418,4393.205078,4416.922852,4386.153809,4357.94873,4295.128418,4471.025879,4382.05127,4313.333496,5.929965,2.498032,0.609397,0.335036,0.249092,1.209725,0.813426,0.160597,0.088678,0.090272,44.267143,18.00009,3.895647,0.542586,0.361021,3.306681,1.862374,0.418411,0.263392,0.245301,1.151122,0.60545,0.212228,0.131039,0.139467,1.107027,0.293833,0.084816,0.137652,0.135876,1.053133,1.082952,0.378081,0.146445,0.12497,2.004525,1.442339,0.622077,0.324631,0.161447,2.096122,2.405125,1.487091,0.54295,0.145756,1.685108,0.947527,0.71946,0.244373,0.15301,4.252087,1.551398,0.873064,0.344607,0.276045,2.509046,2.081359,1.011364,0.282384,0.26603,15.662028,1.062077,0.648164,0.30436,0.192058,5.034412,2.247478,0.913775,0.33857,0.338434
1720075282,98,0,4407.563965,4438.717773,4380.769043,4380.641113,4399.358887,4411.794922,4397.563965,4423.717773,4387.820313,4358.205078,4296.153809,4478.077148,4380.897461,4315.512695,,,,,,,,,,,,,,,,,,,,,,,,,,,,,,,,,,,,,,,,,,,,,,,,,,,,,,,,,,,,,,,,,,,,,,
1720075282,99,0,4406.153809,4438.333496,4384.358887,4380.128418,4399.743652,4411.282227,4395.128418,4428.846191,4386.538574,4358.589844,4296.538574,4480.512695,4378.589844,4313.077148,,,,,,,,,,,,,,,,,,,,,,,,,,,,,,,,,,,,,,,,,,,,,,,,,,,,,,,,,,,,,,,,,,,,,,
1720075282,100,0,4415.641113,4438.461426,4393.333496,4380.512695,4400.256348,4409.487305,4390.384766,4421.538574,4387.436035,4362.820313,4296.666504,4477.94873,4375.384766,4319.230957,,,,,,,,,,,,,,,,,,,,,,,,,,,,,,,,,,,,,,,,,,,,,,,,,,,,,,,,,,,,,,,,,,,,,,
1720075282,101,0,4423.333496,4437.94873,4409.358887,4382.05127,4402.307617,4410.769043,4394.230957,4412.692383,4388.205078,4366.025879,4294.615234,4479.358887,4374.743652,4326.922852,,,,,,,,,,,,,,,,,,,,,,,,,,,,,,,,,,,,,,,,,,,,,,,,,,,,,,,,,,,,,,,,,,,,,,
1720075282,102,0,4420.384766,4433.717773,4407.179688,4380.128418,4404.615234,4411.922852,4397.307617,4415.769043,4385.128418,4361.282227,4288.461426,4476.410156,4364.871582,4324.230957,,,,,,,,,,,,,,,,,,,,,,,,,,,,,,,,,,,,,,,,,,,,,,,,,,,,,,,,,,,,,,,,,,,,,,
1720075282,103,0,4419.358887,4431.282227,4399.743652,4379.102539,4406.153809,4412.820313,4398.205078,4424.871582,4390,4358.717773,4290,4474.871582,4355.512695,4327.692383,,,,,,,,,,,,,,,,,,,,,,,,,,,,,,,,,,,,,,,,,,,,,,,,,,,,,,,,,,,,,,,,,,,,,,
1720075282,104,0,4421.666504,4432.05127,4407.563965,4381.922852,4409.615234,4414.358887,4407.179688,4430.256348,4400.128418,4360.128418,4295.641113,4479.102539,4357.179688,4333.205078,,,,,,,,,,,,,,,,,,,,,,,,,,,,,,,,,,,,,,,,,,,,,,,,,,,,,,,,,,,,,,,,,,,,,,
1720075282,105,0,4423.461426,4433.205078,4416.538574,4383.205078,4411.025879,4413.589844,4412.692383,4432.307617,4399.615234,4358.846191,4295.128418,4481.666504,4359.102539,4329.743652,,,,,,,,,,,,,,,,,,,,,,,,,,,,,,,,,,,,,,,,,,,,,,,,,,,,,,,,,,,,,,,,,,,,,,
1720075282,106,0,4431.794922,4439.102539,4416.410156,4385.128418,4412.436035,4412.563965,4406.410156,4431.794922,4395.384766,4358.589844,4295.384766,4481.025879,4354.102539,4332.179688,,,,,,,,,,,,,,,,,,,,,,,,,,,,,,,,,,,,,,,,,,,,,,,,,,,,,,,,,,,,,,,,,,,,,,
1720075282,107,0,4440.897461,4445,4403.333496,4395.384766,4416.922852,4415.641113,4404.102539,4429.230957,4397.820313,4358.974121,4296.410156,4478.974121,4347.179688,4334.358887,,,,,,,,,,,,,,,,,,,,,,,,,,,,,,,,,,,,,,,,,,,,,,,,,,,,,,,,,,,,,,,,,,,,,,
1720075282,108,0,4441.538574,4442.05127,4371.666504,4399.358887,4415.384766,4417.179688,4407.436035,4429.871582,4399.358887,4356.410156,4293.974121,4479.358887,4347.563965,4329.487305,,,,,,,,,,,,,,,,,,,,,,,,,,,,,,,,,,,,,,,,,,,,,,,,,,,,,,,,,,,,,,,,,,,,,,
1720075282,109,0,4440.256348,4441.410156,4330.512695,4390.512695,4410.512695,4413.205078,4400.641113,4427.436035,4392.179688,4355.641113,4293.333496,4478.333496,4356.666504,4330.512695,,,,,,,,,,,,,,,,,,,,,,,,,,,,,,,,,,,,,,,,,,,,,,,,,,,,,,,,,,,,,,,,,,,,,,
1720075282,110,0,4445.897461,4444.487305,4310.256348,4389.743652,4411.794922,4411.282227,4394.743652,4423.846191,4388.333496,4358.333496,4296.025879,4474.871582,4374.102539,4337.563965,,,,,,,,,,,,,,,,,,,,,,,,,,,,,,,,,,,,,,,,,,,,,,,,,,,,,,,,,,,,,,,,,,,,,,
1720075282,111,0,4452.05127,4444.615234,4307.436035,4398.333496,4413.077148,4413.589844,4399.743652,4428.717773,4396.666504,4360.128418,4293.205078,4476.922852,4385.641113,4337.94873,,,,,,,,,,,,,,,,,,,,,,,,,,,,,,,,,,,,,,,,,,,,,,,,,,,,,,,,,,,,,,,,,,,,,,
1720075282,112,0,4452.436035,4443.717773,4300.512695,4399.358887,4410.641113,4414.487305,4401.025879,4428.846191,4397.179688,4354.743652,4284.615234,4477.94873,4385.128418,4331.538574,,,,,,,,,,,,,,,,,,,,,,,,,,,,,,,,,,,,,,,,,,,,,,,,,,,,,,,,,,,,,,,,,,,,,,
1720075282,113,0,4452.820313,4445.256348,4290.384766,4396.794922,4410.384766,4413.846191,4396.538574,4423.589844,4389.871582,4346.538574,4276.794922,4469.871582,4391.410156,4323.974121,7.094668,3.072099,0.524516,0.39745,0.244255,1.427321,0.980096,0.15827,0.09924,0.094086,41.360371,18.881659,3.783487,0.638734,0.381496,3.611131,2.03292,0.37663,0.283518,0.256334,1.167527,0.673428,0.207269,0.128126,0.136884,1.09792,0.351208,0.094117,0.127675,0.115109,0.94168,0.955029,0.411919,0.147402,0.115847,1.783827,1.038491,0.681017,0.339083,0.159204,1.846974,1.676275,1.952806,0.593259,0.134746,1.73194,0.810549,0.897877,0.245156,0.136896,4.09992,1.367687,1.060918,0.335066,0.266605,1.969283,2.311239,0.984207,0.299813,0.279205,15.138518,1.027409,0.615195,0.279259,0.172834,4.171497,2.288614,0.860645,0.343284,0.325206
1720075282,114,0,4458.974121,4447.436035,4281.922852,4397.692383,4412.692383,4413.205078,4396.922852,4421.922852,4394.102539,4346.666504,4275.384766,4461.410156,4404.230957,4324.487305,,,,,,,,,,,,,,,,,,,,,,,,,,,,,,,,,,,,,,,,,,,,,,,,,,,,,,,,,,,,,,,,,,,,,,
1720075282,115,0,4461.410156,4445.256348,4278.077148,4397.307617,4412.692383,4405.641113,4398.205078,4421.025879,4399.743652,4350.128418,4277.692383,4460.256348,4412.436035,4331.282227,,,,,,,,,,,,,,,,,,,,,,,,,,,,,,,,,,,,,,,,,,,,,,,,,,,,,,,,,,,,,,,,,,,,,,
1720075282,116,0,4455.897461,4443.846191,4283.589844,4395.384766,4411.666504,4398.974121,4395.256348,4420,4396.666504,4347.436035,4276.666504,4461.410156,4415.512695,4330.512695,,,,,,,,,,,,,,,,,,,,,,,,,,,,,,,,,,,,,,,,,,,,,,,,,,,,,,,,,,,,,,,,,,,,,,
1720075282,117,0,4457.05127,4446.666504,4293.077148,4394.743652,4413.077148,4406.282227,4395.512695,4420.512695,4394.102539,4343.974121,4275.769043,4461.538574,4421.282227,4326.922852,,,,,,,,,,,,,,,,,,,,,,,,,,,,,,,,,,,,,,,,,,,,,,,,,,,,,,,,,,,,,,,,,,,,,,
1720075282,118,0,4464.743652,4448.077148,4291.410156,4396.282227,4414.358887,4413.589844,4401.410156,4418.974121,4398.205078,4348.589844,4278.333496,4462.692383,4430.384766,4330.128418,,,,,,,,,,,,,,,,,,,,,,,,,,,,,,,,,,,,,,,,,,,,,,,,,,,,,,,,,,,,,,,,,,,,,,
1720075282,119,0,4460.641113,4445.256348,4276.410156,4399.487305,4417.563965,4411.025879,4405.769043,4421.922852,4406.153809,4353.589844,4281.666504,4466.922852,4441.538574,4337.05127,,,,,,,,,,,,,,,,,,,,,,,,,,,,,,,,,,,,,,,,,,,,,,,,,,,,,,,,,,,,,,,,,,,,,,
