Timestamp,EEG.Counter,EEG.Interpolated,EEG.AF3,EEG.F7,EEG.F3,EEG.FC5,EEG.T7,EEG.P7,EEG.O1,EEG.O2,EEG.P8,EEG.T8,EEG.FC6,EEG.F4,EEG.F8,EEG.AF4,POW.AF3.Theta,POW.AF3.Alpha,POW.AF3.BetaL,POW.AF3.BetaH,POW.AF3.Gamma,POW.F7.Theta,POW.F7.Alpha,POW.F7.BetaL,POW.F7.BetaH,POW.F7.Gamma,POW.F3.Theta,POW.F3.Alpha,POW.F3.BetaL,POW.F3.BetaH,POW.F3.Gamma,POW.FC5.Theta,POW.FC5.Alpha,POW.FC5.BetaL,POW.FC5.BetaH,POW.FC5.Gamma,POW.T7.Theta,POW.T7.Alpha,POW.T7.BetaL,POW.T7.BetaH,POW.T7.Gamma,POW.P7.Theta,POW.P7.Alpha,POW.P7.BetaL,POW.P7.BetaH,POW.P7.Gamma,POW.O1.Theta,POW.O1.Alpha,POW.O1.BetaL,POW.O1.BetaH,POW.O1.Gamma,POW.O2.Theta,POW.O2.Alpha,POW.O2.BetaL,POW.O2.BetaH,POW.O2.Gamma,POW.P8.Theta,POW.P8.Alpha,POW.P8.BetaL,POW.P8.BetaH,POW.P8.Gamma,POW.T8.Theta,POW.T8.Alpha,POW.T8.BetaL,POW.T8.BetaH,POW.T8.Gamma,POW.FC6.Theta,POW.FC6.Alpha,POW.FC6.BetaL,POW.FC6.BetaH,POW.FC6.Gamma,POW.F4.Theta,POW.F4.Alpha,POW.F4.BetaL,POW.F4.BetaH,POW.F4.Gamma,POW.F8.Theta,POW.F8.Alpha,POW.F8.BetaL,POW.F8.BetaH,POW.F8.Gamma,POW.AF4.Theta,POW.AF4.Alpha,POW.AF4.BetaL,POW.AF4.BetaH,POW.AF4.Gamma
1720084099,10,0,4322.94873,4339.487305,4294.102539,4342.05127,4341.922852,4341.538574,4342.692383,4351.666504,4355.128418,4315.641113,4339.230957,4439.102539,4307.307617,4327.94873,,,,,,,,,,,,,,,,,,,,,,,,,,,,,,,,,,,,,,,,,,,,,,,,,,,,,,,,,,,,,,,,,,,,,,
1720084099,11,0,4318.205078,4339.230957,4295.769043,4341.794922,4341.025879,4341.666504,4344.358887,4349.102539,4349.487305,4310.769043,4342.563965,4443.077148,4305.384766,4331.538574,,,,,,,,,,,,,,,,,,,,,,,,,,,,,,,,,,,,,,,,,,,,,,,,,,,,,,,,,,,,,,,,,,,,,,
1720084099,12,0,4321.666504,4339.102539,4307.94873,4344.615234,4342.05127,4341.666504,4345,4347.436035,4343.333496,4310.384766,4341.794922,4440,4306.153809,4332.307617,,,,,,,,,,,,,,,,,,,,,,,,,,,,,,,,,,,,,,,,,,,,,,,,,,,,,,,,,,,,,,,,,,,,,,
1720084099,13,0,4329.358887,4340.256348,4312.179688,4343.589844,4344.615234,4342.563965,4341.410156,4341.153809,4340.769043,4310.128418,4337.820313,4434.871582,4310.128418,4327.307617,,,,,,,,,,,,,,,,,,,,,,,,,,,,,,,,,,,,,,,,,,,,,,,,,,,,,,,,,,,,,,,,,,,,,,
1720084099,14,0,4328.461426,4338.974121,4307.94873,4335.512695,4343.846191,4343.974121,4342.563965,4341.538574,4341.153809,4309.230957,4342.94873,4437.563965,4311.282227,4333.333496,,,,,,,,,,,,,,,,,,,,,,,,,,,,,,,,,,,,,,,,,,,,,,,,,,,,,,,,,,,,,,,,,,,,,,
1720084099,15,0,4324.743652,4333.333496,4305.256348,4326.410156,4336.794922,4340.512695,4342.05127,4345.641113,4343.846191,4308.077148,4348.461426,4443.205078,4312.436035,4347.179688,,,,,,,,,,,,,,,,,,,,,,,,,,,,,,,,,,,,,,,,,,,,,,,,,,,,,,,,,,,,,,,,,,,,,,
1720084099,16,0,4330,4335.897461,4310.641113,4328.974121,4332.692383,4336.282227,4330.384766,4333.974121,4350.512695,4310,4346.282227,4444.615234,4322.692383,4345.128418,,,,,,,,,,,,,,,,,,,,,,,,,,,,,,,,,,,,,,,,,,,,,,,,,,,,,,,,,,,,,,,,,,,,,,
1720084099,17,0,4342.307617,4345.641113,4317.05127,4338.717773,4332.94873,4335.512695,4327.563965,4332.820313,4352.563965,4313.461426,4347.179688,4450.256348,4330.128418,4349.358887,,,,,,,,,,,,,,,,,,,,,,,,,,,,,,,,,,,,,,,,,,,,,,,,,,,,,,,,,,,,,,,,,,,,,,
1720084099,18,0,4347.05127,4349.230957,4316.153809,4343.461426,4335.897461,4337.436035,4333.974121,4341.025879,4346.922852,4308.846191,4348.589844,4448.461426,4320.256348,4356.282227,,,,,,,,,,,,,,,,,,,,,,,,,,,,,,,,,,,,,,,,,,,,,,,,,,,,,,,,,,,,,,,,,,,,,,
1720084099,19,0,4342.820313,4349.358887,4315.256348,4345.769043,4341.666504,4341.794922,4336.153809,4339.615234,4348.333496,4304.230957,4345,4440,4310.256348,4346.153809,,,,,,,,,,,,,,,,,,,,,,,,,,,,,,,,,,,,,,,,,,,,,,,,,,,,,,,,,,,,,,,,,,,,,,
1720084099,20,0,4345.384766,4353.333496,4322.820313,4352.563965,4345,4343.333496,4341.922852,4346.922852,4355.769043,4309.230957,4349.871582,4447.692383,4318.205078,4353.205078,,,,,,,,,,,,,,,,,,,,,,,,,,,,,,,,,,,,,,,,,,,,,,,,,,,,,,,,,,,,,,,,,,,,,,
1720084099,21,0,4355.256348,4358.205078,4329.102539,4358.333496,4348.333496,4342.179688,4346.794922,4351.153809,4358.589844,4311.410156,4359.743652,4455,4329.102539,4367.436035,,,,,,,,,,,,,,,,,,,,,,,,,,,,,,,,,,,,,,,,,,,,,,,,,,,,,,,,,,,,,,,,,,,,,,
1720084099,22,0,4364.871582,4358.205078,4326.025879,4359.102539,4355.256348,4351.538574,4350.641113,4347.820313,4359.358887,4311.666504,4361.794922,4450.897461,4330.384766,4368.077148,,,,,,,,,,,,,,,,,,,,,,,,,,,,,,,,,,,,,,,,,,,,,,,,,,,,,,,,,,,,,,,,,,,,,,
1720084099,23,0,4372.94873,4356.282227,4326.153809,4358.974121,4356.153809,4361.025879,4357.179688,4355.641113,4361.794922,4318.974121,4363.333496,4452.05127,4327.563965,4375.641113,,,,,,,,,,,,,,,,,,,,,,,,,,,,,,,,,,,,,,,,,,,,,,,,,,,,,,,,,,,,,,,,,,,,,,
1720084099,24,0,4379.102539,4358.846191,4334.743652,4358.205078,4350.769043,4353.461426,4352.436035,4357.179688,4361.025879,4323.846191,4367.307617,4457.692383,4326.666504,4387.692383,0.694332,1.865179,0.508412,0.386839,0.08974,0.809851,1.2585,0.381702,0.278794,0.073566,0.896483,2.596756,0.520953,0.361526,0.154607,0.392922,1.438956,0.380673,0.156328,0.072941,0.344534,0.715051,0.245237,0.061242,0.077505,0.308043,0.588381,0.279636,0.042234,0.035366,0.726649,1.016448,0.420116,0.059469,0.072062,0.990911,0.840521,0.3173,0.122323,0.175676,1.179407,0.611475,0.347386,0.179506,0.100456,2.573592,0.805924,0.473155,0.201136,0.073091,4.039624,1.969106,0.707443,0.442794,0.122771,6.197774,5.583583,0.475759,0.52389,0.221311,3.519629,2.296624,0.535782,0.552027,0.123053,2.467845,3.082502,0.699402,0.613303,0.293894
1720084099,25,0,4387.563965,4363.589844,4343.205078,4360,4352.820313,4347.436035,4348.205078,4344.487305,4360.769043,4323.077148,4371.538574,4462.94873,4334.615234,4393.589844,,,,,,,,,,,,,,,,,,,,,,,,,,,,,,,,,,,,,,,,,,,,,,,,,,,,,,,,,,,,,,,,,,,,,,
1720084099,26,0,4397.307617,4365.897461,4344.230957,4363.077148,4356.922852,4356.538574,4356.794922,4348.461426,4365.897461,4325.641113,4374.487305,4471.410156,4345,4403.846191,,,,,,,,,,,,,,,,,,,,,,,,,,,,,,,,,,,,,,,,,,,,,,,,,,,,,,,,,,,,,,,,,,,,,,
1720084099,27,0,4401.410156,4367.94873,4340.641113,4360.128418,4353.974121,4355.769043,4351.922852,4354.615234,4366.794922,4323.846191,4371.922852,4472.307617,4343.589844,4414.743652,,,,,,,,,,,,,,,,,,,,,,,,,,,,,,,,,,,,,,,,,,,,,,,,,,,,,,,,,,,,,,,,,,,,,,
1720084099,28,0,4403.846191,4366.794922,4344.871582,4355.641113,4348.974121,4344.615234,4342.692383,4347.563965,4364.358887,4321.538574,4375.512695,4474.871582,4338.974121,4422.94873,,,,,,,,,,,,,,,,,,,,,,,,,,,,,,,,,,,,,,,,,,,,,,,,,,,,,,,,,,,,,,,,,,,,,,
1720084099,29,0,4414.871582,4366.922852,4356.025879,4358.717773,4344.487305,4341.794922,4348.077148,4350.641113,4361.666504,4321.410156,4385.256348,4490,4344.102539,4436.025879,,,,,,,,,,,,,,,,,,,,,,,,,,,,,,,,,,,,,,,,,,,,,,,,,,,,,,,,,,,,,,,,,,,,,,
1720084099,30,0,4432.692383,4378.589844,4364.230957,4365.641113,4345.128418,4341.794922,4346.410156,4347.94873,4358.461426,4314.487305,4382.307617,4494.487305,4351.025879,4444.743652,,,,,,,,,,,,,,,,,,,,,,,,,,,,,,,,,,,,,,,,,,,,,,,,,,,,,,,,,,,,,,,,,,,,,,
1720084099,31,0,4437.820313,4387.563965,4365.641113,4371.282227,4353.846191,4343.205078,4340.256348,4342.94873,4358.974121,4312.94873,4372.563965,4488.589844,4350.641113,4445.128418,,,,,,,,,,,,,,,,,,,,,,,,,,,,,,,,,,,,,,,,,,,,,,,,,,,,,,,,,,,,,,,,,,,,,,
1720084099,32,0,4424.743652,4381.922852,4359.743652,4373.461426,4358.974121,4349.487305,4343.589844,4347.820313,4359.743652,4317.94873,4371.025879,4483.077148,4342.692383,4431.410156,,,,,,,,,,,,,,,,,,,,,,,,,,,,,,,,,,,,,,,,,,,,,,,,,,,,,,,,,,,,,,,,,,,,,,
1720084099,33,0,4410.384766,4374.871582,4347.05127,4368.205078,4356.153809,4351.153809,4346.538574,4346.538574,4357.307617,4315.897461,4369.102539,4475.384766,4334.358887,4410.641113,,,,,,,,,,,,,,,,,,,,,,,,,,,,,,,,,,,,,,,,,,,,,,,,,,,,,,,,,,,,,,,,,,,,,,
1720084099,34,0,4400.512695,4370.256348,4333.333496,4360.128418,4353.205078,4347.563965,4347.05127,4344.743652,4356.410156,4310.641113,4358.461426,4465.641113,4329.871582,4399.102539,,,,,,,,,,,,,,,,,,,,,,,,,,,,,,,,,,,,,,,,,,,,,,,,,,,,,,,,,,,,,,,,,,,,,,
1720084099,35,0,4383.974121,4360.384766,4323.717773,4352.94873,4350.384766,4348.974121,4346.282227,4349.743652,4356.025879,4311.410156,4352.307617,4455.512695,4323.077148,4381.282227,,,,,,,,,,,,,,,,,,,,,,,,,,,,,,,,,,,,,,,,,,,,,,,,,,,,,,,,,,,,,,,,,,,,,,
1720084099,36,0,4370.256348,4352.820313,4321.282227,4348.077148,4348.077148,4352.307617,4341.922852,4351.922852,4352.94873,4315.897461,4357.94873,4453.846191,4318.205078,4362.307617,,,,,,,,,,,,,,,,,,,,,,,,,,,,,,,,,,,,,,,,,,,,,,,,,,,,,,,,,,,,,,,,,,,,,,
1720084099,37,0,4371.538574,4355,4326.025879,4347.94873,4348.461426,4350.128418,4343.077148,4350.256348,4353.589844,4320.128418,4366.794922,4459.358887,4322.436035,4367.692383,,,,,,,,,,,,,,,,,,,,,,,,,,,,,,,,,,,,,,,,,,,,,,,,,,,,,,,,,,,,,,,,,,,,,,
1720084099,38,0,4371.666504,4355.384766,4324.102539,4344.615234,4345.641113,4345.256348,4346.538574,4349.615234,4355.128418,4319.358887,4365.128418,4459.487305,4325.128418,4376.025879,,,,,,,,,,,,,,,,,,,,,,,,,,,,,,,,,,,,,,,,,,,,,,,,,,,,,,,,,,,,,,,,,,,,,,
1720084099,39,0,4364.487305,4350.128418,4316.538574,4337.692383,4340.128418,4341.410156,4344.743652,4347.563965,4352.94873,4315.512695,4357.307617,4456.794922,4321.666504,4365.128418,,,,,,,,,,,,,,,,,,,,,,,,,,,,,,,,,,,,,,,,,,,,,,,,,,,,,,,,,,,,,,,,,,,,,,
1720084099,40,0,4365.897461,4350.769043,4322.820313,4338.846191,4339.743652,4342.179688,4344.102539,4355.128418,4352.05127,4319.487305,4360.641113,4472.563965,4324.615234,4372.563965,0.475198,1.905066,0.623835,0.350785,0.081517,0.478929,1.172845,0.457876,0.239172,0.068792,0.670396,2.562097,0.663508,0.340418,0.147124,0.287129,1.273044,0.386736,0.146746,0.069917,0.348384,0.576962,0.27333,0.055855,0.078719,0.258136,0.557258,0.306419,0.046805,0.034121,0.576968,1.015713,0.462336,0.059442,0.082258,0.872624,0.916695,0.29686,0.111087,0.185803,1.172924,0.542598,0.280937,0.175531,0.097403,2.146923,0.655041,0.403416,0.191184,0.0755,3.286906,1.710369,0.684629,0.390517,0.131724,5.013261,4.583899,0.514647,0.474972,0.220475,3.115749,1.775622,0.694015,0.485844,0.122101,2.05662,2.502424,0.893559,0.558879,0.28454
1720084099,41,0,4378.077148,4361.410156,4339.358887,4346.538574,4342.563965,4341.538574,4341.410156,4353.974121,4351.410156,4324.102539,4369.230957,4491.025879,4335.641113,4391.410156,,,,,,,,,,,,,,,,,,,,,,,,,,,,,,,,,,,,,,,,,,,,,,,,,,,,,,,,,,,,,,,,,,,,,,
1720084099,42,0,4386.410156,4369.615234,4348.461426,4353.846191,4343.333496,4341.282227,4340.256348,4342.307617,4351.282227,4322.94873,4374.743652,4495.512695,4343.077148,4390.256348,,,,,,,,,,,,,,,,,,,,,,,,,,,,,,,,,,,,,,,,,,,,,,,,,,,,,,,,,,,,,,,,,,,,,,
1720084099,43,0,4378.974121,4364.615234,4345.641113,4353.589844,4342.820313,4346.794922,4346.794922,4351.153809,4350.512695,4315.512695,4368.974121,4493.589844,4336.282227,4385,,,,,,,,,,,,,,,,,,,,,,,,,,,,,,,,,,,,,,,,,,,,,,,,,,,,,,,,,,,,,,,,,,,,,,
1720084099,44,0,4360.384766,4355.641113,4328.461426,4345.256348,4343.846191,4352.307617,4346.410156,4349.871582,4342.436035,4308.717773,4350.256348,4476.025879,4319.743652,4366.922852,,,,,,,,,,,,,,,,,,,,,,,,,,,,,,,,,,,,,,,,,,,,,,,,,,,,,,,,,,,,,,,,,,,,,,
1720084099,45,0,4349.487305,4348.333496,4313.205078,4340.641113,4346.538574,4354.102539,4345.897461,4339.230957,4338.077148,4313.974121,4346.282227,4459.230957,4317.563965,4348.461426,,,,,,,,,,,,,,,,,,,,,,,,,,,,,,,,,,,,,,,,,,,,,,,,,,,,,,,,,,,,,,,,,,,,,,
1720084099,46,0,4346.025879,4344.615234,4308.589844,4340.384766,4344.487305,4352.05127,4349.487305,4347.94873,4345.384766,4321.410156,4357.179688,4457.820313,4325.641113,4348.077148,,,,,,,,,,,,,,,,,,,,,,,,,,,,,,,,,,,,,,,,,,,,,,,,,,,,,,,,,,,,,,,,,,,,,,
1720084099,47,0,4340.897461,4347.05127,4300.512695,4338.333496,4341.025879,4351.282227,4348.461426,4350.256348,4350.641113,4317.820313,4354.102539,4455.128418,4324.871582,4338.846191,,,,,,,,,,,,,,,,,,,,,,,,,,,,,,,,,,,,,,,,,,,,,,,,,,,,,,,,,,,,,,,,,,,,,,
1720084099,48,0,4339.358887,4350.128418,4293.461426,4337.94873,4343.205078,4352.94873,4350.128418,4348.077148,4349.743652,4312.94873,4348.717773,4452.94873,4320.641113,4332.94873,,,,,,,,,,,,,,,,,,,,,,,,,,,,,,,,,,,,,,,,,,,,,,,,,,,,,,,,,,,,,,,,,,,,,,
1720084099,49,0,4342.307617,4350,4298.717773,4337.563965,4344.102539,4351.025879,4351.410156,4351.922852,4347.436035,4311.794922,4352.563965,4454.615234,4320.769043,4340.384766,,,,,,,,,,,,,,,,,,,,,,,,,,,,,,,,,,,,,,,,,,,,,,,,,,,,,,,,,,,,,,,,,,,,,,
1720084099,50,0,4344.487305,4351.538574,4306.666504,4333.846191,4339.230957,4348.205078,4345.128418,4346.922852,4342.820313,4310.769043,4350.769043,4454.871582,4322.436035,4339.615234,,,,,,,,,,,,,,,,,,,,,,,,,,,,,,,,,,,,,,,,,,,,,,,,,,,,,,,,,,,,,,,,,,,,,,
1720084099,51,0,4347.820313,4353.974121,4310,4337.94873,4336.922852,4347.820313,4343.077148,4341.410156,4341.666504,4310.897461,4348.974121,4459.487305,4324.615234,4341.538574,,,,,,,,,,,,,,,,,,,,,,,,,,,,,,,,,,,,,,,,,,,,,,,,,,,,,,,,,,,,,,,,,,,,,,
1720084099,52,0,4347.436035,4351.794922,4310.769043,4341.410156,4337.179688,4345.128418,4346.538574,4345.512695,4343.846191,4310.641113,4350.897461,4466.282227,4325.897461,4349.871582,,,,,,,,,,,,,,,,,,,,,,,,,,,,,,,,,,,,,,,,,,,,,,,,,,,,,,,,,,,,,,,,,,,,,,
1720084099,53,0,4347.94873,4352.563965,4308.974121,4334.487305,4335.641113,4339.615234,4342.563965,4341.410156,4342.563965,4312.436035,4349.102539,4467.94873,4328.205078,4347.820313,,,,,,,,,,,,,,,,,,,,,,,,,,,,,,,,,,,,,,,,,,,,,,,,,,,,,,,,,,,,,,,,,,,,,,
1720084099,54,0,4355.512695,4356.794922,4310.897461,4333.846191,4333.589844,4340.769043,4340.769043,4342.563965,4341.666504,4316.282227,4349.871582,4471.794922,4332.05127,4351.025879,,,,,,,,,,,,,,,,,,,,,,,,,,,,,,,,,,,,,,,,,,,,,,,,,,,,,,,,,,,,,,,,,,,,,,
1720084099,55,0,4357.94873,4358.205078,4314.102539,4340.641113,4332.436035,4343.589844,4344.230957,4350,4343.461426,4316.282227,4349.487305,4469.487305,4329.102539,4358.333496,,,,,,,,,,,,,,,,,,,,,,,,,,,,,,,,,,,,,,,,,,,,,,,,,,,,,,,,,,,,,,,,,,,,,,
1720084099,56,0,4358.461426,4358.974121,4311.794922,4342.307617,4336.538574,4345.641113,4344.230957,4343.461426,4346.410156,4319.102539,4346.153809,4456.025879,4323.717773,4353.846191,0.616373,2.069326,0.799407,0.325859,0.074354,0.287865,1.096091,0.568824,0.21082,0.0667,0.572755,2.529649,0.870089,0.319624,0.136906,0.240341,1.115023,0.399278,0.144627,0.066072,0.359522,0.473056,0.313232,0.058817,0.079386,0.234095,0.540584,0.334928,0.054945,0.034479,0.481347,1.02841,0.502851,0.067079,0.092009,0.79205,1.021462,0.285845,0.097247,0.191331,1.348569,0.506449,0.239213,0.17589,0.096126,1.820431,0.607103,0.360206,0.193157,0.081835,2.74456,1.639507,0.709745,0.336412,0.143697,3.97469,3.798007,0.618845,0.409922,0.217703,2.82586,1.492447,0.901417,0.40099,0.122814,2.032496,2.226588,1.202445,0.490816,0.269727
1720084099,57,0,4363.846191,4357.436035,4310.641113,4342.436035,4345.769043,4353.846191,4350.256348,4345,4351.282227,4324.871582,4349.871582,4459.743652,4325,4357.563965,,,,,,,,,,,,,,,,,,,,,,,,,,,,,,,,,,,,,,,,,,,,,,,,,,,,,,,,,,,,,,,,,,,,,,
1720084099,58,0,4370.512695,4358.717773,4313.974121,4347.820313,4351.922852,4359.487305,4357.692383,4352.692383,4353.717773,4323.846191,4355.512695,4483.077148,4331.025879,4372.563965,,,,,,,,,,,,,,,,,,,,,,,,,,,,,,,,,,,,,,,,,,,,,,,,,,,,,,,,,,,,,,,,,,,,,,
1720084099,59,0,4385.384766,4366.282227,4322.05127,4351.153809,4352.563965,4358.717773,4359.743652,4356.282227,4356.538574,4325.512695,4364.102539,4505.512695,4338.846191,4393.205078,,,,,,,,,,,,,,,,,,,,,,,,,,,,,,,,,,,,,,,,,,,,,,,,,,,,,,,,,,,,,,,,,,,,,,
1720084099,60,0,4402.436035,4366.025879,4330,4348.589844,4353.333496,4359.358887,4359.743652,4362.179688,4363.461426,4335.512695,4377.436035,4519.230957,4346.410156,4414.871582,,,,,,,,,,,,,,,,,,,,,,,,,,,,,,,,,,,,,,,,,,,,,,,,,,,,,,,,,,,,,,,,,,,,,,
1720084099,61,0,4411.666504,4363.205078,4336.666504,4349.615234,4353.717773,4360.384766,4359.102539,4359.230957,4362.692383,4336.153809,4377.94873,4522.820313,4349.487305,4427.05127,,,,,,,,,,,,,,,,,,,,,,,,,,,,,,,,,,,,,,,,,,,,,,,,,,,,,,,,,,,,,,,,,,,,,,
1720084099,62,0,4429.358887,4374.743652,4344.487305,4354.615234,4353.333496,4357.179688,4357.94873,4351.410156,4351.794922,4325.897461,4368.846191,4521.922852,4347.179688,4433.205078,,,,,,,,,,,,,,,,,,,,,,,,,,,,,,,,,,,,,,,,,,,,,,,,,,,,,,,,,,,,,,,,,,,,,,
1720084099,63,0,4451.922852,4388.717773,4351.922852,4358.333496,4355.897461,4355.512695,4355,4349.743652,4348.077148,4321.794922,4371.025879,4516.922852,4344.615234,4437.563965,,,,,,,,,,,,,,,,,,,,,,,,,,,,,,,,,,,,,,,,,,,,,,,,,,,,,,,,,,,,,,,,,,,,,,
1720084099,64,0,4458.333496,4392.436035,4356.153809,4361.794922,4355,4356.794922,4353.077148,4351.666504,4349.230957,4325.512695,4372.692383,4503.717773,4343.974121,4442.436035,,,,,,,,,,,,,,,,,,,,,,,,,,,,,,,,,,,,,,,,,,,,,,,,,,,,,,,,,,,,,,,,,,,,,,
1720084099,65,0,4466.794922,4398.717773,4359.487305,4363.974121,4348.974121,4354.358887,4351.794922,4351.153809,4344.358887,4325.256348,4363.205078,4490.769043,4337.820313,4444.615234,,,,,,,,,,,,,,,,,,,,,,,,,,,,,,,,,,,,,,,,,,,,,,,,,,,,,,,,,,,,,,,,,,,,,,
1720084099,66,0,4483.205078,4410,4362.820313,4367.820313,4350.769043,4353.205078,4350.897461,4351.282227,4341.666504,4321.153809,4361.410156,4485.384766,4330,4439.615234,,,,,,,,,,,,,,,,,,,,,,,,,,,,,,,,,,,,,,,,,,,,,,,,,,,,,,,,,,,,,,,,,,,,,,
1720084099,67,0,4485.256348,4417.436035,4368.077148,4377.820313,4358.846191,4356.410156,4353.974121,4349.743652,4344.358887,4318.461426,4364.358887,4484.487305,4326.025879,4428.205078,,,,,,,,,,,,,,,,,,,,,,,,,,,,,,,,,,,,,,,,,,,,,,,,,,,,,,,,,,,,,,,,,,,,,,
1720084099,68,0,4481.025879,4419.230957,4373.077148,4384.102539,4358.205078,4358.717773,4360.897461,4355.897461,4344.487305,4315.384766,4355.641113,4485.384766,4318.077148,4423.589844,,,,,,,,,,,,,,,,,,,,,,,,,,,,,,,,,,,,,,,,,,,,,,,,,,,,,,,,,,,,,,,,,,,,,,
1720084100,69,0,4478.077148,4416.538574,4368.974121,4377.692383,4353.333496,4357.820313,4357.820313,4358.077148,4341.153809,4311.282227,4346.666504,4481.282227,4308.974121,4417.94873,,,,,,,,,,,,,,,,,,,,,,,,,,,,,,,,,,,,,,,,,,,,,,,,,,,,,,,,,,,,,,,,,,,,,,
1720084100,70,0,4466.666504,4412.307617,4357.94873,4371.153809,4354.871582,4356.282227,4348.717773,4340.512695,4338.846191,4309.358887,4342.563965,4469.102539,4309.615234,4394.615234,,,,,,,,,,,,,,,,,,,,,,,,,,,,,,,,,,,,,,,,,,,,,,,,,,,,,,,,,,,,,,,,,,,,,,
1720084100,71,0,4458.077148,4410.641113,4352.307617,4374.871582,4358.589844,4359.615234,4356.794922,4344.871582,4343.461426,4312.563965,4340,4470.256348,4310.897461,4390.769043,,,,,,,,,,,,,,,,,,,,,,,,,,,,,,,,,,,,,,,,,,,,,,,,,,,,,,,,,,,,,,,,,,,,,,
1720084100,72,0,4459.487305,4410.769043,4350.769043,4375,4360.641113,4361.538574,4364.358887,4359.871582,4350.128418,4319.358887,4343.077148,4475,4307.820313,4400.128418,1.365943,2.363938,1.014888,0.3199,0.071077,0.30187,1.064515,0.69891,0.198999,0.067721,0.653222,2.5561,1.12113,0.308698,0.12812,0.293295,1.003532,0.427776,0.149302,0.063476,0.379532,0.416732,0.354443,0.070948,0.080571,0.24221,0.547734,0.362278,0.064465,0.038061,0.463444,1.0533,0.523637,0.079983,0.099091,0.777635,1.128941,0.273244,0.084394,0.191095,1.670374,0.498533,0.223113,0.184229,0.096051,1.699228,0.64189,0.349401,0.209499,0.091434,2.560498,1.688293,0.783707,0.295144,0.157943,3.343697,3.442284,0.773533,0.34507,0.211608,2.745751,1.499683,1.115506,0.325202,0.127079,2.647335,2.411187,1.57775,0.426682,0.250893
1720084100,73,0,4462.307617,4411.025879,4347.94873,4371.666504,4359.871582,4358.974121,4357.179688,4348.846191,4350.512695,4323.846191,4350.256348,4468.077148,4312.563965,4395,,,,,,,,,,,,,,,,,,,,,,,,,,,,,,,,,,,,,,,,,,,,,,,,,,,,,,,,,,,,,,,,,,,,,,
1720084100,74,0,4467.436035,4411.025879,4353.589844,4375.769043,4360.384766,4358.974121,4356.794922,4346.794922,4346.666504,4319.230957,4350.641113,4470.641113,4317.692383,4405.384766,,,,,,,,,,,,,,,,,,,,,,,,,,,,,,,,,,,,,,,,,,,,,,,,,,,,,,,,,,,,,,,,,,,,,,
1720084100,75,0,4477.179688,4414.358887,4364.487305,4382.94873,4366.794922,4361.153809,4361.922852,4355.384766,4345.128418,4315.769043,4350.897461,4480.769043,4315.384766,4424.102539,,,,,,,,,,,,,,,,,,,,,,,,,,,,,,,,,,,,,,,,,,,,,,,,,,,,,,,,,,,,,,,,,,,,,,
1720084100,76,0,4489.615234,4418.974121,4368.717773,4382.820313,4366.666504,4359.871582,4360.897461,4351.794922,4347.05127,4323.846191,4361.794922,4488.205078,4326.410156,4440,,,,,,,,,,,,,,,,,,,,,,,,,,,,,,,,,,,,,,,,,,,,,,,,,,,,,,,,,,,,,,,,,,,,,,
1720084100,77,0,4505.769043,4417.563965,4372.563965,4381.538574,4359.102539,4358.205078,4360.256348,4352.692383,4354.230957,4330.256348,4378.333496,4498.717773,4349.743652,4475.512695,,,,,,,,,,,,,,,,,,,,,,,,,,,,,,,,,,,,,,,,,,,,,,,,,,,,,,,,,,,,,,,,,,,,,,
1720084100,78,0,4519.871582,4416.153809,4382.820313,4385.769043,4360,4359.102539,4360.769043,4357.05127,4357.692383,4329.743652,4386.666504,4506.666504,4364.102539,4502.179688,,,,,,,,,,,,,,,,,,,,,,,,,,,,,,,,,,,,,,,,,,,,,,,,,,,,,,,,,,,,,,,,,,,,,,
1720084100,79,0,4531.025879,4422.94873,4387.05127,4387.94873,4366.153809,4362.307617,4360.128418,4352.307617,4348.589844,4327.179688,4385.384766,4510.512695,4365,4503.461426,,,,,,,,,,,,,,,,,,,,,,,,,,,,,,,,,,,,,,,,,,,,,,,,,,,,,,,,,,,,,,,,,,,,,,
1720084100,80,0,4538.717773,4427.436035,4386.153809,4389.743652,4369.615234,4368.205078,4366.538574,4356.153809,4339.871582,4326.410156,4380.769043,4516.025879,4360,4512.05127,,,,,,,,,,,,,,,,,,,,,,,,,,,,,,,,,,,,,,,,,,,,,,,,,,,,,,,,,,,,,,,,,,,,,,
1720084100,81,0,4541.410156,4426.666504,4393.846191,4396.153809,4371.922852,4371.025879,4369.230957,4359.358887,4341.153809,4325.512695,4375.128418,4515,4354.871582,4515.128418,,,,,,,,,,,,,,,,,,,,,,,,,,,,,,,,,,,,,,,,,,,,,,,,,,,,,,,,,,,,,,,,,,,,,,
1720084100,82,0,4546.794922,4428.974121,4400.641113,4401.538574,4372.436035,4370.384766,4365.384766,4351.794922,4342.05127,4322.436035,4371.922852,4510.769043,4353.205078,4506.153809,,,,,,,,,,,,,,,,,,,,,,,,,,,,,,,,,,,,,,,,,,,,,,,,,,,,,,,,,,,,,,,,,,,,,,
1720084100,83,0,4548.846191,4431.794922,4398.974121,4400.897461,4373.589844,4371.922852,4366.794922,4354.487305,4339.230957,4319.615234,4369.487305,4514.615234,4346.025879,4508.077148,,,,,,,,,,,,,,,,,,,,,,,,,,,,,,,,,,,,,,,,,,,,,,,,,,,,,,,,,,,,,,,,,,,,,,
1720084100,84,0,4542.307617,4430.256348,4396.282227,4398.589844,4375.128418,4373.461426,4366.153809,4356.794922,4339.743652,4323.717773,4366.025879,4515,4337.307617,4501.282227,,,,,,,,,,,,,,,,,,,,,,,,,,,,,,,,,,,,,,,,,,,,,,,,,,,,,,,,,,,,,,,,,,,,,,
1720084100,85,0,4537.307617,4429.743652,4391.794922,4400.128418,4373.205078,4372.05127,4364.102539,4354.358887,4342.692383,4335.897461,4371.282227,4512.692383,4345.256348,4490,,,,,,,,,,,,,,,,,,,,,,,,,,,,,,,,,,,,,,,,,,,,,,,,,,,,,,,,,,,,,,,,,,,,,,
1720084100,86,0,4531.153809,4430.641113,4384.871582,4400.769043,4373.589844,4369.102539,4367.563965,4352.692383,4345.512695,4341.922852,4376.922852,4511.794922,4352.692383,4486.025879,,,,,,,,,,,,,,,,,,,,,,,,,,,,,,,,,,,,,,,,,,,,,,,,,,,,,,,,,,,,,,,,,,,,,,
1720084100,87,0,4520.384766,4427.563965,4377.563965,4395.128418,4371.666504,4366.153809,4367.692383,4349.102539,4342.179688,4335,4367.94873,4503.974121,4339.358887,4471.794922,,,,,,,,,,,,,,,,,,,,,,,,,,,,,,,,,,,,,,,,,,,,,,,,,,,,,,,,,,,,,,,,,,,,,,
1720084100,88,0,4510.641113,4420.641113,4367.179688,4385.769043,4359.615234,4359.615234,4357.05127,4344.743652,4329.102539,4323.333496,4353.333496,4490.641113,4325.256348,4453.589844,2.910746,2.740285,1.231783,0.331036,0.073813,0.490706,1.090916,0.817437,0.201753,0.070856,0.905715,2.657233,1.371365,0.311672,0.123828,0.437064,0.95152,0.472562,0.158138,0.063447,0.405102,0.408828,0.381642,0.089614,0.082317,0.279268,0.58376,0.378613,0.072684,0.045519,0.519003,1.080046,0.506708,0.093392,0.102188,0.824215,1.197363,0.252068,0.07549,0.185962,2.041312,0.500382,0.228095,0.199061,0.095469,1.791812,0.700107,0.360143,0.235083,0.102148,2.707593,1.735426,0.869779,0.271751,0.173166,3.280707,3.48729,0.976489,0.293645,0.20224,2.876988,1.70383,1.271963,0.275556,0.135803,4.233819,3.031949,1.939509,0.374688,0.231392
1720084100,89,0,4503.846191,4412.563965,4362.692383,4379.615234,4353.974121,4353.589844,4349.615234,4339.743652,4322.820313,4318.974121,4350.512695,4488.205078,4328.333496,4452.307617,,,,,,,,,,,,,,,,,,,,,,,,,,,,,,,,,,,,,,,,,,,,,,,,,,,,,,,,,,,,,,,,,,,,,,
1720084100,90,0,4507.307617,4410.128418,4374.230957,4380.256348,4360.256348,4355.769043,4359.615234,4346.922852,4333.717773,4327.820313,4361.282227,4505.384766,4335.256348,4466.922852,,,,,,,,,,,,,,,,,,,,,,,,,,,,,,,,,,,,,,,,,,,,,,,,,,,,,,,,,,,,,,,,,,,,,,
1720084100,91,0,4519.615234,4418.717773,4383.077148,4387.563965,4364.230957,4359.358887,4365.769043,4352.94873,4341.153809,4332.563965,4368.461426,4512.307617,4339.487305,4475.128418,,,,,,,,,,,,,,,,,,,,,,,,,,,,,,,,,,,,,,,,,,,,,,,,,,,,,,,,,,,,,,,,,,,,,,
1720084100,92,0,4523.846191,4429.102539,4383.077148,4395.641113,4365.384766,4360.384766,4358.846191,4345.641113,4337.563965,4328.717773,4367.179688,4507.563965,4346.666504,4476.794922,,,,,,,,,,,,,,,,,,,,,,,,,,,,,,,,,,,,,,,,,,,,,,,,,,,,,,,,,,,,,,,,,,,,,,
1720084100,93,0,4525.384766,4430.897461,4388.205078,4398.333496,4368.077148,4364.102539,4356.794922,4344.487305,4339.102539,4333.333496,4368.846191,4511.282227,4350.512695,4478.589844,,,,,,,,,,,,,,,,,,,,,,,,,,,,,,,,,,,,,,,,,,,,,,,,,,,,,,,,,,,,,,,,,,,,,,
1720084100,94,0,4531.794922,4428.589844,4391.410156,4397.307617,4368.589844,4366.922852,4360.641113,4345.897461,4340.128418,4340.256348,4366.922852,4510.512695,4342.05127,4470.641113,,,,,,,,,,,,,,,,,,,,,,,,,,,,,,,,,,,,,,,,,,,,,,,,,,,,,,,,,,,,,,,,,,,,,,
1720084100,95,0,4530.769043,4429.102539,4389.102539,4397.820313,4368.717773,4364.871582,4361.410156,4342.820313,4334.358887,4332.94873,4356.538574,4505.256348,4334.358887,4458.077148,,,,,,,,,,,,,,,,,,,,,,,,,,,,,,,,,,,,,,,,,,,,,,,,,,,,,,,,,,,,,,,,,,,,,,
1720084100,96,0,4525.769043,4430.512695,4389.230957,4399.743652,4367.307617,4365.897461,4360.897461,4345.256348,4334.230957,4325.128418,4353.974121,4512.05127,4339.102539,4462.436035,,,,,,,,,,,,,,,,,,,,,,,,,,,,,,,,,,,,,,,,,,,,,,,,,,,,,,,,,,,,,,,,,,,,,,
1720084100,97,0,4527.820313,4429.230957,4386.538574,4398.205078,4360.897461,4365.769043,4359.615234,4348.589844,4333.974121,4326.025879,4357.820313,4509.230957,4335.384766,4470.769043,,,,,,,,,,,,,,,,,,,,,,,,,,,,,,,,,,,,,,,,,,,,,,,,,,,,,,,,,,,,,,,,,,,,,,
1720084100,98,0,4527.820313,4428.974121,4379.615234,4396.025879,4360.128418,4359.743652,4356.666504,4340,4326.282227,4327.436035,4355.897461,4491.153809,4326.666504,4455.512695,,,,,,,,,,,,,,,,,,,,,,,,,,,,,,,,,,,,,,,,,,,,,,,,,,,,,,,,,,,,,,,,,,,,,,
1720084100,99,0,4523.077148,4435.641113,4381.025879,4399.358887,4365.512695,4357.563965,4360.256348,4347.179688,4327.563965,4330.512695,4358.077148,4497.563965,4334.487305,4452.94873,,,,,,,,,,,,,,,,,,,,,,,,,,,,,,,,,,,,,,,,,,,,,,,,,,,,,,,,,,,,,,,,,,,,,,
1720084100,100,0,4521.538574,4444.487305,4382.94873,4402.563965,4365.512695,4358.717773,4358.205078,4353.333496,4333.846191,4330.512695,4359.743652,4505.256348,4341.410156,4462.05127,,,,,,,,,,,,,,,,,,,,,,,,,,,,,,,,,,,,,,,,,,,,,,,,,,,,,,,,,,,,,,,,,,,,,,
1720084100,101,0,4523.205078,4441.153809,4377.436035,4403.205078,4365.512695,4356.922852,4347.563965,4333.974121,4328.461426,4324.230957,4351.410156,4489.871582,4328.717773,4443.077148,,,,,,,,,,,,,,,,,,,,,,,,,,,,,,,,,,,,,,,,,,,,,,,,,,,,,,,,,,,,,,,,,,,,,,
1720084100,102,0,4518.846191,4428.717773,4373.974121,4402.94873,4369.102539,4354.358887,4349.871582,4335.128418,4325,4323.589844,4348.846191,4489.743652,4320.641113,4432.436035,,,,,,,,,,,,,,,,,,,,,,,,,,,,,,,,,,,,,,,,,,,,,,,,,,,,,,,,,,,,,,,,,,,,,,
1720084100,103,0,4510.384766,4432.307617,4377.436035,4401.025879,4366.538574,4356.282227,4358.077148,4347.563965,4328.974121,4328.461426,4353.589844,4499.358887,4329.102539,4441.538574,,,,,,,,,,,,,,,,,,,,,,,,,,,,,,,,,,,,,,,,,,,,,,,,,,,,,,,,,,,,,,,,,,,,,,
1720084100,104,0,4513.846191,4441.538574,4382.05127,4399.487305,4364.230957,4362.94873,4361.282227,4342.179688,4327.436035,4327.94873,4348.974121,4496.410156,4327.820313,4439.102539,5.148239,3.146355,1.40765,0.346308,0.082749,0.777697,1.167837,0.894523,0.210874,0.074658,1.298675,2.812277,1.577618,0.325053,0.124286,0.639475,0.947804,0.52612,0.166414,0.066168,0.430369,0.439197,0.382249,0.109138,0.083781,0.330942,0.646022,0.37277,0.077092,0.055681,0.61069,1.088343,0.447715,0.10211,0.101265,0.883438,1.185601,0.222929,0.071935,0.178302,2.323473,0.491638,0.242758,0.21389,0.092649,1.999647,0.719146,0.367251,0.258519,0.111452,3.035621,1.670425,0.914131,0.262195,0.187361,3.799024,3.707218,1.253742,0.266837,0.190095,3.177517,1.927006,1.314165,0.254624,0.147742,6.995811,3.917994,2.209644,0.334146,0.215022
1720084100,105,0,4517.179688,4432.94873,4380.769043,4399.358887,4371.025879,4369.358887,4366.538574,4347.436035,4324.743652,4325.384766,4344.102539,4496.666504,4320,4431.025879,,,,,,,,,,,,,,,,,,,,,,,,,,,,,,,,,,,,,,,,,,,,,,,,,,,,,,,,,,,,,,,,,,,,,,
1720084100,106,0,4503.974121,4423.846191,4375.769043,4396.538574,4373.333496,4366.538574,4367.05127,4357.179688,4326.282227,4327.179688,4351.922852,4500,4326.922852,4430.128418,,,,,,,,,,,,,,,,,,,,,,,,,,,,,,,,,,,,,,,,,,,,,,,,,,,,,,,,,,,,,,,,,,,,,,
1720084100,107,0,4493.461426,4427.05127,4371.794922,4389.871582,4367.94873,4359.230957,4358.717773,4345.641113,4327.820313,4329.487305,4358.077148,4491.025879,4337.692383,4428.589844,,,,,,,,,,,,,,,,,,,,,,,,,,,,,,,,,,,,,,,,,,,,,,,,,,,,,,,,,,,,,,,,,,,,,,
1720084100,108,0,4497.179688,4427.94873,4368.846191,4387.563965,4362.307617,4357.820313,4352.563965,4338.589844,4324.487305,4325.512695,4353.333496,4484.871582,4334.743652,4426.153809,,,,,,,,,,,,,,,,,,,,,,,,,,,,,,,,,,,,,,,,,,,,,,,,,,,,,,,,,,,,,,,,,,,,,,
1720084100,109,0,4494.615234,4425.128418,4368.974121,4389.102539,4359.358887,4356.282227,4349.102539,4342.820313,4319.102539,4320.256348,4351.025879,4487.307617,4323.333496,4416.282227,,,,,,,,,,,,,,,,,,,,,,,,,,,,,,,,,,,,,,,,,,,,,,,,,,,,,,,,,,,,,,,,,,,,,,
1720084100,110,0,4485.512695,4427.179688,4369.487305,4388.077148,4356.666504,4353.846191,4351.794922,4341.153809,4319.743652,4321.025879,4355.128418,4489.102539,4323.077148,4405.641113,,,,,,,,,,,,,,,,,,,,,,,,,,,,,,,,,,,,,,,,,,,,,,,,,,,,,,,,,,,,,,,,,,,,,,
1720084100,111,0,4488.589844,4427.307617,4371.922852,4389.615234,4357.179688,4356.282227,4362.307617,4347.563965,4325.897461,4322.563965,4360.769043,4494.743652,4334.230957,4412.307617,,,,,,,,,,,,,,,,,,,,,,,,,,,,,,,,,,,,,,,,,,,,,,,,,,,,,,,,,,,,,,,,,,,,,,
1720084100,112,0,4493.333496,4427.563965,4378.461426,4395.897461,4362.436035,4358.589844,4360.897461,4352.563965,4330.128418,4321.538574,4364.230957,4497.820313,4335.512695,4413.717773,,,,,,,,,,,,,,,,,,,,,,,,,,,,,,,,,,,,,,,,,,,,,,,,,,,,,,,,,,,,,,,,,,,,,,
1720084100,113,0,4482.94873,4428.205078,4376.282227,4395.897461,4367.179688,4359.743652,4354.358887,4349.743652,4333.589844,4320.769043,4363.077148,4491.922852,4323.974121,4402.563965,,,,,,,,,,,,,,,,,,,,,,,,,,,,,,,,,,,,,,,,,,,,,,,,,,,,,,,,,,,,,,,,,,,,,,
1720084100,114,0,4470.384766,4424.358887,4362.179688,4390.256348,4367.307617,4363.205078,4358.717773,4347.94873,4340.128418,4321.666504,4359.358887,4484.615234,4318.589844,4397.94873,,,,,,,,,,,,,,,,,,,,,,,,,,,,,,,,,,,,,,,,,,,,,,,,,,,,,,,,,,,,,,,,,,,,,,
1720084100,115,0,4465.641113,4418.205078,4354.743652,4386.794922,4361.794922,4366.153809,4361.794922,4346.538574,4344.871582,4323.077148,4355.897461,4481.153809,4322.05127,4395.641113,,,,,,,,,,,,,,,,,,,,,,,,,,,,,,,,,,,,,,,,,,,,,,,,,,,,,,,,,,,,,,,,,,,,,,
1720084100,116,0,4463.077148,4413.333496,4357.563965,4383.077148,4358.461426,4363.461426,4355.128418,4345.384766,4339.743652,4320.384766,4356.410156,4478.974121,4324.230957,4393.077148,,,,,,,,,,,,,,,,,,,,,,,,,,,,,,,,,,,,,,,,,,,,,,,,,,,,,,,,,,,,,,,,,,,,,,
1720084100,117,0,4463.974121,4415.128418,4361.410156,4382.563965,4357.94873,4358.846191,4350.512695,4342.820313,4331.666504,4311.922852,4362.05127,4480.641113,4329.358887,4400.641113,,,,,,,,,,,,,,,,,,,,,,,,,,,,,,,,,,,,,,,,,,,,,,,,,,,,,,,,,,,,,,,,,,,,,,
1720084100,118,0,4464.102539,4415.897461,4365.897461,4386.794922,4356.153809,4356.410156,4359.102539,4343.333496,4332.692383,4307.692383,4366.794922,4489.102539,4333.717773,4410.897461,,,,,,,,,,,,,,,,,,,,,,,,,,,,,,,,,,,,,,,,,,,,,,,,,,,,,,,,,,,,,,,,,,,,,,
1720084100,119,0,4450.256348,4405.897461,4362.179688,4384.871582,4360,4357.820313,4366.666504,4348.846191,4339.487305,4314.358887,4366.153809,4486.794922,4333.461426,4403.077148,,,,,,,,,,,,,,,,,,,,,,,,,,,,,,,,,,,,,,,,,,,,,,,,,,,,,,,,,,,,,,,,,,,,,,
1720084100,120,0,4439.743652,4399.358887,4350.512695,4377.820313,4364.358887,4359.358887,4359.487305,4350.128418,4342.820313,4321.922852,4365.384766,4476.153809,4336.025879,4394.230957,8.220435,3.603523,1.513567,0.349432,0.09553,1.132237,1.272306,0.91087,0.217116,0.077881,1.866296,2.995702,1.715698,0.33991,0.126617,0.863727,0.966019,0.576172,0.169038,0.070564,0.457915,0.492842,0.355204,0.123427,0.083722,0.386972,0.724047,0.340436,0.076683,0.065761,0.696447,1.057787,0.357006,0.102602,0.097877,0.909703,1.077709,0.191171,0.073711,0.170705,2.401187,0.4637,0.255646,0.222051,0.087703,2.190727,0.675431,0.347619,0.270838,0.117953,3.458292,1.479293,0.88528,0.261825,0.19799,5.019448,3.878069,1.633468,0.270019,0.175936,3.706032,2.05421,1.232677,0.256213,0.160184,11.524161,4.969999,2.352296,0.304232,0.204592
1720084100,121,0,4442.179688,4402.563965,4348.077148,4375.897461,4360.512695,4357.05127,4354.871582,4346.922852,4341.282227,4319.871582,4364.743652,4476.153809,4333.846191,4395.512695,,,,,,,,,,,,,,,,,,,,,,,,,,,,,,,,,,,,,,,,,,,,,,,,,,,,,,,,,,,,,,,,,,,,,,
1720084100,122,0,4440.256348,4400.384766,4351.025879,4374.487305,4355.128418,4356.410156,4360.897461,4346.282227,4338.717773,4316.410156,4361.922852,4478.589844,4330.256348,4393.589844,,,,,,,,,,,,,,,,,,,,,,,,,,,,,,,,,,,,,,,,,,,,,,,,,,,,,,,,,,,,,,,,,,,,,,
1720084100,123,0,4432.563965,4393.589844,4348.589844,4372.692383,4357.179688,4361.025879,4361.153809,4343.461426,4340.256348,4321.922852,4366.666504,4476.922852,4338.333496,4392.436035,,,,,,,,,,,,,,,,,,,,,,,,,,,,,,,,,,,,,,,,,,,,,,,,,,,,,,,,,,,,,,,,,,,,,,
1720084100,124,0,4435.641113,4395.128418,4350.384766,4377.179688,4356.922852,4362.692383,4360.897461,4344.358887,4345.256348,4329.230957,4380.641113,4483.974121,4355.512695,4401.025879,,,,,,,,,,,,,,,,,,,,,,,,,,,,,,,,,,,,,,,,,,,,,,,,,,,,,,,,,,,,,,,,,,,,,,
1720084100,125,0,4443.333496,4401.153809,4359.743652,4382.179688,4354.358887,4358.589844,4364.871582,4361.282227,4342.692383,4328.717773,4388.974121,4495.512695,4361.922852,4417.94873,,,,,,,,,,,,,,,,,,,,,,,,,,,,,,,,,,,,,,,,,,,,,,,,,,,,,,,,,,,,,,,,,,,,,,
1720084100,126,0,4434.743652,4398.974121,4357.436035,4379.487305,4361.922852,4356.282227,4359.358887,4358.205078,4333.077148,4327.179688,4379.487305,4489.230957,4349.230957,4410.769043,,,,,,,,,,,,,,,,,,,,,,,,,,,,,,,,,,,,,,,,,,,,,,,,,,,,,,,,,,,,,,,,,,,,,,
1720084100,127,0,4421.153809,4389.743652,4345,4371.666504,4364.102539,4357.94873,4353.589844,4343.461426,4328.589844,4326.666504,4372.05127,4477.94873,4343.333496,4394.871582,,,,,,,,,,,,,,,,,,,,,,,,,,,,,,,,,,,,,,,,,,,,,,,,,,,,,,,,,,,,,,,,,,,,,,
1720084100,0,0,4425.256348,4391.410156,4348.333496,4371.794922,4356.153809,4361.666504,4360.128418,4353.205078,4323.461426,4321.282227,4378.077148,4486.025879,4353.974121,4407.94873,,,,,,,,,,,,,,,,,,,,,,,,,,,,,,,,,,,,,,,,,,,,,,,,,,,,,,,,,,,,,,,,,,,,,,
1720084100,1,0,4435,4403.717773,4362.692383,4381.410156,4359.743652,4365.897461,4366.666504,4358.717773,4318.205078,4315.897461,4379.615234,4495.769043,4354.871582,4410.128418,,,,,,,,,,,,,,,,,,,,,,,,,,,,,,,,,,,,,,,,,,,,,,,,,,,,,,,,,,,,,,,,,,,,,,
1720084100,2,0,4431.153809,4402.692383,4361.922852,4384.487305,4368.077148,4366.922852,4365.897461,4350.512695,4322.436035,4318.974121,4375.769043,4494.615234,4350.512695,4397.563965,,,,,,,,,,,,,,,,,,,,,,,,,,,,,,,,,,,,,,,,,,,,,,,,,,,,,,,,,,,,,,,,,,,,,,
1720084100,3,0,4419.487305,4389.871582,4350.256348,4374.358887,4362.179688,4365.897461,4365.384766,4361.282227,4332.307617,4325,4379.743652,4498.333496,4361.666504,4409.102539,,,,,,,,,,,,,,,,,,,,,,,,,,,,,,,,,,,,,,,,,,,,,,,,,,,,,,,,,,,,,,,,,,,,,,
1720084100,4,0,4408.717773,4381.410156,4346.922852,4365.897461,4355.512695,4363.846191,4367.820313,4370.128418,4336.153809,4327.436035,4384.487305,4507.692383,4368.974121,4417.436035,,,,,,,,,,,,,,,,,,,,,,,,,,,,,,,,,,,,,,,,,,,,,,,,,,,,,,,,,,,,,,,,,,,,,,
1720084100,5,0,4401.153809,4376.410156,4347.05127,4366.153809,4358.717773,4359.358887,4365.769043,4351.794922,4331.922852,4325.769043,4382.563965,4502.179688,4364.871582,4405.512695,,,,,,,,,,,,,,,,,,,,,,,,,,,,,,,,,,,,,,,,,,,,,,,,,,,,,,,,,,,,,,,,,,,,,,
1720084100,6,0,4398.717773,4374.102539,4344.358887,4366.922852,4357.820313,4359.615234,4358.974121,4342.692383,4326.282227,4321.410156,4379.871582,4493.589844,4365.256348,4407.436035,,,,,,,,,,,,,,,,,,,,,,,,,,,,,,,,,,,,,,,,,,,,,,,,,,,,,,,,,,,,,,,,,,,,,,
1720084100,7,0,4393.461426,4373.589844,4343.461426,4364.102539,4357.307617,4366.282227,4358.717773,4351.538574,4323.077148,4317.436035,4376.922852,4496.922852,4362.179688,4407.820313,,,,,,,,,,,,,,,,,,,,,,,,,,,,,,,,,,,,,,,,,,,,,,,,,,,,,,,,,,,,,,,,,,,,,,
1720084100,8,0,4388.461426,4369.615234,4340.256348,4360.128418,4357.820313,4368.461426,4366.282227,4358.589844,4330.128418,4320.256348,4381.282227,4499.871582,4365.897461,4401.666504,11.345369,4.173751,1.537247,0.331495,0.108491,1.451611,1.380287,0.869503,0.215938,0.080494,2.503359,3.198279,1.771881,0.346836,0.127122,1.039456,0.979876,0.613604,0.163839,0.075076,0.477678,0.550829,0.313425,0.129827,0.081625,0.434422,0.803679,0.288961,0.072693,0.072561,0.737813,0.979338,0.256833,0.096249,0.094995,0.868735,0.890241,0.162587,0.081173,0.166096,2.271292,0.4256,0.266131,0.221662,0.083056,2.260134,0.582943,0.301406,0.271315,0.12182,3.880522,1.247695,0.792807,0.269928,0.203061,6.757835,3.908671,2.096594,0.300766,0.162953,4.459914,2.103896,1.063118,0.274513,0.171315,17.314447,6.188864,2.357796,0.288907,0.202144
1720084100,9,0,4387.563965,4366.410156,4335,4355.769043,4350.769043,4362.563965,4366.410156,4360.512695,4340.769043,4325.897461,4389.615234,4502.05127,4379.487305,4412.436035,,,,,,,,,,,,,,,,,,,,,,,,,,,,,,,,,,,,,,,,,,,,,,,,,,,,,,,,,,,,,,,,,,,,,,
1720084100,10,0,4384.230957,4365.128418,4333.333496,4354.230957,4348.589844,4358.974121,4359.102539,4352.692383,4340.128418,4326.282227,4389.615234,4502.563965,4378.077148,4417.179688,,,,,,,,,,,,,,,,,,,,,,,,,,,,,,,,,,,,,,,,,,,,,,,,,,,,,,,,,,,,,,,,,,,,,,
1720084100,11,0,4376.666504,4360.256348,4329.615234,4353.589844,4353.461426,4358.461426,4353.205078,4345,4332.94873,4318.077148,4382.94873,4493.717773,4369.743652,4408.974121,,,,,,,,,,,,,,,,,,,,,,,,,,,,,,,,,,,,,,,,,,,,,,,,,,,,,,,,,,,,,,,,,,,,,,
1720084100,12,0,4370.897461,4356.025879,4321.025879,4350.897461,4352.820313,4355.128418,4351.153809,4346.410156,4333.846191,4311.282227,4380,4493.974121,4378.333496,4407.563965,,,,,,,,,,,,,,,,,,,,,,,,,,,,,,,,,,,,,,,,,,,,,,,,,,,,,,,,,,,,,,,,,,,,,,
1720084100,13,0,4373.461426,4356.538574,4322.307617,4351.025879,4352.05127,4358.077148,4361.282227,4358.077148,4343.846191,4315.512695,4387.307617,4518.205078,4390.128418,4417.563965,,,,,,,,,,,,,,,,,,,,,,,,,,,,,,,,,,,,,,,,,,,,,,,,,,,,,,,,,,,,,,,,,,,,,,
1720084100,14,0,4377.692383,4357.05127,4329.615234,4354.487305,4355.897461,4366.025879,4373.077148,4364.743652,4345.384766,4321.410156,4393.205078,4532.692383,4388.589844,4422.563965,,,,,,,,,,,,,,,,,,,,,,,,,,,,,,,,,,,,,,,,,,,,,,,,,,,,,,,,,,,,,,,,,,,,,,
1720084100,15,0,4371.538574,4352.05127,4329.615234,4352.05127,4355,4363.846191,4368.846191,4358.589844,4340.512695,4318.461426,4391.666504,4527.05127,4387.820313,4420.512695,,,,,,,,,,,,,,,,,,,,,,,,,,,,,,,,,,,,,,,,,,,,,,,,,,,,,,,,,,,,,,,,,,,,,,
1720084100,16,0,4361.538574,4344.230957,4326.025879,4343.974121,4349.615234,4356.410156,4363.205078,4355.128418,4345,4320.512695,4398.333496,4533.461426,4398.846191,4428.461426,,,,,,,,,,,,,,,,,,,,,,,,,,,,,,,,,,,,,,,,,,,,,,,,,,,,,,,,,,,,,,,,,,,,,,
1720084100,17,0,4360.769043,4341.666504,4327.563965,4341.666504,4351.282227,4358.974121,4365.897461,4358.333496,4352.94873,4328.717773,4406.538574,4531.282227,4402.563965,4434.615234,,,,,,,,,,,,,,,,,,,,,,,,,,,,,,,,,,,,,,,,,,,,,,,,,,,,,,,,,,,,,,,,,,,,,,
1720084100,18,0,4365.128418,4343.589844,4329.230957,4344.487305,4354.615234,4359.615234,4361.410156,4352.692383,4348.589844,4324.230957,4397.820313,4497.94873,4394.487305,4422.820313,,,,,,,,,,,,,,,,,,,,,,,,,,,,,,,,,,,,,,,,,,,,,,,,,,,,,,,,,,,,,,,,,,,,,,
1720084100,19,0,4360.897461,4341.794922,4325,4341.538574,4348.461426,4355.512695,4354.871582,4345.384766,4344.743652,4315.128418,4391.922852,4472.563965,4391.538574,4415,,,,,,,,,,,,,,,,,,,,,,,,,,,,,,,,,,,,,,,,,,,,,,,,,,,,,,,,,,,,,,,,,,,,,,
1720084100,20,0,4355.512695,4338.333496,4322.307617,4337.692383,4341.538574,4356.666504,4361.666504,4356.153809,4358.333496,4322.05127,4399.358887,4481.538574,4397.563965,4425.512695,,,,,,,,,,,,,,,,,,,,,,,,,,,,,,,,,,,,,,,,,,,,,,,,,,,,,,,,,,,,,,,,,,,,,,
1720084100,21,0,4355.512695,4339.743652,4323.974121,4341.153809,4342.94873,4357.179688,4364.487305,4360.256348,4367.307617,4333.717773,4404.102539,4494.358887,4404.487305,4427.436035,,,,,,,,,,,,,,,,,,,,,,,,,,,,,,,,,,,,,,,,,,,,,,,,,,,,,,,,,,,,,,,,,,,,,,
1720084100,22,0,4354.743652,4340.128418,4327.563965,4344.358887,4342.05127,4355.769043,4360.641113,4356.538574,4362.05127,4332.436035,4409.230957,4495.128418,4413.205078,4422.563965,,,,,,,,,,,,,,,,,,,,,,,,,,,,,,,,,,,,,,,,,,,,,,,,,,,,,,,,,,,,,,,,,,,,,,
1720084100,23,0,4350.384766,4335.641113,4326.538574,4339.230957,4338.589844,4357.05127,4358.461426,4360.384766,4355.512695,4321.025879,4409.743652,4491.666504,4414.743652,4428.461426,,,,,,,,,,,,,,,,,,,,,,,,,,,,,,,,,,,,,,,,,,,,,,,,,,,,,,,,,,,,,,,,,,,,,,
1720084100,24,0,4343.205078,4331.153809,4317.94873,4333.589844,4345.769043,4358.205078,4352.307617,4345.769043,4345.384766,4311.153809,4396.538574,4478.846191,4401.666504,4420.128418,14.221554,4.844823,1.467488,0.296564,0.118986,1.740497,1.469729,0.784715,0.208015,0.08402,3.189195,3.389288,1.731928,0.343481,0.124131,1.167212,0.974877,0.63099,0.152775,0.078441,0.501608,0.59376,0.275068,0.129701,0.077971,0.470803,0.871082,0.236687,0.067446,0.07389,0.729006,0.863283,0.174713,0.090037,0.095893,0.773564,0.6675,0.14277,0.096495,0.166991,1.996165,0.393704,0.279088,0.216208,0.082021,2.184601,0.473622,0.245383,0.265535,0.124205,4.32127,1.079771,0.670569,0.291146,0.201734,8.742487,3.7584,2.533176,0.351449,0.155069,5.39096,2.141009,0.855899,0.311219,0.182193,23.647287,7.457151,2.222337,0.299292,0.208561
1720084100,25,0,4339.615234,4334.102539,4315.641113,4335.256348,4352.692383,4357.820313,4352.179688,4334.487305,4336.025879,4304.230957,4388.077148,4474.487305,4395,4411.794922,,,,,,,,,,,,,,,,,,,,,,,,,,,,,,,,,,,,,,,,,,,,,,,,,,,,,,,,,,,,,,,,,,,,,,
1720084100,26,0,4344.487305,4347.05127,4324.487305,4341.922852,4352.436035,4358.461426,4355.897461,4341.153809,4340.512695,4305.512695,4395.769043,4485.256348,4405.128418,4422.94873,,,,,,,,,,,,,,,,,,,,,,,,,,,,,,,,,,,,,,,,,,,,,,,,,,,,,,,,,,,,,,,,,,,,,,
1720084100,27,0,4354.487305,4352.436035,4330.897461,4348.589844,4354.487305,4358.077148,4353.333496,4338.589844,4351.666504,4317.94873,4402.436035,4487.307617,4414.871582,4424.743652,,,,,,,,,,,,,,,,,,,,,,,,,,,,,,,,,,,,,,,,,,,,,,,,,,,,,,,,,,,,,,,,,,,,,,
1720084100,28,0,4357.179688,4347.436035,4327.563965,4350.384766,4351.410156,4354.358887,4354.102539,4343.461426,4358.077148,4328.589844,4404.102539,4485.128418,4415.897461,4422.692383,,,,,,,,,,,,,,,,,,,,,,,,,,,,,,,,,,,,,,,,,,,,,,,,,,,,,,,,,,,,,,,,,,,,,,
1720084100,29,0,4348.077148,4346.666504,4324.615234,4350,4346.153809,4357.307617,4364.615234,4361.410156,4370.128418,4329.230957,4402.563965,4490,4406.538574,4421.666504,,,,,,,,,,,,,,,,,,,,,,,,,,,,,,,,,,,,,,,,,,,,,,,,,,,,,,,,,,,,,,,,,,,,,,
1720084100,30,0,4347.820313,4347.563965,4327.692383,4350.641113,4350.128418,4368.077148,4377.307617,4369.102539,4383.333496,4327.820313,4401.922852,4497.307617,4401.282227,4422.94873,,,,,,,,,,,,,,,,,,,,,,,,,,,,,,,,,,,,,,,,,,,,,,,,,,,,,,,,,,,,,,,,,,,,,,
1720084100,31,0,4361.153809,4347.563965,4336.025879,4353.589844,4356.666504,4368.333496,4379.358887,4363.589844,4379.871582,4326.922852,4410.128418,4504.487305,4411.538574,4437.179688,,,,,,,,,,,,,,,,,,,,,,,,,,,,,,,,,,,,,,,,,,,,,,,,,,,,,,,,,,,,,,,,,,,,,,
1720084100,32,0,4367.307617,4352.94873,4346.025879,4358.333496,4357.179688,4358.333496,4369.102539,4356.025879,4365.128418,4324.358887,4414.230957,4509.615234,4419.102539,4442.692383,,,,,,,,,,,,,,,,,,,,,,,,,,,,,,,,,,,,,,,,,,,,,,,,,,,,,,,,,,,,,,,,,,,,,,
1720084100,33,0,4359.230957,4352.05127,4343.589844,4358.205078,4356.922852,4357.05127,4361.025879,4351.922852,4356.666504,4318.461426,4407.307617,4504.615234,4413.717773,4436.153809,,,,,,,,,,,,,,,,,,,,,,,,,,,,,,,,,,,,,,,,,,,,,,,,,,,,,,,,,,,,,,,,,,,,,,
1720084100,34,0,4351.538574,4342.05127,4331.025879,4353.717773,4356.282227,4359.230957,4361.282227,4350,4355.256348,4312.307617,4396.666504,4497.692383,4409.230957,4432.307617,,,,,,,,,,,,,,,,,,,,,,,,,,,,,,,,,,,,,,,,,,,,,,,,,,,,,,,,,,,,,,,,,,,,,,
1720084100,35,0,4353.333496,4345.897461,4325,4353.077148,4356.282227,4355.897461,4357.179688,4339.615234,4352.436035,4311.666504,4391.538574,4492.05127,4406.922852,4420.769043,,,,,,,,,,,,,,,,,,,,,,,,,,,,,,,,,,,,,,,,,,,,,,,,,,,,,,,,,,,,,,,,,,,,,,
1720084100,36,0,4356.153809,4355.897461,4325.641113,4354.615234,4358.717773,4360.897461,4357.94873,4335.641113,4353.461426,4317.05127,4390.897461,4484.102539,4400.897461,4408.205078,,,,,,,,,,,,,,,,,,,,,,,,,,,,,,,,,,,,,,,,,,,,,,,,,,,,,,,,,,,,,,,,,,,,,,
1720084100,37,0,4353.205078,4347.692383,4322.179688,4350.641113,4355.641113,4366.410156,4365.128418,4349.743652,4361.410156,4321.410156,4390,4481.794922,4398.589844,4413.717773,,,,,,,,,,,,,,,,,,,,,,,,,,,,,,,,,,,,,,,,,,,,,,,,,,,,,,,,,,,,,,,,,,,,,,
1720084100,38,0,4350.641113,4339.871582,4320.512695,4348.333496,4351.794922,4358.846191,4361.410156,4349.743652,4366.666504,4325.897461,4392.179688,4488.461426,4401.922852,4418.461426,,,,,,,,,,,,,,,,,,,,,,,,,,,,,,,,,,,,,,,,,,,,,,,,,,,,,,,,,,,,,,,,,,,,,,
1720084100,39,0,4355.256348,4346.538574,4326.282227,4352.436035,4352.563965,4358.077148,4361.666504,4350.256348,4370.897461,4332.307617,4400.897461,4500.512695,4408.589844,4421.282227,,,,,,,,,,,,,,,,,,,,,,,,,,,,,,,,,,,,,,,,,,,,,,,,,,,,,,,,,,,,,,,,,,,,,,
1720084100,40,0,4359.615234,4351.153809,4333.333496,4354.358887,4353.333496,4366.025879,4371.282227,4363.077148,4376.794922,4335.512695,4407.563965,4507.307617,4415.512695,4429.871582,15.901437,5.497293,1.318509,0.257992,0.12641,1.939335,1.521749,0.68145,0.197448,0.090288,3.711106,3.503674,1.607247,0.334356,0.118764,1.220481,0.947461,0.627582,0.141225,0.079933,0.517635,0.605918,0.254107,0.128241,0.074317,0.484352,0.909299,0.202296,0.064327,0.069588,0.660807,0.73053,0.127776,0.09346,0.102467,0.648399,0.459928,0.131291,0.123994,0.174941,1.700074,0.378061,0.303441,0.212606,0.086449,1.978412,0.382799,0.202603,0.262539,0.126085,4.617338,1.034424,0.556984,0.329895,0.194442,10.254473,3.463349,2.807366,0.411174,0.155313,6.193772,2.20524,0.665817,0.370481,0.195818,28.565979,8.530065,1.977247,0.343986,0.223314
1720084100,41,0,4359.102539,4347.692383,4334.487305,4353.077148,4353.717773,4368.846191,4376.922852,4363.717773,4378.846191,4336.282227,4404.743652,4507.179688,4410.512695,4427.307617,,,,,,,,,,,,,,,,,,,,,,,,,,,,,,,,,,,,,,,,,,,,,,,,,,,,,,,,,,,,,,,,,,,,,,
1720084100,42,0,4361.538574,4352.179688,4332.563965,4355,4356.794922,4368.205078,4381.025879,4363.717773,4377.94873,4336.410156,4399.743652,4508.333496,4397.820313,4420.641113,,,,,,,,,,,,,,,,,,,,,,,,,,,,,,,,,,,,,,,,,,,,,,,,,,,,,,,,,,,,,,,,,,,,,,
1720084100,43,0,4365.512695,4360,4332.692383,4360.128418,4358.846191,4368.077148,4380.128418,4362.563965,4374.358887,4336.025879,4394.358887,4502.563965,4393.846191,4416.410156,,,,,,,,,,,,,,,,,,,,,,,,,,,,,,,,,,,,,,,,,,,,,,,,,,,,,,,,,,,,,,,,,,,,,,
1720084100,44,0,4365,4357.94873,4334.358887,4358.589844,4355.384766,4365.769043,4371.922852,4353.077148,4367.05127,4332.179688,4387.820313,4492.692383,4396.538574,4415.128418,,,,,,,,,,,,,,,,,,,,,,,,,,,,,,,,,,,,,,,,,,,,,,,,,,,,,,,,,,,,,,,,,,,,,,
1720084100,45,0,4365.897461,4360.384766,4337.820313,4357.94873,4356.410156,4363.077148,4368.461426,4346.282227,4359.743652,4327.94873,4388.205078,4497.179688,4397.436035,4418.717773,,,,,,,,,,,,,,,,,,,,,,,,,,,,,,,,,,,,,,,,,,,,,,,,,,,,,,,,,,,,,,,,,,,,,,
1720084100,46,0,4371.794922,4367.94873,4344.487305,4363.589844,4362.563965,4359.871582,4365.769043,4340.128418,4348.589844,4326.282227,4391.025879,4505.128418,4399.230957,4419.871582,,,,,,,,,,,,,,,,,,,,,,,,,,,,,,,,,,,,,,,,,,,,,,,,,,,,,,,,,,,,,,,,,,,,,,
1720084100,47,0,4370.256348,4365.384766,4343.974121,4364.615234,4361.282227,4355,4354.871582,4333.717773,4340.256348,4325.512695,4387.820313,4499.358887,4398.077148,4412.94873,,,,,,,,,,,,,,,,,,,,,,,,,,,,,,,,,,,,,,,,,,,,,,,,,,,,,,,,,,,,,,,,,,,,,,
1720084100,48,0,4358.333496,4356.410156,4331.282227,4357.179688,4356.282227,4357.563965,4351.922852,4338.205078,4350.512695,4330.256348,4380,4489.358887,4387.436035,4401.282227,,,,,,,,,,,,,,,,,,,,,,,,,,,,,,,,,,,,,,,,,,,,,,,,,,,,,,,,,,,,,,,,,,,,,,
1720084100,49,0,4341.282227,4345.897461,4310.641113,4347.436035,4361.410156,4363.974121,4357.820313,4343.717773,4365.769043,4337.307617,4370.512695,4473.077148,4373.333496,4379.615234,,,,,,,,,,,,,,,,,,,,,,,,,,,,,,,,,,,,,,,,,,,,,,,,,,,,,,,,,,,,,,,,,,,,,,
1720084100,50,0,4328.205078,4339.358887,4295.897461,4340.512695,4364.615234,4365.641113,4364.871582,4342.94873,4366.282227,4339.102539,4362.820313,4457.820313,4367.179688,4360.384766,,,,,,,,,,,,,,,,,,,,,,,,,,,,,,,,,,,,,,,,,,,,,,,,,,,,,,,,,,,,,,,,,,,,,,
1720084100,51,0,4334.230957,4345,4303.333496,4340.641113,4359.102539,4368.333496,4377.436035,4357.692383,4363.974121,4339.487305,4369.615234,4471.794922,4372.692383,4377.820313,,,,,,,,,,,,,,,,,,,,,,,,,,,,,,,,,,,,,,,,,,,,,,,,,,,,,,,,,,,,,,,,,,,,,,
1720084100,52,0,4345.512695,4353.974121,4319.871582,4347.307617,4360,4371.410156,4385.128418,4362.94873,4363.205078,4342.692383,4382.436035,4493.205078,4382.692383,4398.461426,,,,,,,,,,,,,,,,,,,,,,,,,,,,,,,,,,,,,,,,,,,,,,,,,,,,,,,,,,,,,,,,,,,,,,
1720084100,53,0,4348.077148,4355,4321.794922,4354.230957,4364.615234,4369.871582,4383.461426,4353.589844,4356.538574,4343.333496,4385,4491.666504,4387.436035,4393.974121,,,,,,,,,,,,,,,,,,,,,,,,,,,,,,,,,,,,,,,,,,,,,,,,,,,,,,,,,,,,,,,,,,,,,,
1720084100,54,0,4355.897461,4359.102539,4325.512695,4361.410156,4364.743652,4367.563965,4382.05127,4355.384766,4352.692383,4340.256348,4382.692383,4487.820313,4385.641113,4392.436035,,,,,,,,,,,,,,,,,,,,,,,,,,,,,,,,,,,,,,,,,,,,,,,,,,,,,,,,,,,,,,,,,,,,,,
1720084100,55,0,4367.94873,4365.897461,4341.538574,4368.205078,4366.666504,4366.922852,4375.256348,4353.717773,4352.05127,4342.436035,4380.897461,4492.307617,4384.871582,4393.974121,,,,,,,,,,,,,,,,,,,,,,,,,,,,,,,,,,,,,,,,,,,,,,,,,,,,,,,,,,,,,,,,,,,,,,
1720084100,56,0,4363.461426,4360.128418,4339.743652,4363.974121,4365.769043,4362.563965,4362.820313,4347.179688,4348.717773,4342.820313,4374.743652,4495.897461,4379.487305,4391.538574,16.083803,5.934361,1.119729,0.229656,0.13265,2.038726,1.516921,0.582136,0.188881,0.100307,3.987289,3.477252,1.424094,0.3253,0.113921,1.224705,0.90207,0.604791,0.135307,0.079601,0.525305,0.582947,0.252825,0.130306,0.072466,0.473677,0.902494,0.195017,0.066978,0.061674,0.554229,0.608494,0.116825,0.114618,0.114096,0.527687,0.307896,0.129243,0.169512,0.190045,1.494536,0.392773,0.359024,0.218327,0.095849,1.694191,0.334417,0.194692,0.27068,0.127703,4.695998,1.095837,0.475056,0.382067,0.183211,10.953941,3.121593,2.845679,0.47434,0.166258,6.648737,2.276097,0.527649,0.445385,0.214092,30.88357,9.1187,1.669262,0.414675,0.244091
1720084100,57,0,4343.333496,4347.05127,4313.461426,4348.077148,4358.205078,4353.589844,4351.410156,4339.230957,4341.282227,4333.589844,4356.794922,4479.615234,4361.794922,4374.487305,,,,,,,,,,,,,,,,,,,,,,,,,,,,,,,,,,,,,,,,,,,,,,,,,,,,,,,,,,,,,,,,,,,,,,
1720084100,58,0,4326.922852,4332.179688,4295.512695,4332.307617,4353.846191,4352.563965,4346.025879,4332.820313,4333.717773,4322.94873,4342.179688,4454.743652,4348.974121,4352.05127,,,,,,,,,,,,,,,,,,,,,,,,,,,,,,,,,,,,,,,,,,,,,,,,,,,,,,,,,,,,,,,,,,,,,,
1720084100,59,0,4320.256348,4321.153809,4294.487305,4330.256348,4356.153809,4362.05127,4353.589844,4342.179688,4338.077148,4322.692383,4344.230957,4452.820313,4352.436035,4354.358887,,,,,,,,,,,,,,,,,,,,,,,,,,,,,,,,,,,,,,,,,,,,,,,,,,,,,,,,,,,,,,,,,,,,,,
1720084100,60,0,4322.05127,4328.717773,4296.153809,4335.384766,4360.897461,4369.615234,4370,4357.692383,4348.974121,4332.179688,4352.563965,4467.94873,4360.512695,4365.128418,,,,,,,,,,,,,,,,,,,,,,,,,,,,,,,,,,,,,,,,,,,,,,,,,,,,,,,,,,,,,,,,,,,,,,
1720084100,61,0,4323.461426,4342.563965,4296.538574,4338.974121,4363.461426,4371.153809,4378.974121,4359.743652,4354.487305,4341.794922,4362.820313,4474.615234,4369.358887,4359.743652,,,,,,,,,,,,,,,,,,,,,,,,,,,,,,,,,,,,,,,,,,,,,,,,,,,,,,,,,,,,,,,,,,,,,,
1720084100,62,0,4325.641113,4343.077148,4304.102539,4347.179688,4361.538574,4372.179688,4381.922852,4363.333496,4356.794922,4345.128418,4375.769043,4478.077148,4380.384766,4366.538574,,,,,,,,,,,,,,,,,,,,,,,,,,,,,,,,,,,,,,,,,,,,,,,,,,,,,,,,,,,,,,,,,,,,,,
1720084100,63,0,4338.205078,4346.922852,4319.230957,4358.589844,4363.717773,4372.05127,4383.589844,4370.641113,4360.512695,4344.102539,4380.128418,4487.179688,4384.871582,4383.077148,,,,,,,,,,,,,,,,,,,,,,,,,,,,,,,,,,,,,,,,,,,,,,,,,,,,,,,,,,,,,,,,,,,,,,
1720084100,64,0,4347.563965,4358.333496,4328.589844,4360.641113,4369.487305,4370,4378.846191,4359.871582,4358.461426,4344.871582,4374.102539,4491.922852,4382.563965,4376.794922,,,,,,,,,,,,,,,,,,,,,,,,,,,,,,,,,,,,,,,,,,,,,,,,,,,,,,,,,,,,,,,,,,,,,,
1720084100,65,0,4344.102539,4356.794922,4324.871582,4356.666504,4367.179688,4368.717773,4372.692383,4351.410156,4347.563965,4341.922852,4372.436035,4493.077148,4379.487305,4373.077148,,,,,,,,,,,,,,,,,,,,,,,,,,,,,,,,,,,,,,,,,,,,,,,,,,,,,,,,,,,,,,,,,,,,,,
1720084100,66,0,4346.153809,4355.641113,4326.153809,4361.666504,4366.922852,4366.794922,4370.384766,4350.641113,4339.615234,4337.692383,4376.794922,4494.358887,4382.94873,4383.589844,,,,,,,,,,,,,,,,,,,,,,,,,,,,,,,,,,,,,,,,,,,,,,,,,,,,,,,,,,,,,,,,,,,,,,
1720084100,67,0,4358.461426,4369.615234,4340.128418,4371.666504,4375.128418,4367.563965,4371.153809,4348.077148,4342.179688,4342.820313,4383.974121,4499.615234,4390.769043,4388.717773,,,,,,,,,,,,,,,,,,,,,,,,,,,,,,,,,,,,,,,,,,,,,,,,,,,,,,,,,,,,,,,,,,,,,,
1720084100,68,0,4356.538574,4369.615234,4340.512695,4368.846191,4375.128418,4372.307617,4369.358887,4346.025879,4343.717773,4342.94873,4378.205078,4496.282227,4380.769043,4382.179688,,,,,,,,,,,,,,,,,,,,,,,,,,,,,,,,,,,,,,,,,,,,,,,,,,,,,,,,,,,,,,,,,,,,,,
1720084101,69,0,4339.615234,4350.897461,4319.871582,4355.128418,4367.05127,4373.461426,4364.743652,4343.077148,4340.769043,4329.487305,4355.128418,4476.794922,4358.717773,4367.692383,,,,,,,,,,,,,,,,,,,,,,,,,,,,,,,,,,,,,,,,,,,,,,,,,,,,,,,,,,,,,,,,,,,,,,
1720084101,70,0,4323.846191,4337.820313,4303.205078,4344.102539,4365,4372.436035,4369.230957,4351.922852,4345.897461,4322.820313,4346.538574,4465.256348,4351.410156,4358.589844,,,,,,,,,,,,,,,,,,,,,,,,,,,,,,,,,,,,,,,,,,,,,,,,,,,,,,,,,,,,,,,,,,,,,,
1720084101,71,0,4316.410156,4335.256348,4301.410156,4339.230957,4365.897461,4372.94873,4378.461426,4365,4352.820313,4331.282227,4356.538574,4465.769043,4354.871582,4352.307617,,,,,,,,,,,,,,,,,,,,,,,,,,,,,,,,,,,,,,,,,,,,,,,,,,,,,,,,,,,,,,,,,,,,,,
1720084101,72,0,4324.230957,4341.794922,4306.410156,4341.922852,4360.769043,4372.307617,4382.05127,4369.102539,4354.102539,4338.077148,4364.230957,4470.256348,4361.153809,4352.563965,14.688195,5.954498,0.904591,0.218105,0.141153,2.025888,1.446384,0.500847,0.183691,0.113888,3.913424,3.265133,1.201526,0.323168,0.113111,1.197644,0.84761,0.563042,0.137415,0.078199,0.515502,0.531932,0.2627,0.137073,0.073104,0.435907,0.843262,0.212085,0.07828,0.053602,0.428438,0.528642,0.138138,0.156758,0.127796,0.436024,0.243418,0.160141,0.235663,0.210266,1.39317,0.461888,0.48234,0.240141,0.107957,1.369951,0.338507,0.236571,0.294211,0.128469,4.402678,1.176063,0.429548,0.438912,0.171263,10.521512,2.816867,2.664686,0.548336,0.188217,6.424492,2.26589,0.4511,0.523231,0.236325,29.552694,8.966581,1.344637,0.494975,0.267208
1720084101,73,0,4340.769043,4352.307617,4315.897461,4350.769043,4357.436035,4366.666504,4379.487305,4365.128418,4357.692383,4342.820313,4377.05127,4481.922852,4380.512695,4371.538574,,,,,,,,,,,,,,,,,,,,,,,,,,,,,,,,,,,,,,,,,,,,,,,,,,,,,,,,,,,,,,,,,,,,,,
1720084101,74,0,4349.871582,4359.230957,4329.230957,4360.641113,4364.102539,4361.922852,4375,4363.461426,4360.641113,4350.897461,4397.307617,4501.282227,4400.897461,4392.05127,,,,,,,,,,,,,,,,,,,,,,,,,,,,,,,,,,,,,,,,,,,,,,,,,,,,,,,,,,,,,,,,,,,,,,
1720084101,75,0,4350.384766,4364.358887,4335.384766,4365.128418,4371.794922,4363.461426,4371.538574,4363.333496,4353.589844,4352.307617,4402.436035,4509.230957,4401.538574,4392.820313,,,,,,,,,,,,,,,,,,,,,,,,,,,,,,,,,,,,,,,,,,,,,,,,,,,,,,,,,,,,,,,,,,,,,,
1720084101,76,0,4353.077148,4368.461426,4329.743652,4362.436035,4370,4366.282227,4368.974121,4351.025879,4343.205078,4342.307617,4388.333496,4498.077148,4392.179688,4384.102539,,,,,,,,,,,,,,,,,,,,,,,,,,,,,,,,,,,,,,,,,,,,,,,,,,,,,,,,,,,,,,,,,,,,,,
1720084101,77,0,4356.538574,4366.794922,4324.743652,4358.589844,4365,4364.615234,4366.538574,4337.820313,4337.692383,4331.794922,4379.615234,4487.307617,4387.820313,4379.743652,,,,,,,,,,,,,,,,,,,,,,,,,,,,,,,,,,,,,,,,,,,,,,,,,,,,,,,,,,,,,,,,,,,,,,
1720084101,78,0,4351.922852,4363.205078,4327.436035,4361.410156,4366.153809,4366.025879,4369.615234,4345.128418,4340,4327.563965,4385.769043,4491.282227,4387.94873,4378.717773,,,,,,,,,,,,,,,,,,,,,,,,,,,,,,,,,,,,,,,,,,,,,,,,,,,,,,,,,,,,,,,,,,,,,,
1720084101,79,0,4345.641113,4359.615234,4325.256348,4358.461426,4368.461426,4372.307617,4379.102539,4365.641113,4350.256348,4326.410156,4392.05127,4498.205078,4387.436035,4387.307617,,,,,,,,,,,,,,,,,,,,,,,,,,,,,,,,,,,,,,,,,,,,,,,,,,,,,,,,,,,,,,,,,,,,,,
1720084101,80,0,4341.282227,4349.743652,4313.717773,4345.641113,4368.717773,4372.692383,4379.743652,4365.897461,4357.436035,4327.563965,4384.487305,4486.666504,4382.05127,4381.282227,,,,,,,,,,,,,,,,,,,,,,,,,,,,,,,,,,,,,,,,,,,,,,,,,,,,,,,,,,,,,,,,,,,,,,
1720084101,81,0,4331.410156,4340.512695,4301.794922,4339.230957,4369.743652,4372.436035,4375.897461,4361.025879,4363.333496,4328.589844,4373.717773,4472.05127,4371.153809,4358.333496,,,,,,,,,,,,,,,,,,,,,,,,,,,,,,,,,,,,,,,,,,,,,,,,,,,,,,,,,,,,,,,,,,,,,,
1720084101,82,0,4320.769043,4336.794922,4292.94873,4337.307617,4368.077148,4375.128418,4379.230957,4371.410156,4366.025879,4328.077148,4375.384766,4473.717773,4365,4357.692383,,,,,,,,,,,,,,,,,,,,,,,,,,,,,,,,,,,,,,,,,,,,,,,,,,,,,,,,,,,,,,,,,,,,,,
1720084101,83,0,4321.794922,4339.615234,4290.769043,4337.563965,4362.179688,4368.974121,4372.692383,4368.077148,4361.922852,4326.538574,4383.077148,4475.897461,4371.538574,4363.717773,,,,,,,,,,,,,,,,,,,,,,,,,,,,,,,,,,,,,,,,,,,,,,,,,,,,,,,,,,,,,,,,,,,,,,
1720084101,84,0,4332.692383,4348.205078,4299.230957,4345,4356.538574,4357.820313,4363.846191,4365.384766,4361.922852,4325.897461,4389.487305,4482.94873,4384.102539,4370.512695,,,,,,,,,,,,,,,,,,,,,,,,,,,,,,,,,,,,,,,,,,,,,,,,,,,,,,,,,,,,,,,,,,,,,,
1720084101,85,0,4346.794922,4357.05127,4317.05127,4356.410156,4354.102539,4354.615234,4368.205078,4373.333496,4367.179688,4330,4400.641113,4503.077148,4395.769043,4390.128418,,,,,,,,,,,,,,,,,,,,,,,,,,,,,,,,,,,,,,,,,,,,,,,,,,,,,,,,,,,,,,,,,,,,,,
1720084101,86,0,4357.05127,4367.436035,4334.358887,4364.358887,4358.077148,4356.922852,4368.589844,4362.94873,4361.794922,4327.820313,4407.692383,4514.615234,4398.077148,4395.769043,,,,,,,,,,,,,,,,,,,,,,,,,,,,,,,,,,,,,,,,,,,,,,,,,,,,,,,,,,,,,,,,,,,,,,
1720084101,87,0,4356.666504,4373.461426,4335.641113,4364.230957,4363.717773,4356.538574,4359.743652,4346.538574,4344.102539,4314.615234,4400.897461,4507.820313,4387.692383,4384.358887,,,,,,,,,,,,,,,,,,,,,,,,,,,,,,,,,,,,,,,,,,,,,,,,,,,,,,,,,,,,,,,,,,,,,,
1720084101,88,0,4352.05127,4368.461426,4318.846191,4358.974121,4365.256348,4358.589844,4359.487305,4346.025879,4334.102539,4308.077148,4392.94873,4499.102539,4381.282227,4380.128418,12.091355,5.513376,0.722165,0.226919,0.154683,1.936009,1.339857,0.457087,0.184463,0.129881,3.513918,2.921939,0.983838,0.340993,0.119565,1.166635,0.812054,0.518543,0.150734,0.076978,0.4932,0.464798,0.270992,0.146158,0.075612,0.378696,0.742086,0.244841,0.097758,0.048637,0.314177,0.538955,0.212119,0.216071,0.139518,0.372768,0.298857,0.273218,0.315908,0.230741,1.354278,0.626756,0.714221,0.277649,0.119838,1.042495,0.41218,0.324904,0.328832,0.127313,3.743736,1.215173,0.414605,0.492793,0.16154,9.151303,2.617333,2.373342,0.648379,0.219577,5.548063,2.110264,0.42677,0.594325,0.258615,24.942886,8.03867,1.052309,0.575348,0.288499
1720084101,89,0,4341.794922,4357.05127,4300.769043,4351.282227,4367.05127,4366.538574,4368.461426,4346.282227,4337.820313,4312.179688,4389.102539,4490.769043,4382.436035,4375.641113,,,,,,,,,,,,,,,,,,,,,,,,,,,,,,,,,,,,,,,,,,,,,,,,,,,,,,,,,,,,,,,,,,,,,,
1720084101,90,0,4325.897461,4348.333496,4288.717773,4343.974121,4369.615234,4374.230957,4377.94873,4353.461426,4347.05127,4310.256348,4379.487305,4484.743652,4373.077148,4363.717773,,,,,,,,,,,,,,,,,,,,,,,,,,,,,,,,,,,,,,,,,,,,,,,,,,,,,,,,,,,,,,,,,,,,,,
1720084101,91,0,4323.461426,4347.94873,4285.128418,4343.077148,4367.692383,4375,4383.205078,4371.922852,4355.512695,4309.615234,4377.692383,4489.102539,4365.128418,4365.128418,,,,,,,,,,,,,,,,,,,,,,,,,,,,,,,,,,,,,,,,,,,,,,,,,,,,,,,,,,,,,,,,,,,,,,
1720084101,92,0,4331.922852,4352.179688,4290.256348,4349.743652,4365.897461,4373.461426,4377.563965,4368.717773,4357.94873,4318.717773,4385.256348,4493.333496,4370,4371.666504,,,,,,,,,,,,,,,,,,,,,,,,,,,,,,,,,,,,,,,,,,,,,,,,,,,,,,,,,,,,,,,,,,,,,,
1720084101,93,0,4333.333496,4354.487305,4294.743652,4351.410156,4366.794922,4372.820313,4370.897461,4360.897461,4357.94873,4323.717773,4381.794922,4500.384766,4367.307617,4369.487305,,,,,,,,,,,,,,,,,,,,,,,,,,,,,,,,,,,,,,,,,,,,,,,,,,,,,,,,,,,,,,,,,,,,,,
1720084101,94,0,4332.05127,4354.743652,4293.846191,4346.922852,4363.846191,4366.410156,4366.410156,4368.461426,4360.897461,4322.563965,4377.692383,4514.358887,4364.230957,4365.256348,,,,,,,,,,,,,,,,,,,,,,,,,,,,,,,,,,,,,,,,,,,,,,,,,,,,,,,,,,,,,,,,,,,,,,
1720084101,95,0,4338.077148,4357.179688,4294.358887,4348.717773,4358.333496,4355.769043,4357.436035,4368.461426,4365,4325.128418,4390.128418,4521.410156,4379.358887,4369.230957,,,,,,,,,,,,,,,,,,,,,,,,,,,,,,,,,,,,,,,,,,,,,,,,,,,,,,,,,,,,,,,,,,,,,,
1720084101,96,0,4343.205078,4360.897461,4295.769043,4355.128418,4356.153809,4350.769043,4355.128418,4363.333496,4365.641113,4334.358887,4402.94873,4522.820313,4394.358887,4379.871582,,,,,,,,,,,,,,,,,,,,,,,,,,,,,,,,,,,,,,,,,,,,,,,,,,,,,,,,,,,,,,,,,,,,,,
1720084101,97,0,4344.871582,4365.769043,4296.922852,4358.333496,4356.025879,4352.692383,4356.922852,4361.666504,4364.358887,4338.974121,4401.794922,4523.589844,4390.897461,4379.487305,,,,,,,,,,,,,,,,,,,,,,,,,,,,,,,,,,,,,,,,,,,,,,,,,,,,,,,,,,,,,,,,,,,,,,
1720084101,98,0,4351.410156,4371.922852,4305.384766,4359.615234,4358.717773,4357.05127,4362.436035,4360.897461,4357.94873,4330.897461,4401.153809,4515.769043,4389.487305,4379.102539,,,,,,,,,,,,,,,,,,,,,,,,,,,,,,,,,,,,,,,,,,,,,,,,,,,,,,,,,,,,,,,,,,,,,,
1720084101,99,0,4360.769043,4375.384766,4317.307617,4364.358887,4367.307617,4363.461426,4375.897461,4361.025879,4347.436035,4323.846191,4407.05127,4501.153809,4393.974121,4388.205078,,,,,,,,,,,,,,,,,,,,,,,,,,,,,,,,,,,,,,,,,,,,,,,,,,,,,,,,,,,,,,,,,,,,,,
1720084101,100,0,4357.820313,4373.974121,4314.743652,4367.820313,4374.230957,4371.794922,4384.871582,4369.743652,4347.436035,4322.307617,4402.179688,4491.282227,4387.05127,4384.230957,,,,,,,,,,,,,,,,,,,,,,,,,,,,,,,,,,,,,,,,,,,,,,,,,,,,,,,,,,,,,,,,,,,,,,
1720084101,101,0,4338.974121,4364.487305,4295.256348,4360.256348,4371.538574,4377.05127,4384.230957,4376.794922,4353.974121,4315.384766,4383.205078,4479.230957,4371.410156,4362.436035,,,,,,,,,,,,,,,,,,,,,,,,,,,,,,,,,,,,,,,,,,,,,,,,,,,,,,,,,,,,,,,,,,,,,,
1720084101,102,0,4323.974121,4349.871582,4277.179688,4346.922852,4368.589844,4374.743652,4382.436035,4373.846191,4355.641113,4308.589844,4370.128418,4461.794922,4360.384766,4347.436035,,,,,,,,,,,,,,,,,,,,,,,,,,,,,,,,,,,,,,,,,,,,,,,,,,,,,,,,,,,,,,,,,,,,,,
1720084101,103,0,4317.179688,4341.410156,4270.641113,4338.717773,4370,4373.333496,4379.871582,4373.333496,4360.512695,4310.641113,4367.179688,4452.563965,4355,4342.820313,,,,,,,,,,,,,,,,,,,,,,,,,,,,,,,,,,,,,,,,,,,,,,,,,,,,,,,,,,,,,,,,,,,,,,
1720084101,104,0,4315,4346.410156,4269.615234,4340.384766,4368.846191,4375.897461,4374.487305,4377.436035,4369.358887,4317.436035,4365.256348,4456.025879,4353.974121,4339.230957,8.949127,4.757533,0.66279,0.25656,0.17289,1.787079,1.258656,0.489674,0.195065,0.146467,2.894473,2.602007,0.87033,0.393006,0.134901,1.128542,0.83494,0.510815,0.179474,0.076849,0.464636,0.399348,0.269635,0.15322,0.078726,0.310751,0.623898,0.293494,0.121927,0.048362,0.227032,0.683745,0.399526,0.280948,0.145869,0.331633,0.491894,0.545265,0.394377,0.246368,1.313741,0.921917,1.08841,0.324682,0.12893,0.746339,0.584306,0.445904,0.365066,0.123335,2.818594,1.260397,0.444132,0.545246,0.155563,7.300574,2.602021,2.142126,0.787277,0.256553,4.178639,1.856171,0.46956,0.660091,0.274325,18.316057,6.608497,0.868998,0.660115,0.304522
1720084101,105,0,4320.512695,4354.615234,4275.256348,4347.820313,4363.974121,4369.487305,4366.025879,4374.487305,4370.512695,4322.820313,4366.410156,4458.333496,4355.512695,4339.230957,,,,,,,,,,,,,,,,,,,,,,,,,,,,,,,,,,,,,,,,,,,,,,,,,,,,,,,,,,,,,,,,,,,,,,
1720084101,106,0,4328.461426,4356.538574,4286.025879,4350.384766,4359.615234,4358.077148,4351.794922,4364.871582,4367.94873,4328.333496,4375,4458.333496,4365.769043,4345.641113,,,,,,,,,,,,,,,,,,,,,,,,,,,,,,,,,,,,,,,,,,,,,,,,,,,,,,,,,,,,,,,,,,,,,,
1720084101,107,0,4338.077148,4360,4296.282227,4351.282227,4353.846191,4351.410156,4347.692383,4370.128418,4369.743652,4334.871582,4390.256348,4475.384766,4384.871582,4365.256348,,,,,,,,,,,,,,,,,,,,,,,,,,,,,,,,,,,,,,,,,,,,,,,,,,,,,,,,,,,,,,,,,,,,,,
1720084101,108,0,4347.436035,4368.717773,4309.871582,4357.307617,4352.307617,4352.436035,4358.333496,4375.641113,4367.05127,4334.743652,4393.717773,4491.410156,4385.769043,4371.794922,,,,,,,,,,,,,,,,,,,,,,,,,,,,,,,,,,,,,,,,,,,,,,,,,,,,,,,,,,,,,,,,,,,,,,
1720084101,109,0,4345.641113,4371.410156,4314.871582,4360.769043,4360.384766,4358.077148,4365,4364.102539,4355.641113,4322.307617,4381.282227,4485.384766,4373.205078,4354.358887,,,,,,,,,,,,,,,,,,,,,,,,,,,,,,,,,,,,,,,,,,,,,,,,,,,,,,,,,,,,,,,,,,,,,,
1720084101,110,0,4337.179688,4363.717773,4301.410156,4358.333496,4366.282227,4365,4370.512695,4361.282227,4348.077148,4311.025879,4376.153809,4477.436035,4375.384766,4357.563965,,,,,,,,,,,,,,,,,,,,,,,,,,,,,,,,,,,,,,,,,,,,,,,,,,,,,,,,,,,,,,,,,,,,,,
1720084101,111,0,4333.077148,4358.461426,4292.179688,4355.512695,4367.436035,4370.897461,4380.512695,4367.563965,4351.410156,4311.153809,4375.641113,4474.743652,4373.846191,4360.256348,,,,,,,,,,,,,,,,,,,,,,,,,,,,,,,,,,,,,,,,,,,,,,,,,,,,,,,,,,,,,,,,,,,,,,
1720084101,112,0,4329.102539,4357.436035,4298.077148,4350.384766,4368.333496,4375,4386.410156,4370.512695,4357.692383,4309.743652,4366.922852,4470.128418,4356.153809,4339.358887,,,,,,,,,,,,,,,,,,,,,,,,,,,,,,,,,,,,,,,,,,,,,,,,,,,,,,,,,,,,,,,,,,,,,,
1720084101,113,0,4322.820313,4352.307617,4295.256348,4341.922852,4364.487305,4375.128418,4382.94873,4373.846191,4358.717773,4303.717773,4361.922852,4466.153809,4350.897461,4334.743652,,,,,,,,,,,,,,,,,,,,,,,,,,,,,,,,,,,,,,,,,,,,,,,,,,,,,,,,,,,,,,,,,,,,,,
1720084101,114,0,4316.794922,4346.538574,4280.512695,4338.846191,4360.384766,4372.307617,4374.230957,4369.743652,4358.589844,4302.05127,4360.641113,4461.153809,4355.256348,4336.922852,,,,,,,,,,,,,,,,,,,,,,,,,,,,,,,,,,,,,,,,,,,,,,,,,,,,,,,,,,,,,,,,,,,,,,
1720084101,115,0,4313.077148,4348.205078,4278.077148,4341.410156,4364.871582,4372.563965,4369.487305,4362.563965,4361.922852,4304.743652,4353.974121,4454.487305,4348.589844,4328.589844,,,,,,,,,,,,,,,,,,,,,,,,,,,,,,,,,,,,,,,,,,,,,,,,,,,,,,,,,,,,,,,,,,,,,,
1720084101,116,0,4316.025879,4350.128418,4286.922852,4342.307617,4368.717773,4368.205078,4367.307617,4364.743652,4366.410156,4307.692383,4357.692383,4458.461426,4349.230957,4331.282227,,,,,,,,,,,,,,,,,,,,,,,,,,,,,,,,,,,,,,,,,,,,,,,,,,,,,,,,,,,,,,,,,,,,,,
1720084101,117,0,4325,4350.256348,4292.692383,4342.94873,4362.179688,4357.692383,4360.384766,4364.230957,4371.282227,4314.102539,4367.307617,4466.282227,4359.358887,4339.102539,,,,,,,,,,,,,,,,,,,,,,,,,,,,,,,,,,,,,,,,,,,,,,,,,,,,,,,,,,,,,,,,,,,,,,
1720084101,118,0,4332.436035,4359.487305,4296.153809,4348.717773,4356.922852,4353.846191,4351.538574,4358.589844,4374.871582,4324.615234,4369.615234,4470.384766,4369.871582,4342.820313,,,,,,,,,,,,,,,,,,,,,,,,,,,,,,,,,,,,,,,,,,,,,,,,,,,,,,,,,,,,,,,,,,,,,,
1720084101,119,0,4336.025879,4366.922852,4303.846191,4355,4357.307617,4355.512695,4355,4361.025879,4370.256348,4326.666504,4376.666504,4480.512695,4378.461426,4358.974121,,,,,,,,,,,,,,,,,,,,,,,,,,,,,,,,,,,,,,,,,,,,,,,,,,,,,,,,,,,,,,,,,,,,,,
1720084101,120,0,4340,4365.128418,4312.563965,4356.153809,4358.589844,4357.307617,4367.307617,4358.846191,4364.871582,4324.615234,4386.538574,4491.282227,4385.128418,4371.922852,5.939323,4.005545,0.84747,0.309847,0.192135,1.609956,1.300327,0.66304,0.222502,0.161425,2.207194,2.515067,1.006792,0.492566,0.157944,1.084788,0.965706,0.60133,0.227619,0.078108,0.436691,0.356757,0.255538,0.154868,0.081186,0.247216,0.518929,0.370767,0.144313,0.051988,0.178789,0.948997,0.761307,0.336825,0.145218,0.305315,0.810585,1.038041,0.452941,0.253942,1.222631,1.364615,1.606406,0.371759,0.133662,0.515525,0.875358,0.591325,0.393946,0.116524,1.876576,1.447191,0.559644,0.608373,0.153787,5.56238,2.856279,2.145199,0.961418,0.293016,2.736585,1.672723,0.627399,0.732028,0.277208,11.532282,5.152972,0.880681,0.765427,0.313222
1720084101,121,0,4342.820313,4364.871582,4315,4357.436035,4362.307617,4361.538574,4376.282227,4353.974121,4364.487305,4323.333496,4386.153809,4491.538574,4385,4365.769043,,,,,,,,,,,,,,,,,,,,,,,,,,,,,,,,,,,,,,,,,,,,,,,,,,,,,,,,,,,,,,,,,,,,,,
1720084101,122,0,4336.922852,4363.846191,4313.717773,4358.589844,4367.820313,4370.769043,4386.538574,4359.102539,4361.410156,4315.641113,4374.743652,4482.307617,4369.487305,4354.102539,,,,,,,,,,,,,,,,,,,,,,,,,,,,,,,,,,,,,,,,,,,,,,,,,,,,,,,,,,,,,,,,,,,,,,
1720084101,123,0,4328.461426,4355.769043,4310.384766,4353.846191,4372.436035,4379.230957,4396.153809,4366.794922,4360.512695,4308.205078,4369.102539,4475.897461,4359.871582,4348.461426,,,,,,,,,,,,,,,,,,,,,,,,,,,,,,,,,,,,,,,,,,,,,,,,,,,,,,,,,,,,,,,,,,,,,,
1720084101,124,0,4325.897461,4348.589844,4303.461426,4344.871582,4372.05127,4383.077148,4395.384766,4372.307617,4372.436035,4310.512695,4368.846191,4477.563965,4364.102539,4347.307617,,,,,,,,,,,,,,,,,,,,,,,,,,,,,,,,,,,,,,,,,,,,,,,,,,,,,,,,,,,,,,,,,,,,,,
1720084101,125,0,4323.461426,4346.538574,4295.384766,4339.743652,4370,4383.205078,4385.256348,4369.487305,4381.922852,4312.436035,4362.436035,4474.615234,4357.692383,4343.589844,,,,,,,,,,,,,,,,,,,,,,,,,,,,,,,,,,,,,,,,,,,,,,,,,,,,,,,,,,,,,,,,,,,,,,
1720084101,126,0,4321.025879,4345.641113,4292.307617,4340.769043,4368.333496,4379.871582,4375,4363.205078,4379.615234,4312.820313,4353.717773,4466.794922,4342.94873,4339.102539,,,,,,,,,,,,,,,,,,,,,,,,,,,,,,,,,,,,,,,,,,,,,,,,,,,,,,,,,,,,,,,,,,,,,,
1720084101,127,0,4325.384766,4347.692383,4296.922852,4341.410156,4365.512695,4373.077148,4366.538574,4361.282227,4379.230957,4320,4353.077148,4467.05127,4348.461426,4341.410156,,,,,,,,,,,,,,,,,,,,,,,,,,,,,,,,,,,,,,,,,,,,,,,,,,,,,,,,,,,,,,,,,,,,,,
1720084101,0,0,4335.769043,4355,4306.410156,4342.179688,4364.743652,4366.538574,4359.743652,4357.820313,4382.692383,4327.692383,4361.410156,4473.461426,4363.205078,4353.461426,,,,,,,,,,,,,,,,,,,,,,,,,,,,,,,,,,,,,,,,,,,,,,,,,,,,,,,,,,,,,,,,,,,,,,
1720084101,1,0,4340.641113,4358.077148,4311.282227,4345.769043,4365.384766,4365.128418,4360.384766,4356.410156,4381.922852,4331.922852,4369.871582,4479.230957,4366.410156,4363.333496,,,,,,,,,,,,,,,,,,,,,,,,,,,,,,,,,,,,,,,,,,,,,,,,,,,,,,,,,,,,,,,,,,,,,,
1720084101,2,0,4342.692383,4357.05127,4315.512695,4351.410156,4361.538574,4366.282227,4367.692383,4358.589844,4378.461426,4336.538574,4375.384766,4485.641113,4369.102539,4364.358887,,,,,,,,,,,,,,,,,,,,,,,,,,,,,,,,,,,,,,,,,,,,,,,,,,,,,,,,,,,,,,,,,,,,,,
1720084101,3,0,4351.538574,4363.717773,4331.410156,4358.077148,4358.974121,4368.205078,4376.666504,4356.794922,4374.615234,4337.307617,4375.128418,4491.410156,4372.05127,4364.358887,,,,,,,,,,,,,,,,,,,,,,,,,,,,,,,,,,,,,,,,,,,,,,,,,,,,,,,,,,,,,,,,,,,,,,
1720084101,4,0,4355.256348,4369.743652,4342.05127,4362.179688,4362.05127,4370.641113,4386.025879,4358.717773,4370.641113,4333.974121,4375.128418,4494.615234,4375,4367.692383,,,,,,,,,,,,,,,,,,,,,,,,,,,,,,,,,,,,,,,,,,,,,,,,,,,,,,,,,,,,,,,,,,,,,,
1720084101,5,0,4349.102539,4362.563965,4332.563965,4358.717773,4362.94873,4372.436035,4393.717773,4367.820313,4371.282227,4329.230957,4375.512695,4494.102539,4375.128418,4370.769043,,,,,,,,,,,,,,,,,,,,,,,,,,,,,,,,,,,,,,,,,,,,,,,,,,,,,,,,,,,,,,,,,,,,,,
1720084101,6,0,4342.436035,4358.077148,4325.897461,4351.794922,4364.487305,4376.153809,4392.563965,4366.538574,4374.615234,4327.820313,4367.563965,4489.358887,4365.128418,4357.820313,,,,,,,,,,,,,,,,,,,,,,,,,,,,,,,,,,,,,,,,,,,,,,,,,,,,,,,,,,,,,,,,,,,,,,
1720084101,7,0,4336.922852,4357.563965,4326.025879,4348.846191,4366.666504,4379.358887,4384.615234,4362.94873,4369.743652,4326.538574,4354.487305,4482.05127,4349.487305,4341.282227,,,,,,,,,,,,,,,,,,,,,,,,,,,,,,,,,,,,,,,,,,,,,,,,,,,,,,,,,,,,,,,,,,,,,,
1720084101,8,0,4322.05127,4344.230957,4306.538574,4339.615234,4360.256348,4372.05127,4374.230957,4360.256348,4355.512695,4315.256348,4334.487305,4460.897461,4333.205078,4331.538574,3.558409,3.622489,1.345286,0.38943,0.206734,1.432597,1.564204,1.021305,0.272263,0.171658,1.606095,2.871585,1.483114,0.647418,0.183951,1.027341,1.25132,0.832717,0.29622,0.080117,0.408396,0.360252,0.232319,0.151236,0.082084,0.196687,0.471688,0.499841,0.158379,0.057045,0.16335,1.265747,1.314822,0.370934,0.138198,0.292789,1.195514,1.732223,0.478599,0.252922,1.074882,1.931115,2.201645,0.410459,0.133361,0.396594,1.279913,0.741757,0.41139,0.108101,1.110644,1.928798,0.783828,0.692099,0.156239,4.360754,3.457041,2.448024,1.144344,0.321381,1.548265,1.810914,0.936969,0.819233,0.26513,6.110525,4.169659,1.118366,0.902048,0.314772
1720084101,9,0,4303.717773,4332.05127,4279.230957,4325.384766,4353.846191,4361.538574,4356.153809,4341.282227,4342.94873,4304.615234,4313.717773,4432.179688,4316.922852,4313.077148,,,,,,,,,,,,,,,,,,,,,,,,,,,,,,,,,,,,,,,,,,,,,,,,,,,,,,,,,,,,,,,,,,,,,,
1720084101,10,0,4297.563965,4332.692383,4271.794922,4320.512695,4350,4358.461426,4340.769043,4333.077148,4340,4305,4308.333496,4427.436035,4307.179688,4303.461426,,,,,,,,,,,,,,,,,,,,,,,,,,,,,,,,,,,,,,,,,,,,,,,,,,,,,,,,,,,,,,,,,,,,,,
1720084101,11,0,4306.153809,4338.589844,4282.692383,4327.436035,4343.846191,4352.436035,4334.871582,4338.461426,4341.025879,4309.615234,4318.205078,4440.384766,4312.563965,4312.820313,,,,,,,,,,,,,,,,,,,,,,,,,,,,,,,,,,,,,,,,,,,,,,,,,,,,,,,,,,,,,,,,,,,,,,
1720084101,12,0,4323.333496,4346.794922,4302.692383,4336.025879,4343.077148,4346.025879,4335.897461,4337.307617,4337.692383,4315.256348,4330.384766,4450.512695,4328.717773,4329.487305,,,,,,,,,,,,,,,,,,,,,,,,,,,,,,,,,,,,,,,,,,,,,,,,,,,,,,,,,,,,,,,,,,,,,,
1720084101,13,0,4334.358887,4350.384766,4311.410156,4337.436035,4342.179688,4349.102539,4348.589844,4339.230957,4328.717773,4317.179688,4335.384766,4456.410156,4338.205078,4342.307617,,,,,,,,,,,,,,,,,,,,,,,,,,,,,,,,,,,,,,,,,,,,,,,,,,,,,,,,,,,,,,,,,,,,,,
1720084101,14,0,4330.512695,4348.589844,4300.512695,4335.384766,4336.794922,4348.846191,4358.974121,4338.461426,4316.538574,4308.974121,4328.717773,4450.512695,4330.256348,4331.794922,,,,,,,,,,,,,,,,,,,,,,,,,,,,,,,,,,,,,,,,,,,,,,,,,,,,,,,,,,,,,,,,,,,,,,
1720084101,15,0,4323.846191,4348.974121,4298.589844,4334.230957,4336.410156,4343.846191,4358.333496,4333.589844,4307.307617,4302.436035,4322.307617,4447.179688,4322.05127,4323.333496,,,,,,,,,,,,,,,,,,,,,,,,,,,,,,,,,,,,,,,,,,,,,,,,,,,,,,,,,,,,,,,,,,,,,,
1720084101,16,0,4329.230957,4355.641113,4313.846191,4338.974121,4337.820313,4346.153809,4360.641113,4341.666504,4307.307617,4306.282227,4325.641113,4456.538574,4328.205078,4339.102539,,,,,,,,,,,,,,,,,,,,,,,,,,,,,,,,,,,,,,,,,,,,,,,,,,,,,,,,,,,,,,,,,,,,,,
1720084101,17,0,4334.871582,4358.589844,4316.794922,4342.563965,4338.205078,4352.05127,4363.974121,4353.205078,4316.282227,4308.205078,4326.025879,4455.384766,4328.333496,4341.410156,,,,,,,,,,,,,,,,,,,,,,,,,,,,,,,,,,,,,,,,,,,,,,,,,,,,,,,,,,,,,,,,,,,,,,
1720084101,18,0,4325.512695,4349.743652,4301.410156,4334.230957,4341.153809,4352.436035,4358.077148,4350.384766,4324.102539,4307.179688,4319.358887,4446.153809,4317.179688,4321.282227,,,,,,,,,,,,,,,,,,,,,,,,,,,,,,,,,,,,,,,,,,,,,,,,,,,,,,,,,,,,,,,,,,,,,,
1720084101,19,0,4315.128418,4337.563965,4293.589844,4325,4342.563965,4356.410156,4356.025879,4350.897461,4325.897461,4308.974121,4315.641113,4445.512695,4309.102539,4316.922852,,,,,,,,,,,,,,,,,,,,,,,,,,,,,,,,,,,,,,,,,,,,,,,,,,,,,,,,,,,,,,,,,,,,,,
1720084101,20,0,4313.205078,4336.922852,4292.563965,4323.974121,4344.487305,4358.205078,4352.436035,4349.102539,4325.897461,4309.358887,4309.871582,4438.846191,4301.153809,4312.05127,,,,,,,,,,,,,,,,,,,,,,,,,,,,,,,,,,,,,,,,,,,,,,,,,,,,,,,,,,,,,,,,,,,,,,
1720084101,21,0,4312.307617,4341.153809,4283.717773,4323.333496,4347.563965,4351.410156,4336.025879,4334.743652,4324.102539,4310.128418,4301.794922,4425.897461,4298.846191,4300.256348,,,,,,,,,,,,,,,,,,,,,,,,,,,,,,,,,,,,,,,,,,,,,,,,,,,,,,,,,,,,,,,,,,,,,,
1720084101,22,0,4308.846191,4336.282227,4276.282227,4320,4348.333496,4349.743652,4328.846191,4330.769043,4320.512695,4316.153809,4303.461426,4428.205078,4310.128418,4309.743652,,,,,,,,,,,,,,,,,,,,,,,,,,,,,,,,,,,,,,,,,,,,,,,,,,,,,,,,,,,,,,,,,,,,,,
1720084101,23,0,4312.436035,4337.94873,4286.538574,4322.94873,4348.974121,4355.769043,4337.436035,4336.025879,4317.05127,4322.05127,4314.358887,4443.461426,4321.025879,4322.692383,,,,,,,,,,,,,,,,,,,,,,,,,,,,,,,,,,,,,,,,,,,,,,,,,,,,,,,,,,,,,,,,,,,,,,
1720084101,24,0,4322.307617,4348.846191,4307.692383,4331.410156,4346.794922,4358.846191,4352.563965,4343.205078,4314.102539,4320.512695,4327.692383,4459.102539,4326.153809,4329.615234,1.984955,3.836647,2.114223,0.488206,0.2114,1.25445,2.1006,1.536231,0.340179,0.174227,1.181759,3.777742,2.250069,0.844481,0.206699,0.953523,1.718229,1.185106,0.376591,0.081641,0.376718,0.42724,0.209343,0.146181,0.080824,0.167546,0.54051,0.705755,0.160073,0.060805,0.170835,1.56077,2.027128,0.376667,0.127332,0.295294,1.541575,2.508955,0.469365,0.245186,0.895938,2.545072,2.754907,0.43497,0.128095,0.408235,1.763155,0.8688,0.415868,0.099945,0.64842,2.779154,1.087185,0.787885,0.162278,3.809344,4.414556,2.960152,1.286909,0.334749,0.835436,2.471196,1.373957,0.909818,0.242078,2.7411,3.964536,1.540268,1.053199,0.311808
1720084101,25,0,4326.153809,4352.820313,4313.333496,4339.487305,4341.025879,4357.820313,4365.384766,4351.666504,4310.128418,4320.512695,4339.487305,4468.205078,4334.230957,4339.102539,,,,,,,,,,,,,,,,,,,,,,,,,,,,,,,,,,,,,,,,,,,,,,,,,,,,,,,,,,,,,,,,,,,,,,
1720084101,26,0,4327.94873,4353.846191,4309.358887,4343.717773,4341.282227,4357.307617,4367.307617,4354.102539,4308.589844,4322.692383,4346.666504,4471.282227,4343.846191,4349.358887,,,,,,,,,,,,,,,,,,,,,,,,,,,,,,,,,,,,,,,,,,,,,,,,,,,,,,,,,,,,,,,,,,,,,,
1720084101,27,0,4336.666504,4362.179688,4317.94873,4343.589844,4342.820313,4353.461426,4363.846191,4351.794922,4309.230957,4321.922852,4351.410156,4478.205078,4350,4357.94873,,,,,,,,,,,,,,,,,,,,,,,,,,,,,,,,,,,,,,,,,,,,,,,,,,,,,,,,,,,,,,,,,,,,,,
1720084101,28,0,4343.974121,4369.487305,4332.307617,4347.94873,4341.153809,4349.102539,4358.974121,4349.487305,4309.615234,4324.358887,4356.282227,4487.179688,4352.692383,4361.794922,,,,,,,,,,,,,,,,,,,,,,,,,,,,,,,,,,,,,,,,,,,,,,,,,,,,,,,,,,,,,,,,,,,,,,
1720084101,29,0,4334.743652,4359.358887,4328.205078,4347.179688,4342.307617,4349.743652,4349.743652,4348.846191,4309.871582,4325.128418,4348.717773,4479.871582,4344.358887,4353.589844,,,,,,,,,,,,,,,,,,,,,,,,,,,,,,,,,,,,,,,,,,,,,,,,,,,,,,,,,,,,,,,,,,,,,,
1720084101,30,0,4315.897461,4343.461426,4307.307617,4332.05127,4342.179688,4350.769043,4345.384766,4346.922852,4311.666504,4318.205078,4328.333496,4458.589844,4330.641113,4335.128418,,,,,,,,,,,,,,,,,,,,,,,,,,,,,,,,,,,,,,,,,,,,,,,,,,,,,,,,,,,,,,,,,,,,,,
1720084101,31,0,4309.230957,4338.717773,4293.589844,4321.153809,4342.94873,4355.641113,4352.692383,4347.307617,4319.615234,4320.897461,4317.05127,4446.025879,4318.974121,4321.922852,,,,,,,,,,,,,,,,,,,,,,,,,,,,,,,,,,,,,,,,,,,,,,,,,,,,,,,,,,,,,,,,,,,,,,
1720084101,32,0,4310.256348,4340.512695,4291.794922,4325.128418,4347.179688,4361.282227,4353.846191,4349.487305,4330,4328.974121,4313.974121,4444.743652,4309.358887,4312.436035,,,,,,,,,,,,,,,,,,,,,,,,,,,,,,,,,,,,,,,,,,,,,,,,,,,,,,,,,,,,,,,,,,,,,,
1720084101,33,0,4308.461426,4337.820313,4295.256348,4327.179688,4346.794922,4359.487305,4344.230957,4345.897461,4328.205078,4320.384766,4308.589844,4443.846191,4309.230957,4311.410156,,,,,,,,,,,,,,,,,,,,,,,,,,,,,,,,,,,,,,,,,,,,,,,,,,,,,,,,,,,,,,,,,,,,,,
1720084101,34,0,4302.692383,4330,4291.538574,4317.436035,4342.820313,4352.692383,4339.358887,4334.358887,4315.769043,4306.025879,4303.846191,4436.282227,4306.025879,4307.820313,,,,,,,,,,,,,,,,,,,,,,,,,,,,,,,,,,,,,,,,,,,,,,,,,,,,,,,,,,,,,,,,,,,,,,
1720084101,35,0,4297.436035,4323.333496,4282.179688,4307.94873,4335.769043,4349.743652,4342.307617,4328.717773,4308.205078,4305.256348,4305,4431.922852,4297.307617,4297.94873,,,,,,,,,,,,,,,,,,,,,,,,,,,,,,,,,,,,,,,,,,,,,,,,,,,,,,,,,,,,,,,,,,,,,,
1720084101,36,0,4297.563965,4320.128418,4283.717773,4307.436035,4326.666504,4349.102539,4348.333496,4335.256348,4306.153809,4307.563965,4310.641113,4441.666504,4300.512695,4307.563965,,,,,,,,,,,,,,,,,,,,,,,,,,,,,,,,,,,,,,,,,,,,,,,,,,,,,,,,,,,,,,,,,,,,,,
1720084101,37,0,4304.615234,4325.769043,4296.153809,4316.922852,4326.538574,4347.692383,4352.05127,4331.794922,4297.307617,4307.94873,4315.512695,4452.436035,4310.128418,4317.307617,,,,,,,,,,,,,,,,,,,,,,,,,,,,,,,,,,,,,,,,,,,,,,,,,,,,,,,,,,,,,,,,,,,,,,
1720084101,38,0,4323.205078,4341.794922,4315.384766,4333.717773,4337.563965,4349.743652,4358.077148,4332.307617,4294.487305,4308.461426,4326.282227,4462.436035,4319.358887,4326.666504,,,,,,,,,,,,,,,,,,,,,,,,,,,,,,,,,,,,,,,,,,,,,,,,,,,,,,,,,,,,,,,,,,,,,,
1720084101,39,0,4340.256348,4358.461426,4329.615234,4345.769043,4344.615234,4349.358887,4359.102539,4342.05127,4300.769043,4310,4338.717773,4475.512695,4330.512695,4343.589844,,,,,,,,,,,,,,,,,,,,,,,,,,,,,,,,,,,,,,,,,,,,,,,,,,,,,,,,,,,,,,,,,,,,,,
1720084101,40,0,4337.692383,4361.922852,4326.153809,4345.512695,4341.538574,4342.05127,4348.333496,4334.871582,4301.794922,4314.230957,4337.05127,4474.358887,4331.666504,4337.94873,1.182171,4.646912,2.977671,0.58898,0.204098,1.106367,2.870011,2.086423,0.411529,0.16811,0.955928,5.175294,3.099207,1.048292,0.222193,0.893251,2.343697,1.561304,0.45053,0.081905,0.35509,0.558517,0.195947,0.144417,0.077051,0.173477,0.776362,0.995925,0.149648,0.061753,0.206825,1.846445,2.85529,0.354683,0.115705,0.323771,1.744228,3.19326,0.433899,0.233349,0.753753,3.093681,3.137379,0.444151,0.118702,0.54823,2.285756,0.952511,0.40761,0.09333,0.492756,3.947656,1.381066,0.870995,0.169549,3.770032,5.667684,3.451138,1.34273,0.329169,0.574981,3.704595,1.842757,0.976797,0.216827,1.26236,4.55574,2.019719,1.18012,0.307323
1720084101,41,0,4324.230957,4349.615234,4311.538574,4337.179688,4340.128418,4341.282227,4346.282227,4332.820313,4304.230957,4317.307617,4326.282227,4461.153809,4320.641113,4320.897461,,,,,,,,,,,,,,,,,,,,,,,,,,,,,,,,,,,,,,,,,,,,,,,,,,,,,,,,,,,,,,,,,,,,,,
1720084101,42,0,4311.538574,4334.102539,4299.871582,4325.641113,4347.692383,4352.436035,4354.743652,4342.94873,4316.538574,4314.615234,4315,4450.512695,4309.230957,4309.230957,,,,,,,,,,,,,,,,,,,,,,,,,,,,,,,,,,,,,,,,,,,,,,,,,,,,,,,,,,,,,,,,,,,,,,
1720084101,43,0,4301.153809,4326.666504,4295,4314.871582,4351.538574,4360.897461,4358.461426,4341.666504,4324.230957,4310,4300.769043,4440.512695,4295.897461,4292.307617,,,,,,,,,,,,,,,,,,,,,,,,,,,,,,,,,,,,,,,,,,,,,,,,,,,,,,,,,,,,,,,,,,,,,,
1720084101,44,0,4295.384766,4324.358887,4288.205078,4308.846191,4343.846191,4358.717773,4359.102539,4342.563965,4324.230957,4312.05127,4292.820313,4438.205078,4286.282227,4281.025879,,,,,,,,,,,,,,,,,,,,,,,,,,,,,,,,,,,,,,,,,,,,,,,,,,,,,,,,,,,,,,,,,,,,,,
1720084101,45,0,4295.128418,4320.769043,4282.05127,4307.179688,4339.487305,4357.692383,4361.538574,4353.589844,4329.358887,4324.487305,4301.794922,4454.615234,4291.410156,4284.743652,,,,,,,,,,,,,,,,,,,,,,,,,,,,,,,,,,,,,,,,,,,,,,,,,,,,,,,,,,,,,,,,,,,,,,
1720084101,46,0,4299.871582,4320.897461,4289.230957,4312.563965,4342.05127,4361.153809,4361.538574,4349.102539,4330.512695,4328.974121,4309.230957,4466.794922,4294.615234,4286.538574,,,,,,,,,,,,,,,,,,,,,,,,,,,,,,,,,,,,,,,,,,,,,,,,,,,,,,,,,,,,,,,,,,,,,,
1720084101,47,0,4310.512695,4327.436035,4304.615234,4321.153809,4336.666504,4357.692383,4357.94873,4341.922852,4317.820313,4315.384766,4305.384766,4467.179688,4292.05127,4293.846191,,,,,,,,,,,,,,,,,,,,,,,,,,,,,,,,,,,,,,,,,,,,,,,,,,,,,,,,,,,,,,,,,,,,,,
1720084101,48,0,4317.563965,4335.384766,4310.512695,4323.717773,4329.615234,4345.256348,4349.358887,4345.512695,4307.05127,4307.692383,4309.743652,4472.307617,4299.102539,4304.615234,,,,,,,,,,,,,,,,,,,,,,,,,,,,,,,,,,,,,,,,,,,,,,,,,,,,,,,,,,,,,,,,,,,,,,
1720084101,49,0,4321.410156,4340.897461,4315,4324.743652,4329.743652,4340.256348,4343.846191,4341.666504,4305.769043,4314.615234,4320,4476.922852,4304.743652,4302.820313,,,,,,,,,,,,,,,,,,,,,,,,,,,,,,,,,,,,,,,,,,,,,,,,,,,,,,,,,,,,,,,,,,,,,,
1720084101,50,0,4329.615234,4342.563965,4327.179688,4330.384766,4329.487305,4343.589844,4350.897461,4337.563965,4300.384766,4313.461426,4320.384766,4468.205078,4300.384766,4302.94873,,,,,,,,,,,,,,,,,,,,,,,,,,,,,,,,,,,,,,,,,,,,,,,,,,,,,,,,,,,,,,,,,,,,,,
1720084101,51,0,4335.641113,4346.794922,4332.692383,4338.846191,4330.769043,4341.025879,4352.692383,4336.025879,4290.641113,4304.871582,4316.153809,4454.358887,4303.461426,4308.461426,,,,,,,,,,,,,,,,,,,,,,,,,,,,,,,,,,,,,,,,,,,,,,,,,,,,,,,,,,,,,,,,,,,,,,
1720084101,52,0,4334.743652,4352.820313,4330.256348,4342.307617,4337.692383,4338.589844,4349.102539,4337.820313,4294.615234,4305.512695,4324.615234,4451.922852,4312.436035,4312.692383,,,,,,,,,,,,,,,,,,,,,,,,,,,,,,,,,,,,,,,,,,,,,,,,,,,,,,,,,,,,,,,,,,,,,,
1720084101,53,0,4324.743652,4345.384766,4321.538574,4333.205078,4339.743652,4342.05127,4350.384766,4345.641113,4307.179688,4312.563965,4331.666504,4446.666504,4305.256348,4306.794922,,,,,,,,,,,,,,,,,,,,,,,,,,,,,,,,,,,,,,,,,,,,,,,,,,,,,,,,,,,,,,,,,,,,,,
1720084101,54,0,4311.153809,4329.358887,4307.820313,4317.436035,4335.897461,4348.077148,4351.282227,4350.641113,4310.897461,4310,4315.128418,4427.820313,4285.769043,4286.922852,,,,,,,,,,,,,,,,,,,,,,,,,,,,,,,,,,,,,,,,,,,,,,,,,,,,,,,,,,,,,,,,,,,,,,
1720084101,55,0,4301.922852,4323.077148,4292.563965,4310,4337.307617,4354.871582,4354.358887,4349.871582,4311.153809,4299.358887,4296.025879,4412.436035,4277.563965,4272.820313,,,,,,,,,,,,,,,,,,,,,,,,,,,,,,,,,,,,,,,,,,,,,,,,,,,,,,,,,,,,,,,,,,,,,,
1720084101,56,0,4293.974121,4322.692383,4279.871582,4307.179688,4340.512695,4356.794922,4358.589844,4343.461426,4315.512695,4295.641113,4296.410156,4406.025879,4277.179688,4269.230957,0.920946,5.828928,3.652841,0.670866,0.187064,0.978427,3.732782,2.48134,0.466328,0.15441,0.887451,6.867096,3.722997,1.2136,0.231093,0.848928,3.035657,1.813244,0.497899,0.081035,0.360514,0.730441,0.192947,0.147953,0.070838,0.232421,1.178343,1.3332,0.131911,0.059862,0.283272,2.226935,3.752066,0.316072,0.105405,0.389224,1.763953,3.618643,0.389731,0.218971,0.756278,3.48101,3.245754,0.441404,0.10668,0.808767,2.790989,0.991014,0.386995,0.088765,0.590385,5.286972,1.547746,0.91486,0.174859,3.984891,7.093282,3.651012,1.296049,0.305835,0.646772,5.368589,2.187495,0.992559,0.19828,0.9597,5.7478,2.363827,1.242135,0.303971
1720084101,57,0,4288.846191,4319.743652,4275.256348,4304.743652,4337.179688,4356.410156,4357.436035,4344.487305,4324.871582,4303.333496,4307.436035,4409.230957,4276.538574,4271.282227,,,,,,,,,,,,,,,,,,,,,,,,,,,,,,,,,,,,,,,,,,,,,,,,,,,,,,,,,,,,,,,,,,,,,,
1720084101,58,0,4294.102539,4317.307617,4276.538574,4305.128418,4332.820313,4358.333496,4351.153809,4347.563965,4331.153809,4306.666504,4310.641113,4414.358887,4280.897461,4279.358887,,,,,,,,,,,,,,,,,,,,,,,,,,,,,,,,,,,,,,,,,,,,,,,,,,,,,,,,,,,,,,,,,,,,,,
1720084101,59,0,4301.666504,4320.512695,4281.153809,4308.589844,4334.615234,4353.461426,4343.333496,4335.256348,4323.974121,4299.871582,4304.487305,4412.05127,4287.563965,4287.436035,,,,,,,,,,,,,,,,,,,,,,,,,,,,,,,,,,,,,,,,,,,,,,,,,,,,,,,,,,,,,,,,,,,,,,
1720084101,60,0,4303.077148,4327.94873,4292.563965,4313.717773,4339.615234,4343.077148,4337.05127,4318.589844,4311.410156,4294.615234,4308.077148,4408.974121,4291.794922,4286.794922,,,,,,,,,,,,,,,,,,,,,,,,,,,,,,,,,,,,,,,,,,,,,,,,,,,,,,,,,,,,,,,,,,,,,,
1720084101,61,0,4305.897461,4333.589844,4303.461426,4318.461426,4335.641113,4340.512695,4339.871582,4323.717773,4306.282227,4298.205078,4321.794922,4420.256348,4293.333496,4290.897461,,,,,,,,,,,,,,,,,,,,,,,,,,,,,,,,,,,,,,,,,,,,,,,,,,,,,,,,,,,,,,,,,,,,,,
1720084101,62,0,4311.153809,4337.436035,4309.230957,4322.692383,4327.436035,4341.666504,4348.717773,4340.256348,4317.307617,4304.230957,4327.692383,4432.820313,4295.769043,4300.897461,,,,,,,,,,,,,,,,,,,,,,,,,,,,,,,,,,,,,,,,,,,,,,,,,,,,,,,,,,,,,,,,,,,,,,
1720084101,63,0,4311.410156,4341.282227,4318.205078,4327.820313,4325.897461,4340.128418,4355.641113,4343.846191,4339.871582,4302.692383,4327.05127,4434.871582,4298.846191,4299.743652,,,,,,,,,,,,,,,,,,,,,,,,,,,,,,,,,,,,,,,,,,,,,,,,,,,,,,,,,,,,,,,,,,,,,,
1720084101,64,0,4311.794922,4337.179688,4321.282227,4328.205078,4327.05127,4341.666504,4362.436035,4351.410156,4356.922852,4297.820313,4333.333496,4443.974121,4299.743652,4305,,,,,,,,,,,,,,,,,,,,,,,,,,,,,,,,,,,,,,,,,,,,,,,,,,,,,,,,,,,,,,,,,,,,,,
1720084101,65,0,4311.922852,4329.615234,4314.743652,4322.692383,4329.487305,4343.333496,4362.05127,4356.282227,4358.461426,4297.436035,4339.743652,4455.256348,4298.461426,4312.820313,,,,,,,,,,,,,,,,,,,,,,,,,,,,,,,,,,,,,,,,,,,,,,,,,,,,,,,,,,,,,,,,,,,,,,
1720084101,66,0,4304.743652,4325.769043,4309.230957,4317.692383,4334.743652,4344.871582,4354.102539,4347.179688,4353.717773,4295.512695,4327.692383,4447.820313,4290.512695,4300.641113,,,,,,,,,,,,,,,,,,,,,,,,,,,,,,,,,,,,,,,,,,,,,,,,,,,,,,,,,,,,,,,,,,,,,,
1720084101,67,0,4291.025879,4318.461426,4298.846191,4310.769043,4336.538574,4348.974121,4349.358887,4341.538574,4354.487305,4291.153809,4312.179688,4428.846191,4281.922852,4288.717773,,,,,,,,,,,,,,,,,,,,,,,,,,,,,,,,,,,,,,,,,,,,,,,,,,,,,,,,,,,,,,,,,,,,,,
1720084101,68,0,4282.179688,4314.102539,4283.974121,4304.487305,4337.692383,4352.820313,4347.179688,4337.05127,4358.333496,4291.282227,4306.794922,4413.205078,4275.641113,4278.077148,,,,,,,,,,,,,,,,,,,,,,,,,,,,,,,,,,,,,,,,,,,,,,,,,,,,,,,,,,,,,,,,,,,,,,
1720084102,69,0,4284.230957,4318.974121,4277.179688,4305.256348,4341.282227,4354.743652,4343.974121,4339.615234,4364.230957,4293.717773,4303.205078,4411.666504,4274.230957,4271.538574,,,,,,,,,,,,,,,,,,,,,,,,,,,,,,,,,,,,,,,,,,,,,,,,,,,,,,,,,,,,,,,,,,,,,,
1720084102,70,0,4287.307617,4321.922852,4281.282227,4307.307617,4339.487305,4352.05127,4339.743652,4343.461426,4366.794922,4298.846191,4303.589844,4418.077148,4286.538574,4283.461426,,,,,,,,,,,,,,,,,,,,,,,,,,,,,,,,,,,,,,,,,,,,,,,,,,,,,,,,,,,,,,,,,,,,,,
1720084102,71,0,4288.717773,4322.94873,4288.846191,4311.025879,4338.589844,4344.743652,4335.897461,4336.666504,4360.641113,4303.077148,4308.077148,4417.94873,4297.179688,4287.94873,,,,,,,,,,,,,,,,,,,,,,,,,,,,,,,,,,,,,,,,,,,,,,,,,,,,,,,,,,,,,,,,,,,,,,
1720084102,72,0,4294.487305,4329.102539,4292.436035,4316.538574,4343.333496,4340.256348,4334.743652,4331.025879,4349.487305,4297.563965,4310.512695,4417.563965,4291.922852,4283.589844,0.91869,7.06738,3.873239,0.718516,0.165868,0.86033,4.526519,2.558134,0.492396,0.137007,0.926281,8.610214,3.8522,1.303081,0.239263,0.816181,3.696022,1.819982,0.50737,0.080561,0.407695,0.902988,0.193839,0.154897,0.06304,0.352024,1.664665,1.634174,0.11475,0.056229,0.405732,2.789194,4.636754,0.28069,0.097051,0.499191,1.629566,3.67903,0.35611,0.20239,0.992362,3.662776,3.02568,0.433645,0.094277,1.175231,3.192691,0.987367,0.355913,0.086768,0.938254,6.659482,1.519562,0.905335,0.175748,4.336346,8.56576,3.412865,1.173519,0.271527,0.954811,7.204505,2.272743,0.944102,0.190386,1.206239,7.281665,2.413619,1.216804,0.302506
1720084102,73,0,4302.820313,4337.179688,4291.410156,4321.282227,4342.692383,4340.128418,4339.230957,4336.794922,4341.794922,4296.666504,4317.436035,4424.230957,4294.871582,4294.743652,,,,,,,,,,,,,,,,,,,,,,,,,,,,,,,,,,,,,,,,,,,,,,,,,,,,,,,,,,,,,,,,,,,,,,
1720084102,74,0,4315.384766,4343.589844,4303.717773,4328.589844,4338.717773,4340.384766,4350.128418,4340.128418,4341.922852,4304.487305,4333.589844,4436.282227,4315.384766,4308.717773,,,,,,,,,,,,,,,,,,,,,,,,,,,,,,,,,,,,,,,,,,,,,,,,,,,,,,,,,,,,,,,,,,,,,,
1720084102,75,0,4330.256348,4351.282227,4326.153809,4338.333496,4339.102539,4344.871582,4362.563965,4344.743652,4340,4301.025879,4343.589844,4455.769043,4321.794922,4316.538574,,,,,,,,,,,,,,,,,,,,,,,,,,,,,,,,,,,,,,,,,,,,,,,,,,,,,,,,,,,,,,,,,,,,,,
1720084102,76,0,4336.153809,4356.666504,4335.384766,4346.025879,4345,4352.94873,4367.436035,4357.820313,4338.846191,4294.743652,4341.538574,4468.717773,4315.384766,4322.436035,,,,,,,,,,,,,,,,,,,,,,,,,,,,,,,,,,,,,,,,,,,,,,,,,,,,,,,,,,,,,,,,,,,,,,
1720084102,77,0,4327.563965,4350.897461,4327.94873,4344.102539,4349.871582,4357.179688,4364.358887,4359.487305,4346.922852,4304.102539,4339.102539,4461.025879,4315.897461,4316.794922,,,,,,,,,,,,,,,,,,,,,,,,,,,,,,,,,,,,,,,,,,,,,,,,,,,,,,,,,,,,,,,,,,,,,,
1720084102,78,0,4313.589844,4334.871582,4312.05127,4329.230957,4344.487305,4355.897461,4362.94873,4357.307617,4357.820313,4313.461426,4336.025879,4446.410156,4317.05127,4308.205078,,,,,,,,,,,,,,,,,,,,,,,,,,,,,,,,,,,,,,,,,,,,,,,,,,,,,,,,,,,,,,,,,,,,,,
1720084102,79,0,4300.256348,4325.769043,4296.282227,4317.179688,4343.589844,4355.256348,4360.769043,4356.282227,4363.461426,4312.94873,4330.769043,4434.871582,4311.410156,4300.769043,,,,,,,,,,,,,,,,,,,,,,,,,,,,,,,,,,,,,,,,,,,,,,,,,,,,,,,,,,,,,,,,,,,,,,
1720084102,80,0,4292.820313,4327.307617,4288.077148,4320.512695,4354.230957,4358.205078,4356.538574,4347.94873,4365.641113,4312.179688,4321.025879,4422.692383,4298.846191,4286.025879,,,,,,,,,,,,,,,,,,,,,,,,,,,,,,,,,,,,,,,,,,,,,,,,,,,,,,,,,,,,,,,,,,,,,,
1720084102,81,0,4297.179688,4326.922852,4288.205078,4323.589844,4353.461426,4354.615234,4349.487305,4340.128418,4361.410156,4309.871582,4312.179688,4419.358887,4291.025879,4281.922852,,,,,,,,,,,,,,,,,,,,,,,,,,,,,,,,,,,,,,,,,,,,,,,,,,,,,,,,,,,,,,,,,,,,,,
1720084102,82,0,4301.794922,4323.333496,4291.666504,4317.563965,4341.538574,4345.256348,4337.692383,4332.692383,4352.820313,4308.589844,4315.384766,4424.102539,4301.538574,4294.743652,,,,,,,,,,,,,,,,,,,,,,,,,,,,,,,,,,,,,,,,,,,,,,,,,,,,,,,,,,,,,,,,,,,,,,
1720084102,83,0,4298.461426,4323.205078,4292.179688,4314.871582,4339.358887,4341.153809,4335.897461,4329.871582,4350.641113,4311.538574,4325.512695,4427.307617,4315,4299.615234,,,,,,,,,,,,,,,,,,,,,,,,,,,,,,,,,,,,,,,,,,,,,,,,,,,,,,,,,,,,,,,,,,,,,,
1720084102,84,0,4299.743652,4330,4295.769043,4321.410156,4343.077148,4343.077148,4342.94873,4331.922852,4349.230957,4310.897461,4329.615234,4428.461426,4311.410156,4288.974121,,,,,,,,,,,,,,,,,,,,,,,,,,,,,,,,,,,,,,,,,,,,,,,,,,,,,,,,,,,,,,,,,,,,,,
1720084102,85,0,4309.871582,4340.897461,4306.410156,4332.179688,4342.692383,4346.153809,4345.769043,4334.102539,4343.461426,4308.974121,4328.589844,4434.871582,4305.384766,4289.358887,,,,,,,,,,,,,,,,,,,,,,,,,,,,,,,,,,,,,,,,,,,,,,,,,,,,,,,,,,,,,,,,,,,,,,
1720084102,86,0,4314.230957,4343.717773,4313.205078,4335.256348,4341.794922,4348.717773,4352.820313,4340.769043,4345.384766,4313.846191,4337.05127,4450.897461,4317.179688,4308.333496,,,,,,,,,,,,,,,,,,,,,,,,,,,,,,,,,,,,,,,,,,,,,,,,,,,,,,,,,,,,,,,,,,,,,,
1720084102,87,0,4315.641113,4342.820313,4318.205078,4333.333496,4340.128418,4350.128418,4366.025879,4353.461426,4349.230957,4318.717773,4351.666504,4464.743652,4334.871582,4323.205078,,,,,,,,,,,,,,,,,,,,,,,,,,,,,,,,,,,,,,,,,,,,,,,,,,,,,,,,,,,,,,,,,,,,,,
1720084102,88,0,4321.666504,4350.256348,4327.436035,4339.615234,4340.641113,4349.743652,4368.846191,4353.077148,4344.487305,4314.615234,4351.666504,4460,4332.436035,4314.102539,1.026294,8.123336,3.546422,0.72758,0.146089,0.761943,5.151969,2.278204,0.49111,0.120805,1.046043,10.235624,3.428809,1.298261,0.252182,0.784306,4.282544,1.569426,0.483206,0.082142,0.493907,1.042428,0.195429,0.161298,0.055498,0.516377,2.10837,1.809848,0.105494,0.052818,0.560687,3.479416,5.372456,0.266961,0.090182,0.654981,1.416538,3.373141,0.343969,0.183952,1.446414,3.701952,2.518973,0.428587,0.084348,1.596962,3.394783,0.946261,0.319312,0.088749,1.491766,7.960158,1.328039,0.84743,0.172061,4.77036,9.937312,2.844733,1.019238,0.235646,1.434439,8.918195,2.07,0.84246,0.190586,1.62302,8.949169,2.153078,1.111283,0.300377
1720084102,89,0,4323.589844,4351.922852,4326.538574,4341.922852,4342.179688,4351.538574,4365.128418,4347.436035,4342.05127,4307.820313,4341.282227,4447.563965,4314.358887,4302.179688,,,,,,,,,,,,,,,,,,,,,,,,,,,,,,,,,,,,,,,,,,,,,,,,,,,,,,,,,,,,,,,,,,,,,,
1720084102,90,0,4314.871582,4341.538574,4311.922852,4331.538574,4340.256348,4355.769043,4364.358887,4355.641113,4350.769043,4311.153809,4337.563965,4444.358887,4307.820313,4306.538574,,,,,,,,,,,,,,,,,,,,,,,,,,,,,,,,,,,,,,,,,,,,,,,,,,,,,,,,,,,,,,,,,,,,,,
1720084102,91,0,4300.256348,4334.743652,4299.871582,4323.589844,4344.358887,4359.102539,4358.205078,4351.922852,4357.94873,4323.333496,4332.94873,4435.769043,4310.897461,4295.512695,,,,,,,,,,,,,,,,,,,,,,,,,,,,,,,,,,,,,,,,,,,,,,,,,,,,,,,,,,,,,,,,,,,,,,
1720084102,92,0,4296.153809,4334.615234,4295.128418,4322.179688,4351.410156,4358.974121,4349.743652,4340.256348,4357.94873,4329.102539,4324.743652,4422.820313,4308.846191,4280.897461,,,,,,,,,,,,,,,,,,,,,,,,,,,,,,,,,,,,,,,,,,,,,,,,,,,,,,,,,,,,,,,,,,,,,,
1720084102,93,0,4304.230957,4336.153809,4293.077148,4320.384766,4353.205078,4356.666504,4344.487305,4340.128418,4358.333496,4328.333496,4326.666504,4422.94873,4305.641113,4283.077148,,,,,,,,,,,,,,,,,,,,,,,,,,,,,,,,,,,,,,,,,,,,,,,,,,,,,,,,,,,,,,,,,,,,,,
1720084102,94,0,4308.717773,4340.512695,4298.205078,4322.436035,4352.179688,4357.05127,4341.282227,4336.794922,4358.461426,4331.666504,4337.307617,4433.077148,4310.256348,4287.179688,,,,,,,,,,,,,,,,,,,,,,,,,,,,,,,,,,,,,,,,,,,,,,,,,,,,,,,,,,,,,,,,,,,,,,
1720084102,95,0,4311.922852,4344.102539,4308.205078,4329.230957,4352.307617,4357.05127,4346.025879,4336.666504,4358.846191,4334.871582,4346.282227,4448.205078,4321.666504,4302.179688,,,,,,,,,,,,,,,,,,,,,,,,,,,,,,,,,,,,,,,,,,,,,,,,,,,,,,,,,,,,,,,,,,,,,,
1720084102,96,0,4319.487305,4346.410156,4320.128418,4334.743652,4353.974121,4356.410156,4356.282227,4343.461426,4353.974121,4331.025879,4353.077148,4459.102539,4330.641113,4314.615234,,,,,,,,,,,,,,,,,,,,,,,,,,,,,,,,,,,,,,,,,,,,,,,,,,,,,,,,,,,,,,,,,,,,,,
1720084102,97,0,4324.871582,4353.589844,4334.358887,4339.615234,4354.743652,4358.333496,4363.974121,4346.538574,4343.077148,4326.922852,4356.153809,4460.897461,4326.410156,4308.589844,,,,,,,,,,,,,,,,,,,,,,,,,,,,,,,,,,,,,,,,,,,,,,,,,,,,,,,,,,,,,,,,,,,,,,
1720084102,98,0,4329.358887,4357.94873,4343.846191,4343.974121,4353.846191,4359.871582,4371.025879,4350.641113,4338.846191,4326.922852,4356.282227,4468.846191,4322.563965,4313.461426,,,,,,,,,,,,,,,,,,,,,,,,,,,,,,,,,,,,,,,,,,,,,,,,,,,,,,,,,,,,,,,,,,,,,,
1720084102,99,0,4333.589844,4352.05127,4342.05127,4343.077148,4349.230957,4358.974121,4374.615234,4355.512695,4341.666504,4327.563965,4360.384766,4484.743652,4333.333496,4327.94873,,,,,,,,,,,,,,,,,,,,,,,,,,,,,,,,,,,,,,,,,,,,,,,,,,,,,,,,,,,,,,,,,,,,,,
1720084102,100,0,4326.538574,4344.358887,4332.94873,4336.025879,4344.487305,4357.436035,4374.102539,4355.384766,4344.230957,4325.256348,4362.436035,4480.897461,4337.692383,4318.974121,,,,,,,,,,,,,,,,,,,,,,,,,,,,,,,,,,,,,,,,,,,,,,,,,,,,,,,,,,,,,,,,,,,,,,
1720084102,101,0,4315.769043,4340.512695,4327.820313,4333.205078,4341.538574,4359.358887,4374.358887,4360.384766,4349.615234,4321.666504,4349.743652,4461.153809,4326.538574,4307.05127,,,,,,,,,,,,,,,,,,,,,,,,,,,,,,,,,,,,,,,,,,,,,,,,,,,,,,,,,,,,,,,,,,,,,,
1720084102,102,0,4311.282227,4340.512695,4321.922852,4336.666504,4342.94873,4360.641113,4369.358887,4359.871582,4360.897461,4323.205078,4337.05127,4448.461426,4320.128418,4300.897461,,,,,,,,,,,,,,,,,,,,,,,,,,,,,,,,,,,,,,,,,,,,,,,,,,,,,,,,,,,,,,,,,,,,,,
1720084102,103,0,4309.358887,4341.282227,4312.179688,4332.563965,4344.487305,4357.692383,4357.692383,4348.846191,4365,4328.589844,4343.589844,4441.794922,4325.641113,4292.05127,,,,,,,,,,,,,,,,,,,,,,,,,,,,,,,,,,,,,,,,,,,,,,,,,,,,,,,,,,,,,,,,,,,,,,
1720084102,104,0,4307.05127,4338.846191,4306.025879,4322.692383,4341.666504,4354.230957,4348.205078,4346.538574,4360.512695,4328.333496,4348.974121,4437.563965,4330,4296.282227,1.113637,8.974177,2.831976,0.706353,0.130818,0.679868,5.6349,1.764337,0.474092,0.109464,1.2075,11.754576,2.645045,1.208048,0.270397,0.755294,4.835368,1.169682,0.44225,0.086309,0.609842,1.127075,0.199907,0.163303,0.05052,0.69458,2.398636,1.812651,0.107286,0.051381,0.71931,4.103728,5.817059,0.284381,0.084021,0.834956,1.21115,2.806753,0.353815,0.165098,2.053786,3.724731,1.862092,0.437791,0.079468,1.991157,3.322026,0.865676,0.284028,0.096616,2.193674,9.110298,1.06283,0.763224,0.166696,5.247519,11.08345,2.205511,0.879292,0.206942,2.020053,10.267135,1.670365,0.719302,0.193208,2.151278,10.644798,1.710402,0.96262,0.293665
1720084102,105,0,4306.153809,4337.05127,4302.436035,4322.563965,4344.871582,4350.897461,4339.230957,4339.358887,4355.384766,4325.512695,4333.589844,4431.666504,4325.512695,4296.666504,,,,,,,,,,,,,,,,,,,,,,,,,,,,,,,,,,,,,,,,,,,,,,,,,,,,,,,,,,,,,,,,,,,,,,
1720084102,106,0,4305.512695,4340.897461,4300.897461,4327.179688,4354.871582,4349.615234,4335.128418,4326.794922,4349.358887,4325.256348,4321.410156,4426.282227,4317.436035,4285.512695,,,,,,,,,,,,,,,,,,,,,,,,,,,,,,,,,,,,,,,,,,,,,,,,,,,,,,,,,,,,,,,,,,,,,,
1720084102,107,0,4306.025879,4343.077148,4303.205078,4325.641113,4357.563965,4350.256348,4339.487305,4327.179688,4342.94873,4324.743652,4326.538574,4428.333496,4316.025879,4283.717773,,,,,,,,,,,,,,,,,,,,,,,,,,,,,,,,,,,,,,,,,,,,,,,,,,,,,,,,,,,,,,,,,,,,,,
1720084102,108,0,4313.846191,4341.410156,4307.820313,4324.487305,4352.179688,4350.512695,4346.538574,4333.077148,4339.871582,4323.717773,4336.282227,4439.102539,4322.692383,4297.94873,,,,,,,,,,,,,,,,,,,,,,,,,,,,,,,,,,,,,,,,,,,,,,,,,,,,,,,,,,,,,,,,,,,,,,
1720084102,109,0,4320.769043,4344.615234,4313.077148,4330,4348.846191,4349.102539,4354.230957,4338.333496,4341.538574,4324.743652,4342.692383,4451.666504,4327.307617,4312.179688,,,,,,,,,,,,,,,,,,,,,,,,,,,,,,,,,,,,,,,,,,,,,,,,,,,,,,,,,,,,,,,,,,,,,,
1720084102,110,0,4323.846191,4352.94873,4324.358887,4336.282227,4349.615234,4348.846191,4358.077148,4342.820313,4343.333496,4326.794922,4347.307617,4457.436035,4333.333496,4316.025879,,,,,,,,,,,,,,,,,,,,,,,,,,,,,,,,,,,,,,,,,,,,,,,,,,,,,,,,,,,,,,,,,,,,,,
1720084102,111,0,4335,4357.436035,4339.358887,4342.307617,4350.641113,4353.077148,4361.538574,4345.897461,4336.922852,4322.94873,4351.666504,4461.025879,4338.717773,4322.820313,,,,,,,,,,,,,,,,,,,,,,,,,,,,,,,,,,,,,,,,,,,,,,,,,,,,,,,,,,,,,,,,,,,,,,
1720084102,112,0,4346.153809,4358.589844,4346.794922,4348.333496,4355.128418,4358.589844,4367.820313,4348.974121,4328.717773,4317.94873,4350.512695,4466.922852,4331.922852,4330.384766,,,,,,,,,,,,,,,,,,,,,,,,,,,,,,,,,,,,,,,,,,,,,,,,,,,,,,,,,,,,,,,,,,,,,,
1720084102,113,0,4343.333496,4361.410156,4346.794922,4350.641113,4358.077148,4358.974121,4366.922852,4351.025879,4336.794922,4321.282227,4346.282227,4474.871582,4325.769043,4328.205078,,,,,,,,,,,,,,,,,,,,,,,,,,,,,,,,,,,,,,,,,,,,,,,,,,,,,,,,,,,,,,,,,,,,,,
1720084102,114,0,4333.205078,4358.461426,4339.871582,4342.563965,4356.282227,4354.615234,4358.717773,4348.717773,4350.384766,4327.179688,4343.461426,4475.128418,4325.512695,4316.666504,,,,,,,,,,,,,,,,,,,,,,,,,,,,,,,,,,,,,,,,,,,,,,,,,,,,,,,,,,,,,,,,,,,,,,
1720084102,115,0,4324.871582,4345.384766,4326.922852,4330,4355.256348,4355.641113,4350.897461,4344.358887,4349.871582,4326.025879,4334.358887,4457.94873,4316.410156,4305.256348,,,,,,,,,,,,,,,,,,,,,,,,,,,,,,,,,,,,,,,,,,,,,,,,,,,,,,,,,,,,,,,,,,,,,,
1720084102,116,0,4316.410156,4339.230957,4319.358887,4327.692383,4357.307617,4357.563965,4344.743652,4335.384766,4347.563965,4323.205078,4321.282227,4438.077148,4307.307617,4295.128418,,,,,,,,,,,,,,,,,,,,,,,,,,,,,,,,,,,,,,,,,,,,,,,,,,,,,,,,,,,,,,,,,,,,,,
1720084102,117,0,4313.205078,4346.153809,4321.922852,4334.358887,4358.717773,4356.410156,4345.128418,4332.436035,4353.333496,4324.487305,4326.153809,4440.897461,4313.461426,4291.922852,,,,,,,,,,,,,,,,,,,,,,,,,,,,,,,,,,,,,,,,,,,,,,,,,,,,,,,,,,,,,,,,,,,,,,
1720084102,118,0,4320,4349.743652,4324.615234,4336.922852,4354.871582,4358.589844,4352.436035,4347.05127,4356.153809,4327.692383,4340.384766,4455.769043,4322.436035,4306.410156,,,,,,,,,,,,,,,,,,,,,,,,,,,,,,,,,,,,,,,,,,,,,,,,,,,,,,,,,,,,,,,,,,,,,,
1720084102,119,0,4329.743652,4351.153809,4327.94873,4337.436035,4353.846191,4358.205078,4348.205078,4347.179688,4353.974121,4334.615234,4342.436035,4458.333496,4325.256348,4309.230957,,,,,,,,,,,,,,,,,,,,,,,,,,,,,,,,,,,,,,,,,,,,,,,,,,,,,,,,,,,,,,,,,,,,,,
1720084102,120,0,4335.128418,4358.589844,4335.384766,4342.179688,4356.410156,4351.025879,4340.128418,4333.717773,4351.538574,4337.692383,4343.461426,4471.025879,4326.153809,4302.692383,1.237337,9.691662,2.000412,0.670651,0.120786,0.656713,6.055187,1.198703,0.454959,0.104539,1.39788,13.239312,1.795662,1.063362,0.288263,0.745563,5.409226,0.767643,0.403643,0.092378,0.724055,1.147594,0.20446,0.158937,0.050108,0.840663,2.493418,1.658477,0.117614,0.05248,0.847043,4.495742,5.889958,0.327658,0.077953,1.000742,1.126301,2.158561,0.376881,0.147881,2.688684,3.847136,1.229155,0.47004,0.080457,2.265245,2.962612,0.75423,0.255509,0.111189,2.850987,10.03686,0.81979,0.677262,0.164343,5.6595,11.941307,1.766045,0.782183,0.190904,2.54727,11.085045,1.214552,0.608617,0.195298,2.561519,12.227807,1.261783,0.818563,0.281374
1720084102,121,0,4334.871582,4357.05127,4337.307617,4342.05127,4353.205078,4349.743652,4348.589844,4341.922852,4348.846191,4332.820313,4350,4495.641113,4327.94873,4313.461426,,,,,,,,,,,,,,,,,,,,,,,,,,,,,,,,,,,,,,,,,,,,,,,,,,,,,,,,,,,,,,,,,,,,,,
1720084102,122,0,4329.871582,4350.128418,4333.205078,4333.077148,4348.589844,4357.05127,4360.128418,4351.410156,4345.897461,4328.589844,4350.641113,4495.641113,4331.794922,4314.358887,,,,,,,,,,,,,,,,,,,,,,,,,,,,,,,,,,,,,,,,,,,,,,,,,,,,,,,,,,,,,,,,,,,,,,
1720084102,123,0,4330.897461,4357.563965,4333.333496,4334.358887,4351.794922,4359.743652,4365.384766,4347.307617,4335.641113,4321.666504,4341.666504,4483.077148,4330.769043,4305.641113,,,,,,,,,,,,,,,,,,,,,,,,,,,,,,,,,,,,,,,,,,,,,,,,,,,,,,,,,,,,,,,,,,,,,,
1720084102,124,0,4337.94873,4363.974121,4339.871582,4347.179688,4357.692383,4358.205078,4370.769043,4351.025879,4328.333496,4315.769043,4337.94873,4478.077148,4323.846191,4306.282227,,,,,,,,,,,,,,,,,,,,,,,,,,,,,,,,,,,,,,,,,,,,,,,,,,,,,,,,,,,,,,,,,,,,,,
1720084102,125,0,4342.436035,4359.743652,4346.410156,4351.410156,4357.820313,4360.512695,4373.077148,4362.179688,4339.871582,4323.974121,4353.205078,4472.94873,4331.538574,4315.256348,,,,,,,,,,,,,,,,,,,,,,,,,,,,,,,,,,,,,,,,,,,,,,,,,,,,,,,,,,,,,,,,,,,,,,
1720084102,126,0,4340.512695,4357.436035,4344.358887,4341.794922,4356.666504,4361.153809,4361.153809,4360,4348.717773,4328.077148,4355,4462.94873,4335.512695,4319.743652,,,,,,,,,,,,,,,,,,,,,,,,,,,,,,,,,,,,,,,,,,,,,,,,,,,,,,,,,,,,,,,,,,,,,,
1720084102,127,0,4327.563965,4350.897461,4321.794922,4326.666504,4353.205078,4353.974121,4338.846191,4342.692383,4335.512695,4312.05127,4321.153809,4439.487305,4302.307617,4296.410156,,,,,,,,,,,,,,,,,,,,,,,,,,,,,,,,,,,,,,,,,,,,,,,,,,,,,,,,,,,,,,,,,,,,,,
1720084102,0,0,4308.205078,4333.077148,4294.487305,4311.282227,4345.897461,4345.256348,4323.461426,4323.461426,4322.05127,4299.230957,4294.615234,4408.717773,4271.666504,4262.179688,,,,,,,,,,,,,,,,,,,,,,,,,,,,,,,,,,,,,,,,,,,,,,,,,,,,,,,,,,,,,,,,,,,,,,
1720084102,1,0,4302.692383,4327.179688,4291.922852,4305.384766,4339.871582,4341.538574,4321.922852,4320,4324.615234,4302.05127,4301.922852,4401.794922,4279.743652,4260.128418,,,,,,,,,,,,,,,,,,,,,,,,,,,,,,,,,,,,,,,,,,,,,,,,,,,,,,,,,,,,,,,,,,,,,,
1720084102,2,0,4315.641113,4342.436035,4309.230957,4315.769043,4340.384766,4340.384766,4325,4328.589844,4335.256348,4313.717773,4312.820313,4416.538574,4298.205078,4277.692383,,,,,,,,,,,,,,,,,,,,,,,,,,,,,,,,,,,,,,,,,,,,,,,,,,,,,,,,,,,,,,,,,,,,,,
1720084102,3,0,4328.461426,4356.538574,4323.205078,4331.153809,4343.333496,4341.153809,4329.358887,4334.871582,4348.846191,4331.922852,4325.641113,4428.717773,4311.794922,4287.563965,,,,,,,,,,,,,,,,,,,,,,,,,,,,,,,,,,,,,,,,,,,,,,,,,,,,,,,,,,,,,,,,,,,,,,
1720084102,4,0,4332.692383,4358.717773,4330.128418,4336.538574,4341.666504,4341.282227,4341.153809,4346.025879,4356.666504,4341.025879,4350.128418,4443.974121,4330,4304.358887,,,,,,,,,,,,,,,,,,,,,,,,,,,,,,,,,,,,,,,,,,,,,,,,,,,,,,,,,,,,,,,,,,,,,,
1720084102,5,0,4335.128418,4358.589844,4337.94873,4335.128418,4343.205078,4338.974121,4356.025879,4355.384766,4353.974121,4337.307617,4363.717773,4459.230957,4342.94873,4318.461426,,,,,,,,,,,,,,,,,,,,,,,,,,,,,,,,,,,,,,,,,,,,,,,,,,,,,,,,,,,,,,,,,,,,,,
1720084102,6,0,4337.820313,4360.128418,4342.820313,4337.436035,4349.615234,4345.641113,4366.025879,4359.358887,4349.615234,4337.436035,4360.641113,4463.846191,4339.743652,4317.179688,,,,,,,,,,,,,,,,,,,,,,,,,,,,,,,,,,,,,,,,,,,,,,,,,,,,,,,,,,,,,,,,,,,,,,
1720084102,7,0,4339.487305,4360.512695,4345.769043,4342.820313,4350.384766,4353.974121,4369.871582,4362.436035,4344.487305,4338.589844,4351.666504,4462.179688,4331.410156,4313.974121,,,,,,,,,,,,,,,,,,,,,,,,,,,,,,,,,,,,,,,,,,,,,,,,,,,,,,,,,,,,,,,,,,,,,,
1720084102,8,0,4339.230957,4361.922852,4344.615234,4340.512695,4349.102539,4355.384766,4368.205078,4357.692383,4340.128418,4331.153809,4345.128418,4460.384766,4331.538574,4310.512695,1.316333,10.293196,1.290646,0.636411,0.114514,0.67747,6.441737,0.740627,0.44136,0.104815,1.564418,14.674841,1.103621,0.906627,0.296055,0.733026,5.990973,0.472624,0.380367,0.09883,0.804012,1.109286,0.206288,0.149318,0.054908,0.916305,2.415099,1.406894,0.130312,0.055007,0.919089,4.645317,5.589287,0.379298,0.071641,1.111142,1.264549,1.602742,0.400949,0.134773,3.198361,4.095395,0.754312,0.525415,0.086144,2.339745,2.385335,0.627499,0.235965,0.13046,3.291445,10.645143,0.651547,0.604262,0.169127,5.951681,12.53969,1.64025,0.730082,0.187598,2.856326,11.275952,0.821291,0.530149,0.198757,2.764756,13.465916,0.925463,0.713429,0.266841
1720084102,9,0,4329.615234,4357.436035,4330,4331.538574,4353.589844,4356.794922,4360.384766,4352.436035,4339.230957,4325.641113,4339.871582,4456.922852,4331.538574,4307.05127,,,,,,,,,,,,,,,,,,,,,,,,,,,,,,,,,,,,,,,,,,,,,,,,,,,,,,,,,,,,,,,,,,,,,,
1720084102,10,0,4316.538574,4344.743652,4311.794922,4323.077148,4353.333496,4352.179688,4346.025879,4346.666504,4338.589844,4324.871582,4325.641113,4440.641113,4318.333496,4296.153809,,,,,,,,,,,,,,,,,,,,,,,,,,,,,,,,,,,,,,,,,,,,,,,,,,,,,,,,,,,,,,,,,,,,,,
1720084102,11,0,4314.230957,4339.230957,4305.512695,4313.717773,4344.871582,4346.153809,4335.384766,4339.230957,4339.615234,4321.282227,4308.974121,4422.05127,4307.05127,4285,,,,,,,,,,,,,,,,,,,,,,,,,,,,,,,,,,,,,,,,,,,,,,,,,,,,,,,,,,,,,,,,,,,,,,
1720084102,12,0,4316.922852,4340.769043,4307.05127,4307.820313,4340.384766,4349.615234,4333.589844,4336.410156,4341.922852,4318.333496,4306.794922,4422.94873,4308.589844,4289.487305,,,,,,,,,,,,,,,,,,,,,,,,,,,,,,,,,,,,,,,,,,,,,,,,,,,,,,,,,,,,,,,,,,,,,,
1720084102,13,0,4318.974121,4341.794922,4308.333496,4308.333496,4343.077148,4350,4329.358887,4336.025879,4340.384766,4322.179688,4317.05127,4431.025879,4314.358887,4295.641113,,,,,,,,,,,,,,,,,,,,,,,,,,,,,,,,,,,,,,,,,,,,,,,,,,,,,,,,,,,,,,,,,,,,,,
1720084102,14,0,4323.205078,4345.128418,4310.897461,4311.538574,4346.538574,4342.179688,4325.384766,4335.641113,4339.871582,4330.769043,4322.436035,4430.512695,4316.025879,4288.333496,,,,,,,,,,,,,,,,,,,,,,,,,,,,,,,,,,,,,,,,,,,,,,,,,,,,,,,,,,,,,,,,,,,,,,
1720084102,15,0,4327.05127,4352.436035,4313.205078,4318.974121,4346.025879,4341.153809,4333.717773,4343.717773,4346.666504,4339.487305,4322.563965,4434.358887,4313.589844,4287.179688,,,,,,,,,,,,,,,,,,,,,,,,,,,,,,,,,,,,,,,,,,,,,,,,,,,,,,,,,,,,,,,,,,,,,,
1720084102,16,0,4325.384766,4353.077148,4310.512695,4321.153809,4342.820313,4341.282227,4342.692383,4351.410156,4346.153809,4343.077148,4323.846191,4443.846191,4313.461426,4295.384766,,,,,,,,,,,,,,,,,,,,,,,,,,,,,,,,,,,,,,,,,,,,,,,,,,,,,,,,,,,,,,,,,,,,,,
1720084102,17,0,4323.205078,4351.410156,4310,4316.538574,4340.384766,4336.410156,4341.922852,4342.05127,4333.333496,4339.871582,4327.692383,4441.153809,4319.743652,4289.615234,,,,,,,,,,,,,,,,,,,,,,,,,,,,,,,,,,,,,,,,,,,,,,,,,,,,,,,,,,,,,,,,,,,,,,
1720084102,18,0,4331.666504,4358.717773,4317.94873,4320,4338.717773,4339.487305,4347.179688,4341.922852,4324.230957,4334.102539,4337.692383,4439.615234,4327.307617,4296.282227,,,,,,,,,,,,,,,,,,,,,,,,,,,,,,,,,,,,,,,,,,,,,,,,,,,,,,,,,,,,,,,,,,,,,,
1720084102,19,0,4340.641113,4368.205078,4327.94873,4331.025879,4339.615234,4345,4357.307617,4351.666504,4322.820313,4331.922852,4349.358887,4445.769043,4333.077148,4313.333496,,,,,,,,,,,,,,,,,,,,,,,,,,,,,,,,,,,,,,,,,,,,,,,,,,,,,,,,,,,,,,,,,,,,,,
1720084102,20,0,4340.512695,4365.897461,4331.538574,4330,4344.871582,4348.974121,4359.487305,4350,4326.666504,4333.589844,4352.307617,4450,4337.563965,4308.333496,,,,,,,,,,,,,,,,,,,,,,,,,,,,,,,,,,,,,,,,,,,,,,,,,,,,,,,,,,,,,,,,,,,,,,
1720084102,21,0,4338.205078,4355.512695,4328.846191,4318.974121,4350.769043,4354.487305,4359.230957,4346.538574,4334.487305,4332.820313,4344.615234,4451.025879,4331.794922,4303.077148,,,,,,,,,,,,,,,,,,,,,,,,,,,,,,,,,,,,,,,,,,,,,,,,,,,,,,,,,,,,,,,,,,,,,,
1720084102,22,0,4330.897461,4352.436035,4317.307617,4308.589844,4355.128418,4359.871582,4355.769043,4333.333496,4336.922852,4328.846191,4332.179688,4437.436035,4315,4292.692383,,,,,,,,,,,,,,,,,,,,,,,,,,,,,,,,,,,,,,,,,,,,,,,,,,,,,,,,,,,,,,,,,,,,,,
1720084102,23,0,4315,4348.974121,4297.563965,4297.692383,4357.94873,4360.769043,4348.205078,4318.077148,4335.384766,4325.256348,4316.538574,4415.897461,4299.871582,4272.307617,,,,,,,,,,,,,,,,,,,,,,,,,,,,,,,,,,,,,,,,,,,,,,,,,,,,,,,,,,,,,,,,,,,,,,
1720084102,24,0,4307.563965,4340.769043,4289.230957,4291.282227,4358.589844,4351.666504,4339.230957,4314.615234,4337.94873,4324.615234,4304.615234,4405.769043,4291.410156,4268.974121,1.376561,10.718972,0.817417,0.615186,0.109369,0.733523,6.738809,0.46346,0.432967,0.107071,1.691611,15.926911,0.666648,0.77796,0.285815,0.72003,6.486681,0.316141,0.37654,0.104451,0.829162,1.030061,0.20815,0.137178,0.063743,0.90472,2.225482,1.126995,0.139263,0.056949,0.919791,4.707916,4.964695,0.418524,0.065256,1.134574,1.666947,1.226671,0.418393,0.127877,3.485178,4.399196,0.467373,0.596084,0.094299,2.190676,1.720461,0.49589,0.227821,0.149566,3.336822,10.864133,0.563089,0.553142,0.182829,6.017347,13.053377,1.756075,0.707333,0.193936,2.807596,10.861968,0.559033,0.489035,0.208164,2.609442,14.151203,0.731063,0.659698,0.256184
1720084102,25,0,4315.641113,4345.897461,4300.769043,4291.153809,4356.025879,4341.666504,4329.487305,4308.077148,4338.333496,4326.410156,4306.538574,4406.025879,4293.589844,4274.230957,,,,,,,,,,,,,,,,,,,,,,,,,,,,,,,,,,,,,,,,,,,,,,,,,,,,,,,,,,,,,,,,,,,,,,
1720084102,26,0,4329.102539,4360.641113,4311.153809,4292.692383,4348.974121,4341.410156,4326.025879,4304.358887,4335.641113,4324.230957,4319.102539,4413.077148,4304.743652,4281.282227,,,,,,,,,,,,,,,,,,,,,,,,,,,,,,,,,,,,,,,,,,,,,,,,,,,,,,,,,,,,,,,,,,,,,,
1720084102,27,0,4337.179688,4363.846191,4311.025879,4295.384766,4342.436035,4343.205078,4335.641113,4316.025879,4339.743652,4320.641113,4327.820313,4423.846191,4308.589844,4292.179688,,,,,,,,,,,,,,,,,,,,,,,,,,,,,,,,,,,,,,,,,,,,,,,,,,,,,,,,,,,,,,,,,,,,,,
1720084102,28,0,4332.179688,4355.512695,4313.717773,4292.820313,4341.794922,4341.538574,4348.846191,4323.205078,4349.358887,4329.487305,4331.410156,4433.589844,4305.641113,4286.282227,,,,,,,,,,,,,,,,,,,,,,,,,,,,,,,,,,,,,,,,,,,,,,,,,,,,,,,,,,,,,,,,,,,,,,
1720084102,29,0,4326.153809,4352.179688,4320.256348,4284.102539,4343.077148,4343.846191,4355.769043,4324.358887,4352.692383,4340.256348,4337.179688,4436.410156,4311.666504,4276.025879,,,,,,,,,,,,,,,,,,,,,,,,,,,,,,,,,,,,,,,,,,,,,,,,,,,,,,,,,,,,,,,,,,,,,,
1720084102,30,0,4330.384766,4352.307617,4316.282227,4281.153809,4340.384766,4346.922852,4359.487305,4331.666504,4345.128418,4335.128418,4339.615234,4428.205078,4316.025879,4283.205078,,,,,,,,,,,,,,,,,,,,,,,,,,,,,,,,,,,,,,,,,,,,,,,,,,,,,,,,,,,,,,,,,,,,,,
1720084102,31,0,4331.025879,4352.94873,4309.615234,4281.282227,4340.128418,4346.922852,4360.641113,4328.333496,4338.205078,4330.128418,4337.436035,4418.589844,4307.692383,4282.563965,,,,,,,,,,,,,,,,,,,,,,,,,,,,,,,,,,,,,,,,,,,,,,,,,,,,,,,,,,,,,,,,,,,,,,
1720084102,32,0,4330,4361.794922,4315.641113,4274.102539,4348.461426,4350.641113,4360.641113,4325.256348,4340.897461,4336.410156,4338.333496,4427.436035,4305.512695,4278.846191,,,,,,,,,,,,,,,,,,,,,,,,,,,,,,,,,,,,,,,,,,,,,,,,,,,,,,,,,,,,,,,,,,,,,,
1720084102,33,0,4336.922852,4368.846191,4323.846191,4264.743652,4357.436035,4354.871582,4356.666504,4330.384766,4342.563965,4334.743652,4336.922852,4436.794922,4314.358887,4285.512695,,,,,,,,,,,,,,,,,,,,,,,,,,,,,,,,,,,,,,,,,,,,,,,,,,,,,,,,,,,,,,,,,,,,,,
1720084102,34,0,4342.05127,4363.717773,4319.358887,4257.307617,4360.256348,4357.179688,4350.128418,4322.820313,4340.897461,4325.769043,4329.871582,4428.333496,4310.641113,4285.256348,,,,,,,,,,,,,,,,,,,,,,,,,,,,,,,,,,,,,,,,,,,,,,,,,,,,,,,,,,,,,,,,,,,,,,
1720084102,35,0,4334.615234,4355.769043,4313.333496,4246.282227,4359.487305,4359.487305,4348.333496,4316.025879,4346.666504,4325,4325,4422.05127,4297.692383,4279.358887,,,,,,,,,,,,,,,,,,,,,,,,,,,,,,,,,,,,,,,,,,,,,,,,,,,,,,,,,,,,,,,,,,,,,,
1720084102,36,0,4322.692383,4353.461426,4310.512695,4234.743652,4358.205078,4358.333496,4344.230957,4317.307617,4353.077148,4327.692383,4323.974121,4417.692383,4297.94873,4274.102539,,,,,,,,,,,,,,,,,,,,,,,,,,,,,,,,,,,,,,,,,,,,,,,,,,,,,,,,,,,,,,,,,,,,,,
1720084102,37,0,4321.025879,4355.512695,4300.769043,4231.282227,4357.692383,4355.128418,4342.179688,4322.563965,4354.102539,4327.563965,4324.487305,4411.666504,4308.717773,4273.974121,,,,,,,,,,,,,,,,,,,,,,,,,,,,,,,,,,,,,,,,,,,,,,,,,,,,,,,,,,,,,,,,,,,,,,
1720084102,38,0,4320.641113,4354.358887,4292.179688,4231.025879,4353.589844,4350.384766,4342.820313,4326.538574,4352.307617,4329.230957,4322.563965,4412.692383,4309.102539,4276.922852,,,,,,,,,,,,,,,,,,,,,,,,,,,,,,,,,,,,,,,,,,,,,,,,,,,,,,,,,,,,,,,,,,,,,,
1720084102,39,0,4319.102539,4349.871582,4298.974121,4230.641113,4342.692383,4344.230957,4342.05127,4323.717773,4350.128418,4332.179688,4325.769043,4422.692383,4307.05127,4282.179688,,,,,,,,,,,,,,,,,,,,,,,,,,,,,,,,,,,,,,,,,,,,,,,,,,,,,,,,,,,,,,,,,,,,,,
1720084102,40,0,4324.615234,4352.692383,4313.077148,4230.897461,4340.256348,4346.666504,4352.563965,4326.538574,4350.512695,4338.461426,4345.384766,4440,4320.256348,4290.128418,1.395798,10.871262,0.570208,0.611722,0.103119,0.786593,6.844127,0.35133,0.425393,0.108491,1.779058,16.79637,0.458884,0.7031,0.256044,0.692994,6.775833,0.268317,0.390353,0.10837,0.800347,0.935567,0.213135,0.125533,0.073776,0.828911,1.991363,0.862613,0.141064,0.056911,0.86937,4.901491,4.088894,0.431572,0.05961,1.072206,2.282511,1.010659,0.427845,0.127539,3.528289,4.621063,0.333092,0.669747,0.103264,1.869597,1.141351,0.385216,0.235733,0.162809,3.054946,10.728058,0.52978,0.53635,0.204727,5.93368,13.732018,1.940027,0.693983,0.206631,2.463027,10.025521,0.436531,0.486204,0.227528,2.242432,14.20609,0.643372,0.655434,0.255076
1720084102,41,0,4331.538574,4359.358887,4320.384766,4233.205078,4349.871582,4353.974121,4366.410156,4335.384766,4353.461426,4346.282227,4361.794922,4450.384766,4331.282227,4296.282227,,,,,,,,,,,,,,,,,,,,,,,,,,,,,,,,,,,,,,,,,,,,,,,,,,,,,,,,,,,,,,,,,,,,,,
