Timestamp,EEG.Counter,EEG.Interpolated,EEG.AF3,EEG.F7,EEG.F3,EEG.FC5,EEG.T7,EEG.P7,EEG.O1,EEG.O2,EEG.P8,EEG.T8,EEG.FC6,EEG.F4,EEG.F8,EEG.AF4,POW.AF3.Theta,POW.AF3.Alpha,POW.AF3.BetaL,POW.AF3.BetaH,POW.AF3.Gamma,POW.F7.Theta,POW.F7.Alpha,POW.F7.BetaL,POW.F7.BetaH,POW.F7.Gamma,POW.F3.Theta,POW.F3.Alpha,POW.F3.BetaL,POW.F3.BetaH,POW.F3.Gamma,POW.FC5.Theta,POW.FC5.Alpha,POW.FC5.BetaL,POW.FC5.BetaH,POW.FC5.Gamma,POW.T7.Theta,POW.T7.Alpha,POW.T7.BetaL,POW.T7.BetaH,POW.T7.Gamma,POW.P7.Theta,POW.P7.Alpha,POW.P7.BetaL,POW.P7.BetaH,POW.P7.Gamma,POW.O1.Theta,POW.O1.Alpha,POW.O1.BetaL,POW.O1.BetaH,POW.O1.Gamma,POW.O2.Theta,POW.O2.Alpha,POW.O2.BetaL,POW.O2.BetaH,POW.O2.Gamma,POW.P8.Theta,POW.P8.Alpha,POW.P8.BetaL,POW.P8.BetaH,POW.P8.Gamma,POW.T8.Theta,POW.T8.Alpha,POW.T8.BetaL,POW.T8.BetaH,POW.T8.Gamma,POW.FC6.Theta,POW.FC6.Alpha,POW.FC6.BetaL,POW.FC6.BetaH,POW.FC6.Gamma,POW.F4.Theta,POW.F4.Alpha,POW.F4.BetaL,POW.F4.BetaH,POW.F4.Gamma,POW.F8.Theta,POW.F8.Alpha,POW.F8.BetaL,POW.F8.BetaH,POW.F8.Gamma,POW.AF4.Theta,POW.AF4.Alpha,POW.AF4.BetaL,POW.AF4.BetaH,POW.AF4.Gamma
1720079690,99,0,4598.205078,4373.333496,4380.128418,4454.230957,4459.743652,4430.256348,4477.436035,4483.461426,4498.589844,4450.897461,4393.717773,4590.256348,4480.897461,4496.025879,,,,,,,,,,,,,,,,,,,,,,,,,,,,,,,,,,,,,,,,,,,,,,,,,,,,,,,,,,,,,,,,,,,,,,
1720079690,100,0,4594.871582,4370.256348,4371.794922,4455.384766,4463.974121,4436.025879,4476.410156,4475.384766,4487.94873,4441.538574,4386.538574,4578.333496,4477.94873,4492.563965,,,,,,,,,,,,,,,,,,,,,,,,,,,,,,,,,,,,,,,,,,,,,,,,,,,,,,,,,,,,,,,,,,,,,,
1720079690,101,0,4584.743652,4358.461426,4365.128418,4448.589844,4462.307617,4440.512695,4473.205078,4465.256348,4480.384766,4438.333496,4373.461426,4568.589844,4474.615234,4491.666504,,,,,,,,,,,,,,,,,,,,,,,,,,,,,,,,,,,,,,,,,,,,,,,,,,,,,,,,,,,,,,,,,,,,,,
1720079690,102,0,4576.025879,4344.487305,4363.077148,4440.384766,4446.025879,4443.333496,4476.153809,4470.769043,4490.384766,4445.128418,4375.256348,4570.641113,4479.487305,4488.461426,,,,,,,,,,,,,,,,,,,,,,,,,,,,,,,,,,,,,,,,,,,,,,,,,,,,,,,,,,,,,,,,,,,,,,
1720079690,103,0,4575.897461,4337.307617,4364.358887,4438.974121,4438.846191,4440.897461,4475.769043,4474.358887,4494.743652,4440.769043,4383.846191,4564.871582,4483.077148,4481.153809,,,,,,,,,,,,,,,,,,,,,,,,,,,,,,,,,,,,,,,,,,,,,,,,,,,,,,,,,,,,,,,,,,,,,,
1720079690,104,0,4577.820313,4333.717773,4366.410156,4434.743652,4463.461426,4442.563965,4466.794922,4463.589844,4481.666504,4430.897461,4378.717773,4550.641113,4480.256348,4475.897461,,,,,,,,,,,,,,,,,,,,,,,,,,,,,,,,,,,,,,,,,,,,,,,,,,,,,,,,,,,,,,,,,,,,,,
1720079690,105,0,4574.230957,4328.077148,4364.487305,4427.563965,4478.717773,4446.794922,4459.230957,4452.94873,4471.282227,4430.641113,4365,4541.922852,4475.512695,4475.384766,,,,,,,,,,,,,,,,,,,,,,,,,,,,,,,,,,,,,,,,,,,,,,,,,,,,,,,,,,,,,,,,,,,,,,
1720079690,106,0,4571.153809,4321.666504,4364.871582,4430.641113,4462.05127,4448.077148,4457.94873,4457.94873,4476.153809,4436.410156,4368.333496,4543.205078,4480.512695,4476.794922,,,,,,,,,,,,,,,,,,,,,,,,,,,,,,,,,,,,,,,,,,,,,,,,,,,,,,,,,,,,,,,,,,,,,,
1720079690,107,0,4566.794922,4310.256348,4364.358887,4427.436035,4456.025879,4451.025879,4461.025879,4463.974121,4478.974121,4432.436035,4368.846191,4542.94873,4487.94873,4471.025879,,,,,,,,,,,,,,,,,,,,,,,,,,,,,,,,,,,,,,,,,,,,,,,,,,,,,,,,,,,,,,,,,,,,,,
1720079690,108,0,4562.563965,4303.974121,4364.230957,4421.666504,4463.846191,4458.461426,4466.666504,4458.461426,4474.487305,4428.461426,4362.05127,4536.666504,4488.589844,4467.179688,,,,,,,,,,,,,,,,,,,,,,,,,,,,,,,,,,,,,,,,,,,,,,,,,,,,,,,,,,,,,,,,,,,,,,
1720079690,109,0,4567.179688,4306.922852,4373.461426,4427.94873,4454.358887,4460.512695,4472.94873,4462.307617,4473.589844,4435.128418,4371.410156,4535.256348,4488.846191,4472.307617,,,,,,,,,,,,,,,,,,,,,,,,,,,,,,,,,,,,,,,,,,,,,,,,,,,,,,,,,,,,,,,,,,,,,,
1720079690,110,0,4570.897461,4302.05127,4381.153809,4430.769043,4441.922852,4455.384766,4473.974121,4476.153809,4477.05127,4441.410156,4384.358887,4539.871582,4497.820313,4476.282227,,,,,,,,,,,,,,,,,,,,,,,,,,,,,,,,,,,,,,,,,,,,,,,,,,,,,,,,,,,,,,,,,,,,,,
1720079690,111,0,4568.974121,4296.794922,4380.384766,4429.871582,4441.922852,4458.717773,4470.897461,4480.769043,4484.230957,4445.641113,4385.384766,4542.692383,4510.256348,4478.205078,,,,,,,,,,,,,,,,,,,,,,,,,,,,,,,,,,,,,,,,,,,,,,,,,,,,,,,,,,,,,,,,,,,,,,
1720079690,112,0,4570.641113,4303.717773,4381.025879,4432.94873,4440.897461,4464.743652,4465.641113,4468.974121,4481.410156,4443.717773,4376.666504,4539.871582,4502.94873,4473.205078,18.394043,3.156951,0.435743,0.351386,0.122834,11.450702,1.342514,0.325147,0.281104,0.200825,8.042814,2.03774,1.011595,0.55696,0.152948,5.324218,1.088671,0.513238,0.27577,0.206816,0.582253,0.354912,1.440418,1.524228,0.620521,1.213102,0.247645,0.19969,0.236459,0.07126,0.559813,0.469437,0.490244,0.624047,0.269433,0.463728,0.402531,0.531628,0.462325,0.30759,1.044694,0.190993,0.396691,0.419807,0.245523,1.077634,0.244106,0.277002,0.360902,0.245767,3.293707,0.373869,0.70314,0.584053,0.25264,23.310356,4.809669,1.392499,0.878712,0.2519,6.292392,0.919738,0.387474,0.333882,0.156101,16.938391,2.136478,0.527328,0.499214,0.16013
1720079690,113,0,4571.538574,4308.333496,4382.692383,4433.461426,4445.128418,4460.384766,4451.794922,4450,4462.94873,4435.128418,4372.820313,4534.743652,4495.128418,4466.153809,,,,,,,,,,,,,,,,,,,,,,,,,,,,,,,,,,,,,,,,,,,,,,,,,,,,,,,,,,,,,,,,,,,,,,
1720079690,114,0,4571.794922,4305.897461,4381.794922,4433.077148,4460.641113,4459.230957,4447.436035,4445.512695,4457.692383,4434.358887,4376.410156,4532.307617,4505.384766,4470.512695,,,,,,,,,,,,,,,,,,,,,,,,,,,,,,,,,,,,,,,,,,,,,,,,,,,,,,,,,,,,,,,,,,,,,,
1720079690,115,0,4573.974121,4309.230957,4388.205078,4441.538574,4465.769043,4466.282227,4453.589844,4457.307617,4472.436035,4443.077148,4382.179688,4538.333496,4512.05127,4479.615234,,,,,,,,,,,,,,,,,,,,,,,,,,,,,,,,,,,,,,,,,,,,,,,,,,,,,,,,,,,,,,,,,,,,,,
1720079690,116,0,4573.717773,4312.05127,4395.769043,4446.410156,4459.615234,4466.794922,4450.769043,4465,4477.05127,4445.769043,4383.974121,4548.846191,4505,4477.820313,,,,,,,,,,,,,,,,,,,,,,,,,,,,,,,,,,,,,,,,,,,,,,,,,,,,,,,,,,,,,,,,,,,,,,
1720079690,117,0,4572.563965,4309.358887,4390,4442.307617,4459.871582,4457.692383,4448.846191,4460.128418,4470,4442.05127,4381.410156,4551.666504,4502.820313,4471.410156,,,,,,,,,,,,,,,,,,,,,,,,,,,,,,,,,,,,,,,,,,,,,,,,,,,,,,,,,,,,,,,,,,,,,,
1720079690,118,0,4568.333496,4310,4382.563965,4443.846191,4454.102539,4457.820313,4456.538574,4458.077148,4469.743652,4441.282227,4381.282227,4548.846191,4506.666504,4470.897461,,,,,,,,,,,,,,,,,,,,,,,,,,,,,,,,,,,,,,,,,,,,,,,,,,,,,,,,,,,,,,,,,,,,,,
1720079690,119,0,4557.436035,4309.102539,4381.666504,4445.897461,4447.692383,4470.641113,4462.179688,4469.487305,4477.307617,4442.692383,4382.436035,4550.897461,4504.102539,4466.153809,,,,,,,,,,,,,,,,,,,,,,,,,,,,,,,,,,,,,,,,,,,,,,,,,,,,,,,,,,,,,,,,,,,,,,
1720079690,120,0,4549.871582,4307.563965,4383.717773,4440.769043,4452.94873,4477.05127,4459.487305,4473.846191,4474.615234,4444.871582,4383.846191,4552.563965,4503.846191,4460.641113,,,,,,,,,,,,,,,,,,,,,,,,,,,,,,,,,,,,,,,,,,,,,,,,,,,,,,,,,,,,,,,,,,,,,,
1720079690,121,0,4551.666504,4308.205078,4389.871582,4438.717773,4446.410156,4474.102539,4460.256348,4463.461426,4465.256348,4438.717773,4383.589844,4551.538574,4509.487305,4467.563965,,,,,,,,,,,,,,,,,,,,,,,,,,,,,,,,,,,,,,,,,,,,,,,,,,,,,,,,,,,,,,,,,,,,,,
1720079690,122,0,4553.717773,4310.256348,4398.077148,4443.205078,4440,4476.922852,4459.743652,4455,4467.179688,4430.897461,4381.025879,4554.743652,4510.641113,4473.077148,,,,,,,,,,,,,,,,,,,,,,,,,,,,,,,,,,,,,,,,,,,,,,,,,,,,,,,,,,,,,,,,,,,,,,
1720079690,123,0,4557.179688,4314.230957,4405.512695,4447.692383,4457.94873,4475.128418,4448.461426,4454.615234,4473.717773,4437.563965,4380.897461,4559.487305,4508.205078,4468.589844,,,,,,,,,,,,,,,,,,,,,,,,,,,,,,,,,,,,,,,,,,,,,,,,,,,,,,,,,,,,,,,,,,,,,,
1720079690,124,0,4556.922852,4313.205078,4411.666504,4448.589844,4467.692383,4464.487305,4441.538574,4447.820313,4466.794922,4444.487305,4382.179688,4556.794922,4507.820313,4464.102539,,,,,,,,,,,,,,,,,,,,,,,,,,,,,,,,,,,,,,,,,,,,,,,,,,,,,,,,,,,,,,,,,,,,,,
1720079690,125,0,4545.256348,4310.128418,4411.538574,4448.846191,4457.94873,4465.512695,4451.025879,4442.692383,4455.384766,4438.077148,4381.922852,4553.205078,4508.717773,4458.205078,,,,,,,,,,,,,,,,,,,,,,,,,,,,,,,,,,,,,,,,,,,,,,,,,,,,,,,,,,,,,,,,,,,,,,
1720079690,126,0,4540.897461,4311.153809,4401.666504,4446.922852,4459.358887,4475.384766,4456.922852,4456.538574,4458.589844,4435.256348,4378.333496,4556.153809,4506.025879,4451.538574,,,,,,,,,,,,,,,,,,,,,,,,,,,,,,,,,,,,,,,,,,,,,,,,,,,,,,,,,,,,,,,,,,,,,,
1720079690,127,0,4536.153809,4306.025879,4385.384766,4438.077148,4457.820313,4475.384766,4450.769043,4465.641113,4462.307617,4436.666504,4367.820313,4546.538574,4497.179688,4442.820313,,,,,,,,,,,,,,,,,,,,,,,,,,,,,,,,,,,,,,,,,,,,,,,,,,,,,,,,,,,,,,,,,,,,,,
1720079690,0,0,4513.589844,4289.871582,4367.692383,4425.256348,4446.153809,4471.538574,4452.436035,4460,4458.205078,4423.077148,4352.179688,4522.692383,4481.282227,4425.384766,17.011395,2.945436,0.395886,0.363151,0.144262,11.331866,1.318639,0.382256,0.304598,0.193243,7.922591,2.198033,0.788481,0.534196,0.176168,5.00881,0.951607,0.514203,0.288782,0.196045,0.512917,0.205526,1.592184,1.523875,0.622278,1.479902,0.175878,0.237956,0.241481,0.076084,0.616657,0.359688,0.493338,0.680308,0.258719,0.487551,0.350542,0.482608,0.497752,0.301174,0.931942,0.157577,0.373042,0.51145,0.261043,1.493084,0.234273,0.302864,0.342469,0.25842,4.222211,0.555173,0.602122,0.634396,0.269736,16.669439,4.584922,1.022164,0.785502,0.264332,8.797235,1.247678,0.301158,0.377983,0.168953,16.866072,2.213877,0.350265,0.497285,0.177188
1720079690,1,0,4506.794922,4286.794922,4366.410156,4428.077148,4440.769043,4474.871582,4462.94873,4459.102539,4462.179688,4414.743652,4351.153809,4519.487305,4476.538574,4417.307617,,,,,,,,,,,,,,,,,,,,,,,,,,,,,,,,,,,,,,,,,,,,,,,,,,,,,,,,,,,,,,,,,,,,,,
1720079690,2,0,4521.922852,4297.94873,4380.641113,4442.820313,4432.820313,4474.487305,4465.641113,4469.743652,4473.077148,4424.487305,4362.307617,4535.128418,4490.384766,4429.358887,,,,,,,,,,,,,,,,,,,,,,,,,,,,,,,,,,,,,,,,,,,,,,,,,,,,,,,,,,,,,,,,,,,,,,
1720079690,3,0,4518.205078,4292.307617,4379.871582,4436.794922,4430,4466.666504,4458.846191,4472.436035,4476.794922,4430.769043,4359.615234,4541.666504,4494.615234,4430.512695,,,,,,,,,,,,,,,,,,,,,,,,,,,,,,,,,,,,,,,,,,,,,,,,,,,,,,,,,,,,,,,,,,,,,,
1720079690,4,0,4501.666504,4275.512695,4369.102539,4420.769043,4441.025879,4463.589844,4457.692383,4466.666504,4476.794922,4427.692383,4355.384766,4545.128418,4488.461426,4421.538574,,,,,,,,,,,,,,,,,,,,,,,,,,,,,,,,,,,,,,,,,,,,,,,,,,,,,,,,,,,,,,,,,,,,,,
1720079690,5,0,4507.692383,4277.820313,4370.128418,4425.641113,4445.641113,4464.102539,4459.743652,4460.769043,4476.153809,4423.205078,4366.025879,4552.179688,4498.717773,4428.077148,,,,,,,,,,,,,,,,,,,,,,,,,,,,,,,,,,,,,,,,,,,,,,,,,,,,,,,,,,,,,,,,,,,,,,
1720079690,6,0,4517.436035,4290.256348,4369.487305,4432.94873,4442.05127,4460.256348,4449.358887,4447.307617,4466.538574,4420.641113,4366.025879,4562.179688,4505.897461,4433.077148,,,,,,,,,,,,,,,,,,,,,,,,,,,,,,,,,,,,,,,,,,,,,,,,,,,,,,,,,,,,,,,,,,,,,,
1720079690,7,0,4511.153809,4292.692383,4362.563965,4433.589844,4446.538574,4456.282227,4437.307617,4445.641113,4463.333496,4421.538574,4355.128418,4597.05127,4495,4423.974121,,,,,,,,,,,,,,,,,,,,,,,,,,,,,,,,,,,,,,,,,,,,,,,,,,,,,,,,,,,,,,,,,,,,,,
1720079690,8,0,4507.820313,4292.563965,4364.615234,4442.692383,4440.769043,4459.615234,4450.128418,4466.922852,4477.05127,4426.666504,4360,4641.538574,4497.05127,4421.794922,,,,,,,,,,,,,,,,,,,,,,,,,,,,,,,,,,,,,,,,,,,,,,,,,,,,,,,,,,,,,,,,,,,,,,
1720079690,9,0,4503.333496,4291.538574,4367.307617,4446.282227,4433.077148,4454.615234,4470.256348,4479.487305,4482.307617,4425.897461,4369.102539,4645.128418,4509.230957,4426.282227,,,,,,,,,,,,,,,,,,,,,,,,,,,,,,,,,,,,,,,,,,,,,,,,,,,,,,,,,,,,,,,,,,,,,,
1720079690,10,0,4497.94873,4289.358887,4365.384766,4440.897461,4442.05127,4445.512695,4475.641113,4473.461426,4473.333496,4424.615234,4366.538574,4622.692383,4508.974121,4427.436035,,,,,,,,,,,,,,,,,,,,,,,,,,,,,,,,,,,,,,,,,,,,,,,,,,,,,,,,,,,,,,,,,,,,,,
1720079690,11,0,4500.769043,4294.871582,4368.974121,4447.179688,4438.717773,4440.769043,4474.358887,4471.282227,4470.256348,4428.205078,4362.692383,4616.153809,4502.436035,4423.461426,,,,,,,,,,,,,,,,,,,,,,,,,,,,,,,,,,,,,,,,,,,,,,,,,,,,,,,,,,,,,,,,,,,,,,
1720079690,12,0,4500.384766,4297.436035,4372.563965,4453.205078,4427.563965,4432.563965,4460.128418,4469.871582,4475.128418,4429.102539,4367.692383,4628.974121,4506.410156,4423.717773,,,,,,,,,,,,,,,,,,,,,,,,,,,,,,,,,,,,,,,,,,,,,,,,,,,,,,,,,,,,,,,,,,,,,,
1720079691,13,0,4498.461426,4291.922852,4372.563965,4446.794922,4436.282227,4429.487305,4436.282227,4460,4475.256348,4429.615234,4374.102539,4644.743652,4513.717773,4431.282227,,,,,,,,,,,,,,,,,,,,,,,,,,,,,,,,,,,,,,,,,,,,,,,,,,,,,,,,,,,,,,,,,,,,,,
1720079691,14,0,4500,4297.563965,4372.436035,4444.102539,4449.615234,4436.922852,4430.769043,4455.384766,4471.794922,4430.897461,4368.205078,4640.384766,4512.563965,4428.205078,,,,,,,,,,,,,,,,,,,,,,,,,,,,,,,,,,,,,,,,,,,,,,,,,,,,,,,,,,,,,,,,,,,,,,
1720079691,15,0,4500.769043,4312.692383,4368.205078,4450.641113,4450.897461,4451.025879,4447.692383,4458.461426,4475.256348,4428.974121,4360.128418,4618.589844,4507.94873,4417.692383,,,,,,,,,,,,,,,,,,,,,,,,,,,,,,,,,,,,,,,,,,,,,,,,,,,,,,,,,,,,,,,,,,,,,,
1720079691,16,0,4492.05127,4307.820313,4361.025879,4449.487305,4446.282227,4457.307617,4460.384766,4459.871582,4473.846191,4427.179688,4353.333496,4598.461426,4495.897461,4408.205078,15.703235,2.664192,0.367979,0.359955,0.16584,11.208845,1.51266,0.475407,0.348537,0.188058,7.684427,2.379469,0.607888,0.482863,0.197765,4.872453,0.881753,0.511404,0.293084,0.191877,0.452813,0.155734,1.696525,1.527842,0.633528,1.669325,0.128081,0.261224,0.234102,0.090114,0.656639,0.265391,0.502799,0.705027,0.247226,0.487482,0.311199,0.428561,0.514465,0.287932,0.791342,0.161099,0.33972,0.583414,0.268586,1.894511,0.255084,0.343177,0.325842,0.26951,5.127131,0.849535,0.508749,0.68539,0.28736,11.60735,4.261401,0.796713,0.695484,0.272293,10.751891,1.612602,0.230163,0.426144,0.189512,16.489689,2.242203,0.224216,0.473693,0.19482
1720079691,17,0,4479.871582,4292.563965,4356.538574,4443.205078,4435.128418,4451.922852,4466.666504,4460.512695,4457.692383,4426.025879,4343.205078,4580.769043,4479.871582,4395.641113,,,,,,,,,,,,,,,,,,,,,,,,,,,,,,,,,,,,,,,,,,,,,,,,,,,,,,,,,,,,,,,,,,,,,,
1720079691,18,0,4475,4291.410156,4358.461426,4443.589844,4422.436035,4452.563965,4475.128418,4475.641113,4462.307617,4423.717773,4344.743652,4571.922852,4474.487305,4390.384766,,,,,,,,,,,,,,,,,,,,,,,,,,,,,,,,,,,,,,,,,,,,,,,,,,,,,,,,,,,,,,,,,,,,,,
1720079691,19,0,4474.487305,4296.153809,4362.94873,4444.743652,4424.487305,4457.820313,4472.05127,4497.563965,4487.307617,4430.256348,4356.282227,4576.153809,4477.307617,4395.128418,,,,,,,,,,,,,,,,,,,,,,,,,,,,,,,,,,,,,,,,,,,,,,,,,,,,,,,,,,,,,,,,,,,,,,
1720079691,20,0,4474.871582,4293.077148,4360.512695,4439.358887,4435.384766,4451.153809,4454.358887,4494.487305,4496.794922,4442.05127,4357.307617,4571.538574,4480.256348,4392.307617,,,,,,,,,,,,,,,,,,,,,,,,,,,,,,,,,,,,,,,,,,,,,,,,,,,,,,,,,,,,,,,,,,,,,,
1720079691,21,0,4478.461426,4292.436035,4353.461426,4434.487305,4445,4441.025879,4443.077148,4475,4489.358887,4446.025879,4355.128418,4556.025879,4486.410156,4392.436035,,,,,,,,,,,,,,,,,,,,,,,,,,,,,,,,,,,,,,,,,,,,,,,,,,,,,,,,,,,,,,,,,,,,,,
1720079691,22,0,4489.230957,4307.05127,4357.563965,4443.205078,4446.922852,4445.256348,4442.05127,4467.436035,4482.820313,4443.846191,4364.230957,4555,4494.487305,4408.846191,,,,,,,,,,,,,,,,,,,,,,,,,,,,,,,,,,,,,,,,,,,,,,,,,,,,,,,,,,,,,,,,,,,,,,
1720079691,23,0,4498.974121,4325.769043,4367.692383,4459.358887,4443.077148,4448.333496,4437.820313,4462.692383,4475.256348,4437.563965,4366.153809,4557.563965,4491.538574,4412.820313,,,,,,,,,,,,,,,,,,,,,,,,,,,,,,,,,,,,,,,,,,,,,,,,,,,,,,,,,,,,,,,,,,,,,,
1720079691,24,0,4502.436035,4334.230957,4367.820313,4466.538574,4440.769043,4450.641113,4444.358887,4455.384766,4470.769043,4433.974121,4362.436035,4551.025879,4490.256348,4403.461426,,,,,,,,,,,,,,,,,,,,,,,,,,,,,,,,,,,,,,,,,,,,,,,,,,,,,,,,,,,,,,,,,,,,,,
1720079691,25,0,4495.512695,4324.358887,4355.897461,4456.282227,4444.871582,4463.717773,4468.077148,4469.102539,4482.179688,4441.153809,4367.563965,4548.974121,4492.179688,4401.410156,,,,,,,,,,,,,,,,,,,,,,,,,,,,,,,,,,,,,,,,,,,,,,,,,,,,,,,,,,,,,,,,,,,,,,
1720079691,26,0,4477.563965,4310.897461,4344.871582,4446.153809,4445.769043,4470.897461,4483.077148,4495.384766,4492.94873,4448.589844,4365.384766,4542.436035,4480,4396.666504,,,,,,,,,,,,,,,,,,,,,,,,,,,,,,,,,,,,,,,,,,,,,,,,,,,,,,,,,,,,,,,,,,,,,,
1720079691,27,0,4469.615234,4312.820313,4345.641113,4453.846191,4429.615234,4463.974121,4479.230957,4495,4486.922852,4439.871582,4351.794922,4525.512695,4462.692383,4385.512695,,,,,,,,,,,,,,,,,,,,,,,,,,,,,,,,,,,,,,,,,,,,,,,,,,,,,,,,,,,,,,,,,,,,,,
1720079691,28,0,4475.384766,4319.615234,4352.563965,4459.743652,4425.128418,4457.307617,4470.641113,4477.179688,4473.846191,4426.794922,4345.641113,4517.179688,4455.897461,4379.871582,,,,,,,,,,,,,,,,,,,,,,,,,,,,,,,,,,,,,,,,,,,,,,,,,,,,,,,,,,,,,,,,,,,,,,
1720079691,29,0,4478.461426,4321.025879,4356.282227,4449.358887,4449.102539,4460.256348,4466.025879,4475.256348,4472.563965,4423.717773,4351.666504,4522.94873,4459.615234,4385.641113,,,,,,,,,,,,,,,,,,,,,,,,,,,,,,,,,,,,,,,,,,,,,,,,,,,,,,,,,,,,,,,,,,,,,,
1720079691,30,0,4477.94873,4322.436035,4360.128418,4442.692383,4459.487305,4457.179688,4456.538574,4478.717773,4480,4428.205078,4351.410156,4520.384766,4460.128418,4391.282227,,,,,,,,,,,,,,,,,,,,,,,,,,,,,,,,,,,,,,,,,,,,,,,,,,,,,,,,,,,,,,,,,,,,,,
1720079691,31,0,4480.769043,4326.666504,4366.794922,4452.563965,4445.128418,4443.205078,4438.205078,4464.102539,4475.769043,4432.05127,4346.922852,4510.769043,4457.692383,4390,,,,,,,,,,,,,,,,,,,,,,,,,,,,,,,,,,,,,,,,,,,,,,,,,,,,,,,,,,,,,,,,,,,,,,
1720079691,32,0,4489.743652,4331.410156,4370.512695,4462.05127,4440.128418,4444.487305,4425.769043,4441.282227,4459.358887,4429.871582,4349.871582,4512.05127,4458.333496,4387.436035,15.47531,2.45591,0.367282,0.344678,0.181299,12.140027,1.936906,0.59361,0.393829,0.187131,7.774333,2.503179,0.537587,0.419395,0.209794,5.17215,0.899334,0.509204,0.290169,0.193856,0.434216,0.170495,1.719232,1.533448,0.651434,1.723168,0.105637,0.265594,0.219685,0.11166,0.672954,0.207641,0.538638,0.690831,0.237088,0.470206,0.290036,0.407783,0.5109,0.276582,0.676038,0.18395,0.303144,0.615796,0.271471,2.209546,0.311415,0.385657,0.310919,0.275044,5.909297,1.215524,0.432424,0.718916,0.30382,8.479858,3.928019,0.729979,0.626277,0.273103,11.711358,1.95159,0.190989,0.458029,0.213254,16.327629,2.264699,0.17393,0.439783,0.208532
1720079691,33,0,4494.743652,4338.589844,4369.871582,4462.436035,4446.794922,4467.436035,4440.128418,4440.897461,4452.94873,4428.974121,4348.846191,4512.692383,4455.641113,4386.794922,,,,,,,,,,,,,,,,,,,,,,,,,,,,,,,,,,,,,,,,,,,,,,,,,,,,,,,,,,,,,,,,,,,,,,
1720079691,34,0,4479.871582,4332.05127,4360.256348,4451.025879,4447.179688,4481.025879,4467.94873,4466.153809,4466.666504,4427.692383,4338.717773,4500.384766,4443.589844,4377.94873,,,,,,,,,,,,,,,,,,,,,,,,,,,,,,,,,,,,,,,,,,,,,,,,,,,,,,,,,,,,,,,,,,,,,,
1720079691,35,0,4453.846191,4311.025879,4339.487305,4434.102539,4432.820313,4477.563965,4481.538574,4479.871582,4470.641113,4420.512695,4323.717773,4482.307617,4421.922852,4355,,,,,,,,,,,,,,,,,,,,,,,,,,,,,,,,,,,,,,,,,,,,,,,,,,,,,,,,,,,,,,,,,,,,,,
1720079691,36,0,4444.615234,4310.512695,4329.102539,4436.410156,4415.256348,4478.461426,4485,4473.717773,4462.94873,4414.358887,4320,4473.974121,4416.794922,4345.897461,,,,,,,,,,,,,,,,,,,,,,,,,,,,,,,,,,,,,,,,,,,,,,,,,,,,,,,,,,,,,,,,,,,,,,
1720079691,37,0,4446.410156,4319.230957,4332.94873,4440.641113,4428.077148,4477.179688,4484.487305,4482.307617,4470.769043,4412.436035,4325.512695,4478.974121,4425.512695,4352.820313,,,,,,,,,,,,,,,,,,,,,,,,,,,,,,,,,,,,,,,,,,,,,,,,,,,,,,,,,,,,,,,,,,,,,,
1720079691,38,0,4440.512695,4317.94873,4328.974121,4428.077148,4447.820313,4463.077148,4470.512695,4493.205078,4477.563965,4412.692383,4319.230957,4480.384766,4419.358887,4349.487305,,,,,,,,,,,,,,,,,,,,,,,,,,,,,,,,,,,,,,,,,,,,,,,,,,,,,,,,,,,,,,,,,,,,,,
1720079691,39,0,4440,4323.333496,4317.820313,4423.846191,4436.666504,4448.846191,4448.846191,4477.436035,4465.897461,4413.461426,4315.897461,4474.102539,4411.410156,4348.077148,,,,,,,,,,,,,,,,,,,,,,,,,,,,,,,,,,,,,,,,,,,,,,,,,,,,,,,,,,,,,,,,,,,,,,
1720079691,40,0,4441.410156,4327.820313,4316.922852,4428.333496,4422.05127,4441.794922,4433.717773,4457.820313,4457.692383,4406.153809,4323.077148,4468.589844,4414.230957,4353.077148,,,,,,,,,,,,,,,,,,,,,,,,,,,,,,,,,,,,,,,,,,,,,,,,,,,,,,,,,,,,,,,,,,,,,,
1720079691,41,0,4435.384766,4325.641113,4326.025879,4427.692383,4426.282227,4438.717773,4424.871582,4448.077148,4453.974121,4400,4320.128418,4466.153809,4414.358887,4352.436035,,,,,,,,,,,,,,,,,,,,,,,,,,,,,,,,,,,,,,,,,,,,,,,,,,,,,,,,,,,,,,,,,,,,,,
1720079691,42,0,4431.794922,4333.589844,4329.615234,4435.384766,4432.692383,4440.512695,4421.153809,4438.717773,4444.871582,4408.717773,4308.461426,4462.692383,4409.487305,4354.615234,,,,,,,,,,,,,,,,,,,,,,,,,,,,,,,,,,,,,,,,,,,,,,,,,,,,,,,,,,,,,,,,,,,,,,
1720079691,43,0,4415.256348,4343.077148,4322.94873,4443.717773,4426.666504,4448.589844,4433.974121,4436.538574,4447.563965,4416.153809,4307.820313,4461.794922,4410,4364.102539,,,,,,,,,,,,,,,,,,,,,,,,,,,,,,,,,,,,,,,,,,,,,,,,,,,,,,,,,,,,,,,,,,,,,,
1720079691,44,0,4372.820313,4331.025879,4313.333496,4434.615234,4418.846191,4455.769043,4456.794922,4444.871582,4454.358887,4407.820313,4315.256348,4464.871582,4408.974121,4366.153809,,,,,,,,,,,,,,,,,,,,,,,,,,,,,,,,,,,,,,,,,,,,,,,,,,,,,,,,,,,,,,,,,,,,,,
1720079691,45,0,4332.94873,4313.333496,4307.820313,4422.94873,4422.179688,4461.282227,4473.974121,4455.897461,4452.436035,4396.666504,4309.615234,4459.487305,4393.205078,4353.461426,,,,,,,,,,,,,,,,,,,,,,,,,,,,,,,,,,,,,,,,,,,,,,,,,,,,,,,,,,,,,,,,,,,,,,
1720079691,46,0,4312.05127,4309.487305,4297.563965,4419.230957,4432.307617,4459.230957,4481.794922,4470.769043,4455.128418,4390.641113,4295.641113,4449.487305,4374.871582,4335.641113,,,,,,,,,,,,,,,,,,,,,,,,,,,,,,,,,,,,,,,,,,,,,,,,,,,,,,,,,,,,,,,,,,,,,,
1720079691,47,0,4295.256348,4310,4281.538574,4408.846191,4430.641113,4450.128418,4478.205078,4480.769043,4462.179688,4386.794922,4287.563965,4442.94873,4369.102539,4327.179688,,,,,,,,,,,,,,,,,,,,,,,,,,,,,,,,,,,,,,,,,,,,,,,,,,,,,,,,,,,,,,,,,,,,,,
1720079691,48,0,4281.410156,4305,4272.94873,4395.512695,4423.205078,4442.94873,4465.897461,4476.666504,4460.256348,4390.256348,4280.897461,4436.025879,4366.282227,4327.563965,17.151344,2.379917,0.408996,0.322315,0.1873,13.757695,2.46322,0.709871,0.421856,0.193028,8.356892,2.529806,0.606093,0.365845,0.207909,5.967368,0.989507,0.500525,0.285533,0.200807,0.471543,0.213655,1.699383,1.503561,0.667365,1.669587,0.106977,0.265694,0.207006,0.13522,0.660781,0.192858,0.650968,0.64855,0.228979,0.446401,0.294275,0.489075,0.498731,0.27506,0.635251,0.221901,0.278907,0.606079,0.276358,2.374726,0.391572,0.415038,0.299732,0.272682,6.355357,1.573892,0.379227,0.720735,0.316426,7.368318,3.691497,0.789064,0.597799,0.270749,11.212106,2.198221,0.201128,0.460781,0.234934,16.786234,2.293992,0.208156,0.40419,0.215283
1720079691,49,0,4280,4306.794922,4276.666504,4399.230957,4428.461426,4435.384766,4455.512695,4474.358887,4459.871582,4395,4279.743652,4430.769043,4363.077148,4322.307617,,,,,,,,,,,,,,,,,,,,,,,,,,,,,,,,,,,,,,,,,,,,,,,,,,,,,,,,,,,,,,,,,,,,,,
1720079691,50,0,4290.897461,4323.077148,4292.436035,4418.717773,4426.153809,4426.794922,4447.692383,4473.974121,4461.282227,4400.128418,4296.922852,4439.487305,4378.974121,4328.717773,,,,,,,,,,,,,,,,,,,,,,,,,,,,,,,,,,,,,,,,,,,,,,,,,,,,,,,,,,,,,,,,,,,,,,
1720079691,51,0,4308.205078,4338.333496,4316.794922,4437.179688,4418.333496,4424.743652,4440.384766,4454.358887,4448.846191,4410.512695,4307.436035,4455,4397.692383,4349.743652,,,,,,,,,,,,,,,,,,,,,,,,,,,,,,,,,,,,,,,,,,,,,,,,,,,,,,,,,,,,,,,,,,,,,,
1720079691,52,0,4321.922852,4353.974121,4330.641113,4449.743652,4435.641113,4430,4439.358887,4426.794922,4433.846191,4413.461426,4295.128418,4461.025879,4397.692383,4357.94873,,,,,,,,,,,,,,,,,,,,,,,,,,,,,,,,,,,,,,,,,,,,,,,,,,,,,,,,,,,,,,,,,,,,,,
1720079691,53,0,4323.077148,4366.538574,4320.897461,4451.538574,4449.615234,4432.94873,4440.769043,4427.05127,4428.846191,4406.922852,4296.922852,4459.743652,4396.025879,4355.897461,,,,,,,,,,,,,,,,,,,,,,,,,,,,,,,,,,,,,,,,,,,,,,,,,,,,,,,,,,,,,,,,,,,,,,
1720079691,54,0,4308.717773,4354.230957,4301.282227,4435.897461,4434.743652,4437.05127,4447.436035,4445.384766,4431.410156,4401.794922,4307.307617,4453.589844,4393.461426,4351.666504,,,,,,,,,,,,,,,,,,,,,,,,,,,,,,,,,,,,,,,,,,,,,,,,,,,,,,,,,,,,,,,,,,,,,,
1720079691,55,0,4290.512695,4336.410156,4288.974121,4423.333496,4424.871582,4445,4468.846191,4461.282227,4442.179688,4403.333496,4300.128418,4447.94873,4385.897461,4342.436035,,,,,,,,,,,,,,,,,,,,,,,,,,,,,,,,,,,,,,,,,,,,,,,,,,,,,,,,,,,,,,,,,,,,,,
1720079691,56,0,4281.538574,4334.871582,4282.05127,4424.487305,4431.025879,4449.230957,4491.666504,4480.512695,4456.666504,4407.05127,4292.307617,4448.333496,4381.025879,4333.974121,,,,,,,,,,,,,,,,,,,,,,,,,,,,,,,,,,,,,,,,,,,,,,,,,,,,,,,,,,,,,,,,,,,,,,
1720079691,57,0,4274.615234,4331.025879,4273.974121,4418.846191,4434.743652,4444.743652,4494.871582,4497.05127,4468.717773,4409.615234,4290.256348,4445.897461,4373.205078,4325.641113,,,,,,,,,,,,,,,,,,,,,,,,,,,,,,,,,,,,,,,,,,,,,,,,,,,,,,,,,,,,,,,,,,,,,,
1720079691,58,0,4268.589844,4321.282227,4270.384766,4409.871582,4440.512695,4431.538574,4481.794922,4500.128418,4479.615234,4407.436035,4289.230957,4438.846191,4370.128418,4317.563965,,,,,,,,,,,,,,,,,,,,,,,,,,,,,,,,,,,,,,,,,,,,,,,,,,,,,,,,,,,,,,,,,,,,,,
1720079691,59,0,4268.589844,4324.615234,4273.589844,4409.102539,4443.205078,4420.641113,4467.179688,4490.897461,4479.358887,4404.358887,4285.128418,4431.666504,4369.102539,4312.436035,,,,,,,,,,,,,,,,,,,,,,,,,,,,,,,,,,,,,,,,,,,,,,,,,,,,,,,,,,,,,,,,,,,,,,
1720079691,60,0,4279.358887,4339.743652,4284.358887,4415.897461,4430,4407.692383,4447.692383,4473.077148,4464.487305,4406.666504,4281.410156,4432.94873,4366.666504,4316.282227,,,,,,,,,,,,,,,,,,,,,,,,,,,,,,,,,,,,,,,,,,,,,,,,,,,,,,,,,,,,,,,,,,,,,,
1720079691,61,0,4300.256348,4356.025879,4306.282227,4430.897461,4429.230957,4393.846191,4426.025879,4452.05127,4456.794922,4411.538574,4290,4445.128418,4382.307617,4332.307617,,,,,,,,,,,,,,,,,,,,,,,,,,,,,,,,,,,,,,,,,,,,,,,,,,,,,,,,,,,,,,,,,,,,,,
1720079691,62,0,4317.05127,4367.179688,4325.512695,4443.974121,4449.487305,4397.692383,4426.153809,4443.974121,4461.025879,4415.641113,4298.846191,4451.538574,4399.230957,4342.05127,,,,,,,,,,,,,,,,,,,,,,,,,,,,,,,,,,,,,,,,,,,,,,,,,,,,,,,,,,,,,,,,,,,,,,
1720079691,63,0,4322.94873,4372.563965,4325.256348,4447.05127,4447.94873,4410.128418,4445.897461,4443.461426,4456.025879,4410.641113,4288.461426,4447.307617,4390,4334.487305,,,,,,,,,,,,,,,,,,,,,,,,,,,,,,,,,,,,,,,,,,,,,,,,,,,,,,,,,,,,,,,,,,,,,,
1720079691,64,0,4319.743652,4366.922852,4315.641113,4442.179688,4431.153809,4416.538574,4466.410156,4442.179688,4441.282227,4395.256348,4278.974121,4441.153809,4377.94873,4328.974121,19.612288,2.395251,0.535338,0.298655,0.186055,15.854751,2.881355,0.808867,0.424318,0.207778,9.275933,2.474207,0.803805,0.339681,0.19408,6.901679,1.103443,0.480831,0.284805,0.212287,0.561524,0.26513,1.724802,1.400673,0.673288,1.553984,0.135038,0.319281,0.200978,0.154907,0.626062,0.221821,1.000569,0.606953,0.223122,0.43796,0.327969,0.787767,0.497733,0.287372,0.677368,0.271066,0.287938,0.571926,0.287845,2.419393,0.468985,0.421128,0.296759,0.261955,6.513018,1.832804,0.3617,0.687204,0.321338,7.97472,3.648253,0.914642,0.630524,0.272923,9.823587,2.30311,0.290349,0.434195,0.24964,17.335075,2.296468,0.340251,0.370697,0.214366
1720079691,65,0,4307.692383,4353.205078,4310.384766,4432.436035,4442.692383,4424.615234,4487.05127,4452.179688,4441.538574,4385.128418,4282.436035,4433.717773,4373.974121,4326.025879,,,,,,,,,,,,,,,,,,,,,,,,,,,,,,,,,,,,,,,,,,,,,,,,,,,,,,,,,,,,,,,,,,,,,,
1720079691,66,0,4299.615234,4351.153809,4303.974121,4426.538574,4461.538574,4433.717773,4495.512695,4471.153809,4462.94873,4391.922852,4278.333496,4428.974121,4367.05127,4316.025879,,,,,,,,,,,,,,,,,,,,,,,,,,,,,,,,,,,,,,,,,,,,,,,,,,,,,,,,,,,,,,,,,,,,,,
1720079691,67,0,4304.102539,4353.077148,4297.563965,4428.974121,4450.256348,4427.820313,4483.461426,4486.922852,4481.666504,4402.307617,4283.461426,4431.538574,4373.461426,4313.077148,,,,,,,,,,,,,,,,,,,,,,,,,,,,,,,,,,,,,,,,,,,,,,,,,,,,,,,,,,,,,,,,,,,,,,
1720079691,68,0,4305.769043,4342.307617,4294.743652,4423.461426,4434.743652,4413.846191,4469.743652,4492.436035,4479.871582,4399.358887,4294.871582,4431.282227,4380,4318.077148,,,,,,,,,,,,,,,,,,,,,,,,,,,,,,,,,,,,,,,,,,,,,,,,,,,,,,,,,,,,,,,,,,,,,,
1720079691,69,0,4304.358887,4338.077148,4295.897461,4417.307617,4430.128418,4406.538574,4459.615234,4493.333496,4477.692383,4398.717773,4287.94873,4430.641113,4373.717773,4316.538574,,,,,,,,,,,,,,,,,,,,,,,,,,,,,,,,,,,,,,,,,,,,,,,,,,,,,,,,,,,,,,,,,,,,,,
1720079691,70,0,4314.102539,4349.615234,4305.769043,4428.333496,4428.077148,4404.102539,4446.794922,4480.769043,4479.615234,4403.333496,4277.307617,4431.153809,4374.358887,4310.897461,,,,,,,,,,,,,,,,,,,,,,,,,,,,,,,,,,,,,,,,,,,,,,,,,,,,,,,,,,,,,,,,,,,,,,
1720079691,71,0,4330.769043,4362.307617,4321.282227,4441.794922,4436.538574,4398.461426,4435.128418,4453.717773,4469.102539,4401.282227,4278.205078,4423.846191,4376.410156,4308.846191,,,,,,,,,,,,,,,,,,,,,,,,,,,,,,,,,,,,,,,,,,,,,,,,,,,,,,,,,,,,,,,,,,,,,,
1720079691,72,0,4351.025879,4377.820313,4329.487305,4452.692383,4447.94873,4392.05127,4419.487305,4437.94873,4457.05127,4404.487305,4282.05127,4423.077148,4379.358887,4317.179688,,,,,,,,,,,,,,,,,,,,,,,,,,,,,,,,,,,,,,,,,,,,,,,,,,,,,,,,,,,,,,,,,,,,,,
1720079691,73,0,4359.230957,4383.589844,4317.94873,4455,4447.94873,4397.94873,4407.820313,4437.436035,4452.94873,4409.102539,4278.077148,4427.94873,4384.487305,4325.512695,,,,,,,,,,,,,,,,,,,,,,,,,,,,,,,,,,,,,,,,,,,,,,,,,,,,,,,,,,,,,,,,,,,,,,
1720079691,74,0,4342.820313,4362.94873,4301.153809,4440.256348,4446.153809,4414.102539,4427.563965,4442.307617,4446.410156,4397.436035,4269.743652,4421.153809,4373.077148,4309.358887,,,,,,,,,,,,,,,,,,,,,,,,,,,,,,,,,,,,,,,,,,,,,,,,,,,,,,,,,,,,,,,,,,,,,,
1720079691,75,0,4324.487305,4340.512695,4290.128418,4422.05127,4447.94873,4433.974121,4463.974121,4452.05127,4439.615234,4381.025879,4259.871582,4408.717773,4348.461426,4281.153809,,,,,,,,,,,,,,,,,,,,,,,,,,,,,,,,,,,,,,,,,,,,,,,,,,,,,,,,,,,,,,,,,,,,,,
1720079691,76,0,4321.666504,4337.179688,4281.538574,4416.794922,4442.820313,4446.538574,4481.282227,4468.461426,4446.282227,4376.666504,4256.025879,4402.436035,4340.256348,4269.615234,,,,,,,,,,,,,,,,,,,,,,,,,,,,,,,,,,,,,,,,,,,,,,,,,,,,,,,,,,,,,,,,,,,,,,
1720079691,77,0,4322.820313,4340.641113,4281.153809,4421.025879,4432.307617,4439.102539,4481.922852,4481.922852,4456.922852,4382.307617,4260.128418,4403.205078,4342.692383,4269.102539,,,,,,,,,,,,,,,,,,,,,,,,,,,,,,,,,,,,,,,,,,,,,,,,,,,,,,,,,,,,,,,,,,,,,,
1720079691,78,0,4330.128418,4342.05127,4292.05127,4423.717773,4435.128418,4430.641113,4478.589844,4481.025879,4462.692383,4394.615234,4264.487305,4407.692383,4342.179688,4268.974121,,,,,,,,,,,,,,,,,,,,,,,,,,,,,,,,,,,,,,,,,,,,,,,,,,,,,,,,,,,,,,,,,,,,,,
1720079691,79,0,4347.563965,4348.717773,4305.641113,4425.256348,4443.589844,4429.871582,4464.743652,4467.563965,4468.846191,4403.974121,4269.102539,4417.563965,4344.743652,4275.769043,,,,,,,,,,,,,,,,,,,,,,,,,,,,,,,,,,,,,,,,,,,,,,,,,,,,,,,,,,,,,,,,,,,,,,
1720079691,80,0,4367.563965,4366.410156,4322.692383,4440.769043,4430.256348,4421.025879,4448.846191,4458.205078,4468.205078,4406.538574,4271.666504,4434.487305,4353.205078,4288.077148,21.179979,2.499426,0.891526,0.272019,0.18475,16.869349,3.052155,0.931899,0.40125,0.231201,10.022771,2.395258,1.152711,0.344213,0.176008,7.47138,1.197454,0.49962,0.288363,0.228618,0.671796,0.312662,1.849866,1.211593,0.667476,1.481179,0.199689,0.539721,0.201545,0.167445,0.585504,0.339597,1.894286,0.594534,0.220062,0.440316,0.426256,1.46599,0.520628,0.314038,0.774398,0.339205,0.356382,0.540762,0.306432,2.358227,0.515568,0.410199,0.307466,0.24431,6.255679,1.931424,0.396517,0.627551,0.316868,9.795314,3.771358,1.055115,0.734712,0.28639,7.818028,2.266215,0.511067,0.391905,0.25543,17.157124,2.237678,0.61559,0.339873,0.208376
1720079691,81,0,4385.641113,4383.589844,4342.179688,4460.769043,4423.205078,4410.897461,4444.615234,4459.102539,4457.94873,4406.538574,4279.871582,4445.897461,4364.615234,4299.230957,,,,,,,,,,,,,,,,,,,,,,,,,,,,,,,,,,,,,,,,,,,,,,,,,,,,,,,,,,,,,,,,,,,,,,
1720079691,82,0,4390.512695,4382.307617,4347.563965,4454.743652,4448.461426,4405,4436.410156,4461.153809,4456.025879,4400.256348,4283.461426,4440.641113,4362.94873,4300.641113,,,,,,,,,,,,,,,,,,,,,,,,,,,,,,,,,,,,,,,,,,,,,,,,,,,,,,,,,,,,,,,,,,,,,,
1720079691,83,0,4385.769043,4372.563965,4339.871582,4440.769043,4457.563965,4397.563965,4421.794922,4460.512695,4463.333496,4397.563965,4272.307617,4434.743652,4351.282227,4291.922852,,,,,,,,,,,,,,,,,,,,,,,,,,,,,,,,,,,,,,,,,,,,,,,,,,,,,,,,,,,,,,,,,,,,,,
1720079691,84,0,4383.333496,4368.974121,4333.589844,4439.230957,4439.487305,4395.769043,4419.743652,4450.512695,4452.05127,4397.692383,4261.410156,4429.358887,4342.05127,4284.358887,,,,,,,,,,,,,,,,,,,,,,,,,,,,,,,,,,,,,,,,,,,,,,,,,,,,,,,,,,,,,,,,,,,,,,
1720079691,85,0,4378.589844,4361.922852,4325.512695,4431.666504,4438.333496,4409.487305,4439.102539,4445.512695,4443.717773,4392.05127,4256.794922,4416.538574,4336.025879,4275.128418,,,,,,,,,,,,,,,,,,,,,,,,,,,,,,,,,,,,,,,,,,,,,,,,,,,,,,,,,,,,,,,,,,,,,,
1720079691,86,0,4366.666504,4347.820313,4314.871582,4422.692383,4449.230957,4432.820313,4467.563965,4457.307617,4456.153809,4385.256348,4253.461426,4406.794922,4326.282227,4258.461426,,,,,,,,,,,,,,,,,,,,,,,,,,,,,,,,,,,,,,,,,,,,,,,,,,,,,,,,,,,,,,,,,,,,,,
1720079691,87,0,4360.512695,4342.692383,4308.205078,4423.974121,4440,4447.692383,4481.282227,4467.820313,4460.897461,4376.410156,4245.769043,4399.102539,4309.102539,4245.769043,,,,,,,,,,,,,,,,,,,,,,,,,,,,,,,,,,,,,,,,,,,,,,,,,,,,,,,,,,,,,,,,,,,,,,
1720079691,88,0,4369.230957,4351.666504,4308.333496,4429.358887,4427.563965,4450.384766,4480.769043,4473.205078,4465.128418,4378.461426,4245.641113,4397.05127,4302.05127,4245.769043,,,,,,,,,,,,,,,,,,,,,,,,,,,,,,,,,,,,,,,,,,,,,,,,,,,,,,,,,,,,,,,,,,,,,,
1720079691,89,0,4379.743652,4359.871582,4310.641113,4429.358887,4431.025879,4446.410156,4475.897461,4477.94873,4475.897461,4391.410156,4253.333496,4408.846191,4308.589844,4248.974121,,,,,,,,,,,,,,,,,,,,,,,,,,,,,,,,,,,,,,,,,,,,,,,,,,,,,,,,,,,,,,,,,,,,,,
1720079691,90,0,4385.256348,4363.461426,4312.307617,4428.461426,4430.512695,4437.436035,4464.615234,4467.563965,4470.384766,4393.589844,4251.410156,4415.384766,4310.128418,4247.94873,,,,,,,,,,,,,,,,,,,,,,,,,,,,,,,,,,,,,,,,,,,,,,,,,,,,,,,,,,,,,,,,,,,,,,
1720079691,91,0,4399.615234,4376.282227,4320.769043,4437.94873,4432.05127,4424.743652,4456.794922,4456.666504,4459.871582,4389.358887,4251.025879,4412.692383,4308.077148,4255.384766,,,,,,,,,,,,,,,,,,,,,,,,,,,,,,,,,,,,,,,,,,,,,,,,,,,,,,,,,,,,,,,,,,,,,,
1720079691,92,0,4416.153809,4389.487305,4332.820313,4448.717773,4443.461426,4414.230957,4455.897461,4456.538574,4463.589844,4389.102539,4260.897461,4416.410156,4309.615234,4265,,,,,,,,,,,,,,,,,,,,,,,,,,,,,,,,,,,,,,,,,,,,,,,,,,,,,,,,,,,,,,,,,,,,,,
1720079691,93,0,4420.128418,4389.102539,4336.794922,4444.102539,4448.589844,4407.307617,4441.538574,4445.384766,4461.666504,4384.615234,4261.410156,4415.512695,4306.794922,4263.717773,,,,,,,,,,,,,,,,,,,,,,,,,,,,,,,,,,,,,,,,,,,,,,,,,,,,,,,,,,,,,,,,,,,,,,
1720079691,94,0,4427.563965,4391.666504,4344.487305,4444.102539,4443.717773,4405.512695,4427.94873,4441.666504,4455.897461,4383.589844,4255.897461,4415.769043,4305.128418,4260.512695,,,,,,,,,,,,,,,,,,,,,,,,,,,,,,,,,,,,,,,,,,,,,,,,,,,,,,,,,,,,,,,,,,,,,,
1720079691,95,0,4433.461426,4394.230957,4353.974121,4450,4441.666504,4411.922852,4436.153809,4456.666504,4460.769043,4387.307617,4258.333496,4424.487305,4305.384766,4259.230957,,,,,,,,,,,,,,,,,,,,,,,,,,,,,,,,,,,,,,,,,,,,,,,,,,,,,,,,,,,,,,,,,,,,,,
1720079691,96,0,4418.333496,4380,4342.436035,4436.282227,4444.230957,4417.179688,4448.846191,4459.871582,4460.512695,4375.512695,4246.922852,4410.897461,4290.256348,4246.538574,20.819336,2.780531,1.737913,0.242189,0.191483,16.281137,2.963362,1.233041,0.36481,0.260916,10.104761,2.355035,1.761666,0.369644,0.163034,7.292956,1.250968,0.689698,0.296637,0.250164,0.765047,0.350743,2.055378,0.965289,0.656031,1.466025,0.324349,1.07495,0.205914,0.173049,0.544832,0.640248,3.727798,0.631383,0.220566,0.455633,0.683424,2.766514,0.569181,0.350829,0.889899,0.472856,0.546824,0.535912,0.327446,2.235196,0.514662,0.409374,0.333959,0.222755,5.680523,1.866587,0.493091,0.559515,0.304729,12.307588,4.002414,1.184809,0.892737,0.310829,5.889104,2.135695,0.925759,0.352984,0.252972,15.694289,2.119842,1.104894,0.310476,0.201413
1720079691,97,0,4409.102539,4369.102539,4325,4424.615234,4439.871582,4429.487305,4465.384766,4454.743652,4460.384766,4362.563965,4230.256348,4389.743652,4275.256348,4233.717773,,,,,,,,,,,,,,,,,,,,,,,,,,,,,,,,,,,,,,,,,,,,,,,,,,,,,,,,,,,,,,,,,,,,,,
1720079691,98,0,4413.205078,4370.128418,4324.487305,4425.769043,4436.025879,4447.94873,4486.153809,4461.410156,4467.436035,4362.563965,4234.743652,4392.179688,4276.794922,4231.666504,,,,,,,,,,,,,,,,,,,,,,,,,,,,,,,,,,,,,,,,,,,,,,,,,,,,,,,,,,,,,,,,,,,,,,
1720079691,99,0,4404.487305,4358.589844,4322.05127,4410.641113,4438.974121,4449.230957,4484.871582,4460.897461,4464.871582,4364.487305,4229.487305,4390.897461,4273.974121,4223.205078,,,,,,,,,,,,,,,,,,,,,,,,,,,,,,,,,,,,,,,,,,,,,,,,,,,,,,,,,,,,,,,,,,,,,,
1720079691,100,0,4403.846191,4353.077148,4317.94873,4401.666504,4435.128418,4437.436035,4468.846191,4455.641113,4460,4368.974121,4215.769043,4383.846191,4270.641113,4222.307617,,,,,,,,,,,,,,,,,,,,,,,,,,,,,,,,,,,,,,,,,,,,,,,,,,,,,,,,,,,,,,,,,,,,,,
1720079691,101,0,4429.230957,4378.205078,4334.230957,4421.153809,4421.153809,4423.589844,4456.794922,4454.615234,4459.487305,4369.871582,4228.589844,4397.94873,4282.563965,4238.717773,,,,,,,,,,,,,,,,,,,,,,,,,,,,,,,,,,,,,,,,,,,,,,,,,,,,,,,,,,,,,,,,,,,,,,
1720079691,102,0,4447.692383,4400.512695,4354.487305,4436.538574,4425.769043,4414.358887,4445.128418,4448.077148,4451.922852,4367.307617,4245.641113,4412.820313,4296.025879,4249.615234,,,,,,,,,,,,,,,,,,,,,,,,,,,,,,,,,,,,,,,,,,,,,,,,,,,,,,,,,,,,,,,,,,,,,,
1720079691,103,0,4454.230957,4404.358887,4364.358887,4438.461426,4451.282227,4410.512695,4442.179688,4450.769043,4448.461426,4377.179688,4248.077148,4418.589844,4302.692383,4257.563965,,,,,,,,,,,,,,,,,,,,,,,,,,,,,,,,,,,,,,,,,,,,,,,,,,,,,,,,,,,,,,,,,,,,,,
1720079691,104,0,4458.333496,4408.333496,4369.230957,4440.769043,4454.743652,4396.153809,4443.077148,4459.230957,4453.589844,4383.205078,4251.282227,4423.589844,4303.077148,4261.153809,,,,,,,,,,,,,,,,,,,,,,,,,,,,,,,,,,,,,,,,,,,,,,,,,,,,,,,,,,,,,,,,,,,,,,
1720079691,105,0,4455.384766,4413.077148,4365.769043,4440.256348,4441.025879,4381.282227,4440.641113,4453.846191,4450,4375,4255.897461,4419.615234,4299.358887,4254.743652,,,,,,,,,,,,,,,,,,,,,,,,,,,,,,,,,,,,,,,,,,,,,,,,,,,,,,,,,,,,,,,,,,,,,,
1720079691,106,0,4452.05127,4413.589844,4360,4439.871582,4443.589844,4388.846191,4447.692383,4445.512695,4445.384766,4372.692383,4248.717773,4411.410156,4296.922852,4251.410156,,,,,,,,,,,,,,,,,,,,,,,,,,,,,,,,,,,,,,,,,,,,,,,,,,,,,,,,,,,,,,,,,,,,,,
1720079691,107,0,4447.692383,4412.436035,4356.153809,4442.94873,4449.615234,4405.256348,4465.128418,4448.461426,4450.769043,4380,4236.025879,4412.94873,4296.538574,4253.461426,,,,,,,,,,,,,,,,,,,,,,,,,,,,,,,,,,,,,,,,,,,,,,,,,,,,,,,,,,,,,,,,,,,,,,
1720079691,108,0,4434.871582,4407.179688,4346.922852,4443.333496,4434.487305,4414.487305,4474.487305,4450.641113,4449.102539,4374.230957,4232.820313,4415.897461,4290.384766,4247.563965,,,,,,,,,,,,,,,,,,,,,,,,,,,,,,,,,,,,,,,,,,,,,,,,,,,,,,,,,,,,,,,,,,,,,,
1720079691,109,0,4424.358887,4400.641113,4338.589844,4438.461426,4421.410156,4415.256348,4468.205078,4448.717773,4441.794922,4357.692383,4227.563965,4408.846191,4273.717773,4236.794922,,,,,,,,,,,,,,,,,,,,,,,,,,,,,,,,,,,,,,,,,,,,,,,,,,,,,,,,,,,,,,,,,,,,,,
1720079691,110,0,4422.692383,4393.077148,4338.333496,4422.563965,4436.538574,4401.922852,4459.743652,4453.205078,4440,4357.820313,4216.025879,4400.512695,4265,4231.282227,,,,,,,,,,,,,,,,,,,,,,,,,,,,,,,,,,,,,,,,,,,,,,,,,,,,,,,,,,,,,,,,,,,,,,
1720079691,111,0,4420,4384.102539,4340.769043,4411.794922,4446.538574,4389.615234,4460.512695,4458.974121,4442.94873,4371.538574,4217.563965,4404.358887,4271.666504,4230.512695,,,,,,,,,,,,,,,,,,,,,,,,,,,,,,,,,,,,,,,,,,,,,,,,,,,,,,,,,,,,,,,,,,,,,,
1720079691,112,0,4429.230957,4395.128418,4351.025879,4426.153809,4435.897461,4387.179688,4459.230957,4463.461426,4448.205078,4375.512695,4235.128418,4421.538574,4286.538574,4243.589844,18.354862,3.318748,3.327997,0.214635,0.209744,13.650567,2.703106,1.931942,0.33139,0.293191,9.321012,2.404361,2.813413,0.400228,0.161321,6.331809,1.272057,1.225928,0.307686,0.275935,0.808924,0.378886,2.247252,0.721876,0.648563,1.479797,0.596787,2.045084,0.212356,0.173948,0.527606,1.306709,6.786209,0.725918,0.224788,0.476558,1.210733,4.869214,0.631756,0.387898,0.962513,0.741818,0.934301,0.560121,0.343383,2.091758,0.47724,0.463143,0.375939,0.200397,4.856424,1.694055,0.652682,0.500841,0.287547,14.638724,4.189257,1.319219,1.060497,0.336299,4.260404,1.986246,1.576836,0.334773,0.244221,12.868352,1.969951,1.880382,0.287848,0.196851
1720079691,113,0,4452.307617,4420.256348,4371.794922,4444.358887,4442.94873,4377.94873,4446.538574,4461.153809,4447.692383,4375.128418,4252.307617,4436.282227,4302.436035,4263.974121,,,,,,,,,,,,,,,,,,,,,,,,,,,,,,,,,,,,,,,,,,,,,,,,,,,,,,,,,,,,,,,,,,,,,,
1720079691,114,0,4469.743652,4431.153809,4384.743652,4452.692383,4458.077148,4367.563965,4440.641113,4456.922852,4449.615234,4385.769043,4262.436035,4442.94873,4311.282227,4274.871582,,,,,,,,,,,,,,,,,,,,,,,,,,,,,,,,,,,,,,,,,,,,,,,,,,,,,,,,,,,,,,,,,,,,,,
1720079691,115,0,4479.358887,4436.153809,4389.230957,4462.436035,4450.769043,4365.256348,4444.487305,4462.436035,4458.333496,4395.128418,4266.282227,4450.897461,4313.205078,4280.897461,,,,,,,,,,,,,,,,,,,,,,,,,,,,,,,,,,,,,,,,,,,,,,,,,,,,,,,,,,,,,,,,,,,,,,
1720079691,116,0,4478.589844,4442.94873,4396.153809,4463.205078,4442.692383,4361.153809,4443.846191,4459.102539,4453.205078,4388.205078,4262.179688,4453.846191,4312.05127,4282.563965,,,,,,,,,,,,,,,,,,,,,,,,,,,,,,,,,,,,,,,,,,,,,,,,,,,,,,,,,,,,,,,,,,,,,,
1720079691,117,0,4475.512695,4445.641113,4398.589844,4462.692383,4448.589844,4356.922852,4450.256348,4443.461426,4438.974121,4381.794922,4261.410156,4445.384766,4305.384766,4280.897461,,,,,,,,,,,,,,,,,,,,,,,,,,,,,,,,,,,,,,,,,,,,,,,,,,,,,,,,,,,,,,,,,,,,,,
1720079691,118,0,4480.384766,4451.282227,4391.282227,4474.615234,4444.358887,4362.179688,4461.538574,4442.94873,4441.410156,4385.512695,4260.641113,4435.641113,4297.307617,4279.743652,,,,,,,,,,,,,,,,,,,,,,,,,,,,,,,,,,,,,,,,,,,,,,,,,,,,,,,,,,,,,,,,,,,,,,
1720079691,119,0,4476.282227,4450.897461,4378.461426,4470.512695,4439.102539,4372.05127,4462.436035,4460.512695,4451.794922,4388.077148,4252.179688,4432.307617,4296.153809,4275.897461,,,,,,,,,,,,,,,,,,,,,,,,,,,,,,,,,,,,,,,,,,,,,,,,,,,,,,,,,,,,,,,,,,,,,,
1720079691,120,0,4454.743652,4431.153809,4361.410156,4444.358887,4452.05127,4376.666504,4459.743652,4463.333496,4448.846191,4378.717773,4247.05127,4424.230957,4291.153809,4262.692383,,,,,,,,,,,,,,,,,,,,,,,,,,,,,,,,,,,,,,,,,,,,,,,,,,,,,,,,,,,,,,,,,,,,,,
1720079691,121,0,4444.743652,4421.025879,4343.333496,4435.769043,4459.615234,4377.05127,4460.128418,4448.461426,4442.179688,4367.692383,4243.461426,4410.897461,4277.94873,4251.538574,,,,,,,,,,,,,,,,,,,,,,,,,,,,,,,,,,,,,,,,,,,,,,,,,,,,,,,,,,,,,,,,,,,,,,
1720079691,122,0,4453.077148,4435.897461,4338.846191,4445.128418,4453.333496,4373.589844,4453.077148,4443.333496,4445.512695,4371.538574,4236.410156,4409.358887,4274.615234,4252.436035,,,,,,,,,,,,,,,,,,,,,,,,,,,,,,,,,,,,,,,,,,,,,,,,,,,,,,,,,,,,,,,,,,,,,,
1720079691,123,0,4457.05127,4443.974121,4345.256348,4447.436035,4451.282227,4365.256348,4441.410156,4441.922852,4443.717773,4376.538574,4230.128418,4411.922852,4277.05127,4250.641113,,,,,,,,,,,,,,,,,,,,,,,,,,,,,,,,,,,,,,,,,,,,,,,,,,,,,,,,,,,,,,,,,,,,,,
1720079691,124,0,4460.384766,4443.333496,4352.307617,4446.282227,4458.974121,4354.743652,4438.717773,4438.077148,4429.615234,4372.94873,4237.05127,4412.436035,4280.641113,4253.974121,,,,,,,,,,,,,,,,,,,,,,,,,,,,,,,,,,,,,,,,,,,,,,,,,,,,,,,,,,,,,,,,,,,,,,
1720079691,125,0,4476.153809,4457.563965,4371.282227,4456.666504,4460.256348,4349.358887,4442.94873,4440.256348,4429.871582,4376.282227,4256.794922,4431.153809,4296.153809,4275.641113,,,,,,,,,,,,,,,,,,,,,,,,,,,,,,,,,,,,,,,,,,,,,,,,,,,,,,,,,,,,,,,,,,,,,,
1720079691,126,0,4490.897461,4473.717773,4391.538574,4472.820313,4443.205078,4338.333496,4444.743652,4445,4441.153809,4385.128418,4270.256348,4449.487305,4309.358887,4286.282227,,,,,,,,,,,,,,,,,,,,,,,,,,,,,,,,,,,,,,,,,,,,,,,,,,,,,,,,,,,,,,,,,,,,,,
1720079691,127,0,4486.538574,4471.153809,4388.974121,4472.05127,4439.615234,4321.794922,4442.436035,4448.589844,4437.179688,4384.230957,4262.820313,4437.307617,4300.384766,4273.461426,,,,,,,,,,,,,,,,,,,,,,,,,,,,,,,,,,,,,,,,,,,,,,,,,,,,,,,,,,,,,,,,,,,,,,
1720079691,0,0,4467.436035,4454.871582,4370.256348,4449.871582,4460.769043,4317.436035,4440.769043,4444.487305,4424.102539,4373.589844,4241.922852,4414.615234,4281.922852,4256.922852,15.098384,4.23921,5.746338,0.19945,0.236068,10.033187,2.52719,3.19419,0.313793,0.3237,7.835068,2.625454,4.43949,0.421799,0.170643,4.923013,1.340996,2.209471,0.322704,0.303434,0.796903,0.400232,2.334577,0.540609,0.652893,1.47968,1.205878,3.470692,0.221087,0.17198,0.538149,2.553953,11.003967,0.865797,0.23018,0.500874,2.053179,7.675379,0.690683,0.41316,1.001799,1.183579,1.553993,0.595322,0.347752,1.950409,0.44935,0.609026,0.42807,0.178952,3.90659,1.533738,0.863781,0.457973,0.268467,15.62788,4.225486,1.516038,1.178317,0.348191,2.966533,1.910167,2.451209,0.342073,0.232598,9.458994,1.902578,2.965047,0.278846,0.195961
1720079691,1,0,4453.974121,4442.563965,4361.666504,4437.307617,4467.05127,4322.94873,4446.025879,4435.897461,4422.820313,4372.05127,4231.794922,4408.589844,4278.717773,4248.589844,,,,,,,,,,,,,,,,,,,,,,,,,,,,,,,,,,,,,,,,,,,,,,,,,,,,,,,,,,,,,,,,,,,,,,
1720079691,2,0,4457.436035,4442.820313,4368.077148,4447.436035,4444.102539,4329.487305,4459.487305,4438.461426,4431.282227,4377.307617,4233.846191,4413.846191,4280.769043,4248.974121,,,,,,,,,,,,,,,,,,,,,,,,,,,,,,,,,,,,,,,,,,,,,,,,,,,,,,,,,,,,,,,,,,,,,,
1720079691,3,0,4458.974121,4444.871582,4367.307617,4443.974121,4437.563965,4331.025879,4467.692383,4448.846191,4433.589844,4368.974121,4231.282227,4410.512695,4269.615234,4247.692383,,,,,,,,,,,,,,,,,,,,,,,,,,,,,,,,,,,,,,,,,,,,,,,,,,,,,,,,,,,,,,,,,,,,,,
1720079691,4,0,4450.384766,4439.487305,4358.333496,4425.641113,4451.410156,4328.717773,4463.974121,4444.743652,4426.410156,4357.05127,4226.538574,4397.94873,4258.717773,4240.384766,,,,,,,,,,,,,,,,,,,,,,,,,,,,,,,,,,,,,,,,,,,,,,,,,,,,,,,,,,,,,,,,,,,,,,
1720079691,5,0,4452.692383,4440.897461,4367.179688,4426.025879,4455.897461,4330.897461,4457.436035,4440.769043,4423.846191,4361.538574,4227.307617,4397.820313,4264.615234,4240.512695,,,,,,,,,,,,,,,,,,,,,,,,,,,,,,,,,,,,,,,,,,,,,,,,,,,,,,,,,,,,,,,,,,,,,,
1720079691,6,0,4460.128418,4445.384766,4381.922852,4431.922852,4446.025879,4326.153809,4449.102539,4443.205078,4428.333496,4372.307617,4231.025879,4408.589844,4275.897461,4246.538574,,,,,,,,,,,,,,,,,,,,,,,,,,,,,,,,,,,,,,,,,,,,,,,,,,,,,,,,,,,,,,,,,,,,,,
1720079691,7,0,4459.871582,4445,4380.128418,4431.153809,4432.820313,4312.563965,4439.615234,4432.820313,4424.743652,4374.230957,4240.256348,4412.307617,4280.641113,4248.205078,,,,,,,,,,,,,,,,,,,,,,,,,,,,,,,,,,,,,,,,,,,,,,,,,,,,,,,,,,,,,,,,,,,,,,
1720079691,8,0,4467.436035,4456.538574,4381.410156,4443.846191,4443.846191,4316.794922,4445.897461,4435,4427.179688,4375.512695,4253.589844,4420.128418,4283.717773,4252.307617,,,,,,,,,,,,,,,,,,,,,,,,,,,,,,,,,,,,,,,,,,,,,,,,,,,,,,,,,,,,,,,,,,,,,,
1720079691,9,0,4474.230957,4464.230957,4385.512695,4448.717773,4462.436035,4328.205078,4448.077148,4445.128418,4434.358887,4377.692383,4252.436035,4424.615234,4282.692383,4254.358887,,,,,,,,,,,,,,,,,,,,,,,,,,,,,,,,,,,,,,,,,,,,,,,,,,,,,,,,,,,,,,,,,,,,,,
1720079691,10,0,4456.410156,4447.179688,4370.769043,4428.205078,4453.589844,4313.974121,4423.974121,4425.256348,4420,4370.512695,4232.179688,4403.717773,4268.974121,4240,,,,,,,,,,,,,,,,,,,,,,,,,,,,,,,,,,,,,,,,,,,,,,,,,,,,,,,,,,,,,,,,,,,,,,
1720079691,11,0,4438.461426,4433.205078,4352.05127,4415,4440.256348,4303.589844,4407.05127,4408.077148,4406.410156,4361.282227,4215.128418,4384.358887,4252.307617,4230.256348,,,,,,,,,,,,,,,,,,,,,,,,,,,,,,,,,,,,,,,,,,,,,,,,,,,,,,,,,,,,,,,,,,,,,,
1720079691,12,0,4440.897461,4432.307617,4343.974121,4413.205078,4436.282227,4321.666504,4426.410156,4428.205078,4420.512695,4354.743652,4216.153809,4386.410156,4245.384766,4231.922852,,,,,,,,,,,,,,,,,,,,,,,,,,,,,,,,,,,,,,,,,,,,,,,,,,,,,,,,,,,,,,,,,,,,,,
1720079692,13,0,4435.512695,4426.282227,4334.230957,4403.333496,4428.846191,4337.436035,4453.974121,4447.05127,4439.871582,4354.743652,4225.256348,4383.717773,4244.743652,4225.512695,,,,,,,,,,,,,,,,,,,,,,,,,,,,,,,,,,,,,,,,,,,,,,,,,,,,,,,,,,,,,,,,,,,,,,
1720079692,14,0,4424.487305,4421.794922,4326.153809,4398.717773,4432.307617,4342.94873,4460.641113,4448.589844,4445.128418,4369.102539,4228.461426,4374.871582,4244.615234,4217.94873,,,,,,,,,,,,,,,,,,,,,,,,,,,,,,,,,,,,,,,,,,,,,,,,,,,,,,,,,,,,,,,,,,,,,,
1720079692,15,0,4434.487305,4427.179688,4335.641113,4410.512695,4439.487305,4351.282227,4461.538574,4456.922852,4449.358887,4380.897461,4229.871582,4385.256348,4245.769043,4227.307617,,,,,,,,,,,,,,,,,,,,,,,,,,,,,,,,,,,,,,,,,,,,,,,,,,,,,,,,,,,,,,,,,,,,,,
1720079692,16,0,4450.128418,4435.512695,4353.974121,4423.846191,4429.230957,4352.436035,4463.974121,4463.205078,4446.538574,4376.538574,4237.820313,4405.128418,4253.205078,4242.436035,12.444259,5.565305,8.743429,0.205724,0.262146,6.433384,2.713758,4.965644,0.317568,0.348401,6.128152,3.180007,6.567165,0.433389,0.184742,3.494621,1.582506,3.566209,0.347992,0.328388,0.751106,0.417636,2.283106,0.44782,0.671421,1.412684,2.365022,5.203421,0.236908,0.168125,0.568833,4.477115,15.799907,1.019547,0.23405,0.518036,3.12115,10.705247,0.730224,0.417797,1.011428,1.754457,2.343202,0.611973,0.337998,1.809856,0.504074,0.844224,0.480199,0.160351,2.987909,1.549869,1.110392,0.4296,0.251028,14.881497,4.120894,1.837014,1.203422,0.336842,2.101683,2.022903,3.451885,0.369006,0.221263,6.30422,2.074044,4.275603,0.289626,0.197217
1720079692,17,0,4461.025879,4448.589844,4367.94873,4428.205078,4433.205078,4343.077148,4455.256348,4458.974121,4435.897461,4376.666504,4246.666504,4415.384766,4262.307617,4249.871582,,,,,,,,,,,,,,,,,,,,,,,,,,,,,,,,,,,,,,,,,,,,,,,,,,,,,,,,,,,,,,,,,,,,,,
1720079692,18,0,4474.615234,4461.153809,4376.025879,4428.461426,4451.794922,4334.102539,4441.794922,4449.615234,4438.205078,4388.461426,4255.641113,4420.641113,4267.05127,4258.077148,,,,,,,,,,,,,,,,,,,,,,,,,,,,,,,,,,,,,,,,,,,,,,,,,,,,,,,,,,,,,,,,,,,,,,
1720079692,19,0,4481.025879,4461.666504,4382.563965,4430.641113,4445.128418,4326.666504,4438.461426,4441.922852,4442.307617,4384.102539,4263.333496,4426.538574,4268.974121,4262.179688,,,,,,,,,,,,,,,,,,,,,,,,,,,,,,,,,,,,,,,,,,,,,,,,,,,,,,,,,,,,,,,,,,,,,,
1720079692,20,0,4473.717773,4461.025879,4386.025879,4435.384766,4439.102539,4322.05127,4445.384766,4448.077148,4440.512695,4382.179688,4265.512695,4427.179688,4272.820313,4263.589844,,,,,,,,,,,,,,,,,,,,,,,,,,,,,,,,,,,,,,,,,,,,,,,,,,,,,,,,,,,,,,,,,,,,,,
1720079692,21,0,4462.307617,4458.461426,4375.128418,4424.871582,4452.94873,4323.461426,4443.333496,4452.307617,4436.282227,4397.05127,4254.102539,4412.05127,4272.563965,4262.436035,,,,,,,,,,,,,,,,,,,,,,,,,,,,,,,,,,,,,,,,,,,,,,,,,,,,,,,,,,,,,,,,,,,,,,
1720079692,22,0,4451.922852,4446.538574,4358.333496,4405.256348,4453.717773,4331.666504,4441.153809,4448.974121,4431.025879,4389.871582,4233.974121,4396.282227,4258.333496,4247.94873,,,,,,,,,,,,,,,,,,,,,,,,,,,,,,,,,,,,,,,,,,,,,,,,,,,,,,,,,,,,,,,,,,,,,,
1720079692,23,0,4447.692383,4442.436035,4356.922852,4404.102539,4446.410156,4347.05127,4452.179688,4452.436035,4434.487305,4378.461426,4233.333496,4396.282227,4250.512695,4238.974121,,,,,,,,,,,,,,,,,,,,,,,,,,,,,,,,,,,,,,,,,,,,,,,,,,,,,,,,,,,,,,,,,,,,,,
1720079692,24,0,4448.333496,4448.974121,4367.179688,4414.102539,4449.230957,4358.461426,4461.153809,4458.717773,4443.589844,4388.717773,4248.205078,4400.897461,4259.743652,4245.512695,,,,,,,,,,,,,,,,,,,,,,,,,,,,,,,,,,,,,,,,,,,,,,,,,,,,,,,,,,,,,,,,,,,,,,
1720079692,25,0,4444.487305,4447.05127,4367.179688,4410.256348,4455.256348,4353.717773,4462.94873,4465.256348,4445.256348,4395,4251.025879,4403.333496,4265.128418,4249.358887,,,,,,,,,,,,,,,,,,,,,,,,,,,,,,,,,,,,,,,,,,,,,,,,,,,,,,,,,,,,,,,,,,,,,,
1720079692,26,0,4446.153809,4445.512695,4366.153809,4403.461426,4446.410156,4343.846191,4465.769043,4475,4448.077148,4393.589844,4249.358887,4413.974121,4264.487305,4248.974121,,,,,,,,,,,,,,,,,,,,,,,,,,,,,,,,,,,,,,,,,,,,,,,,,,,,,,,,,,,,,,,,,,,,,,
1720079692,27,0,4454.743652,4456.025879,4376.153809,4415.128418,4427.563965,4340.256348,4466.153809,4477.307617,4453.974121,4401.538574,4262.179688,4427.307617,4268.846191,4259.871582,,,,,,,,,,,,,,,,,,,,,,,,,,,,,,,,,,,,,,,,,,,,,,,,,,,,,,,,,,,,,,,,,,,,,,
1720079692,28,0,4453.846191,4463.974121,4376.025879,4426.922852,4433.974121,4340.256348,4461.282227,4472.692383,4455,4405.384766,4267.94873,4431.538574,4273.461426,4271.922852,,,,,,,,,,,,,,,,,,,,,,,,,,,,,,,,,,,,,,,,,,,,,,,,,,,,,,,,,,,,,,,,,,,,,,
1720079692,29,0,4443.846191,4456.282227,4357.563965,4415.128418,4460,4334.230957,4451.025879,4465,4452.94873,4399.230957,4251.538574,4422.05127,4265,4261.794922,,,,,,,,,,,,,,,,,,,,,,,,,,,,,,,,,,,,,,,,,,,,,,,,,,,,,,,,,,,,,,,,,,,,,,
1720079692,30,0,4441.538574,4445.256348,4340.256348,4400.769043,4463.974121,4325.512695,4433.974121,4446.153809,4439.487305,4393.846191,4235.384766,4404.487305,4256.410156,4244.871582,,,,,,,,,,,,,,,,,,,,,,,,,,,,,,,,,,,,,,,,,,,,,,,,,,,,,,,,,,,,,,,,,,,,,,
1720079692,31,0,4443.974121,4446.666504,4338.846191,4405.641113,4447.94873,4326.410156,4430.769043,4442.179688,4422.94873,4382.692383,4232.820313,4401.282227,4256.666504,4245.384766,,,,,,,,,,,,,,,,,,,,,,,,,,,,,,,,,,,,,,,,,,,,,,,,,,,,,,,,,,,,,,,,,,,,,,
1720079692,32,0,4444.358887,4454.102539,4346.153809,4414.358887,4443.589844,4336.410156,4450.641113,4458.205078,4431.410156,4376.794922,4235.641113,4413.205078,4254.487305,4253.717773,10.461463,7.195798,11.768697,0.237862,0.279337,3.694162,3.460243,6.960595,0.340734,0.364554,4.636487,4.264047,8.888326,0.43888,0.195859,2.348703,2.108686,5.049762,0.388838,0.347552,0.681476,0.434737,2.135817,0.425101,0.701101,1.240349,4.159472,6.912378,0.264446,0.162743,0.589958,6.949942,20.133654,1.144536,0.235047,0.527198,4.20187,13.206477,0.743868,0.399912,1.005702,2.321962,3.135159,0.590134,0.31703,1.677493,0.702424,1.122597,0.519537,0.147789,2.103812,1.884419,1.39907,0.413408,0.237676,12.507207,4.073843,2.308911,1.127249,0.304348,1.404517,2.426883,4.428879,0.404244,0.211445,3.675825,2.608517,5.618277,0.31851,0.197464
1720079692,33,0,4443.589844,4452.179688,4345.641113,4409.487305,4446.282227,4346.025879,4462.179688,4462.820313,4445.512695,4385.128418,4234.358887,4417.05127,4247.179688,4251.153809,,,,,,,,,,,,,,,,,,,,,,,,,,,,,,,,,,,,,,,,,,,,,,,,,,,,,,,,,,,,,,,,,,,,,,
1720079692,34,0,4437.307617,4442.692383,4340.128418,4400.897461,4447.179688,4352.563965,4461.282227,4458.717773,4443.589844,4388.333496,4235,4410.256348,4243.974121,4245.769043,,,,,,,,,,,,,,,,,,,,,,,,,,,,,,,,,,,,,,,,,,,,,,,,,,,,,,,,,,,,,,,,,,,,,,
1720079692,35,0,4428.717773,4441.794922,4338.846191,4396.410156,4438.846191,4355.256348,4462.05127,4460.897461,4442.94873,4382.436035,4235.256348,4403.846191,4244.743652,4244.230957,,,,,,,,,,,,,,,,,,,,,,,,,,,,,,,,,,,,,,,,,,,,,,,,,,,,,,,,,,,,,,,,,,,,,,
1720079692,36,0,4425.256348,4443.205078,4341.666504,4393.846191,4427.179688,4351.282227,4454.487305,4467.820313,4445.769043,4376.922852,4232.94873,4402.179688,4248.974121,4244.743652,,,,,,,,,,,,,,,,,,,,,,,,,,,,,,,,,,,,,,,,,,,,,,,,,,,,,,,,,,,,,,,,,,,,,,
1720079692,37,0,4432.820313,4445.128418,4350.384766,4397.179688,4439.102539,4347.692383,4443.589844,4470.256348,4446.025879,4383.846191,4241.025879,4412.436035,4261.282227,4256.025879,,,,,,,,,,,,,,,,,,,,,,,,,,,,,,,,,,,,,,,,,,,,,,,,,,,,,,,,,,,,,,,,,,,,,,
1720079692,38,0,4441.282227,4452.179688,4359.743652,4401.666504,4454.230957,4344.743652,4441.282227,4465.256348,4445.128418,4392.436035,4241.794922,4419.743652,4268.205078,4258.333496,,,,,,,,,,,,,,,,,,,,,,,,,,,,,,,,,,,,,,,,,,,,,,,,,,,,,,,,,,,,,,,,,,,,,,
1720079692,39,0,4442.94873,4458.333496,4363.717773,4405.897461,4450.256348,4341.153809,4442.179688,4458.974121,4443.846191,4390.641113,4231.666504,4414.743652,4267.94873,4248.589844,,,,,,,,,,,,,,,,,,,,,,,,,,,,,,,,,,,,,,,,,,,,,,,,,,,,,,,,,,,,,,,,,,,,,,
1720079692,40,0,4443.717773,4462.563965,4368.461426,4413.846191,4445,4342.179688,4441.922852,4458.205078,4442.820313,4388.717773,4238.974121,4416.410156,4275.897461,4255,,,,,,,,,,,,,,,,,,,,,,,,,,,,,,,,,,,,,,,,,,,,,,,,,,,,,,,,,,,,,,,,,,,,,,
1720079692,41,0,4439.102539,4456.666504,4365.128418,4411.025879,4448.717773,4347.05127,4449.615234,4462.692383,4441.794922,4388.846191,4247.94873,4420.256348,4278.077148,4257.692383,,,,,,,,,,,,,,,,,,,,,,,,,,,,,,,,,,,,,,,,,,,,,,,,,,,,,,,,,,,,,,,,,,,,,,
1720079692,42,0,4424.871582,4443.717773,4347.307617,4393.974121,4446.282227,4356.538574,4460.256348,4473.717773,4443.974121,4386.410156,4238.077148,4412.563965,4272.307617,4238.717773,,,,,,,,,,,,,,,,,,,,,,,,,,,,,,,,,,,,,,,,,,,,,,,,,,,,,,,,,,,,,,,,,,,,,,
1720079692,43,0,4411.282227,4437.307617,4337.179688,4386.666504,4428.461426,4368.717773,4463.461426,4480.769043,4449.871582,4384.230957,4227.563965,4402.436035,4269.743652,4226.025879,,,,,,,,,,,,,,,,,,,,,,,,,,,,,,,,,,,,,,,,,,,,,,,,,,,,,,,,,,,,,,,,,,,,,,
1720079692,44,0,4410,4442.05127,4345.384766,4397.307617,4422.436035,4372.436035,4469.487305,4476.153809,4450.128418,4385.769043,4224.102539,4401.922852,4264.615234,4229.743652,,,,,,,,,,,,,,,,,,,,,,,,,,,,,,,,,,,,,,,,,,,,,,,,,,,,,,,,,,,,,,,,,,,,,,
1720079692,45,0,4416.538574,4446.538574,4357.307617,4404.487305,4447.820313,4370.384766,4476.538574,4474.743652,4446.025879,4388.846191,4224.230957,4408.589844,4263.333496,4232.307617,,,,,,,,,,,,,,,,,,,,,,,,,,,,,,,,,,,,,,,,,,,,,,,,,,,,,,,,,,,,,,,,,,,,,,
1720079692,46,0,4422.563965,4442.563965,4360.769043,4397.179688,4472.179688,4373.461426,4467.436035,4470.512695,4444.871582,4391.025879,4232.820313,4411.922852,4275,4233.717773,,,,,,,,,,,,,,,,,,,,,,,,,,,,,,,,,,,,,,,,,,,,,,,,,,,,,,,,,,,,,,,,,,,,,,
1720079692,47,0,4425.641113,4447.563965,4355.641113,4393.846191,4459.871582,4362.692383,4443.717773,4453.077148,4438.333496,4388.077148,4231.922852,4409.358887,4281.666504,4237.692383,,,,,,,,,,,,,,,,,,,,,,,,,,,,,,,,,,,,,,,,,,,,,,,,,,,,,,,,,,,,,,,,,,,,,,
1720079692,48,0,4428.974121,4458.461426,4353.717773,4401.538574,4441.153809,4340.512695,4425.897461,4441.666504,4429.615234,4387.179688,4225.128418,4412.436035,4279.487305,4243.077148,9.2761,8.917814,14.149522,0.288602,0.28403,2.143231,4.724538,8.74134,0.370294,0.370925,3.768825,5.89335,10.977037,0.443741,0.199707,1.636919,2.922344,6.35199,0.442841,0.361243,0.615586,0.462133,1.973693,0.430529,0.734716,1.103895,6.424403,8.224264,0.305806,0.156756,0.596155,9.585799,22.865021,1.212122,0.233892,0.538769,5.040861,14.449069,0.737293,0.365608,1.032354,2.736517,3.720855,0.534204,0.291392,1.59148,1.049686,1.39253,0.536441,0.145015,1.515984,2.567715,1.796717,0.412347,0.22902,9.290252,4.266721,2.94172,0.975695,0.263735,1.004258,3.142678,5.253151,0.435551,0.20306,2.129382,3.529016,6.76699,0.357863,0.194311
1720079692,49,0,4431.153809,4453.846191,4356.666504,4400.897461,4443.846191,4333.974121,4422.563965,4443.589844,4427.820313,4394.487305,4228.589844,4420.384766,4281.282227,4247.05127,,,,,,,,,,,,,,,,,,,,,,,,,,,,,,,,,,,,,,,,,,,,,,,,,,,,,,,,,,,,,,,,,,,,,,
1720079692,50,0,4428.333496,4442.94873,4359.358887,4395.256348,4445.256348,4340.384766,4431.282227,4448.974121,4426.666504,4398.333496,4235.897461,4426.538574,4287.436035,4247.563965,,,,,,,,,,,,,,,,,,,,,,,,,,,,,,,,,,,,,,,,,,,,,,,,,,,,,,,,,,,,,,,,,,,,,,
1720079692,51,0,4429.358887,4449.230957,4367.436035,4404.230957,4437.820313,4349.615234,4447.436035,4456.666504,4430.512695,4398.589844,4242.436035,4437.436035,4292.563965,4249.487305,,,,,,,,,,,,,,,,,,,,,,,,,,,,,,,,,,,,,,,,,,,,,,,,,,,,,,,,,,,,,,,,,,,,,,
1720079692,52,0,4434.487305,4466.666504,4374.230957,4417.94873,4441.282227,4368.461426,4457.436035,4463.589844,4441.538574,4397.307617,4244.615234,4445.769043,4295.512695,4251.153809,,,,,,,,,,,,,,,,,,,,,,,,,,,,,,,,,,,,,,,,,,,,,,,,,,,,,,,,,,,,,,,,,,,,,,
1720079692,53,0,4433.077148,4463.974121,4368.461426,4413.333496,4460.128418,4390.897461,4462.307617,4462.94873,4445.897461,4393.077148,4238.589844,4448.333496,4295.256348,4249.487305,,,,,,,,,,,,,,,,,,,,,,,,,,,,,,,,,,,,,,,,,,,,,,,,,,,,,,,,,,,,,,,,,,,,,,
1720079692,54,0,4417.820313,4441.282227,4355.256348,4399.487305,4466.794922,4396.538574,4468.461426,4459.743652,4441.410156,4388.333496,4226.025879,4447.05127,4283.589844,4237.692383,,,,,,,,,,,,,,,,,,,,,,,,,,,,,,,,,,,,,,,,,,,,,,,,,,,,,,,,,,,,,,,,,,,,,,
1720079692,55,0,4401.666504,4431.922852,4346.025879,4394.102539,4453.461426,4388.974121,4469.358887,4459.358887,4436.666504,4381.282227,4213.205078,4436.922852,4265.384766,4216.410156,,,,,,,,,,,,,,,,,,,,,,,,,,,,,,,,,,,,,,,,,,,,,,,,,,,,,,,,,,,,,,,,,,,,,,
1720079692,56,0,4400.256348,4439.871582,4347.307617,4396.538574,4449.615234,4375,4457.307617,4467.179688,4436.025879,4374.358887,4211.538574,4426.025879,4263.333496,4210.256348,,,,,,,,,,,,,,,,,,,,,,,,,,,,,,,,,,,,,,,,,,,,,,,,,,,,,,,,,,,,,,,,,,,,,,
1720079692,57,0,4408.205078,4443.333496,4360,4406.153809,4447.563965,4357.563965,4446.282227,4475.769043,4441.794922,4380.256348,4225,4432.94873,4279.615234,4225.769043,,,,,,,,,,,,,,,,,,,,,,,,,,,,,,,,,,,,,,,,,,,,,,,,,,,,,,,,,,,,,,,,,,,,,,
1720079692,58,0,4418.461426,4447.820313,4376.153809,4422.307617,4428.717773,4344.743652,4443.205078,4467.820313,4444.871582,4394.358887,4241.025879,4447.179688,4291.922852,4239.487305,,,,,,,,,,,,,,,,,,,,,,,,,,,,,,,,,,,,,,,,,,,,,,,,,,,,,,,,,,,,,,,,,,,,,,
1720079692,59,0,4427.179688,4461.538574,4383.333496,4430.512695,4427.692383,4337.94873,4432.820313,4449.487305,4435.128418,4397.179688,4244.102539,4443.974121,4294.358887,4244.230957,,,,,,,,,,,,,,,,,,,,,,,,,,,,,,,,,,,,,,,,,,,,,,,,,,,,,,,,,,,,,,,,,,,,,,
1720079692,60,0,4430.897461,4465.897461,4381.922852,4431.538574,4456.153809,4336.922852,4421.025879,4436.282227,4420,4390.897461,4239.743652,4434.358887,4296.538574,4250.128418,,,,,,,,,,,,,,,,,,,,,,,,,,,,,,,,,,,,,,,,,,,,,,,,,,,,,,,,,,,,,,,,,,,,,,
1720079692,61,0,4432.05127,4464.230957,4375.256348,4436.666504,4468.846191,4340.128418,4422.692383,4427.05127,4410,4385,4229.102539,4429.871582,4294.230957,4248.717773,,,,,,,,,,,,,,,,,,,,,,,,,,,,,,,,,,,,,,,,,,,,,,,,,,,,,,,,,,,,,,,,,,,,,,
1720079692,62,0,4426.282227,4462.436035,4367.692383,4436.922852,4460,4346.794922,4430.769043,4421.666504,4406.538574,4382.94873,4218.717773,4421.538574,4284.102539,4237.179688,,,,,,,,,,,,,,,,,,,,,,,,,,,,,,,,,,,,,,,,,,,,,,,,,,,,,,,,,,,,,,,,,,,,,,
1720079692,63,0,4410.256348,4448.077148,4358.846191,4428.077148,4454.230957,4354.743652,4438.974121,4429.615234,4412.563965,4385.128418,4215.769043,4412.563965,4276.025879,4225.128418,,,,,,,,,,,,,,,,,,,,,,,,,,,,,,,,,,,,,,,,,,,,,,,,,,,,,,,,,,,,,,,,,,,,,,
1720079692,64,0,4397.179688,4438.077148,4344.743652,4424.871582,4447.179688,4363.333496,4451.794922,4449.102539,4430.897461,4386.025879,4214.871582,4410.641113,4275.384766,4218.333496,8.231656,10.428024,15.378372,0.347204,0.278965,1.433825,6.207584,9.905551,0.393876,0.368124,3.556745,7.799272,12.469527,0.453712,0.197728,1.276155,3.88833,7.213062,0.499526,0.373015,0.559142,0.50706,1.85105,0.436228,0.76548,1.057874,8.689692,8.899638,0.354062,0.152517,0.588054,11.789317,23.282858,1.214583,0.234584,0.560809,5.406599,14.04059,0.721811,0.326957,1.094637,2.882279,3.926697,0.468802,0.268108,1.564562,1.470747,1.614144,0.527889,0.154207,1.290383,3.476927,2.389405,0.433682,0.225295,6.23499,4.748903,3.745511,0.801838,0.232764,0.864289,4.070491,5.866749,0.456064,0.195872,1.470259,4.694634,7.557478,0.397394,0.188677
1720079692,65,0,4397.179688,4441.666504,4333.846191,4427.820313,4443.974121,4373.974121,4463.461426,4462.94873,4455.128418,4389.743652,4216.666504,4410.384766,4277.820313,4213.974121,,,,,,,,,,,,,,,,,,,,,,,,,,,,,,,,,,,,,,,,,,,,,,,,,,,,,,,,,,,,,,,,,,,,,,
1720079692,66,0,4401.794922,4443.077148,4333.461426,4431.025879,4442.94873,4378.333496,4466.410156,4462.820313,4461.538574,4392.436035,4226.282227,4414.358887,4277.05127,4215.641113,,,,,,,,,,,,,,,,,,,,,,,,,,,,,,,,,,,,,,,,,,,,,,,,,,,,,,,,,,,,,,,,,,,,,,
1720079692,67,0,4408.717773,4448.077148,4344.230957,4440,4433.461426,4371.794922,4463.717773,4465.512695,4451.794922,4390,4235.769043,4426.025879,4278.717773,4226.153809,,,,,,,,,,,,,,,,,,,,,,,,,,,,,,,,,,,,,,,,,,,,,,,,,,,,,,,,,,,,,,,,,,,,,,
1720079692,68,0,4417.692383,4458.717773,4356.282227,4451.153809,4445.384766,4361.922852,4456.282227,4477.307617,4448.205078,4390.128418,4232.179688,4432.436035,4286.922852,4234.358887,,,,,,,,,,,,,,,,,,,,,,,,,,,,,,,,,,,,,,,,,,,,,,,,,,,,,,,,,,,,,,,,,,,,,,
1720079692,69,0,4422.179688,4462.820313,4360.641113,4457.05127,4466.282227,4354.615234,4443.077148,4472.94873,4443.846191,4390.512695,4233.846191,4433.974121,4296.538574,4238.974121,,,,,,,,,,,,,,,,,,,,,,,,,,,,,,,,,,,,,,,,,,,,,,,,,,,,,,,,,,,,,,,,,,,,,,
1720079692,70,0,4427.692383,4463.846191,4363.846191,4460.641113,4452.94873,4341.922852,4430.128418,4451.666504,4430.384766,4390.512695,4243.333496,4436.922852,4298.589844,4245.641113,,,,,,,,,,,,,,,,,,,,,,,,,,,,,,,,,,,,,,,,,,,,,,,,,,,,,,,,,,,,,,,,,,,,,,
1720079692,71,0,4430.384766,4467.307617,4367.307617,4458.589844,4440.769043,4327.692383,4426.153809,4441.410156,4422.94873,4392.94873,4238.974121,4430.512695,4298.846191,4246.922852,,,,,,,,,,,,,,,,,,,,,,,,,,,,,,,,,,,,,,,,,,,,,,,,,,,,,,,,,,,,,,,,,,,,,,
1720079692,72,0,4420.897461,4463.333496,4362.563965,4448.333496,4459.615234,4329.358887,4426.025879,4442.436035,4424.871582,4391.282227,4233.717773,4418.461426,4299.102539,4238.589844,,,,,,,,,,,,,,,,,,,,,,,,,,,,,,,,,,,,,,,,,,,,,,,,,,,,,,,,,,,,,,,,,,,,,,
1720079692,73,0,4406.922852,4456.922852,4351.153809,4440.256348,4465.769043,4343.974121,4431.153809,4443.461426,4425,4389.230957,4231.153809,4414.358887,4288.974121,4228.717773,,,,,,,,,,,,,,,,,,,,,,,,,,,,,,,,,,,,,,,,,,,,,,,,,,,,,,,,,,,,,,,,,,,,,,
1720079692,74,0,4399.487305,4459.358887,4343.846191,4444.615234,4440.128418,4354.102539,4440.769043,4441.153809,4423.461426,4388.333496,4220.769043,4407.820313,4276.666504,4220.897461,,,,,,,,,,,,,,,,,,,,,,,,,,,,,,,,,,,,,,,,,,,,,,,,,,,,,,,,,,,,,,,,,,,,,,
1720079692,75,0,4390.897461,4457.05127,4338.589844,4443.077148,4432.179688,4358.589844,4447.436035,4441.282227,4426.794922,4380.384766,4213.974121,4397.179688,4275.897461,4213.717773,,,,,,,,,,,,,,,,,,,,,,,,,,,,,,,,,,,,,,,,,,,,,,,,,,,,,,,,,,,,,,,,,,,,,,
1720079692,76,0,4379.230957,4444.743652,4335.256348,4427.436035,4451.153809,4359.615234,4457.05127,4451.282227,4436.153809,4375.512695,4218.077148,4399.358887,4276.282227,4212.05127,,,,,,,,,,,,,,,,,,,,,,,,,,,,,,,,,,,,,,,,,,,,,,,,,,,,,,,,,,,,,,,,,,,,,,
1720079692,77,0,4378.333496,4442.563965,4341.410156,4425.128418,4455.384766,4353.333496,4471.153809,4463.461426,4447.307617,4381.794922,4221.794922,4408.846191,4269.487305,4208.846191,,,,,,,,,,,,,,,,,,,,,,,,,,,,,,,,,,,,,,,,,,,,,,,,,,,,,,,,,,,,,,,,,,,,,,
1720079692,78,0,4377.563965,4444.487305,4342.94873,4430.128418,4440.256348,4345.256348,4467.94873,4462.94873,4447.563965,4382.692383,4211.794922,4405.256348,4264.102539,4203.333496,,,,,,,,,,,,,,,,,,,,,,,,,,,,,,,,,,,,,,,,,,,,,,,,,,,,,,,,,,,,,,,,,,,,,,
1720079692,79,0,4365.897461,4432.307617,4330.897461,4417.692383,4434.871582,4340.256348,4447.179688,4457.307617,4439.230957,4377.94873,4198.205078,4393.589844,4259.743652,4198.461426,,,,,,,,,,,,,,,,,,,,,,,,,,,,,,,,,,,,,,,,,,,,,,,,,,,,,,,,,,,,,,,,,,,,,,
1720079692,80,0,4364.487305,4424.871582,4331.794922,4407.820313,4437.563965,4336.282227,4434.615234,4459.615234,4439.358887,4382.820313,4207.820313,4400.641113,4260.256348,4199.743652,6.737854,11.417799,15.303151,0.401714,0.269525,1.149818,7.476973,10.247844,0.406248,0.359162,3.801264,9.479943,13.160071,0.476364,0.19457,1.107915,4.756983,7.515848,0.547542,0.387156,0.525776,0.569236,1.765724,0.447758,0.790895,1.146014,10.350471,9.006224,0.397082,0.152726,0.574679,13.010795,21.479252,1.161127,0.240381,0.603469,5.242717,12.164465,0.707413,0.296192,1.173763,2.72765,3.70627,0.423624,0.252285,1.570724,1.845292,1.759878,0.497423,0.173544,1.36741,4.364121,3.187465,0.480659,0.226278,4.065615,5.394451,4.658349,0.658395,0.224208,0.944629,4.996829,6.248557,0.462491,0.189486,1.34657,5.822724,7.926966,0.429182,0.18495
1720079692,81,0,4383.333496,4444.230957,4350.641113,4422.179688,4429.615234,4334.102539,4430,4456.794922,4446.666504,4389.487305,4233.974121,4421.282227,4273.461426,4208.461426,,,,,,,,,,,,,,,,,,,,,,,,,,,,,,,,,,,,,,,,,,,,,,,,,,,,,,,,,,,,,,,,,,,,,,
1720079692,82,0,4397.692383,4468.974121,4359.615234,4440.384766,4433.717773,4333.974121,4427.436035,4445.641113,4447.307617,4392.436035,4236.666504,4425.256348,4282.563965,4220.128418,,,,,,,,,,,,,,,,,,,,,,,,,,,,,,,,,,,,,,,,,,,,,,,,,,,,,,,,,,,,,,,,,,,,,,
1720079692,83,0,4398.589844,4477.94873,4359.615234,4442.436035,4455.769043,4342.94873,4434.102539,4440.641113,4438.717773,4392.563965,4225.641113,4416.538574,4280.641113,4225.256348,,,,,,,,,,,,,,,,,,,,,,,,,,,,,,,,,,,,,,,,,,,,,,,,,,,,,,,,,,,,,,,,,,,,,,
1720079692,84,0,4398.077148,4472.05127,4360.256348,4434.871582,4463.974121,4355.384766,4441.025879,4443.846191,4431.410156,4382.179688,4234.102539,4417.563965,4283.333496,4224.102539,,,,,,,,,,,,,,,,,,,,,,,,,,,,,,,,,,,,,,,,,,,,,,,,,,,,,,,,,,,,,,,,,,,,,,
1720079692,85,0,4391.025879,4463.205078,4350,4428.717773,4460,4358.589844,4440.512695,4444.615234,4427.436035,4373.461426,4233.589844,4417.94873,4280.512695,4220,,,,,,,,,,,,,,,,,,,,,,,,,,,,,,,,,,,,,,,,,,,,,,,,,,,,,,,,,,,,,,,,,,,,,,
1720079692,86,0,4382.820313,4464.615234,4337.05127,4429.230957,4457.05127,4362.563965,4444.358887,4439.871582,4425.128418,4374.102539,4216.538574,4407.820313,4264.743652,4212.692383,,,,,,,,,,,,,,,,,,,,,,,,,,,,,,,,,,,,,,,,,,,,,,,,,,,,,,,,,,,,,,,,,,,,,,
1720079692,87,0,4379.358887,4454.358887,4330.384766,4420.897461,4451.922852,4377.820313,4456.666504,4443.589844,4433.205078,4376.153809,4216.282227,4405.769043,4264.615234,4209.230957,,,,,,,,,,,,,,,,,,,,,,,,,,,,,,,,,,,,,,,,,,,,,,,,,,,,,,,,,,,,,,,,,,,,,,
1720079692,88,0,4368.077148,4431.922852,4313.077148,4402.436035,4448.333496,4386.666504,4464.615234,4456.538574,4438.589844,4373.589844,4217.820313,4402.94873,4263.846191,4201.794922,,,,,,,,,,,,,,,,,,,,,,,,,,,,,,,,,,,,,,,,,,,,,,,,,,,,,,,,,,,,,,,,,,,,,,
1720079692,89,0,4363.205078,4440.256348,4302.307617,4405,4444.487305,4378.333496,4458.846191,4463.589844,4435.897461,4371.922852,4208.461426,4396.153809,4248.077148,4194.102539,,,,,,,,,,,,,,,,,,,,,,,,,,,,,,,,,,,,,,,,,,,,,,,,,,,,,,,,,,,,,,,,,,,,,,
1720079692,90,0,4380.641113,4462.179688,4318.974121,4420.256348,4428.333496,4372.820313,4447.436035,4456.025879,4439.102539,4377.307617,4215.384766,4408.846191,4254.358887,4205.512695,,,,,,,,,,,,,,,,,,,,,,,,,,,,,,,,,,,,,,,,,,,,,,,,,,,,,,,,,,,,,,,,,,,,,,
1720079692,91,0,4396.922852,4460.769043,4333.589844,4420.256348,4429.743652,4375.384766,4439.230957,4447.05127,4443.717773,4386.282227,4234.358887,4431.794922,4278.717773,4224.743652,,,,,,,,,,,,,,,,,,,,,,,,,,,,,,,,,,,,,,,,,,,,,,,,,,,,,,,,,,,,,,,,,,,,,,
1720079692,92,0,4396.794922,4456.282227,4330.769043,4414.230957,4458.205078,4370.256348,4431.025879,4443.974121,4434.871582,4388.846191,4236.538574,4433.205078,4281.922852,4229.358887,,,,,,,,,,,,,,,,,,,,,,,,,,,,,,,,,,,,,,,,,,,,,,,,,,,,,,,,,,,,,,,,,,,,,,
1720079692,93,0,4398.589844,4463.333496,4329.230957,4415.384766,4469.487305,4363.974121,4430.512695,4442.179688,4426.794922,4382.94873,4233.333496,4422.179688,4278.205078,4225.256348,,,,,,,,,,,,,,,,,,,,,,,,,,,,,,,,,,,,,,,,,,,,,,,,,,,,,,,,,,,,,,,,,,,,,,
1720079692,94,0,4397.436035,4462.436035,4331.538574,4409.230957,4456.025879,4368.461426,4435.128418,4443.205078,4429.615234,4376.282227,4230.512695,4417.179688,4280.769043,4221.538574,,,,,,,,,,,,,,,,,,,,,,,,,,,,,,,,,,,,,,,,,,,,,,,,,,,,,,,,,,,,,,,,,,,,,,
1720079692,95,0,4385.641113,4455.769043,4326.153809,4395.512695,4446.666504,4371.794922,4431.282227,4444.871582,4427.94873,4371.153809,4218.461426,4407.820313,4271.025879,4208.333496,,,,,,,,,,,,,,,,,,,,,,,,,,,,,,,,,,,,,,,,,,,,,,,,,,,,,,,,,,,,,,,,,,,,,,
1720079692,96,0,4378.589844,4449.615234,4318.333496,4387.436035,4448.717773,4372.436035,4431.794922,4446.282227,4424.871582,4369.102539,4213.077148,4398.846191,4263.077148,4199.230957,5.023395,11.675999,14.170568,0.447421,0.258944,1.083097,8.167216,9.830227,0.412483,0.348375,4.293012,10.439175,13.067308,0.519412,0.194319,1.064485,5.265988,7.311048,0.580521,0.404657,0.530626,0.640849,1.688229,0.499764,0.814012,1.325576,10.978438,8.861009,0.428343,0.157852,0.561692,13.061584,18.318258,1.074713,0.250441,0.659821,4.738759,9.503962,0.701885,0.280198,1.208931,2.387154,3.193238,0.422531,0.244397,1.569092,2.057781,1.823551,0.455393,0.196485,1.607006,4.950156,4.094798,0.552376,0.230531,3.102796,5.955588,5.545449,0.574521,0.238518,1.170656,5.664833,6.416148,0.458617,0.182902,1.524769,6.596553,7.932487,0.450531,0.18761
1720079692,97,0,4380.256348,4442.307617,4318.717773,4381.153809,4442.436035,4378.077148,4444.230957,4446.538574,4426.922852,4367.436035,4217.436035,4399.743652,4265.641113,4201.666504,,,,,,,,,,,,,,,,,,,,,,,,,,,,,,,,,,,,,,,,,,,,,,,,,,,,,,,,,,,,,,,,,,,,,,
1720079692,98,0,4380.512695,4444.102539,4322.563965,4381.153809,4425.384766,4379.102539,4446.666504,4444.487305,4428.717773,4371.282227,4212.94873,4399.487305,4266.666504,4202.94873,,,,,,,,,,,,,,,,,,,,,,,,,,,,,,,,,,,,,,,,,,,,,,,,,,,,,,,,,,,,,,,,,,,,,,
1720079692,99,0,4374.102539,4445.256348,4311.666504,4378.205078,4427.436035,4375.384766,4443.205078,4442.94873,4427.179688,4376.282227,4201.282227,4390.128418,4260.769043,4194.487305,,,,,,,,,,,,,,,,,,,,,,,,,,,,,,,,,,,,,,,,,,,,,,,,,,,,,,,,,,,,,,,,,,,,,,
1720079692,100,0,4366.538574,4437.563965,4295.256348,4358.974121,4448.333496,4374.487305,4455.641113,4443.717773,4425.384766,4367.563965,4195.641113,4381.794922,4253.589844,4186.794922,,,,,,,,,,,,,,,,,,,,,,,,,,,,,,,,,,,,,,,,,,,,,,,,,,,,,,,,,,,,,,,,,,,,,,
1720079692,101,0,4367.436035,4433.589844,4300.256348,4345,4450.897461,4365.641113,4463.077148,4446.794922,4425.512695,4357.05127,4198.974121,4385.384766,4252.307617,4190.897461,,,,,,,,,,,,,,,,,,,,,,,,,,,,,,,,,,,,,,,,,,,,,,,,,,,,,,,,,,,,,,,,,,,,,,
1720079692,102,0,4381.153809,4444.358887,4323.589844,4354.615234,4441.666504,4348.077148,4447.692383,4447.563965,4426.153809,4363.846191,4206.794922,4398.461426,4257.94873,4200.897461,,,,,,,,,,,,,,,,,,,,,,,,,,,,,,,,,,,,,,,,,,,,,,,,,,,,,,,,,,,,,,,,,,,,,,
1720079692,103,0,4402.179688,4463.077148,4343.717773,4370.897461,4442.05127,4333.461426,4431.153809,4446.538574,4427.692383,4379.615234,4219.871582,4412.692383,4272.307617,4212.692383,,,,,,,,,,,,,,,,,,,,,,,,,,,,,,,,,,,,,,,,,,,,,,,,,,,,,,,,,,,,,,,,,,,,,,
1720079692,104,0,4412.436035,4468.717773,4350.897461,4370.769043,4444.743652,4312.307617,4423.333496,4444.743652,4424.487305,4382.94873,4227.05127,4417.307617,4277.692383,4220.897461,,,,,,,,,,,,,,,,,,,,,,,,,,,,,,,,,,,,,,,,,,,,,,,,,,,,,,,,,,,,,,,,,,,,,,
1720079692,105,0,4405.897461,4462.94873,4352.436035,4366.282227,4444.743652,4290.128418,4421.538574,4445.384766,4413.846191,4378.461426,4222.05127,4420.128418,4272.307617,4223.846191,,,,,,,,,,,,,,,,,,,,,,,,,,,,,,,,,,,,,,,,,,,,,,,,,,,,,,,,,,,,,,,,,,,,,,
1720079692,106,0,4387.436035,4461.153809,4353.846191,4367.820313,4437.692383,4284.743652,4424.230957,4442.563965,4402.820313,4372.179688,4219.487305,4421.666504,4266.410156,4219.615234,,,,,,,,,,,,,,,,,,,,,,,,,,,,,,,,,,,,,,,,,,,,,,,,,,,,,,,,,,,,,,,,,,,,,,
1720079692,107,0,4368.461426,4458.077148,4352.94873,4363.077148,4431.794922,4290.128418,4431.410156,4437.179688,4397.436035,4366.410156,4217.94873,4416.794922,4259.487305,4211.410156,,,,,,,,,,,,,,,,,,,,,,,,,,,,,,,,,,,,,,,,,,,,,,,,,,,,,,,,,,,,,,,,,,,,,,
1720079692,108,0,4349.102539,4444.615234,4341.410156,4345,4444.102539,4300,4431.538574,4436.666504,4393.974121,4365.256348,4202.436035,4403.717773,4244.230957,4198.461426,,,,,,,,,,,,,,,,,,,,,,,,,,,,,,,,,,,,,,,,,,,,,,,,,,,,,,,,,,,,,,,,,,,,,,
1720079692,109,0,4329.615234,4431.666504,4326.922852,4330.769043,4453.333496,4310.256348,4427.307617,4441.282227,4397.05127,4365,4189.615234,4389.743652,4229.743652,4183.846191,,,,,,,,,,,,,,,,,,,,,,,,,,,,,,,,,,,,,,,,,,,,,,,,,,,,,,,,,,,,,,,,,,,,,,
1720079692,110,0,4320.897461,4431.666504,4327.820313,4333.589844,4440.769043,4311.153809,4432.820313,4450.769043,4406.922852,4365.769043,4196.538574,4390,4229.358887,4180.769043,,,,,,,,,,,,,,,,,,,,,,,,,,,,,,,,,,,,,,,,,,,,,,,,,,,,,,,,,,,,,,,,,,,,,,
1720079692,111,0,4325.384766,4440.256348,4340.128418,4341.538574,4433.974121,4309.102539,4445.256348,4458.333496,4418.589844,4373.333496,4207.820313,4404.487305,4237.692383,4189.743652,,,,,,,,,,,,,,,,,,,,,,,,,,,,,,,,,,,,,,,,,,,,,,,,,,,,,,,,,,,,,,,,,,,,,,
1720079692,112,0,4332.179688,4444.743652,4349.487305,4343.333496,4441.922852,4309.743652,4452.820313,4462.307617,4430,4384.230957,4211.922852,4415,4246.794922,4200.512695,3.664155,11.192828,12.473353,0.487726,0.247342,1.163194,8.120845,8.89009,0.424397,0.339613,4.756321,10.480553,12.381164,0.582332,0.198035,1.045463,5.285944,6.766311,0.599145,0.421496,0.571955,0.721299,1.593551,0.629629,0.838881,1.525439,10.560782,8.824133,0.445715,0.164906,0.549484,12.168713,14.946434,0.972994,0.259147,0.708908,4.233283,6.898804,0.705635,0.278186,1.155937,2.097583,2.620936,0.471765,0.240634,1.518265,2.052896,1.823301,0.414434,0.214362,1.77484,5.094639,4.940243,0.64101,0.237089,2.921758,6.205868,6.245395,0.548239,0.264478,1.405323,5.920969,6.406382,0.452025,0.175274,1.610996,6.858895,7.709147,0.465112,0.197078
1720079692,113,0,4334.230957,4443.461426,4352.563965,4341.282227,4450.384766,4298.717773,4443.974121,4459.230957,4428.717773,4380.128418,4213.461426,4412.307617,4245.897461,4201.153809,,,,,,,,,,,,,,,,,,,,,,,,,,,,,,,,,,,,,,,,,,,,,,,,,,,,,,,,,,,,,,,,,,,,,,
1720079692,114,0,4333.846191,4450.256348,4360.897461,4347.692383,4441.282227,4280.641113,4430.256348,4446.153809,4416.794922,4366.025879,4213.077148,4410.256348,4241.538574,4198.461426,,,,,,,,,,,,,,,,,,,,,,,,,,,,,,,,,,,,,,,,,,,,,,,,,,,,,,,,,,,,,,,,,,,,,,
1720079692,115,0,4330.897461,4450.512695,4367.820313,4355.769043,4416.025879,4272.563965,4423.461426,4440.769043,4411.410156,4367.436035,4215.641113,4413.717773,4245.641113,4200.641113,,,,,,,,,,,,,,,,,,,,,,,,,,,,,,,,,,,,,,,,,,,,,,,,,,,,,,,,,,,,,,,,,,,,,,
1720079692,116,0,4329.871582,4440.128418,4363.717773,4350.641113,4421.922852,4273.333496,4425.384766,4452.94873,4412.563965,4375.769043,4216.922852,4413.974121,4248.461426,4201.025879,,,,,,,,,,,,,,,,,,,,,,,,,,,,,,,,,,,,,,,,,,,,,,,,,,,,,,,,,,,,,,,,,,,,,,
1720079692,117,0,4342.820313,4449.487305,4366.666504,4352.94873,4457.436035,4280.897461,4437.820313,4459.871582,4412.307617,4373.461426,4218.333496,4419.871582,4249.230957,4203.846191,,,,,,,,,,,,,,,,,,,,,,,,,,,,,,,,,,,,,,,,,,,,,,,,,,,,,,,,,,,,,,,,,,,,,,
1720079692,118,0,4348.589844,4461.922852,4367.436035,4361.153809,4459.358887,4280.256348,4439.743652,4450.641113,4411.666504,4374.615234,4220,4426.025879,4253.461426,4207.179688,,,,,,,,,,,,,,,,,,,,,,,,,,,,,,,,,,,,,,,,,,,,,,,,,,,,,,,,,,,,,,,,,,,,,,
1720079692,119,0,4331.025879,4448.846191,4349.230957,4348.461426,4429.871582,4267.563965,4422.307617,4444.743652,4411.666504,4376.153809,4210.384766,4414.358887,4249.358887,4197.436035,,,,,,,,,,,,,,,,,,,,,,,,,,,,,,,,,,,,,,,,,,,,,,,,,,,,,,,,,,,,,,,,,,,,,,
1720079692,120,0,4317.94873,4433.974121,4334.615234,4334.487305,4420.641113,4271.410156,4413.589844,4443.461426,4410.128418,4363.461426,4199.358887,4395.512695,4236.538574,4184.487305,,,,,,,,,,,,,,,,,,,,,,,,,,,,,,,,,,,,,,,,,,,,,,,,,,,,,,,,,,,,,,,,,,,,,,
1720079692,121,0,4318.333496,4435,4338.333496,4338.846191,4427.692383,4290.128418,4432.94873,4444.487305,4412.563965,4352.692383,4200.769043,4395,4233.333496,4180.512695,,,,,,,,,,,,,,,,,,,,,,,,,,,,,,,,,,,,,,,,,,,,,,,,,,,,,,,,,,,,,,,,,,,,,,
1720079692,122,0,4314.487305,4433.077148,4333.974121,4335.384766,4429.615234,4291.025879,4445.897461,4447.05127,4416.025879,4356.282227,4199.743652,4396.794922,4235.769043,4176.922852,,,,,,,,,,,,,,,,,,,,,,,,,,,,,,,,,,,,,,,,,,,,,,,,,,,,,,,,,,,,,,,,,,,,,,
1720079692,123,0,4306.794922,4426.666504,4321.922852,4322.05127,4420.256348,4273.077148,4437.307617,4445.512695,4415.256348,4359.487305,4191.410156,4385.256348,4231.922852,4169.102539,,,,,,,,,,,,,,,,,,,,,,,,,,,,,,,,,,,,,,,,,,,,,,,,,,,,,,,,,,,,,,,,,,,,,,
1720079692,124,0,4308.589844,4429.230957,4326.282227,4322.692383,4410.256348,4255.641113,4430.641113,4447.692383,4417.94873,4358.846191,4193.846191,4380.512695,4234.230957,4170.769043,,,,,,,,,,,,,,,,,,,,,,,,,,,,,,,,,,,,,,,,,,,,,,,,,,,,,,,,,,,,,,,,,,,,,,
1720079692,125,0,4318.717773,4438.333496,4337.692383,4325.897461,4427.307617,4248.461426,4424.487305,4452.820313,4428.077148,4364.743652,4203.077148,4390.128418,4244.871582,4182.307617,,,,,,,,,,,,,,,,,,,,,,,,,,,,,,,,,,,,,,,,,,,,,,,,,,,,,,,,,,,,,,,,,,,,,,
1720079692,126,0,4321.666504,4443.974121,4340.256348,4317.692383,4445.256348,4249.102539,4411.666504,4446.025879,4429.102539,4370.512695,4204.615234,4392.436035,4250.897461,4183.846191,,,,,,,,,,,,,,,,,,,,,,,,,,,,,,,,,,,,,,,,,,,,,,,,,,,,,,,,,,,,,,,,,,,,,,
1720079692,127,0,4321.410156,4440.769043,4343.205078,4315.641113,4432.436035,4248.461426,4408.077148,4437.692383,4419.358887,4373.333496,4205.641113,4393.461426,4256.282227,4185.384766,,,,,,,,,,,,,,,,,,,,,,,,,,,,,,,,,,,,,,,,,,,,,,,,,,,,,,,,,,,,,,,,,,,,,,
1720079692,0,0,4329.615234,4444.358887,4354.102539,4321.794922,4424.487305,4246.025879,4419.743652,4444.487305,4419.615234,4376.025879,4217.436035,4408.205078,4266.666504,4200.384766,2.730684,10.265767,10.771075,0.534361,0.233278,1.229739,7.45786,7.750009,0.456856,0.33544,5.025953,9.783856,11.351466,0.664118,0.204394,1.096417,4.889131,6.079898,0.614556,0.430803,0.624305,0.793922,1.506216,0.856567,0.865807,1.703458,9.522918,9.038065,0.451567,0.169211,0.533921,10.852354,12.212785,0.872207,0.260341,0.743972,4.00616,4.95908,0.714777,0.282041,1.024235,2.080524,2.184381,0.557167,0.235656,1.48298,1.860237,1.776408,0.386332,0.220122,1.932043,4.856417,5.528539,0.734645,0.245948,3.25978,6.064251,6.618866,0.558771,0.287493,1.684981,5.800119,6.25563,0.453042,0.167112,1.754642,6.69372,7.405855,0.483655,0.20905
1720079692,1,0,4335.897461,4450.384766,4358.717773,4320.512695,4432.692383,4248.077148,4429.358887,4450.897461,4428.974121,4372.05127,4223.589844,4414.230957,4266.025879,4204.615234,,,,,,,,,,,,,,,,,,,,,,,,,,,,,,,,,,,,,,,,,,,,,,,,,,,,,,,,,,,,,,,,,,,,,,
1720079692,2,0,4328.205078,4440.641113,4348.589844,4309.743652,4428.974121,4248.974121,4428.205078,4446.153809,4428.205078,4367.307617,4207.05127,4399.743652,4245.256348,4188.333496,,,,,,,,,,,,,,,,,,,,,,,,,,,,,,,,,,,,,,,,,,,,,,,,,,,,,,,,,,,,,,,,,,,,,,
1720079692,3,0,4315.641113,4425.128418,4339.615234,4297.820313,4426.025879,4247.436035,4425.384766,4439.615234,4418.717773,4362.820313,4194.487305,4389.871582,4231.794922,4179.358887,,,,,,,,,,,,,,,,,,,,,,,,,,,,,,,,,,,,,,,,,,,,,,,,,,,,,,,,,,,,,,,,,,,,,,
1720079692,4,0,4311.666504,4421.410156,4337.436035,4292.05127,4425.128418,4248.974121,4432.820313,4440,4420,4361.153809,4204.487305,4393.717773,4241.153809,4181.538574,,,,,,,,,,,,,,,,,,,,,,,,,,,,,,,,,,,,,,,,,,,,,,,,,,,,,,,,,,,,,,,,,,,,,,
1720079692,5,0,4316.025879,4432.692383,4331.025879,4297.563965,4413.846191,4246.153809,4444.871582,4450.641113,4431.282227,4365.256348,4206.538574,4396.666504,4248.077148,4180.512695,,,,,,,,,,,,,,,,,,,,,,,,,,,,,,,,,,,,,,,,,,,,,,,,,,,,,,,,,,,,,,,,,,,,,,
1720079692,6,0,4320.897461,4442.05127,4320.641113,4307.307617,4414.615234,4235.512695,4442.179688,4460.512695,4434.358887,4368.205078,4196.538574,4392.436035,4240.641113,4179.102539,,,,,,,,,,,,,,,,,,,,,,,,,,,,,,,,,,,,,,,,,,,,,,,,,,,,,,,,,,,,,,,,,,,,,,
1720079692,7,0,4324.102539,4442.179688,4320,4309.358887,4434.615234,4230.256348,4431.410156,4457.692383,4433.077148,4370.512695,4206.538574,4393.717773,4243.333496,4185.128418,,,,,,,,,,,,,,,,,,,,,,,,,,,,,,,,,,,,,,,,,,,,,,,,,,,,,,,,,,,,,,,,,,,,,,
1720079692,8,0,4330.641113,4444.615234,4325.256348,4312.692383,4447.179688,4232.692383,4424.615234,4452.563965,4436.153809,4373.461426,4219.487305,4402.179688,4251.922852,4192.05127,,,,,,,,,,,,,,,,,,,,,,,,,,,,,,,,,,,,,,,,,,,,,,,,,,,,,,,,,,,,,,,,,,,,,,
1720079692,9,0,4334.358887,4445.128418,4321.153809,4319.615234,4445.512695,4230.897461,4412.179688,4441.025879,4428.589844,4368.974121,4205.256348,4395.384766,4240.128418,4187.436035,,,,,,,,,,,,,,,,,,,,,,,,,,,,,,,,,,,,,,,,,,,,,,,,,,,,,,,,,,,,,,,,,,,,,,
1720079692,10,0,4337.436035,4446.538574,4322.307617,4325.769043,4441.666504,4228.077148,4408.205078,4427.05127,4416.153809,4363.077148,4196.922852,4386.666504,4230.641113,4184.871582,,,,,,,,,,,,,,,,,,,,,,,,,,,,,,,,,,,,,,,,,,,,,,,,,,,,,,,,,,,,,,,,,,,,,,
1720079692,11,0,4346.410156,4453.717773,4337.05127,4330.769043,4441.922852,4229.487305,4424.487305,4433.846191,4421.538574,4363.333496,4209.487305,4398.461426,4239.102539,4195.384766,,,,,,,,,,,,,,,,,,,,,,,,,,,,,,,,,,,,,,,,,,,,,,,,,,,,,,,,,,,,,,,,,,,,,,
1720079692,12,0,4353.589844,4452.820313,4342.94873,4329.230957,4448.333496,4228.974121,4432.692383,4440.769043,4428.846191,4361.794922,4215.641113,4407.820313,4240.897461,4203.461426,,,,,,,,,,,,,,,,,,,,,,,,,,,,,,,,,,,,,,,,,,,,,,,,,,,,,,,,,,,,,,,,,,,,,,
1720079693,13,0,4360.256348,4449.230957,4344.871582,4331.794922,4438.974121,4226.153809,4430.641113,4436.538574,4426.153809,4358.205078,4217.563965,4406.666504,4233.205078,4202.94873,,,,,,,,,,,,,,,,,,,,,,,,,,,,,,,,,,,,,,,,,,,,,,,,,,,,,,,,,,,,,,,,,,,,,,
1720079693,14,0,4364.615234,4459.102539,4353.205078,4343.333496,4417.820313,4222.05127,4433.333496,4437.692383,4428.589844,4360.512695,4223.461426,4410.384766,4232.179688,4203.717773,,,,,,,,,,,,,,,,,,,,,,,,,,,,,,,,,,,,,,,,,,,,,,,,,,,,,,,,,,,,,,,,,,,,,,
1720079693,15,0,4361.666504,4460.256348,4350.256348,4343.333496,4428.077148,4217.05127,4426.538574,4433.846191,4430.256348,4360.128418,4217.179688,4412.05127,4232.05127,4202.94873,,,,,,,,,,,,,,,,,,,,,,,,,,,,,,,,,,,,,,,,,,,,,,,,,,,,,,,,,,,,,,,,,,,,,,
1720079693,16,0,4357.179688,4442.692383,4343.077148,4328.461426,4456.153809,4216.153809,4414.743652,4429.615234,4426.666504,4358.717773,4212.436035,4408.205078,4227.436035,4199.743652,2.446928,9.224085,9.307972,0.596405,0.216427,1.246395,6.495324,6.637611,0.514669,0.336953,5.020545,8.799683,10.102497,0.758023,0.211985,1.239769,4.273364,5.339668,0.640497,0.427688,0.662101,0.849879,1.512457,1.153539,0.892482,1.825609,8.545752,9.326522,0.450309,0.167454,0.509435,9.683912,10.351887,0.784392,0.250978,0.747283,4.1545,3.849462,0.72206,0.280642,0.854883,2.427506,1.944086,0.651096,0.224563,1.400668,1.566692,1.67458,0.379404,0.211291,1.92458,4.41615,5.666302,0.816964,0.256678,3.442281,5.641549,6.499975,0.583158,0.298227,1.783955,5.426883,5.915469,0.467757,0.160557,1.758303,6.297787,7.00959,0.514497,0.21714
1720079693,17,0,4361.922852,4440.384766,4351.666504,4323.974121,4456.282227,4212.563965,4419.487305,4440.512695,4433.589844,4365.769043,4221.153809,4413.717773,4225.384766,4204.230957,,,,,,,,,,,,,,,,,,,,,,,,,,,,,,,,,,,,,,,,,,,,,,,,,,,,,,,,,,,,,,,,,,,,,,
1720079693,18,0,4368.589844,4449.743652,4359.230957,4328.077148,4440,4201.025879,4428.717773,4451.282227,4443.717773,4372.820313,4222.94873,4418.717773,4223.333496,4206.153809,,,,,,,,,,,,,,,,,,,,,,,,,,,,,,,,,,,,,,,,,,,,,,,,,,,,,,,,,,,,,,,,,,,,,,
1720079693,19,0,4369.615234,4447.94873,4358.461426,4326.666504,4442.436035,4194.615234,4425,4447.820313,4442.820313,4372.94873,4220.384766,4413.974121,4218.077148,4199.743652,,,,,,,,,,,,,,,,,,,,,,,,,,,,,,,,,,,,,,,,,,,,,,,,,,,,,,,,,,,,,,,,,,,,,,
1720079693,20,0,4377.05127,4453.077148,4364.743652,4334.871582,4448.205078,4200.897461,4418.846191,4446.538574,4443.589844,4375.897461,4230.128418,4418.205078,4217.94873,4204.615234,,,,,,,,,,,,,,,,,,,,,,,,,,,,,,,,,,,,,,,,,,,,,,,,,,,,,,,,,,,,,,,,,,,,,,
1720079693,21,0,4385.769043,4463.717773,4369.615234,4344.615234,4440.128418,4202.692383,4413.077148,4442.820313,4442.563965,4383.717773,4235,4427.307617,4218.077148,4214.615234,,,,,,,,,,,,,,,,,,,,,,,,,,,,,,,,,,,,,,,,,,,,,,,,,,,,,,,,,,,,,,,,,,,,,,
1720079693,22,0,4381.666504,4455.769043,4363.846191,4336.153809,4445.641113,4201.282227,4412.820313,4431.025879,4430.641113,4380.256348,4228.589844,4422.436035,4210.641113,4207.820313,,,,,,,,,,,,,,,,,,,,,,,,,,,,,,,,,,,,,,,,,,,,,,,,,,,,,,,,,,,,,,,,,,,,,,
1720079693,23,0,4374.871582,4439.615234,4356.153809,4325.128418,4458.846191,4210.256348,4427.179688,4429.615234,4427.820313,4368.461426,4226.282227,4410.897461,4201.282227,4195,,,,,,,,,,,,,,,,,,,,,,,,,,,,,,,,,,,,,,,,,,,,,,,,,,,,,,,,,,,,,,,,,,,,,,
1720079693,24,0,4385.256348,4448.333496,4357.307617,4336.922852,4454.230957,4221.025879,4445.256348,4446.538574,4445.256348,4374.871582,4230.256348,4419.615234,4200,4202.05127,,,,,,,,,,,,,,,,,,,,,,,,,,,,,,,,,,,,,,,,,,,,,,,,,,,,,,,,,,,,,,,,,,,,,,
1720079693,25,0,4395.256348,4459.615234,4362.307617,4345.897461,4443.974121,4216.794922,4448.717773,4458.333496,4454.487305,4381.153809,4232.820313,4432.436035,4201.922852,4212.436035,,,,,,,,,,,,,,,,,,,,,,,,,,,,,,,,,,,,,,,,,,,,,,,,,,,,,,,,,,,,,,,,,,,,,,
1720079693,26,0,4386.282227,4447.05127,4354.743652,4333.205078,4443.333496,4202.820313,4432.05127,4447.179688,4447.563965,4373.974121,4231.922852,4423.974121,4198.846191,4203.974121,,,,,,,,,,,,,,,,,,,,,,,,,,,,,,,,,,,,,,,,,,,,,,,,,,,,,,,,,,,,,,,,,,,,,,
1720079693,27,0,4385,4440.512695,4343.846191,4330,4448.077148,4200.512695,4417.692383,4441.282227,4444.358887,4377.563965,4232.94873,4421.153809,4199.743652,4199.358887,,,,,,,,,,,,,,,,,,,,,,,,,,,,,,,,,,,,,,,,,,,,,,,,,,,,,,,,,,,,,,,,,,,,,,
1720079693,28,0,4390.897461,4446.410156,4342.820313,4339.102539,4444.871582,4201.538574,4420.512695,4447.820313,4445.256348,4382.307617,4233.205078,4425.512695,4197.692383,4203.589844,,,,,,,,,,,,,,,,,,,,,,,,,,,,,,,,,,,,,,,,,,,,,,,,,,,,,,,,,,,,,,,,,,,,,,
1720079693,29,0,4384.358887,4444.358887,4341.025879,4339.358887,4428.974121,4186.666504,4421.794922,4446.538574,4446.153809,4376.153809,4229.871582,4418.077148,4187.179688,4198.333496,,,,,,,,,,,,,,,,,,,,,,,,,,,,,,,,,,,,,,,,,,,,,,,,,,,,,,,,,,,,,,,,,,,,,,
1720079693,30,0,4381.922852,4439.615234,4338.333496,4337.692383,4425.769043,4164.230957,4417.692383,4443.974121,4448.205078,4378.717773,4230.769043,4416.410156,4191.025879,4193.205078,,,,,,,,,,,,,,,,,,,,,,,,,,,,,,,,,,,,,,,,,,,,,,,,,,,,,,,,,,,,,,,,,,,,,,
1720079693,31,0,4388.077148,4441.410156,4338.589844,4341.025879,4450.641113,4154.230957,4422.692383,4441.410156,4442.05127,4380.641113,4232.820313,4419.615234,4194.102539,4193.846191,,,,,,,,,,,,,,,,,,,,,,,,,,,,,,,,,,,,,,,,,,,,,,,,,,,,,,,,,,,,,,,,,,,,,,
1720079693,32,0,4391.794922,4445.512695,4341.794922,4346.922852,4469.487305,4159.615234,4430.769043,4439.230957,4440.769043,4375.769043,4233.461426,4420.769043,4188.846191,4196.666504,2.455418,8.47795,8.036038,0.676224,0.199039,1.224231,5.607678,5.612999,0.590796,0.343908,4.738952,8.022365,8.619345,0.844021,0.220792,1.542687,3.69745,4.541382,0.681529,0.412701,0.663105,0.904112,1.683065,1.440766,0.918269,2.187929,8.176106,9.338691,0.445215,0.16117,0.469684,9.087758,9.087802,0.722978,0.233375,0.715173,4.573243,3.32164,0.721584,0.267144,0.69388,3.055838,1.828006,0.725042,0.205617,1.287848,1.29771,1.508966,0.397146,0.191556,1.852721,4.029479,5.281536,0.871676,0.268548,3.691732,5.233536,5.822765,0.615435,0.296663,1.804373,5.048142,5.350439,0.498593,0.15843,1.725292,5.9702,6.422632,0.559688,0.216367
1720079693,33,0,4393.974121,4447.307617,4345.128418,4348.974121,4459.871582,4169.743652,4429.615234,4443.846191,4451.282227,4382.307617,4236.666504,4429.871582,4198.077148,4199.358887,,,,,,,,,,,,,,,,,,,,,,,,,,,,,,,,,,,,,,,,,,,,,,,,,,,,,,,,,,,,,,,,,,,,,,
1720079693,34,0,4387.94873,4439.358887,4343.333496,4346.282227,4448.333496,4174.102539,4431.410156,4448.205078,4452.563965,4388.589844,4237.94873,4428.974121,4202.820313,4194.615234,,,,,,,,,,,,,,,,,,,,,,,,,,,,,,,,,,,,,,,,,,,,,,,,,,,,,,,,,,,,,,,,,,,,,,
1720079693,35,0,4376.282227,4427.692383,4340.128418,4340.897461,4445.641113,4170.512695,4434.871582,4443.589844,4440.512695,4380.128418,4228.846191,4411.538574,4189.615234,4182.820313,,,,,,,,,,,,,,,,,,,,,,,,,,,,,,,,,,,,,,,,,,,,,,,,,,,,,,,,,,,,,,,,,,,,,,
1720079693,36,0,4379.102539,4427.179688,4346.410156,4340.897461,4434.102539,4173.333496,4429.871582,4444.358887,4440.769043,4375,4223.589844,4412.307617,4193.205078,4182.94873,,,,,,,,,,,,,,,,,,,,,,,,,,,,,,,,,,,,,,,,,,,,,,,,,,,,,,,,,,,,,,,,,,,,,,
1720079693,37,0,4390.384766,4434.615234,4358.333496,4348.333496,4426.025879,4183.333496,4426.538574,4450.256348,4448.589844,4375.512695,4228.846191,4423.461426,4204.230957,4187.307617,,,,,,,,,,,,,,,,,,,,,,,,,,,,,,,,,,,,,,,,,,,,,,,,,,,,,,,,,,,,,,,,,,,,,,
1720079693,38,0,4393.589844,4443.589844,4364.487305,4358.974121,4443.461426,4188.077148,4427.563965,4444.615234,4441.410156,4373.205078,4232.05127,4422.692383,4199.358887,4186.666504,,,,,,,,,,,,,,,,,,,,,,,,,,,,,,,,,,,,,,,,,,,,,,,,,,,,,,,,,,,,,,,,,,,,,,
1720079693,39,0,4396.538574,4448.205078,4368.333496,4365.641113,4455.769043,4187.692383,4427.05127,4442.05127,4436.410156,4375.256348,4232.94873,4426.025879,4208.846191,4189.871582,,,,,,,,,,,,,,,,,,,,,,,,,,,,,,,,,,,,,,,,,,,,,,,,,,,,,,,,,,,,,,,,,,,,,,
1720079693,40,0,4401.410156,4444.615234,4371.025879,4366.153809,4441.025879,4190.641113,4425.769043,4448.974121,4444.102539,4382.436035,4233.589844,4431.025879,4222.179688,4191.282227,,,,,,,,,,,,,,,,,,,,,,,,,,,,,,,,,,,,,,,,,,,,,,,,,,,,,,,,,,,,,,,,,,,,,,
1720079693,41,0,4400.641113,4441.025879,4366.153809,4368.205078,4441.922852,4198.333496,4428.717773,4446.922852,4447.820313,4386.153809,4232.436035,4428.846191,4219.230957,4190,,,,,,,,,,,,,,,,,,,,,,,,,,,,,,,,,,,,,,,,,,,,,,,,,,,,,,,,,,,,,,,,,,,,,,
1720079693,42,0,4397.05127,4443.077148,4357.179688,4370,4466.538574,4200.256348,4433.205078,4443.974121,4447.179688,4384.743652,4235,4429.487305,4223.589844,4190.641113,,,,,,,,,,,,,,,,,,,,,,,,,,,,,,,,,,,,,,,,,,,,,,,,,,,,,,,,,,,,,,,,,,,,,,
1720079693,43,0,4394.615234,4441.538574,4353.333496,4369.102539,4463.846191,4197.436035,4431.922852,4452.179688,4449.487305,4382.692383,4237.820313,4433.077148,4230.769043,4190.641113,,,,,,,,,,,,,,,,,,,,,,,,,,,,,,,,,,,,,,,,,,,,,,,,,,,,,,,,,,,,,,,,,,,,,,
1720079693,44,0,4382.692383,4420.897461,4344.487305,4356.410156,4437.436035,4195.897461,4428.846191,4451.282227,4447.563965,4377.307617,4223.717773,4422.307617,4211.025879,4177.692383,,,,,,,,,,,,,,,,,,,,,,,,,,,,,,,,,,,,,,,,,,,,,,,,,,,,,,,,,,,,,,,,,,,,,,
1720079693,45,0,4370.256348,4406.922852,4332.692383,4341.922852,4427.820313,4195.512695,4431.666504,4440.641113,4440.128418,4371.794922,4208.461426,4408.846191,4197.563965,4163.461426,,,,,,,,,,,,,,,,,,,,,,,,,,,,,,,,,,,,,,,,,,,,,,,,,,,,,,,,,,,,,,,,,,,,,,
1720079693,46,0,4383.077148,4422.307617,4346.153809,4357.563965,4440.641113,4197.563965,4438.846191,4448.717773,4446.282227,4381.282227,4223.589844,4423.461426,4216.922852,4179.230957,,,,,,,,,,,,,,,,,,,,,,,,,,,,,,,,,,,,,,,,,,,,,,,,,,,,,,,,,,,,,,,,,,,,,,
1720079693,47,0,4402.563965,4434.230957,4371.538574,4380.128418,4456.538574,4204.743652,4446.410156,4463.205078,4458.717773,4395.641113,4247.05127,4453.717773,4233.205078,4201.410156,,,,,,,,,,,,,,,,,,,,,,,,,,,,,,,,,,,,,,,,,,,,,,,,,,,,,,,,,,,,,,,,,,,,,,
1720079693,48,0,4406.666504,4434.358887,4378.589844,4382.436035,4445.384766,4202.563965,4444.487305,4462.94873,4462.94873,4402.563965,4249.615234,4462.820313,4234.743652,4201.666504,2.66988,8.316928,6.812666,0.764701,0.184752,1.142811,5.086798,4.673622,0.669872,0.354732,4.260986,7.810456,6.929832,0.896391,0.231688,2.027821,3.363496,3.670594,0.727588,0.391556,0.634102,0.964574,2.001807,1.621869,0.945298,2.681774,8.532324,8.844161,0.434512,0.156415,0.423171,9.096336,7.986097,0.697687,0.216372,0.643514,4.99085,2.974867,0.715705,0.242512,0.580736,3.740774,1.715876,0.763063,0.182111,1.108086,1.140231,1.285595,0.433789,0.168197,1.667415,3.866264,4.468269,0.889279,0.280924,3.815099,5.071871,4.715094,0.65715,0.288806,1.639022,4.842672,4.585744,0.544236,0.162454,1.623844,5.911984,5.575123,0.615706,0.205744
1720079693,49,0,4418.077148,4452.05127,4387.179688,4391.538574,4431.538574,4194.871582,4435.256348,4460.769043,4457.307617,4403.974121,4249.743652,4461.538574,4246.794922,4205.897461,,,,,,,,,,,,,,,,,,,,,,,,,,,,,,,,,,,,,,,,,,,,,,,,,,,,,,,,,,,,,,,,,,,,,,
1720079693,50,0,4434.615234,4468.333496,4396.922852,4404.871582,4449.487305,4195.897461,4426.538574,4456.538574,4447.563965,4391.666504,4250.384766,4460.384766,4255.256348,4219.871582,,,,,,,,,,,,,,,,,,,,,,,,,,,,,,,,,,,,,,,,,,,,,,,,,,,,,,,,,,,,,,,,,,,,,,
1720079693,51,0,4429.358887,4459.230957,4386.282227,4393.205078,4466.794922,4200.641113,4424.230957,4446.025879,4441.282227,4375.769043,4238.077148,4447.05127,4242.307617,4214.615234,,,,,,,,,,,,,,,,,,,,,,,,,,,,,,,,,,,,,,,,,,,,,,,,,,,,,,,,,,,,,,,,,,,,,,
1720079693,52,0,4422.436035,4454.102539,4379.871582,4382.563965,4461.922852,4204.615234,4434.615234,4445.641113,4441.153809,4385,4237.179688,4443.717773,4243.717773,4211.153809,,,,,,,,,,,,,,,,,,,,,,,,,,,,,,,,,,,,,,,,,,,,,,,,,,,,,,,,,,,,,,,,,,,,,,
1720079693,53,0,4434.871582,4461.282227,4388.589844,4394.871582,4453.333496,4207.563965,4442.563965,4458.974121,4450.769043,4401.922852,4257.05127,4462.563965,4266.410156,4227.436035,,,,,,,,,,,,,,,,,,,,,,,,,,,,,,,,,,,,,,,,,,,,,,,,,,,,,,,,,,,,,,,,,,,,,,
1720079693,54,0,4442.05127,4457.307617,4387.436035,4397.436035,4448.077148,4203.717773,4434.743652,4463.333496,4456.153809,4391.922852,4260.128418,4462.05127,4263.846191,4230.641113,,,,,,,,,,,,,,,,,,,,,,,,,,,,,,,,,,,,,,,,,,,,,,,,,,,,,,,,,,,,,,,,,,,,,,
1720079693,55,0,4441.538574,4455,4385.384766,4391.410156,4445.897461,4200.641113,4425.384766,4453.077148,4448.974121,4379.615234,4239.871582,4446.410156,4245.512695,4223.077148,,,,,,,,,,,,,,,,,,,,,,,,,,,,,,,,,,,,,,,,,,,,,,,,,,,,,,,,,,,,,,,,,,,,,,
1720079693,56,0,4453.077148,4471.922852,4401.282227,4404.358887,4446.922852,4205.897461,4430.384766,4448.589844,4443.717773,4393.589844,4240.769043,4458.205078,4261.666504,4236.153809,,,,,,,,,,,,,,,,,,,,,,,,,,,,,,,,,,,,,,,,,,,,,,,,,,,,,,,,,,,,,,,,,,,,,,
1720079693,57,0,4463.974121,4478.717773,4405.897461,4412.179688,4440.256348,4205.128418,4436.666504,4454.615234,4447.179688,4403.205078,4259.743652,4475.897461,4289.230957,4250.897461,,,,,,,,,,,,,,,,,,,,,,,,,,,,,,,,,,,,,,,,,,,,,,,,,,,,,,,,,,,,,,,,,,,,,,
1720079693,58,0,4460.769043,4463.333496,4390.769043,4397.436035,4441.922852,4201.922852,4434.615234,4462.179688,4448.717773,4391.153809,4261.282227,4472.179688,4287.05127,4248.461426,,,,,,,,,,,,,,,,,,,,,,,,,,,,,,,,,,,,,,,,,,,,,,,,,,,,,,,,,,,,,,,,,,,,,,
1720079693,59,0,4466.410156,4464.743652,4388.974121,4398.333496,4460.897461,4201.410156,4431.666504,4464.871582,4447.436035,4390.128418,4258.461426,4471.922852,4287.307617,4255.128418,,,,,,,,,,,,,,,,,,,,,,,,,,,,,,,,,,,,,,,,,,,,,,,,,,,,,,,,,,,,,,,,,,,,,,
1720079693,60,0,4480.128418,4480.512695,4393.333496,4411.666504,4465.128418,4192.179688,4424.487305,4459.871582,4445.256348,4397.179688,4264.615234,4478.461426,4298.333496,4262.05127,,,,,,,,,,,,,,,,,,,,,,,,,,,,,,,,,,,,,,,,,,,,,,,,,,,,,,,,,,,,,,,,,,,,,,
1720079693,61,0,4477.94873,4480.384766,4388.077148,4408.077148,4457.307617,4187.563965,4422.179688,4456.282227,4442.307617,4393.205078,4266.282227,4478.333496,4299.487305,4257.436035,,,,,,,,,,,,,,,,,,,,,,,,,,,,,,,,,,,,,,,,,,,,,,,,,,,,,,,,,,,,,,,,,,,,,,
1720079693,62,0,4471.666504,4472.307617,4384.230957,4400.128418,4458.077148,4186.282227,4428.846191,4458.717773,4445.769043,4392.563965,4263.205078,4476.153809,4298.461426,4257.05127,,,,,,,,,,,,,,,,,,,,,,,,,,,,,,,,,,,,,,,,,,,,,,,,,,,,,,,,,,,,,,,,,,,,,,
1720079693,63,0,4474.487305,4473.974121,4387.563965,4403.846191,4462.179688,4166.666504,4437.563965,4458.461426,4440.769043,4398.717773,4262.179688,4477.436035,4298.205078,4259.358887,,,,,,,,,,,,,,,,,,,,,,,,,,,,,,,,,,,,,,,,,,,,,,,,,,,,,,,,,,,,,,,,,,,,,,
1720079693,64,0,4476.282227,4483.717773,4391.666504,4409.615234,4454.230957,4147.692383,4441.666504,4457.820313,4427.307617,4397.307617,4259.102539,4477.692383,4293.846191,4257.94873,2.850163,8.665109,5.572304,0.8412,0.176972,1.055543,4.949336,3.806993,0.728672,0.366648,3.803511,8.128633,5.222868,0.89298,0.244332,2.649423,3.319355,2.792376,0.758182,0.371369,0.58746,1.040267,2.374597,1.633578,0.977645,3.447078,9.191729,7.772687,0.413407,0.159569,0.382692,9.256034,6.75761,0.71547,0.20801,0.560918,5.08885,2.539701,0.710564,0.214206,0.529648,4.203747,1.533428,0.760339,0.160099,0.906772,1.105968,1.040037,0.475769,0.148475,1.449721,3.918724,3.451388,0.868175,0.292117,3.750885,5.164654,3.439275,0.702871,0.2814,1.389119,4.825711,3.739843,0.595636,0.172629,1.481089,6.113309,4.53116,0.66769,0.18958
1720079693,65,0,4476.282227,4488.717773,4398.461426,4416.410156,4442.692383,4148.717773,4442.820313,4471.666504,4431.410156,4397.307617,4263.461426,4479.230957,4294.102539,4262.563965,,,,,,,,,,,,,,,,,,,,,,,,,,,,,,,,,,,,,,,,,,,,,,,,,,,,,,,,,,,,,,,,,,,,,,
1720079693,66,0,4475.256348,4476.794922,4401.538574,4416.410156,4448.589844,4148.461426,4446.410156,4480.384766,4436.922852,4399.871582,4263.846191,4478.205078,4288.333496,4265.128418,,,,,,,,,,,,,,,,,,,,,,,,,,,,,,,,,,,,,,,,,,,,,,,,,,,,,,,,,,,,,,,,,,,,,,
1720079693,67,0,4471.410156,4465.641113,4396.794922,4408.589844,4461.025879,4143.974121,4442.05127,4463.717773,4422.436035,4395.769043,4251.538574,4474.358887,4275.641113,4259.615234,,,,,,,,,,,,,,,,,,,,,,,,,,,,,,,,,,,,,,,,,,,,,,,,,,,,,,,,,,,,,,,,,,,,,,
1720079693,68,0,4474.743652,4477.436035,4403.589844,4415,4461.410156,4147.692383,4430.128418,4455.384766,4418.205078,4400.897461,4256.538574,4475.897461,4282.563965,4264.230957,,,,,,,,,,,,,,,,,,,,,,,,,,,,,,,,,,,,,,,,,,,,,,,,,,,,,,,,,,,,,,,,,,,,,,
1720079693,69,0,4480.256348,4487.05127,4412.94873,4426.794922,4455.128418,4158.974121,4424.102539,4465.128418,4433.205078,4412.436035,4266.153809,4477.94873,4283.846191,4267.307617,,,,,,,,,,,,,,,,,,,,,,,,,,,,,,,,,,,,,,,,,,,,,,,,,,,,,,,,,,,,,,,,,,,,,,
1720079693,70,0,4475.512695,4479.871582,4405.769043,4429.615234,4449.230957,4176.538574,4425.769043,4458.205078,4432.307617,4409.102539,4256.538574,4473.077148,4267.05127,4255.897461,,,,,,,,,,,,,,,,,,,,,,,,,,,,,,,,,,,,,,,,,,,,,,,,,,,,,,,,,,,,,,,,,,,,,,
1720079693,71,0,4466.538574,4471.153809,4387.179688,4424.230957,4441.922852,4189.487305,4422.692383,4440.769043,4407.820313,4385.769043,4242.179688,4458.333496,4257.692383,4241.794922,,,,,,,,,,,,,,,,,,,,,,,,,,,,,,,,,,,,,,,,,,,,,,,,,,,,,,,,,,,,,,,,,,,,,,
1720079693,72,0,4451.153809,4457.179688,4368.461426,4406.794922,4445.512695,4195.641113,4413.461426,4437.563965,4389.230957,4363.461426,4227.563965,4433.333496,4243.974121,4227.307617,,,,,,,,,,,,,,,,,,,,,,,,,,,,,,,,,,,,,,,,,,,,,,,,,,,,,,,,,,,,,,,,,,,,,,
1720079693,73,0,4445,4448.846191,4366.666504,4401.282227,4444.871582,4208.846191,4416.153809,4444.230957,4403.333496,4374.615234,4225.256348,4429.743652,4236.666504,4227.436035,,,,,,,,,,,,,,,,,,,,,,,,,,,,,,,,,,,,,,,,,,,,,,,,,,,,,,,,,,,,,,,,,,,,,,
1720079693,74,0,4458.461426,4463.077148,4378.077148,4421.025879,4431.153809,4220.384766,4422.94873,4448.846191,4420.641113,4392.563965,4237.692383,4449.615234,4251.282227,4242.820313,,,,,,,,,,,,,,,,,,,,,,,,,,,,,,,,,,,,,,,,,,,,,,,,,,,,,,,,,,,,,,,,,,,,,,
1720079693,75,0,4465.641113,4479.871582,4382.179688,4433.205078,4438.974121,4225.128418,4428.333496,4453.717773,4411.538574,4385.641113,4238.205078,4453.846191,4255.512695,4246.922852,,,,,,,,,,,,,,,,,,,,,,,,,,,,,,,,,,,,,,,,,,,,,,,,,,,,,,,,,,,,,,,,,,,,,,
1720079693,76,0,4465.769043,4477.179688,4385.512695,4430.641113,4460.512695,4233.205078,4441.025879,4462.179688,4406.153809,4383.461426,4234.615234,4451.410156,4246.794922,4244.615234,,,,,,,,,,,,,,,,,,,,,,,,,,,,,,,,,,,,,,,,,,,,,,,,,,,,,,,,,,,,,,,,,,,,,,
1720079693,77,0,4472.307617,4472.05127,4395.384766,4436.410156,4461.410156,4232.179688,4440.769043,4457.820313,4410.897461,4397.179688,4247.563965,4460.512695,4256.922852,4254.230957,,,,,,,,,,,,,,,,,,,,,,,,,,,,,,,,,,,,,,,,,,,,,,,,,,,,,,,,,,,,,,,,,,,,,,
1720079693,78,0,4480.384766,4483.589844,4407.179688,4448.205078,4456.666504,4223.974121,4423.077148,4449.358887,4411.794922,4398.974121,4257.820313,4470.641113,4270.256348,4264.487305,,,,,,,,,,,,,,,,,,,,,,,,,,,,,,,,,,,,,,,,,,,,,,,,,,,,,,,,,,,,,,,,,,,,,,
1720079693,79,0,4486.666504,4492.05127,4410.769043,4452.05127,4459.358887,4228.077148,4417.692383,4456.153809,4420.256348,4395.256348,4260.128418,4474.871582,4266.794922,4266.282227,,,,,,,,,,,,,,,,,,,,,,,,,,,,,,,,,,,,,,,,,,,,,,,,,,,,,,,,,,,,,,,,,,,,,,
1720079693,80,0,4488.974121,4492.692383,4404.615234,4451.666504,4455.256348,4242.820313,4429.871582,4459.743652,4423.461426,4401.794922,4262.94873,4473.333496,4265.256348,4264.487305,2.927284,9.107079,4.412282,0.883669,0.176525,0.958794,4.949628,3.074841,0.747722,0.376854,3.643031,8.548377,3.749933,0.827655,0.255908,3.322234,3.388334,2.035513,0.756821,0.356828,0.535389,1.124015,2.705454,1.479811,1.018536,4.200482,9.576198,6.337449,0.381788,0.173226,0.361163,9.021591,5.433087,0.780265,0.210832,0.493657,4.694905,1.97968,0.707758,0.190893,0.5436,4.252365,1.279901,0.72313,0.146572,0.734669,1.128167,0.824398,0.511342,0.137194,1.227074,3.992657,2.487672,0.817109,0.30061,3.478633,5.283257,2.296517,0.744326,0.279327,1.135093,4.80239,2.965676,0.639386,0.18863,1.318139,6.285662,3.45347,0.697842,0.175863
1720079693,81,0,4482.563965,4492.820313,4397.563965,4450.256348,4451.666504,4250,4431.282227,4444.102539,4404.743652,4401.282227,4254.871582,4462.692383,4265.128418,4257.436035,,,,,,,,,,,,,,,,,,,,,,,,,,,,,,,,,,,,,,,,,,,,,,,,,,,,,,,,,,,,,,,,,,,,,,
1720079693,82,0,4473.974121,4482.307617,4395.897461,4442.692383,4457.692383,4248.333496,4425.256348,4438.333496,4396.153809,4393.974121,4242.307617,4452.05127,4261.153809,4245.897461,,,,,,,,,,,,,,,,,,,,,,,,,,,,,,,,,,,,,,,,,,,,,,,,,,,,,,,,,,,,,,,,,,,,,,
1720079693,83,0,4472.94873,4474.743652,4395.512695,4439.487305,4462.307617,4255.769043,4435.769043,4455,4412.563965,4393.974121,4249.102539,4456.922852,4265.256348,4246.794922,,,,,,,,,,,,,,,,,,,,,,,,,,,,,,,,,,,,,,,,,,,,,,,,,,,,,,,,,,,,,,,,,,,,,,
1720079693,84,0,4478.974121,4485.897461,4396.922852,4445.641113,4459.358887,4264.487305,4444.487305,4462.307617,4423.333496,4400.384766,4263.333496,4469.743652,4274.615234,4259.615234,,,,,,,,,,,,,,,,,,,,,,,,,,,,,,,,,,,,,,,,,,,,,,,,,,,,,,,,,,,,,,,,,,,,,,
1720079693,85,0,4487.436035,4496.410156,4404.230957,4450.641113,4455.384766,4255.897461,4435.256348,4457.436035,4418.077148,4405,4266.410156,4473.461426,4279.230957,4260.512695,,,,,,,,,,,,,,,,,,,,,,,,,,,,,,,,,,,,,,,,,,,,,,,,,,,,,,,,,,,,,,,,,,,,,,
1720079693,86,0,4483.077148,4491.282227,4403.461426,4446.922852,4461.538574,4246.282227,4429.487305,4459.230957,4418.205078,4406.153809,4264.102539,4470.256348,4277.94873,4254.487305,,,,,,,,,,,,,,,,,,,,,,,,,,,,,,,,,,,,,,,,,,,,,,,,,,,,,,,,,,,,,,,,,,,,,,
1720079693,87,0,4473.205078,4482.94873,4390.897461,4438.974121,4467.563965,4248.717773,4434.871582,4463.077148,4421.538574,4404.102539,4260.769043,4471.538574,4271.410156,4252.436035,,,,,,,,,,,,,,,,,,,,,,,,,,,,,,,,,,,,,,,,,,,,,,,,,,,,,,,,,,,,,,,,,,,,,,
1720079693,88,0,4469.358887,4474.871582,4380.897461,4429.871582,4461.153809,4245.384766,4431.538574,4459.743652,4415.641113,4403.205078,4258.974121,4472.692383,4270.897461,4251.282227,,,,,,,,,,,,,,,,,,,,,,,,,,,,,,,,,,,,,,,,,,,,,,,,,,,,,,,,,,,,,,,,,,,,,,
1720079693,89,0,4472.436035,4479.871582,4389.487305,4428.974121,4457.94873,4240.897461,4432.179688,4467.179688,4420.128418,4413.974121,4272.436035,4482.05127,4283.589844,4259.102539,,,,,,,,,,,,,,,,,,,,,,,,,,,,,,,,,,,,,,,,,,,,,,,,,,,,,,,,,,,,,,,,,,,,,,
1720079693,90,0,4474.230957,4492.436035,4399.487305,4436.538574,4463.974121,4248.077148,4441.666504,4476.922852,4432.436035,4417.692383,4273.717773,4487.94873,4277.94873,4261.922852,,,,,,,,,,,,,,,,,,,,,,,,,,,,,,,,,,,,,,,,,,,,,,,,,,,,,,,,,,,,,,,,,,,,,,
1720079693,91,0,4461.794922,4481.794922,4381.538574,4428.077148,4459.102539,4250.512695,4432.307617,4459.358887,4420,4403.333496,4250,4466.025879,4249.102539,4240.128418,,,,,,,,,,,,,,,,,,,,,,,,,,,,,,,,,,,,,,,,,,,,,,,,,,,,,,,,,,,,,,,,,,,,,,
1720079693,92,0,4453.717773,4468.205078,4366.282227,4419.102539,4457.307617,4248.077148,4422.692383,4447.179688,4407.05127,4399.358887,4253.077148,4457.94873,4251.153809,4236.666504,,,,,,,,,,,,,,,,,,,,,,,,,,,,,,,,,,,,,,,,,,,,,,,,,,,,,,,,,,,,,,,,,,,,,,
1720079693,93,0,4465.128418,4480.512695,4376.282227,4427.820313,4464.743652,4252.820313,4432.436035,4458.077148,4420.384766,4408.589844,4275.256348,4479.743652,4268.974121,4259.487305,,,,,,,,,,,,,,,,,,,,,,,,,,,,,,,,,,,,,,,,,,,,,,,,,,,,,,,,,,,,,,,,,,,,,,
1720079693,94,0,4458.077148,4478.846191,4366.410156,4418.846191,4453.205078,4252.179688,4430.512695,4448.333496,4412.436035,4396.025879,4249.871582,4463.589844,4243.461426,4241.282227,,,,,,,,,,,,,,,,,,,,,,,,,,,,,,,,,,,,,,,,,,,,,,,,,,,,,,,,,,,,,,,,,,,,,,
1720079693,95,0,4438.717773,4459.102539,4344.102539,4399.358887,4446.794922,4248.333496,4423.461426,4433.333496,4393.846191,4381.666504,4223.077148,4436.025879,4221.666504,4214.230957,,,,,,,,,,,,,,,,,,,,,,,,,,,,,,,,,,,,,,,,,,,,,,,,,,,,,,,,,,,,,,,,,,,,,,
1720079693,96,0,4440.512695,4458.077148,4351.666504,4400.769043,4459.358887,4253.461426,4436.153809,4452.820313,4411.794922,4394.230957,4242.94873,4453.333496,4234.615234,4228.846191,2.936581,9.060019,3.454403,0.878209,0.181242,0.86242,4.754626,2.542864,0.726063,0.384547,3.738525,8.571689,2.705341,0.719418,0.262413,3.882565,3.326281,1.526668,0.721197,0.34984,0.483235,1.178239,2.935693,1.229197,1.064439,4.911449,9.26182,4.806646,0.341658,0.194862,0.365596,8.096905,4.218633,0.877028,0.220981,0.458387,3.859212,1.420307,0.709562,0.178931,0.61465,3.848722,1.013845,0.670048,0.146784,0.63688,1.123574,0.673631,0.536523,0.136995,1.039314,3.852609,1.743698,0.752778,0.306886,2.998881,5.133224,1.488063,0.775665,0.284533,0.936972,4.529327,2.376636,0.663126,0.212069,1.131873,6.078842,2.514494,0.695764,0.172438
1720079693,97,0,4433.974121,4455.512695,4351.922852,4393.205078,4455.128418,4247.179688,4437.820313,4458.589844,4414.358887,4390.769043,4240.256348,4455.256348,4222.692383,4225.256348,,,,,,,,,,,,,,,,,,,,,,,,,,,,,,,,,,,,,,,,,,,,,,,,,,,,,,,,,,,,,,,,,,,,,,
1720079693,98,0,4420.641113,4448.461426,4343.974121,4381.025879,4440.256348,4232.692383,4426.922852,4445.641113,4395.384766,4378.589844,4222.307617,4441.666504,4205,4208.205078,,,,,,,,,,,,,,,,,,,,,,,,,,,,,,,,,,,,,,,,,,,,,,,,,,,,,,,,,,,,,,,,,,,,,,
1720079693,99,0,4432.820313,4457.94873,4357.179688,4393.205078,4444.102539,4228.846191,4424.743652,4453.461426,4405.512695,4390.384766,4239.102539,4459.230957,4226.153809,4225.256348,,,,,,,,,,,,,,,,,,,,,,,,,,,,,,,,,,,,,,,,,,,,,,,,,,,,,,,,,,,,,,,,,,,,,,
1720079693,100,0,4439.230957,4457.94873,4358.461426,4391.282227,4446.666504,4221.794922,4412.94873,4455.256348,4416.410156,4399.230957,4248.333496,4464.743652,4237.563965,4233.205078,,,,,,,,,,,,,,,,,,,,,,,,,,,,,,,,,,,,,,,,,,,,,,,,,,,,,,,,,,,,,,,,,,,,,,
1720079693,101,0,4424.487305,4439.743652,4337.94873,4367.692383,4433.717773,4203.589844,4391.922852,4438.846191,4401.410156,4389.743652,4228.333496,4439.871582,4219.487305,4212.307617,,,,,,,,,,,,,,,,,,,,,,,,,,,,,,,,,,,,,,,,,,,,,,,,,,,,,,,,,,,,,,,,,,,,,,
1720079693,102,0,4426.538574,4443.461426,4333.461426,4370.256348,4438.077148,4191.282227,4395.769043,4444.102539,4401.922852,4391.666504,4229.871582,4442.820313,4225.641113,4215.128418,,,,,,,,,,,,,,,,,,,,,,,,,,,,,,,,,,,,,,,,,,,,,,,,,,,,,,,,,,,,,,,,,,,,,,
1720079693,103,0,4442.179688,4462.307617,4339.615234,4383.846191,4447.94873,4188.077148,4420.641113,4466.922852,4419.230957,4398.077148,4253.846191,4471.410156,4249.487305,4237.820313,,,,,,,,,,,,,,,,,,,,,,,,,,,,,,,,,,,,,,,,,,,,,,,,,,,,,,,,,,,,,,,,,,,,,,
1720079693,104,0,4435.512695,4453.205078,4331.025879,4370.897461,4433.846191,4180.128418,4427.692383,4463.077148,4414.358887,4388.717773,4250.128418,4469.615234,4241.794922,4234.615234,,,,,,,,,,,,,,,,,,,,,,,,,,,,,,,,,,,,,,,,,,,,,,,,,,,,,,,,,,,,,,,,,,,,,,
1720079693,105,0,4414.743652,4434.871582,4310,4351.538574,4425.769043,4170.897461,4421.666504,4444.358887,4399.102539,4382.179688,4224.615234,4441.282227,4217.692383,4208.333496,,,,,,,,,,,,,,,,,,,,,,,,,,,,,,,,,,,,,,,,,,,,,,,,,,,,,,,,,,,,,,,,,,,,,,
1720079693,106,0,4405.641113,4435.769043,4292.179688,4346.282227,4443.846191,4171.794922,4430.128418,4443.205078,4396.153809,4380.641113,4208.333496,4426.282227,4210.384766,4196.025879,,,,,,,,,,,,,,,,,,,,,,,,,,,,,,,,,,,,,,,,,,,,,,,,,,,,,,,,,,,,,,,,,,,,,,
1720079693,107,0,4415.384766,4445.641113,4302.94873,4351.922852,4455.256348,4179.102539,4447.179688,4450.769043,4400.897461,4378.077148,4213.589844,4436.282227,4216.025879,4207.94873,,,,,,,,,,,,,,,,,,,,,,,,,,,,,,,,,,,,,,,,,,,,,,,,,,,,,,,,,,,,,,,,,,,,,,
1720079693,108,0,4422.692383,4446.282227,4321.666504,4357.94873,4446.666504,4176.153809,4447.94873,4449.615234,4400.897461,4381.410156,4226.025879,4445.384766,4220.769043,4216.538574,,,,,,,,,,,,,,,,,,,,,,,,,,,,,,,,,,,,,,,,,,,,,,,,,,,,,,,,,,,,,,,,,,,,,,
1720079693,109,0,4413.846191,4444.102539,4314.102539,4354.230957,4440.641113,4159.230957,4429.871582,4443.717773,4393.205078,4381.922852,4225.512695,4441.794922,4215.769043,4211.282227,,,,,,,,,,,,,,,,,,,,,,,,,,,,,,,,,,,,,,,,,,,,,,,,,,,,,,,,,,,,,,,,,,,,,,
1720079693,110,0,4409.230957,4447.179688,4309.230957,4348.205078,4436.025879,4150.512695,4413.333496,4444.743652,4392.436035,4380.641113,4225.128418,4442.820313,4215.384766,4212.94873,,,,,,,,,,,,,,,,,,,,,,,,,,,,,,,,,,,,,,,,,,,,,,,,,,,,,,,,,,,,,,,,,,,,,,
1720079693,111,0,4410.641113,4439.743652,4320.641113,4339.487305,4430.512695,4148.333496,4406.410156,4447.436035,4398.077148,4387.94873,4230.512695,4447.436035,4227.692383,4218.589844,,,,,,,,,,,,,,,,,,,,,,,,,,,,,,,,,,,,,,,,,,,,,,,,,,,,,,,,,,,,,,,,,,,,,,
1720079693,112,0,4409.871582,4437.94873,4329.871582,4336.410156,4428.846191,4148.077148,4408.717773,4448.205078,4399.743652,4394.230957,4232.94873,4452.436035,4230.384766,4218.333496,2.840983,8.248548,2.76401,0.82499,0.188365,0.831229,4.254157,2.218954,0.678252,0.392721,4.147449,8.004227,2.128547,0.602291,0.262078,4.21045,3.029285,1.295211,0.664267,0.350134,0.438613,1.173768,3.039826,0.967988,1.102257,5.686371,8.252666,3.453083,0.298349,0.218081,0.39096,6.548745,3.311911,0.973072,0.230718,0.464586,2.810642,1.00476,0.713728,0.182021,0.708342,3.105417,0.798979,0.620948,0.1646,0.636,1.05507,0.59846,0.55649,0.150336,0.969696,3.406206,1.265157,0.69507,0.314211,2.522001,4.60134,1.073623,0.796433,0.297654,0.999064,3.923136,1.993067,0.661742,0.246215,1.049625,5.376157,1.826201,0.657922,0.183655
1720079693,113,0,4416.538574,4455.384766,4338.333496,4349.358887,4426.922852,4158.717773,4417.820313,4452.307617,4402.820313,4394.615234,4236.410156,4465,4224.871582,4226.666504,,,,,,,,,,,,,,,,,,,,,,,,,,,,,,,,,,,,,,,,,,,,,,,,,,,,,,,,,,,,,,,,,,,,,,
1720079693,114,0,4428.205078,4465.897461,4347.05127,4354.743652,4437.307617,4167.05127,4418.589844,4458.077148,4408.717773,4395.769043,4245.384766,4475.128418,4234.743652,4241.538574,,,,,,,,,,,,,,,,,,,,,,,,,,,,,,,,,,,,,,,,,,,,,,,,,,,,,,,,,,,,,,,,,,,,,,
1720079693,115,0,4438.974121,4469.102539,4346.153809,4345.769043,4458.846191,4169.358887,4414.102539,4463.589844,4413.333496,4400,4259.871582,4477.820313,4255,4251.666504,,,,,,,,,,,,,,,,,,,,,,,,,,,,,,,,,,,,,,,,,,,,,,,,,,,,,,,,,,,,,,,,,,,,,,
1720079693,116,0,4439.743652,4471.666504,4331.794922,4339.743652,4462.692383,4177.94873,4414.615234,4460.128418,4415.897461,4400.897461,4264.743652,4475.897461,4261.922852,4254.102539,,,,,,,,,,,,,,,,,,,,,,,,,,,,,,,,,,,,,,,,,,,,,,,,,,,,,,,,,,,,,,,,,,,,,,
1720079693,117,0,4428.589844,4465.384766,4309.358887,4333.846191,4449.102539,4188.333496,4417.179688,4445.128418,4410.512695,4396.153809,4246.538574,4462.94873,4246.538574,4246.922852,,,,,,,,,,,,,,,,,,,,,,,,,,,,,,,,,,,,,,,,,,,,,,,,,,,,,,,,,,,,,,,,,,,,,,
1720079693,118,0,4422.436035,4457.692383,4288.205078,4322.436035,4442.179688,4195.512695,4424.615234,4440.256348,4404.358887,4390.769043,4227.307617,4447.179688,4229.487305,4237.94873,,,,,,,,,,,,,,,,,,,,,,,,,,,,,,,,,,,,,,,,,,,,,,,,,,,,,,,,,,,,,,,,,,,,,,
1720079693,119,0,4421.922852,4460,4279.615234,4314.358887,4441.025879,4208.461426,4436.538574,4448.717773,4401.538574,4384.230957,4229.615234,4444.871582,4234.102539,4235,,,,,,,,,,,,,,,,,,,,,,,,,,,,,,,,,,,,,,,,,,,,,,,,,,,,,,,,,,,,,,,,,,,,,,
1720079693,120,0,4422.05127,4463.974121,4279.102539,4310.256348,4441.922852,4219.358887,4437.307617,4450.384766,4397.692383,4379.358887,4237.307617,4452.436035,4245.641113,4238.077148,,,,,,,,,,,,,,,,,,,,,,,,,,,,,,,,,,,,,,,,,,,,,,,,,,,,,,,,,,,,,,,,,,,,,,
1720079693,121,0,4432.179688,4469.871582,4277.820313,4308.333496,4445.256348,4218.461426,4428.461426,4443.077148,4394.615234,4381.794922,4235.641113,4457.692383,4242.179688,4241.410156,,,,,,,,,,,,,,,,,,,,,,,,,,,,,,,,,,,,,,,,,,,,,,,,,,,,,,,,,,,,,,,,,,,,,,
1720079693,122,0,4447.307617,4486.410156,4284.358887,4313.589844,4441.153809,4219.230957,4428.077148,4443.461426,4396.538574,4392.563965,4247.179688,4466.538574,4251.922852,4252.94873,,,,,,,,,,,,,,,,,,,,,,,,,,,,,,,,,,,,,,,,,,,,,,,,,,,,,,,,,,,,,,,,,,,,,,
1720079693,123,0,4450.256348,4490.384766,4289.358887,4310.128418,4439.358887,4218.846191,4423.846191,4446.282227,4398.461426,4401.922852,4263.333496,4475.897461,4275.256348,4267.563965,,,,,,,,,,,,,,,,,,,,,,,,,,,,,,,,,,,,,,,,,,,,,,,,,,,,,,,,,,,,,,,,,,,,,,
1720079693,124,0,4452.94873,4486.666504,4281.666504,4298.974121,4455.384766,4218.205078,4411.410156,4441.153809,4397.05127,4402.05127,4259.743652,4474.487305,4277.307617,4266.153809,,,,,,,,,,,,,,,,,,,,,,,,,,,,,,,,,,,,,,,,,,,,,,,,,,,,,,,,,,,,,,,,,,,,,,
1720079693,125,0,4463.205078,4498.077148,4281.666504,4296.410156,4467.563965,4227.692383,4411.922852,4443.205078,4404.358887,4401.025879,4255.641113,4475,4276.538574,4265.512695,,,,,,,,,,,,,,,,,,,,,,,,,,,,,,,,,,,,,,,,,,,,,,,,,,,,,,,,,,,,,,,,,,,,,,
1720079693,126,0,4466.538574,4505.384766,4290.641113,4296.666504,4459.487305,4234.358887,4411.666504,4450.384766,4409.871582,4401.922852,4265.769043,4480.769043,4291.410156,4276.153809,,,,,,,,,,,,,,,,,,,,,,,,,,,,,,,,,,,,,,,,,,,,,,,,,,,,,,,,,,,,,,,,,,,,,,
1720079693,127,0,4463.717773,4498.974121,4286.410156,4293.205078,4454.743652,4236.282227,4396.666504,4438.717773,4399.487305,4401.922852,4267.436035,4474.743652,4298.974121,4274.230957,,,,,,,,,,,,,,,,,,,,,,,,,,,,,,,,,,,,,,,,,,,,,,,,,,,,,,,,,,,,,,,,,,,,,,
1720079693,0,0,4460.641113,4501.794922,4281.794922,4292.436035,4456.794922,4246.794922,4395.128418,4423.717773,4388.717773,4398.077148,4253.333496,4466.794922,4293.589844,4262.692383,2.85568,6.760417,2.317526,0.736186,0.198291,0.932622,3.534786,2.033053,0.626412,0.407983,4.6453,7.001257,1.924418,0.509088,0.259557,4.257816,2.538085,1.268928,0.606148,0.357407,0.413923,1.105642,3.03356,0.757318,1.113734,6.767678,6.868344,2.411338,0.257366,0.235845,0.426691,4.718297,2.779963,1.027904,0.235446,0.518243,1.83199,0.791176,0.711706,0.202486,0.82585,2.233974,0.662151,0.59079,0.203853,0.728051,0.94659,0.584089,0.577381,0.179671,1.124474,2.740402,1.014511,0.659874,0.332709,2.216929,3.789926,0.998441,0.807169,0.324403,1.557054,3.091302,1.779085,0.637301,0.296844,1.256112,4.322909,1.428024,0.592186,0.213503
1720079693,1,0,4455.512695,4508.461426,4293.077148,4293.333496,4458.333496,4258.461426,4407.307617,4425.512695,4388.333496,4389.487305,4247.436035,4467.436035,4291.794922,4261.025879,,,,,,,,,,,,,,,,,,,,,,,,,,,,,,,,,,,,,,,,,,,,,,,,,,,,,,,,,,,,,,,,,,,,,,
