Timestamp,EEG.Counter,EEG.Interpolated,EEG.AF3,EEG.F7,EEG.F3,EEG.FC5,EEG.T7,EEG.P7,EEG.O1,EEG.O2,EEG.P8,EEG.T8,EEG.FC6,EEG.F4,EEG.F8,EEG.AF4,POW.AF3.Theta,POW.AF3.Alpha,POW.AF3.BetaL,POW.AF3.BetaH,POW.AF3.Gamma,POW.F7.Theta,POW.F7.Alpha,POW.F7.BetaL,POW.F7.BetaH,POW.F7.Gamma,POW.F3.Theta,POW.F3.Alpha,POW.F3.BetaL,POW.F3.BetaH,POW.F3.Gamma,POW.FC5.Theta,POW.FC5.Alpha,POW.FC5.BetaL,POW.FC5.BetaH,POW.FC5.Gamma,POW.T7.Theta,POW.T7.Alpha,POW.T7.BetaL,POW.T7.BetaH,POW.T7.Gamma,POW.P7.Theta,POW.P7.Alpha,POW.P7.BetaL,POW.P7.BetaH,POW.P7.Gamma,POW.O1.Theta,POW.O1.Alpha,POW.O1.BetaL,POW.O1.BetaH,POW.O1.Gamma,POW.O2.Theta,POW.O2.Alpha,POW.O2.BetaL,POW.O2.BetaH,POW.O2.Gamma,POW.P8.Theta,POW.P8.Alpha,POW.P8.BetaL,POW.P8.BetaH,POW.P8.Gamma,POW.T8.Theta,POW.T8.Alpha,POW.T8.BetaL,POW.T8.BetaH,POW.T8.Gamma,POW.FC6.Theta,POW.FC6.Alpha,POW.FC6.BetaL,POW.FC6.BetaH,POW.FC6.Gamma,POW.F4.Theta,POW.F4.Alpha,POW.F4.BetaL,POW.F4.BetaH,POW.F4.Gamma,POW.F8.Theta,POW.F8.Alpha,POW.F8.BetaL,POW.F8.BetaH,POW.F8.Gamma,POW.AF4.Theta,POW.AF4.Alpha,POW.AF4.BetaL,POW.AF4.BetaH,POW.AF4.Gamma
1720179315,33,0,4292.94873,4250,4284.358887,4292.05127,4217.436035,4194.487305,4243.846191,4197.436035,4204.615234,4125.769043,4372.436035,4417.05127,4291.794922,4440.384766,,,,,,,,,,,,,,,,,,,,,,,,,,,,,,,,,,,,,,,,,,,,,,,,,,,,,,,,,,,,,,,,,,,,,,
1720179315,34,0,4283.589844,4239.871582,4278.077148,4282.179688,4220.128418,4203.589844,4250.512695,4199.615234,4196.666504,4119.487305,4377.179688,4410.256348,4290.128418,4438.974121,,,,,,,,,,,,,,,,,,,,,,,,,,,,,,,,,,,,,,,,,,,,,,,,,,,,,,,,,,,,,,,,,,,,,,
1720179315,35,0,4271.922852,4228.461426,4266.922852,4270.384766,4222.692383,4204.358887,4250.512695,4203.333496,4203.717773,4117.820313,4372.94873,4397.94873,4272.94873,4408.461426,,,,,,,,,,,,,,,,,,,,,,,,,,,,,,,,,,,,,,,,,,,,,,,,,,,,,,,,,,,,,,,,,,,,,,
1720179315,36,0,4277.820313,4227.05127,4263.333496,4268.077148,4221.025879,4200.897461,4254.743652,4216.794922,4226.282227,4138.717773,4371.282227,4400.384766,4270.384766,4400.641113,,,,,,,,,,,,,,,,,,,,,,,,,,,,,,,,,,,,,,,,,,,,,,,,,,,,,,,,,,,,,,,,,,,,,,
1720179315,37,0,4274.487305,4221.922852,4255.128418,4264.615234,4219.102539,4202.692383,4251.153809,4215.512695,4236.410156,4151.410156,4373.077148,4400.256348,4282.436035,4410.512695,,,,,,,,,,,,,,,,,,,,,,,,,,,,,,,,,,,,,,,,,,,,,,,,,,,,,,,,,,,,,,,,,,,,,,
1720179315,38,0,4255.128418,4211.410156,4238.333496,4249.743652,4219.230957,4203.461426,4235.641113,4200,4233.205078,4143.461426,4367.563965,4380,4279.871582,4401.794922,,,,,,,,,,,,,,,,,,,,,,,,,,,,,,,,,,,,,,,,,,,,,,,,,,,,,,,,,,,,,,,,,,,,,,
1720179315,39,0,4250.128418,4211.282227,4230.641113,4241.025879,4221.025879,4197.94873,4226.922852,4194.743652,4232.05127,4147.179688,4365.641113,4367.692383,4264.230957,4386.282227,,,,,,,,,,,,,,,,,,,,,,,,,,,,,,,,,,,,,,,,,,,,,,,,,,,,,,,,,,,,,,,,,,,,,,
1720179315,40,0,4250.384766,4214.230957,4231.153809,4246.410156,4218.974121,4192.692383,4220.128418,4193.461426,4226.025879,4157.94873,4366.794922,4372.307617,4261.794922,4382.307617,,,,,,,,,,,,,,,,,,,,,,,,,,,,,,,,,,,,,,,,,,,,,,,,,,,,,,,,,,,,,,,,,,,,,,
1720179315,41,0,4248.846191,4215.641113,4231.666504,4252.820313,4218.333496,4190.512695,4205,4183.461426,4212.692383,4157.94873,4365.512695,4372.94873,4278.333496,4387.692383,,,,,,,,,,,,,,,,,,,,,,,,,,,,,,,,,,,,,,,,,,,,,,,,,,,,,,,,,,,,,,,,,,,,,,
1720179315,42,0,4262.05127,4223.717773,4238.717773,4257.563965,4217.94873,4187.307617,4191.410156,4173.461426,4198.717773,4160.128418,4368.717773,4374.615234,4293.717773,4401.794922,,,,,,,,,,,,,,,,,,,,,,,,,,,,,,,,,,,,,,,,,,,,,,,,,,,,,,,,,,,,,,,,,,,,,,
1720179315,43,0,4271.153809,4233.589844,4252.307617,4266.666504,4217.436035,4188.333496,4190.769043,4167.94873,4177.307617,4158.333496,4375.128418,4392.820313,4296.410156,4410.641113,,,,,,,,,,,,,,,,,,,,,,,,,,,,,,,,,,,,,,,,,,,,,,,,,,,,,,,,,,,,,,,,,,,,,,
1720179315,44,0,4268.333496,4236.410156,4265.512695,4271.666504,4220.384766,4195,4204.358887,4171.153809,4160.897461,4147.179688,4373.077148,4410.897461,4301.282227,4413.461426,,,,,,,,,,,,,,,,,,,,,,,,,,,,,,,,,,,,,,,,,,,,,,,,,,,,,,,,,,,,,,,,,,,,,,
1720179315,45,0,4276.922852,4229.487305,4272.94873,4268.974121,4219.615234,4202.179688,4230.512695,4193.846191,4174.487305,4148.333496,4376.025879,4416.922852,4307.563965,4425.256348,,,,,,,,,,,,,,,,,,,,,,,,,,,,,,,,,,,,,,,,,,,,,,,,,,,,,,,,,,,,,,,,,,,,,,
1720179315,46,0,4277.05127,4217.179688,4267.692383,4255.641113,4216.666504,4205,4255.769043,4218.717773,4201.666504,4160.769043,4380.769043,4419.230957,4303.333496,4426.794922,,,,,,,,,,,,,,,,,,,,,,,,,,,,,,,,,,,,,,,,,,,,,,,,,,,,,,,,,,,,,,,,,,,,,,
1720179315,47,0,4264.487305,4210.897461,4259.871582,4247.692383,4216.282227,4203.974121,4265.769043,4230.769043,4220.128418,4165.256348,4373.589844,4418.461426,4294.487305,4411.153809,,,,,,,,,,,,,,,,,,,,,,,,,,,,,,,,,,,,,,,,,,,,,,,,,,,,,,,,,,,,,,,,,,,,,,
1720179315,48,0,4263.205078,4216.282227,4258.717773,4257.820313,4215.769043,4210,4268.333496,4238.205078,4232.436035,4170,4373.846191,4415.512695,4293.077148,4413.205078,1.931453,4.252033,1.278733,1.024181,0.579282,2.984101,5.621435,0.850433,0.492167,0.373903,2.43286,8.841141,1.359768,0.637534,0.315431,3.720711,6.837384,1.385431,0.591368,0.556286,0.66465,2.239944,0.368237,0.260583,0.10673,0.298992,2.082133,0.312312,0.090672,0.105678,1.649696,33.689632,1.358049,0.518811,0.181545,2.161744,40.257206,0.560894,0.458807,0.199139,2.383514,81.691292,0.980668,0.767282,0.238285,2.049113,4.048904,2.065411,0.747579,0.444261,0.145646,0.319113,0.049029,0.080367,0.142346,2.947218,18.662203,2.087029,1.002391,0.545209,2.801859,9.630016,2.129375,0.917927,0.500966,2.052502,11.232445,2.379459,1.229966,1.186188
1720179315,49,0,4263.589844,4216.025879,4255.256348,4256.922852,4219.871582,4213.461426,4268.333496,4241.282227,4239.871582,4170.897461,4379.230957,4415,4295.897461,4424.871582,,,,,,,,,,,,,,,,,,,,,,,,,,,,,,,,,,,,,,,,,,,,,,,,,,,,,,,,,,,,,,,,,,,,,,
1720179315,50,0,4258.589844,4203.974121,4248.205078,4242.436035,4223.205078,4207.179688,4254.743652,4232.94873,4238.846191,4165.769043,4378.077148,4412.820313,4293.974121,4416.794922,,,,,,,,,,,,,,,,,,,,,,,,,,,,,,,,,,,,,,,,,,,,,,,,,,,,,,,,,,,,,,,,,,,,,,
1720179315,51,0,4255.769043,4199.102539,4247.563965,4238.333496,4220.256348,4206.666504,4236.794922,4221.922852,4233.333496,4175.897461,4376.410156,4409.358887,4294.615234,4405.256348,,,,,,,,,,,,,,,,,,,,,,,,,,,,,,,,,,,,,,,,,,,,,,,,,,,,,,,,,,,,,,,,,,,,,,
1720179315,52,0,4252.820313,4205.769043,4249.487305,4245.512695,4222.692383,4212.179688,4227.820313,4213.589844,4221.666504,4190.256348,4376.410156,4411.282227,4301.282227,4402.307617,,,,,,,,,,,,,,,,,,,,,,,,,,,,,,,,,,,,,,,,,,,,,,,,,,,,,,,,,,,,,,,,,,,,,,
1720179315,53,0,4258.333496,4216.666504,4254.743652,4254.102539,4233.461426,4209.487305,4220.897461,4202.94873,4200.384766,4183.846191,4377.436035,4416.538574,4308.846191,4404.743652,,,,,,,,,,,,,,,,,,,,,,,,,,,,,,,,,,,,,,,,,,,,,,,,,,,,,,,,,,,,,,,,,,,,,,
1720179315,54,0,4272.563965,4229.102539,4264.871582,4263.717773,4238.846191,4203.846191,4212.94873,4198.333496,4183.461426,4178.461426,4380.641113,4419.871582,4314.102539,4420,,,,,,,,,,,,,,,,,,,,,,,,,,,,,,,,,,,,,,,,,,,,,,,,,,,,,,,,,,,,,,,,,,,,,,
1720179315,55,0,4268.846191,4233.077148,4265.641113,4266.410156,4232.436035,4203.589844,4209.615234,4199.102539,4179.871582,4197.692383,4377.563965,4424.358887,4313.589844,4433.974121,,,,,,,,,,,,,,,,,,,,,,,,,,,,,,,,,,,,,,,,,,,,,,,,,,,,,,,,,,,,,,,,,,,,,,
1720179315,56,0,4254.871582,4216.666504,4262.692383,4252.692383,4226.153809,4204.743652,4210.641113,4198.205078,4188.205078,4210.641113,4374.230957,4428.974121,4314.358887,4427.307617,,,,,,,,,,,,,,,,,,,,,,,,,,,,,,,,,,,,,,,,,,,,,,,,,,,,,,,,,,,,,,,,,,,,,,
1720179315,57,0,4258.974121,4202.563965,4263.333496,4236.025879,4228.846191,4212.692383,4226.025879,4210.897461,4211.153809,4205,4383.205078,4434.358887,4325.897461,4427.307617,,,,,,,,,,,,,,,,,,,,,,,,,,,,,,,,,,,,,,,,,,,,,,,,,,,,,,,,,,,,,,,,,,,,,,
1720179315,58,0,4258.333496,4203.077148,4257.692383,4233.846191,4228.333496,4220.256348,4248.077148,4231.282227,4232.94873,4201.666504,4384.230957,4431.282227,4331.794922,4436.538574,,,,,,,,,,,,,,,,,,,,,,,,,,,,,,,,,,,,,,,,,,,,,,,,,,,,,,,,,,,,,,,,,,,,,,
1720179315,59,0,4238.077148,4189.102539,4241.410156,4230.769043,4214.743652,4218.077148,4246.025879,4230,4221.153809,4190.384766,4376.666504,4402.94873,4305,4409.615234,,,,,,,,,,,,,,,,,,,,,,,,,,,,,,,,,,,,,,,,,,,,,,,,,,,,,,,,,,,,,,,,,,,,,,
1720179315,60,0,4224.487305,4168.974121,4229.102539,4211.538574,4204.871582,4213.717773,4228.205078,4211.025879,4193.333496,4168.846191,4374.230957,4377.307617,4271.922852,4375.512695,,,,,,,,,,,,,,,,,,,,,,,,,,,,,,,,,,,,,,,,,,,,,,,,,,,,,,,,,,,,,,,,,,,,,,
1720179315,61,0,4235.384766,4176.666504,4236.794922,4210.641113,4209.871582,4211.538574,4224.487305,4203.333496,4191.410156,4169.743652,4374.358887,4392.692383,4275,4381.410156,,,,,,,,,,,,,,,,,,,,,,,,,,,,,,,,,,,,,,,,,,,,,,,,,,,,,,,,,,,,,,,,,,,,,,
1720179315,62,0,4254.871582,4202.436035,4257.179688,4242.05127,4219.487305,4213.589844,4228.077148,4211.922852,4204.871582,4199.615234,4379.358887,4420.769043,4302.692383,4401.282227,,,,,,,,,,,,,,,,,,,,,,,,,,,,,,,,,,,,,,,,,,,,,,,,,,,,,,,,,,,,,,,,,,,,,,
1720179315,63,0,4263.589844,4217.179688,4266.153809,4266.153809,4230,4219.230957,4234.102539,4224.358887,4211.282227,4219.743652,4383.717773,4429.358887,4321.282227,4421.410156,,,,,,,,,,,,,,,,,,,,,,,,,,,,,,,,,,,,,,,,,,,,,,,,,,,,,,,,,,,,,,,,,,,,,,
1720179315,64,0,4272.05127,4220.897461,4265.512695,4265.128418,4235.512695,4222.436035,4244.487305,4231.410156,4211.025879,4216.538574,4384.615234,4437.307617,4328.333496,4443.461426,2.019108,4.430524,1.114663,1.104799,0.542644,3.007614,5.719291,0.787044,0.513995,0.344556,2.559573,8.641476,1.232044,0.663263,0.310857,3.949349,6.526631,1.393722,0.553647,0.537596,0.642876,2.125576,0.356082,0.276217,0.119196,0.288512,2.567591,0.331783,0.108706,0.095564,1.496357,37.878586,1.0226,0.635974,0.188844,2.058691,40.13512,0.442016,0.471818,0.215505,2.269366,80.655525,0.837497,0.765853,0.248515,1.907515,4.122172,2.154373,0.739171,0.412633,0.167763,0.295143,0.039817,0.076345,0.131533,3.063968,17.803772,2.052764,0.995792,0.563124,2.78199,9.339261,1.811069,0.865872,0.488527,2.351543,11.243314,1.935374,1.160486,1.102422
1720179315,65,0,4272.692383,4217.94873,4268.205078,4254.487305,4232.692383,4217.820313,4243.333496,4232.436035,4206.794922,4214.102539,4383.205078,4448.846191,4330.128418,4440.256348,,,,,,,,,,,,,,,,,,,,,,,,,,,,,,,,,,,,,,,,,,,,,,,,,,,,,,,,,,,,,,,,,,,,,,
1720179315,66,0,4257.820313,4207.563965,4266.794922,4248.589844,4230.512695,4214.615234,4231.794922,4231.282227,4196.153809,4216.538574,4380.769043,4448.846191,4331.025879,4430.512695,,,,,,,,,,,,,,,,,,,,,,,,,,,,,,,,,,,,,,,,,,,,,,,,,,,,,,,,,,,,,,,,,,,,,,
1720179315,67,0,4255.128418,4208.205078,4265.256348,4250.128418,4232.05127,4220.256348,4227.94873,4230.897461,4186.538574,4222.05127,4382.307617,4443.846191,4328.717773,4434.102539,,,,,,,,,,,,,,,,,,,,,,,,,,,,,,,,,,,,,,,,,,,,,,,,,,,,,,,,,,,,,,,,,,,,,,
1720179315,68,0,4263.846191,4214.615234,4268.846191,4251.922852,4234.230957,4223.077148,4231.922852,4231.922852,4191.282227,4229.487305,4384.358887,4445.128418,4316.410156,4418.589844,,,,,,,,,,,,,,,,,,,,,,,,,,,,,,,,,,,,,,,,,,,,,,,,,,,,,,,,,,,,,,,,,,,,,,
1720179315,69,0,4258.333496,4208.077148,4262.307617,4249.102539,4237.05127,4223.077148,4237.820313,4232.179688,4208.205078,4236.922852,4379.615234,4441.282227,4314.487305,4408.205078,,,,,,,,,,,,,,,,,,,,,,,,,,,,,,,,,,,,,,,,,,,,,,,,,,,,,,,,,,,,,,,,,,,,,,
1720179315,70,0,4249.743652,4199.871582,4250,4245.769043,4235,4230.641113,4245.128418,4235.256348,4217.94873,4236.410156,4381.153809,4429.487305,4327.692383,4425.128418,,,,,,,,,,,,,,,,,,,,,,,,,,,,,,,,,,,,,,,,,,,,,,,,,,,,,,,,,,,,,,,,,,,,,,
1720179315,71,0,4253.077148,4196.410156,4246.410156,4242.563965,4228.461426,4235.512695,4247.94873,4243.333496,4218.461426,4228.589844,4391.025879,4430.512695,4327.563965,4423.333496,,,,,,,,,,,,,,,,,,,,,,,,,,,,,,,,,,,,,,,,,,,,,,,,,,,,,,,,,,,,,,,,,,,,,,
1720179315,72,0,4246.794922,4187.179688,4246.282227,4233.333496,4227.05127,4232.436035,4247.307617,4247.563965,4222.307617,4235.641113,4384.487305,4439.871582,4318.205078,4411.922852,,,,,,,,,,,,,,,,,,,,,,,,,,,,,,,,,,,,,,,,,,,,,,,,,,,,,,,,,,,,,,,,,,,,,,
1720179315,73,0,4241.922852,4187.692383,4252.307617,4229.102539,4231.025879,4234.615234,4247.307617,4247.179688,4223.333496,4248.077148,4382.563965,4446.282227,4327.692383,4434.743652,,,,,,,,,,,,,,,,,,,,,,,,,,,,,,,,,,,,,,,,,,,,,,,,,,,,,,,,,,,,,,,,,,,,,,
1720179315,74,0,4257.436035,4201.666504,4268.717773,4241.922852,4233.461426,4237.307617,4240.384766,4241.794922,4217.820313,4252.436035,4393.077148,4460.769043,4342.179688,4454.615234,,,,,,,,,,,,,,,,,,,,,,,,,,,,,,,,,,,,,,,,,,,,,,,,,,,,,,,,,,,,,,,,,,,,,,
1720179315,75,0,4266.794922,4205.897461,4281.922852,4257.692383,4232.179688,4230,4231.922852,4234.743652,4212.307617,4255.641113,4389.743652,4477.820313,4342.307617,4445.512695,,,,,,,,,,,,,,,,,,,,,,,,,,,,,,,,,,,,,,,,,,,,,,,,,,,,,,,,,,,,,,,,,,,,,,
1720179315,76,0,4266.153809,4208.589844,4288.205078,4261.025879,4231.282227,4227.563965,4233.461426,4241.922852,4205.128418,4256.025879,4388.333496,4481.794922,4342.563965,4451.666504,,,,,,,,,,,,,,,,,,,,,,,,,,,,,,,,,,,,,,,,,,,,,,,,,,,,,,,,,,,,,,,,,,,,,,
1720179315,77,0,4268.846191,4215,4283.846191,4254.230957,4235.384766,4231.153809,4236.025879,4247.692383,4190.128418,4250.897461,4392.563965,4477.692383,4344.871582,4463.461426,,,,,,,,,,,,,,,,,,,,,,,,,,,,,,,,,,,,,,,,,,,,,,,,,,,,,,,,,,,,,,,,,,,,,,
1720179315,78,0,4265.384766,4210.128418,4273.974121,4243.846191,4241.025879,4227.820313,4229.358887,4236.153809,4174.358887,4246.666504,4390.897461,4474.871582,4349.487305,4450.641113,,,,,,,,,,,,,,,,,,,,,,,,,,,,,,,,,,,,,,,,,,,,,,,,,,,,,,,,,,,,,,,,,,,,,,
1720179315,79,0,4253.077148,4192.692383,4273.717773,4237.820313,4239.615234,4225.128418,4229.487305,4233.205078,4179.487305,4247.563965,4390.769043,4476.922852,4348.077148,4434.102539,,,,,,,,,,,,,,,,,,,,,,,,,,,,,,,,,,,,,,,,,,,,,,,,,,,,,,,,,,,,,,,,,,,,,,
1720179315,80,0,4250.512695,4185.769043,4274.615234,4243.077148,4235,4229.871582,4242.820313,4249.230957,4204.102539,4253.846191,4389.487305,4478.717773,4338.461426,4442.307617,1.990523,4.849885,0.9202,1.147457,0.514639,2.861987,5.856621,0.734698,0.550965,0.313636,2.567418,8.68307,1.058651,0.725066,0.307215,3.814902,6.246774,1.345329,0.550292,0.510117,0.600991,1.997725,0.346171,0.300904,0.136868,0.250469,3.042264,0.345196,0.128592,0.082231,1.24767,39.652554,0.811187,0.740845,0.193349,1.851924,36.59206,0.428734,0.498327,0.235832,2.150523,74.834846,0.802691,0.813404,0.265485,1.734192,3.880816,2.156554,0.761409,0.391517,0.186025,0.255647,0.032735,0.071318,0.119525,3.159274,16.168833,1.897543,1.008599,0.587326,2.798306,8.567565,1.474791,0.822931,0.48647,2.795454,11.164371,1.451168,1.158889,0.981099
1720179315,81,0,4257.179688,4200.384766,4265,4250.384766,4232.179688,4233.461426,4250.897461,4260.769043,4219.615234,4268.974121,4385.641113,4467.436035,4342.94873,4458.717773,,,,,,,,,,,,,,,,,,,,,,,,,,,,,,,,,,,,,,,,,,,,,,,,,,,,,,,,,,,,,,,,,,,,,,
1720179315,82,0,4253.333496,4212.179688,4255.897461,4244.615234,4231.410156,4238.205078,4252.820313,4262.307617,4220,4273.846191,4392.05127,4456.410156,4354.743652,4453.333496,,,,,,,,,,,,,,,,,,,,,,,,,,,,,,,,,,,,,,,,,,,,,,,,,,,,,,,,,,,,,,,,,,,,,,
1720179315,83,0,4242.820313,4208.333496,4254.102539,4239.487305,4238.333496,4247.307617,4260.512695,4262.179688,4220.641113,4264.743652,4394.102539,4460,4353.846191,4445.769043,,,,,,,,,,,,,,,,,,,,,,,,,,,,,,,,,,,,,,,,,,,,,,,,,,,,,,,,,,,,,,,,,,,,,,
1720179315,84,0,4252.05127,4208.846191,4258.205078,4245,4246.794922,4251.410156,4262.307617,4262.692383,4220.769043,4267.179688,4385.128418,4468.077148,4349.102539,4452.179688,,,,,,,,,,,,,,,,,,,,,,,,,,,,,,,,,,,,,,,,,,,,,,,,,,,,,,,,,,,,,,,,,,,,,,
1720179315,85,0,4268.077148,4217.820313,4270.256348,4248.205078,4245.256348,4246.666504,4251.794922,4262.820313,4217.179688,4279.487305,4391.410156,4479.615234,4352.436035,4458.974121,,,,,,,,,,,,,,,,,,,,,,,,,,,,,,,,,,,,,,,,,,,,,,,,,,,,,,,,,,,,,,,,,,,,,,
1720179315,86,0,4258.589844,4216.025879,4282.307617,4247.436035,4243.717773,4240.641113,4246.153809,4254.871582,4210.897461,4276.794922,4396.922852,4491.025879,4356.025879,4454.871582,,,,,,,,,,,,,,,,,,,,,,,,,,,,,,,,,,,,,,,,,,,,,,,,,,,,,,,,,,,,,,,,,,,,,,
1720179315,87,0,4251.282227,4213.974121,4295.384766,4253.333496,4248.461426,4241.153809,4249.358887,4249.102539,4200.384766,4265.641113,4392.820313,4497.307617,4358.205078,4453.077148,,,,,,,,,,,,,,,,,,,,,,,,,,,,,,,,,,,,,,,,,,,,,,,,,,,,,,,,,,,,,,,,,,,,,,
1720179315,88,0,4267.436035,4226.153809,4312.05127,4267.436035,4248.717773,4242.05127,4246.922852,4250.512695,4187.563965,4269.615234,4394.230957,4507.179688,4361.794922,4459.230957,,,,,,,,,,,,,,,,,,,,,,,,,,,,,,,,,,,,,,,,,,,,,,,,,,,,,,,,,,,,,,,,,,,,,,
1720179315,89,0,4278.974121,4236.410156,4316.538574,4277.307617,4250.512695,4239.615234,4241.025879,4246.666504,4179.615234,4283.461426,4394.358887,4511.922852,4361.922852,4464.487305,,,,,,,,,,,,,,,,,,,,,,,,,,,,,,,,,,,,,,,,,,,,,,,,,,,,,,,,,,,,,,,,,,,,,,
1720179315,90,0,4274.102539,4234.615234,4311.282227,4273.974121,4262.179688,4240.256348,4241.922852,4249.102539,4182.692383,4290.641113,4395.384766,4506.282227,4362.563965,4467.692383,,,,,,,,,,,,,,,,,,,,,,,,,,,,,,,,,,,,,,,,,,,,,,,,,,,,,,,,,,,,,,,,,,,,,,
1720179315,91,0,4270,4230.512695,4313.846191,4264.230957,4265.512695,4245.897461,4243.077148,4260.641113,4197.307617,4293.205078,4396.666504,4510.384766,4365.897461,4462.436035,,,,,,,,,,,,,,,,,,,,,,,,,,,,,,,,,,,,,,,,,,,,,,,,,,,,,,,,,,,,,,,,,,,,,,
1720179315,92,0,4273.077148,4229.102539,4322.436035,4260.384766,4255.384766,4251.410156,4240.769043,4267.436035,4213.205078,4298.333496,4399.615234,4520.769043,4364.615234,4460,,,,,,,,,,,,,,,,,,,,,,,,,,,,,,,,,,,,,,,,,,,,,,,,,,,,,,,,,,,,,,,,,,,,,,
1720179315,93,0,4273.846191,4220.769043,4315.641113,4255.641113,4248.333496,4251.794922,4246.025879,4271.538574,4220.769043,4295.256348,4399.871582,4515.384766,4358.333496,4464.358887,,,,,,,,,,,,,,,,,,,,,,,,,,,,,,,,,,,,,,,,,,,,,,,,,,,,,,,,,,,,,,,,,,,,,,
1720179315,94,0,4262.179688,4209.743652,4292.94873,4248.461426,4245.897461,4255.384766,4261.282227,4277.307617,4220.128418,4289.358887,4395.897461,4498.205078,4352.563965,4455.128418,,,,,,,,,,,,,,,,,,,,,,,,,,,,,,,,,,,,,,,,,,,,,,,,,,,,,,,,,,,,,,,,,,,,,,
1720179315,95,0,4239.487305,4203.974121,4285.897461,4247.436035,4249.871582,4265,4273.717773,4281.538574,4221.410156,4299.230957,4398.974121,4493.846191,4349.743652,4442.05127,,,,,,,,,,,,,,,,,,,,,,,,,,,,,,,,,,,,,,,,,,,,,,,,,,,,,,,,,,,,,,,,,,,,,,
1720179315,96,0,4242.563965,4200.384766,4303.461426,4243.974121,4256.922852,4270.256348,4279.230957,4284.615234,4226.794922,4311.794922,4401.153809,4509.102539,4351.153809,4443.333496,1.865812,5.525676,0.767356,1.12645,0.508868,2.55933,6.135402,0.730611,0.589113,0.293648,2.445305,9.228902,0.949488,0.800584,0.303731,3.358886,6.269203,1.302732,0.579846,0.482398,0.556492,1.918797,0.345915,0.32133,0.157169,0.201213,3.421637,0.353865,0.146634,0.069932,0.991473,39.167194,0.752301,0.813263,0.194591,1.606932,30.999155,0.521948,0.536711,0.255908,1.99489,66.026993,0.983835,0.927679,0.28658,1.51889,3.433979,2.04111,0.803204,0.386618,0.202123,0.217184,0.031692,0.066768,0.108396,3.228981,14.52389,1.752601,1.018447,0.608533,2.807964,7.634804,1.220776,0.808482,0.508985,3.264038,11.242965,1.090247,1.213867,0.863018
1720179315,97,0,4262.179688,4200.512695,4312.692383,4245,4254.358887,4264.871582,4277.436035,4284.871582,4222.563965,4310.384766,4396.538574,4520.769043,4361.282227,4449.230957,,,,,,,,,,,,,,,,,,,,,,,,,,,,,,,,,,,,,,,,,,,,,,,,,,,,,,,,,,,,,,,,,,,,,,
1720179315,98,0,4263.589844,4202.692383,4298.461426,4257.820313,4245.641113,4257.436035,4268.333496,4280.512695,4210.128418,4306.410156,4399.871582,4513.717773,4372.94873,4454.615234,,,,,,,,,,,,,,,,,,,,,,,,,,,,,,,,,,,,,,,,,,,,,,,,,,,,,,,,,,,,,,,,,,,,,,
1720179315,99,0,4256.794922,4209.230957,4289.743652,4256.538574,4247.05127,4253.333496,4259.102539,4278.974121,4196.794922,4313.717773,4409.871582,4504.743652,4377.179688,4461.666504,,,,,,,,,,,,,,,,,,,,,,,,,,,,,,,,,,,,,,,,,,,,,,,,,,,,,,,,,,,,,,,,,,,,,,
1720179315,100,0,4266.538574,4224.871582,4303.717773,4249.358887,4256.666504,4248.589844,4252.05127,4274.358887,4181.282227,4309.230957,4400.897461,4514.615234,4383.077148,4464.487305,,,,,,,,,,,,,,,,,,,,,,,,,,,,,,,,,,,,,,,,,,,,,,,,,,,,,,,,,,,,,,,,,,,,,,
1720179315,101,0,4283.589844,4235.897461,4319.358887,4264.743652,4261.025879,4246.922852,4246.153809,4263.589844,4171.922852,4295.384766,4395.769043,4528.461426,4386.922852,4467.05127,,,,,,,,,,,,,,,,,,,,,,,,,,,,,,,,,,,,,,,,,,,,,,,,,,,,,,,,,,,,,,,,,,,,,,
1720179315,102,0,4280.128418,4231.922852,4322.820313,4278.717773,4257.94873,4251.282227,4244.871582,4261.666504,4176.410156,4306.666504,4409.102539,4526.410156,4383.077148,4475.256348,,,,,,,,,,,,,,,,,,,,,,,,,,,,,,,,,,,,,,,,,,,,,,,,,,,,,,,,,,,,,,,,,,,,,,
1720179315,103,0,4268.205078,4225.769043,4322.307617,4269.743652,4260.384766,4255.128418,4247.692383,4272.307617,4192.820313,4332.692383,4407.307617,4522.05127,4389.358887,4481.666504,,,,,,,,,,,,,,,,,,,,,,,,,,,,,,,,,,,,,,,,,,,,,,,,,,,,,,,,,,,,,,,,,,,,,,
1720179315,104,0,4269.358887,4220.384766,4323.589844,4260.384766,4261.538574,4254.487305,4250,4286.410156,4212.436035,4343.717773,4402.94873,4532.05127,4398.717773,4480.384766,,,,,,,,,,,,,,,,,,,,,,,,,,,,,,,,,,,,,,,,,,,,,,,,,,,,,,,,,,,,,,,,,,,,,,
1720179315,105,0,4273.717773,4216.538574,4322.179688,4263.974121,4253.461426,4256.410156,4255.384766,4294.487305,4223.333496,4337.307617,4406.538574,4540.769043,4392.05127,4470,,,,,,,,,,,,,,,,,,,,,,,,,,,,,,,,,,,,,,,,,,,,,,,,,,,,,,,,,,,,,,,,,,,,,,
1720179315,106,0,4261.794922,4219.358887,4315.256348,4267.820313,4254.743652,4261.153809,4263.077148,4297.179688,4222.94873,4328.846191,4405.384766,4529.871582,4383.205078,4463.205078,,,,,,,,,,,,,,,,,,,,,,,,,,,,,,,,,,,,,,,,,,,,,,,,,,,,,,,,,,,,,,,,,,,,,,
1720179315,107,0,4240.256348,4214.487305,4309.615234,4263.205078,4262.436035,4265.128418,4266.666504,4294.358887,4216.922852,4328.205078,4406.410156,4516.538574,4382.563965,4462.563965,,,,,,,,,,,,,,,,,,,,,,,,,,,,,,,,,,,,,,,,,,,,,,,,,,,,,,,,,,,,,,,,,,,,,,
1720179315,108,0,4236.666504,4200.897461,4308.717773,4250.256348,4257.563965,4268.205078,4267.05127,4283.974121,4203.205078,4328.974121,4406.410156,4518.333496,4373.077148,4447.692383,,,,,,,,,,,,,,,,,,,,,,,,,,,,,,,,,,,,,,,,,,,,,,,,,,,,,,,,,,,,,,,,,,,,,,
1720179315,109,0,4254.487305,4197.436035,4303.589844,4241.410156,4254.230957,4270.512695,4264.871582,4275.769043,4185.384766,4320.256348,4396.922852,4518.974121,4362.563965,4438.333496,,,,,,,,,,,,,,,,,,,,,,,,,,,,,,,,,,,,,,,,,,,,,,,,,,,,,,,,,,,,,,,,,,,,,,
1720179315,110,0,4264.358887,4202.563965,4302.692383,4245.512695,4255.897461,4272.307617,4264.871582,4279.871582,4180.384766,4316.153809,4401.153809,4516.666504,4372.05127,4461.282227,,,,,,,,,,,,,,,,,,,,,,,,,,,,,,,,,,,,,,,,,,,,,,,,,,,,,,,,,,,,,,,,,,,,,,
1720179315,111,0,4255.641113,4206.538574,4317.94873,4257.692383,4249.487305,4269.871582,4263.717773,4285.897461,4185.256348,4329.487305,4414.871582,4530.512695,4387.179688,4484.230957,,,,,,,,,,,,,,,,,,,,,,,,,,,,,,,,,,,,,,,,,,,,,,,,,,,,,,,,,,,,,,,,,,,,,,
1720179316,112,0,4266.922852,4215.256348,4330.384766,4271.410156,4252.05127,4266.410156,4256.282227,4281.794922,4182.05127,4339.230957,4409.487305,4543.461426,4395.256348,4491.794922,1.70555,6.381991,0.720639,1.042273,0.526691,2.183449,6.620958,0.802137,0.627949,0.291928,2.236942,10.330371,0.984698,0.86261,0.296432,2.770926,6.737529,1.316988,0.639331,0.458728,0.541434,1.901973,0.357421,0.329729,0.175699,0.161221,3.639132,0.357292,0.161153,0.062395,0.822742,37.042152,0.814864,0.846993,0.192803,1.375939,25.091839,0.688215,0.580568,0.272235,1.774861,56.329945,1.427139,1.110352,0.307386,1.289551,2.935565,1.84495,0.853092,0.397691,0.206873,0.194413,0.038549,0.064141,0.09933,3.201498,13.542717,1.773826,1.018423,0.615889,2.779741,6.844623,1.128662,0.835589,0.555235,3.623935,11.564973,1.028764,1.304313,0.776593
1720179316,113,0,4286.282227,4222.307617,4333.461426,4273.077148,4265.641113,4267.179688,4248.717773,4276.282227,4171.282227,4336.794922,4407.05127,4540.641113,4401.410156,4493.077148,,,,,,,,,,,,,,,,,,,,,,,,,,,,,,,,,,,,,,,,,,,,,,,,,,,,,,,,,,,,,,,,,,,,,,
1720179316,114,0,4271.410156,4214.871582,4340.256348,4261.153809,4265.769043,4269.102539,4245.897461,4276.153809,4171.410156,4336.025879,4413.461426,4545.128418,4403.077148,4484.615234,,,,,,,,,,,,,,,,,,,,,,,,,,,,,,,,,,,,,,,,,,,,,,,,,,,,,,,,,,,,,,,,,,,,,,
1720179316,115,0,4252.05127,4207.179688,4334.487305,4260.256348,4260.128418,4269.615234,4248.077148,4286.794922,4189.871582,4342.563965,4412.307617,4552.563965,4399.102539,4476.922852,,,,,,,,,,,,,,,,,,,,,,,,,,,,,,,,,,,,,,,,,,,,,,,,,,,,,,,,,,,,,,,,,,,,,,
1720179316,116,0,4257.820313,4207.820313,4313.077148,4268.589844,4258.205078,4269.871582,4257.94873,4300.641113,4211.410156,4346.666504,4409.102539,4544.615234,4399.102539,4484.102539,,,,,,,,,,,,,,,,,,,,,,,,,,,,,,,,,,,,,,,,,,,,,,,,,,,,,,,,,,,,,,,,,,,,,,
1720179316,117,0,4254.743652,4198.974121,4305.897461,4254.102539,4254.358887,4271.025879,4267.179688,4300.769043,4215.641113,4338.077148,4407.436035,4533.589844,4397.05127,4485.128418,,,,,,,,,,,,,,,,,,,,,,,,,,,,,,,,,,,,,,,,,,,,,,,,,,,,,,,,,,,,,,,,,,,,,,
1720179316,118,0,4241.410156,4185.384766,4311.410156,4233.205078,4246.153809,4273.974121,4265.256348,4295.897461,4207.692383,4337.820313,4412.05127,4529.102539,4390.512695,4469.102539,,,,,,,,,,,,,,,,,,,,,,,,,,,,,,,,,,,,,,,,,,,,,,,,,,,,,,,,,,,,,,,,,,,,,,
1720179316,119,0,4251.025879,4189.743652,4310.256348,4241.794922,4247.820313,4280.512695,4263.589844,4296.282227,4200,4352.307617,4412.94873,4522.692383,4391.922852,4465.897461,,,,,,,,,,,,,,,,,,,,,,,,,,,,,,,,,,,,,,,,,,,,,,,,,,,,,,,,,,,,,,,,,,,,,,
1720179316,120,0,4256.794922,4202.179688,4308.077148,4252.179688,4255.384766,4282.563965,4267.05127,4290.512695,4188.077148,4349.102539,4407.692383,4517.05127,4392.692383,4470.641113,,,,,,,,,,,,,,,,,,,,,,,,,,,,,,,,,,,,,,,,,,,,,,,,,,,,,,,,,,,,,,,,,,,,,,
1720179316,121,0,4241.666504,4201.153809,4306.922852,4244.102539,4255,4280.512695,4261.025879,4279.871582,4168.205078,4330.384766,4405.256348,4516.025879,4382.307617,4464.743652,,,,,,,,,,,,,,,,,,,,,,,,,,,,,,,,,,,,,,,,,,,,,,,,,,,,,,,,,,,,,,,,,,,,,,
1720179316,122,0,4240.641113,4196.666504,4308.589844,4245.769043,4254.102539,4281.794922,4248.077148,4276.410156,4153.974121,4322.820313,4407.05127,4518.205078,4376.282227,4462.307617,,,,,,,,,,,,,,,,,,,,,,,,,,,,,,,,,,,,,,,,,,,,,,,,,,,,,,,,,,,,,,,,,,,,,,
1720179316,123,0,4260,4200.128418,4317.436035,4257.94873,4257.820313,4283.717773,4246.666504,4276.153809,4147.563965,4328.846191,4414.102539,4522.563965,4386.025879,4471.410156,,,,,,,,,,,,,,,,,,,,,,,,,,,,,,,,,,,,,,,,,,,,,,,,,,,,,,,,,,,,,,,,,,,,,,
1720179316,124,0,4254.358887,4196.538574,4322.692383,4253.974121,4261.153809,4283.333496,4257.563965,4273.205078,4141.282227,4336.666504,4415.897461,4528.205078,4394.487305,4477.05127,,,,,,,,,,,,,,,,,,,,,,,,,,,,,,,,,,,,,,,,,,,,,,,,,,,,,,,,,,,,,,,,,,,,,,
1720179316,125,0,4240.897461,4190.641113,4319.871582,4244.743652,4266.282227,4281.794922,4264.743652,4279.230957,4144.358887,4340,4412.692383,4539.487305,4394.487305,4471.922852,,,,,,,,,,,,,,,,,,,,,,,,,,,,,,,,,,,,,,,,,,,,,,,,,,,,,,,,,,,,,,,,,,,,,,
1720179316,126,0,4261.025879,4199.358887,4323.974121,4254.615234,4269.615234,4280.897461,4263.846191,4292.05127,4156.922852,4346.282227,4414.871582,4552.94873,4399.487305,4470.256348,,,,,,,,,,,,,,,,,,,,,,,,,,,,,,,,,,,,,,,,,,,,,,,,,,,,,,,,,,,,,,,,,,,,,,
1720179316,127,0,4269.358887,4207.179688,4336.794922,4265.384766,4265.769043,4281.410156,4263.589844,4297.307617,4170.128418,4362.05127,4420.256348,4560.384766,4409.487305,4481.410156,,,,,,,,,,,,,,,,,,,,,,,,,,,,,,,,,,,,,,,,,,,,,,,,,,,,,,,,,,,,,,,,,,,,,,
1720179316,0,0,4251.025879,4201.922852,4339.230957,4260,4265.256348,4282.563965,4265,4299.487305,4189.230957,4373.974121,4416.794922,4567.05127,4421.538574,4505.769043,1.568413,7.204951,0.789175,0.916128,0.557859,1.85032,7.205489,0.936728,0.671283,0.305774,2.010497,11.708131,1.147167,0.888518,0.283671,2.245914,7.475798,1.388676,0.720838,0.438456,0.56844,1.906008,0.366887,0.326432,0.187279,0.149276,3.665256,0.351501,0.171126,0.060896,0.809999,33.986847,0.948504,0.845342,0.188286,1.252679,20.179441,0.884156,0.618222,0.281613,1.5456,47.311874,2.095282,1.339275,0.321147,1.122787,2.503834,1.63152,0.900199,0.417967,0.199873,0.19068,0.050337,0.063811,0.092758,3.082294,13.355606,1.991584,1.003263,0.602989,2.634662,6.331346,1.194058,0.894298,0.60793,3.729543,11.937497,1.3122,1.396637,0.728961
1720179316,1,0,4252.94873,4200.384766,4327.05127,4259.743652,4266.282227,4281.410156,4265.256348,4306.794922,4207.179688,4373.717773,4415.128418,4574.487305,4427.05127,4520.256348,,,,,,,,,,,,,,,,,,,,,,,,,,,,,,,,,,,,,,,,,,,,,,,,,,,,,,,,,,,,,,,,,,,,,,
1720179316,2,0,4261.538574,4205.384766,4320.641113,4262.179688,4261.538574,4279.358887,4263.974121,4311.153809,4212.179688,4372.563965,4422.820313,4571.666504,4422.436035,4503.846191,,,,,,,,,,,,,,,,,,,,,,,,,,,,,,,,,,,,,,,,,,,,,,,,,,,,,,,,,,,,,,,,,,,,,,
1720179316,3,0,4253.205078,4203.974121,4325.512695,4255.384766,4261.153809,4282.692383,4262.436035,4305.256348,4208.589844,4370,4419.743652,4559.871582,4414.230957,4488.717773,,,,,,,,,,,,,,,,,,,,,,,,,,,,,,,,,,,,,,,,,,,,,,,,,,,,,,,,,,,,,,,,,,,,,,
1720179316,4,0,4251.666504,4202.692383,4327.179688,4251.922852,4264.871582,4290,4261.666504,4298.205078,4198.717773,4364.487305,4412.94873,4551.666504,4412.307617,4496.666504,,,,,,,,,,,,,,,,,,,,,,,,,,,,,,,,,,,,,,,,,,,,,,,,,,,,,,,,,,,,,,,,,,,,,,
1720179316,5,0,4251.666504,4202.820313,4325.128418,4252.436035,4267.179688,4295,4262.307617,4293.205078,4182.563965,4358.205078,4414.487305,4546.410156,4411.922852,4499.615234,,,,,,,,,,,,,,,,,,,,,,,,,,,,,,,,,,,,,,,,,,,,,,,,,,,,,,,,,,,,,,,,,,,,,,
1720179316,6,0,4235.384766,4191.153809,4315.512695,4247.820313,4264.871582,4292.179688,4259.615234,4282.820313,4162.307617,4347.307617,4413.589844,4531.922852,4400.897461,4477.05127,,,,,,,,,,,,,,,,,,,,,,,,,,,,,,,,,,,,,,,,,,,,,,,,,,,,,,,,,,,,,,,,,,,,,,
1720179316,7,0,4226.025879,4171.666504,4290.128418,4232.179688,4253.846191,4285.256348,4248.461426,4270.641113,4140.512695,4339.230957,4410.641113,4508.333496,4377.820313,4450.384766,,,,,,,,,,,,,,,,,,,,,,,,,,,,,,,,,,,,,,,,,,,,,,,,,,,,,,,,,,,,,,,,,,,,,,
1720179316,8,0,4220,4162.692383,4276.410156,4214.230957,4244.871582,4285.256348,4239.358887,4267.179688,4127.307617,4337.179688,4409.487305,4495.512695,4359.743652,4435.769043,,,,,,,,,,,,,,,,,,,,,,,,,,,,,,,,,,,,,,,,,,,,,,,,,,,,,,,,,,,,,,,,,,,,,,
1720179316,9,0,4223.717773,4180.256348,4299.487305,4227.563965,4259.615234,4292.436035,4244.615234,4274.871582,4133.846191,4346.282227,4409.230957,4516.922852,4378.974121,4436.410156,,,,,,,,,,,,,,,,,,,,,,,,,,,,,,,,,,,,,,,,,,,,,,,,,,,,,,,,,,,,,,,,,,,,,,
1720179316,10,0,4257.179688,4209.871582,4331.282227,4263.974121,4275.512695,4295.256348,4251.410156,4285,4147.436035,4370.897461,4420,4556.666504,4420,4474.230957,,,,,,,,,,,,,,,,,,,,,,,,,,,,,,,,,,,,,,,,,,,,,,,,,,,,,,,,,,,,,,,,,,,,,,
1720179316,11,0,4275.769043,4219.871582,4336.538574,4269.487305,4273.077148,4289.230957,4247.307617,4287.94873,4155.769043,4388.589844,4428.077148,4572.307617,4436.666504,4521.025879,,,,,,,,,,,,,,,,,,,,,,,,,,,,,,,,,,,,,,,,,,,,,,,,,,,,,,,,,,,,,,,,,,,,,,
1720179316,12,0,4256.025879,4215.256348,4337.05127,4257.94873,4268.974121,4283.077148,4243.205078,4290.897461,4172.307617,4382.563965,4417.307617,4567.05127,4432.436035,4523.333496,,,,,,,,,,,,,,,,,,,,,,,,,,,,,,,,,,,,,,,,,,,,,,,,,,,,,,,,,,,,,,,,,,,,,,
1720179316,13,0,4246.282227,4214.871582,4344.871582,4270.641113,4269.230957,4286.153809,4250.256348,4304.358887,4196.794922,4373.205078,4418.974121,4572.436035,4425.641113,4504.358887,,,,,,,,,,,,,,,,,,,,,,,,,,,,,,,,,,,,,,,,,,,,,,,,,,,,,,,,,,,,,,,,,,,,,,
1720179316,14,0,4252.563965,4210.256348,4338.589844,4269.743652,4270.256348,4293.974121,4258.974121,4315.256348,4209.230957,4379.871582,4428.717773,4574.358887,4421.538574,4493.589844,,,,,,,,,,,,,,,,,,,,,,,,,,,,,,,,,,,,,,,,,,,,,,,,,,,,,,,,,,,,,,,,,,,,,,
1720179316,15,0,4250.897461,4200.128418,4321.666504,4241.794922,4268.717773,4297.05127,4266.410156,4313.589844,4202.563965,4386.282227,4423.077148,4560,4420.897461,4486.794922,,,,,,,,,,,,,,,,,,,,,,,,,,,,,,,,,,,,,,,,,,,,,,,,,,,,,,,,,,,,,,,,,,,,,,
1720179316,16,0,4246.153809,4198.974121,4316.666504,4240.128418,4268.333496,4296.538574,4274.615234,4309.102539,4192.692383,4381.282227,4419.615234,4548.846191,4422.05127,4490.128418,1.457548,7.733541,0.925957,0.777268,0.588664,1.653083,7.657644,1.100207,0.718928,0.32423,1.799342,12.861694,1.358666,0.867832,0.267602,1.890051,8.104684,1.471716,0.808005,0.419804,0.623315,1.863349,0.356712,0.319559,0.18836,0.170102,3.507612,0.330557,0.176192,0.063738,0.948648,30.461849,1.114784,0.825091,0.180863,1.267715,16.671059,1.074392,0.640322,0.281069,1.312564,39.652119,2.849655,1.568032,0.320902,0.948812,2.173332,1.470629,0.94414,0.435964,0.181793,0.197266,0.062553,0.064685,0.089598,2.861475,13.525194,2.337047,0.964191,0.569857,2.331003,6.036159,1.362982,0.956144,0.64041,3.538245,12.001236,1.866114,1.452779,0.705518
1720179316,17,0,4243.974121,4200.512695,4316.025879,4259.871582,4270.384766,4298.974121,4274.358887,4303.717773,4188.461426,4377.563965,4422.692383,4547.94873,4415.512695,4490.641113,,,,,,,,,,,,,,,,,,,,,,,,,,,,,,,,,,,,,,,,,,,,,,,,,,,,,,,,,,,,,,,,,,,,,,
1720179316,18,0,4239.487305,4197.692383,4310.256348,4258.205078,4269.487305,4301.794922,4265.769043,4297.692383,4180.384766,4383.717773,4425.384766,4547.436035,4408.461426,4472.94873,,,,,,,,,,,,,,,,,,,,,,,,,,,,,,,,,,,,,,,,,,,,,,,,,,,,,,,,,,,,,,,,,,,,,,
1720179316,19,0,4242.820313,4201.538574,4312.692383,4248.717773,4269.615234,4299.871582,4259.871582,4294.358887,4168.974121,4381.282227,4423.333496,4546.153809,4414.230957,4472.436035,,,,,,,,,,,,,,,,,,,,,,,,,,,,,,,,,,,,,,,,,,,,,,,,,,,,,,,,,,,,,,,,,,,,,,
1720179316,20,0,4255.128418,4214.487305,4325.256348,4260.128418,4275.512695,4299.102539,4260.897461,4295.384766,4162.05127,4370.512695,4423.333496,4555.897461,4426.794922,4499.871582,,,,,,,,,,,,,,,,,,,,,,,,,,,,,,,,,,,,,,,,,,,,,,,,,,,,,,,,,,,,,,,,,,,,,,
1720179316,21,0,4257.94873,4221.538574,4336.153809,4267.692383,4279.615234,4301.282227,4257.563965,4294.487305,4156.410156,4378.846191,4427.820313,4570.384766,4433.461426,4512.563965,,,,,,,,,,,,,,,,,,,,,,,,,,,,,,,,,,,,,,,,,,,,,,,,,,,,,,,,,,,,,,,,,,,,,,
1720179316,22,0,4254.487305,4218.333496,4333.717773,4258.846191,4277.05127,4300.641113,4247.94873,4288.205078,4150.256348,4390.897461,4426.666504,4569.230957,4430.128418,4506.410156,,,,,,,,,,,,,,,,,,,,,,,,,,,,,,,,,,,,,,,,,,,,,,,,,,,,,,,,,,,,,,,,,,,,,,
1720179316,23,0,4255.897461,4215.384766,4322.307617,4258.846191,4278.846191,4297.563965,4242.94873,4284.743652,4156.282227,4385.897461,4422.820313,4562.179688,4426.282227,4500.128418,,,,,,,,,,,,,,,,,,,,,,,,,,,,,,,,,,,,,,,,,,,,,,,,,,,,,,,,,,,,,,,,,,,,,,
1720179316,24,0,4252.692383,4216.922852,4329.102539,4267.563965,4280.897461,4296.922852,4246.282227,4292.05127,4176.410156,4387.563965,4428.077148,4568.589844,4430.512695,4499.871582,,,,,,,,,,,,,,,,,,,,,,,,,,,,,,,,,,,,,,,,,,,,,,,,,,,,,,,,,,,,,,,,,,,,,,
1720179316,25,0,4246.282227,4216.538574,4340.512695,4267.179688,4275.897461,4298.974121,4255,4303.589844,4194.102539,4398.461426,4430.128418,4572.05127,4431.666504,4506.153809,,,,,,,,,,,,,,,,,,,,,,,,,,,,,,,,,,,,,,,,,,,,,,,,,,,,,,,,,,,,,,,,,,,,,,
1720179316,26,0,4253.717773,4215.128418,4332.563965,4260.512695,4271.282227,4297.692383,4260.512695,4310.641113,4201.282227,4394.871582,4421.410156,4565.641113,4422.436035,4510.384766,,,,,,,,,,,,,,,,,,,,,,,,,,,,,,,,,,,,,,,,,,,,,,,,,,,,,,,,,,,,,,,,,,,,,,
1720179316,27,0,4259.102539,4210.769043,4320.897461,4253.461426,4267.307617,4297.563965,4261.410156,4313.717773,4201.153809,4383.205078,4425.256348,4565.769043,4413.717773,4500.128418,,,,,,,,,,,,,,,,,,,,,,,,,,,,,,,,,,,,,,,,,,,,,,,,,,,,,,,,,,,,,,,,,,,,,,
1720179316,28,0,4238.333496,4191.025879,4316.538574,4242.307617,4266.666504,4303.974121,4266.410156,4313.461426,4202.94873,4376.153809,4429.102539,4562.692383,4409.230957,4480.897461,,,,,,,,,,,,,,,,,,,,,,,,,,,,,,,,,,,,,,,,,,,,,,,,,,,,,,,,,,,,,,,,,,,,,,
1720179316,29,0,4219.230957,4177.820313,4312.820313,4237.820313,4264.487305,4309.230957,4272.563965,4311.922852,4203.077148,4375,4421.666504,4552.05127,4403.333496,4474.102539,,,,,,,,,,,,,,,,,,,,,,,,,,,,,,,,,,,,,,,,,,,,,,,,,,,,,,,,,,,,,,,,,,,,,,
1720179316,30,0,4230.641113,4198.589844,4317.692383,4249.487305,4261.282227,4306.153809,4267.307617,4306.794922,4189.743652,4379.102539,4425.641113,4546.794922,4399.743652,4477.179688,,,,,,,,,,,,,,,,,,,,,,,,,,,,,,,,,,,,,,,,,,,,,,,,,,,,,,,,,,,,,,,,,,,,,,
1720179316,31,0,4254.615234,4231.153809,4328.205078,4263.205078,4270.769043,4304.358887,4259.871582,4296.282227,4174.358887,4375,4428.077148,4543.846191,4397.05127,4470.897461,,,,,,,,,,,,,,,,,,,,,,,,,,,,,,,,,,,,,,,,,,,,,,,,,,,,,,,,,,,,,,,,,,,,,,
1720179316,32,0,4253.205078,4243.333496,4327.94873,4265.128418,4283.333496,4310.769043,4259.871582,4291.410156,4166.282227,4365.384766,4423.846191,4536.794922,4387.307617,4461.025879,1.345535,7.79526,1.071925,0.655103,0.611077,1.598038,7.76053,1.267452,0.767174,0.334534,1.65015,13.337937,1.554582,0.811951,0.254914,1.694878,8.279736,1.524709,0.880182,0.404176,0.681142,1.732918,0.323305,0.318681,0.178793,0.209902,3.208258,0.293055,0.175867,0.067647,1.142721,26.593536,1.260601,0.799133,0.170349,1.353676,14.228971,1.231724,0.64255,0.269298,1.067531,33.481434,3.458264,1.734374,0.304079,0.866946,1.958788,1.39485,0.988859,0.441723,0.155211,0.202833,0.071461,0.065278,0.091001,2.59501,13.493838,2.721112,0.897228,0.522913,2.024126,5.837462,1.569909,0.989808,0.632818,3.115013,11.505346,2.555067,1.447364,0.685189
1720179316,33,0,4239.743652,4241.025879,4324.743652,4264.743652,4283.077148,4311.153809,4255.256348,4292.563965,4157.563965,4366.538574,4423.846191,4533.333496,4377.563965,4456.153809,,,,,,,,,,,,,,,,,,,,,,,,,,,,,,,,,,,,,,,,,,,,,,,,,,,,,,,,,,,,,,,,,,,,,,
1720179316,34,0,4246.538574,4245.128418,4327.563965,4272.692383,4279.743652,4302.692383,4247.94873,4292.820313,4154.871582,4369.358887,4423.333496,4533.077148,4374.615234,4454.615234,,,,,,,,,,,,,,,,,,,,,,,,,,,,,,,,,,,,,,,,,,,,,,,,,,,,,,,,,,,,,,,,,,,,,,
1720179316,35,0,4258.589844,4252.436035,4330.384766,4280.641113,4280.384766,4299.615234,4247.820313,4292.307617,4162.179688,4368.717773,4422.307617,4535.897461,4372.820313,4457.179688,,,,,,,,,,,,,,,,,,,,,,,,,,,,,,,,,,,,,,,,,,,,,,,,,,,,,,,,,,,,,,,,,,,,,,
1720179316,36,0,4255.641113,4254.615234,4341.025879,4281.153809,4282.94873,4305.512695,4250.128418,4294.743652,4174.358887,4368.589844,4423.333496,4548.461426,4383.077148,4465,,,,,,,,,,,,,,,,,,,,,,,,,,,,,,,,,,,,,,,,,,,,,,,,,,,,,,,,,,,,,,,,,,,,,,
1720179316,37,0,4251.282227,4251.538574,4352.179688,4278.717773,4287.563965,4310.128418,4249.487305,4298.461426,4190.897461,4368.461426,4422.307617,4559.230957,4396.025879,4472.563965,,,,,,,,,,,,,,,,,,,,,,,,,,,,,,,,,,,,,,,,,,,,,,,,,,,,,,,,,,,,,,,,,,,,,,
1720179316,38,0,4253.846191,4251.410156,4343.717773,4278.974121,4294.358887,4309.358887,4252.436035,4304.743652,4203.077148,4376.666504,4425.769043,4553.974121,4390.384766,4471.410156,,,,,,,,,,,,,,,,,,,,,,,,,,,,,,,,,,,,,,,,,,,,,,,,,,,,,,,,,,,,,,,,,,,,,,
1720179316,39,0,4254.871582,4251.666504,4329.487305,4277.436035,4293.589844,4307.179688,4258.589844,4306.666504,4206.282227,4387.563965,4428.077148,4544.230957,4379.230957,4457.692383,,,,,,,,,,,,,,,,,,,,,,,,,,,,,,,,,,,,,,,,,,,,,,,,,,,,,,,,,,,,,,,,,,,,,,
1720179316,40,0,4256.153809,4249.487305,4332.179688,4275.897461,4283.077148,4304.102539,4261.922852,4301.666504,4209.487305,4381.538574,4419.230957,4544.358887,4380.256348,4451.410156,,,,,,,,,,,,,,,,,,,,,,,,,,,,,,,,,,,,,,,,,,,,,,,,,,,,,,,,,,,,,,,,,,,,,,
1720179316,41,0,4253.846191,4254.230957,4340.384766,4279.358887,4273.077148,4305.256348,4261.410156,4302.820313,4210.128418,4372.692383,4424.102539,4550.384766,4387.563965,4460.897461,,,,,,,,,,,,,,,,,,,,,,,,,,,,,,,,,,,,,,,,,,,,,,,,,,,,,,,,,,,,,,,,,,,,,,
1720179316,42,0,4250.256348,4259.871582,4343.077148,4278.717773,4277.692383,4311.153809,4262.436035,4306.538574,4200.512695,4375.897461,4431.666504,4555,4387.436035,4456.410156,,,,,,,,,,,,,,,,,,,,,,,,,,,,,,,,,,,,,,,,,,,,,,,,,,,,,,,,,,,,,,,,,,,,,,
1720179316,43,0,4251.794922,4260.897461,4347.307617,4278.461426,4285.384766,4313.333496,4265.128418,4299.102539,4191.666504,4367.563965,4423.205078,4552.820313,4380.128418,4446.922852,,,,,,,,,,,,,,,,,,,,,,,,,,,,,,,,,,,,,,,,,,,,,,,,,,,,,,,,,,,,,,,,,,,,,,
1720179316,44,0,4256.922852,4260.897461,4348.333496,4282.820313,4285,4311.538574,4262.820313,4290.128418,4182.436035,4349.102539,4422.94873,4539.743652,4372.820313,4456.538574,,,,,,,,,,,,,,,,,,,,,,,,,,,,,,,,,,,,,,,,,,,,,,,,,,,,,,,,,,,,,,,,,,,,,,
1720179316,45,0,4261.922852,4259.230957,4340.128418,4279.230957,4290.384766,4312.307617,4259.743652,4292.307617,4171.153809,4352.820313,4426.538574,4535.128418,4380.256348,4465.128418,,,,,,,,,,,,,,,,,,,,,,,,,,,,,,,,,,,,,,,,,,,,,,,,,,,,,,,,,,,,,,,,,,,,,,
1720179316,46,0,4254.743652,4255,4342.436035,4272.94873,4296.410156,4312.94873,4261.666504,4295.128418,4167.94873,4370.256348,4425,4548.077148,4396.410156,4466.153809,,,,,,,,,,,,,,,,,,,,,,,,,,,,,,,,,,,,,,,,,,,,,,,,,,,,,,,,,,,,,,,,,,,,,,
1720179316,47,0,4256.538574,4257.820313,4355.641113,4286.666504,4293.846191,4310.641113,4262.179688,4292.94873,4175.769043,4374.487305,4424.615234,4558.846191,4401.410156,4483.077148,,,,,,,,,,,,,,,,,,,,,,,,,,,,,,,,,,,,,,,,,,,,,,,,,,,,,,,,,,,,,,,,,,,,,,
1720179316,48,0,4277.563965,4268.846191,4361.538574,4299.230957,4294.358887,4310.512695,4255,4293.589844,4189.615234,4370.897461,4426.794922,4562.436035,4405.384766,4505.512695,1.215526,7.400963,1.196989,0.570394,0.628035,1.631922,7.453061,1.449064,0.812226,0.329236,1.597598,12.984447,1.720347,0.753061,0.25503,1.609447,7.905875,1.55254,0.923485,0.397808,0.715405,1.537348,0.279791,0.3293,0.162175,0.25068,2.824416,0.244215,0.170202,0.070133,1.292654,22.340462,1.330488,0.768499,0.157473,1.416105,12.290504,1.323032,0.624402,0.247474,0.890683,28.96715,3.692928,1.787493,0.273606,0.721819,1.94359,1.399871,1.035213,0.433197,0.128882,0.203575,0.075611,0.064569,0.09769,2.350423,13.040086,3.071767,0.813135,0.473752,1.620132,5.697176,1.767947,0.986314,0.585333,2.554873,10.52966,3.262904,1.4011,0.659345
1720179316,49,0,4279.743652,4269.743652,4358.077148,4285.897461,4290.769043,4308.589844,4245.256348,4296.282227,4197.692383,4372.563965,4429.358887,4568.974121,4413.461426,4497.05127,,,,,,,,,,,,,,,,,,,,,,,,,,,,,,,,,,,,,,,,,,,,,,,,,,,,,,,,,,,,,,,,,,,,,,
1720179316,50,0,4268.205078,4265,4351.666504,4283.589844,4280.641113,4303.974121,4247.179688,4302.05127,4208.333496,4379.358887,4427.94873,4569.615234,4415.128418,4483.717773,,,,,,,,,,,,,,,,,,,,,,,,,,,,,,,,,,,,,,,,,,,,,,,,,,,,,,,,,,,,,,,,,,,,,,
1720179316,51,0,4271.282227,4261.794922,4343.205078,4297.307617,4279.871582,4304.230957,4259.358887,4309.230957,4224.615234,4373.589844,4427.179688,4562.563965,4414.615234,4489.102539,,,,,,,,,,,,,,,,,,,,,,,,,,,,,,,,,,,,,,,,,,,,,,,,,,,,,,,,,,,,,,,,,,,,,,
1720179316,52,0,4262.563965,4253.717773,4330.769043,4284.871582,4280.384766,4311.025879,4266.153809,4311.153809,4228.333496,4355.769043,4428.589844,4552.179688,4412.563965,4483.974121,,,,,,,,,,,,,,,,,,,,,,,,,,,,,,,,,,,,,,,,,,,,,,,,,,,,,,,,,,,,,,,,,,,,,,
1720179316,53,0,4240.641113,4243.846191,4322.563965,4260.512695,4272.94873,4313.974121,4263.461426,4308.077148,4223.077148,4360.769043,4425.384766,4536.538574,4405.128418,4468.717773,,,,,,,,,,,,,,,,,,,,,,,,,,,,,,,,,,,,,,,,,,,,,,,,,,,,,,,,,,,,,,,,,,,,,,
1720179316,54,0,4239.615234,4242.179688,4321.410156,4261.153809,4272.436035,4309.871582,4263.077148,4309.358887,4221.410156,4377.436035,4421.153809,4531.282227,4401.794922,4472.563965,,,,,,,,,,,,,,,,,,,,,,,,,,,,,,,,,,,,,,,,,,,,,,,,,,,,,,,,,,,,,,,,,,,,,,
1720179316,55,0,4246.153809,4247.05127,4321.666504,4268.333496,4273.846191,4307.436035,4268.461426,4311.410156,4221.538574,4371.410156,4431.282227,4544.358887,4413.077148,4485.641113,,,,,,,,,,,,,,,,,,,,,,,,,,,,,,,,,,,,,,,,,,,,,,,,,,,,,,,,,,,,,,,,,,,,,,
1720179316,56,0,4241.025879,4243.589844,4318.717773,4263.974121,4269.615234,4310.897461,4265,4306.153809,4215,4360.769043,4433.333496,4546.922852,4424.615234,4486.922852,,,,,,,,,,,,,,,,,,,,,,,,,,,,,,,,,,,,,,,,,,,,,,,,,,,,,,,,,,,,,,,,,,,,,,
1720179316,57,0,4243.717773,4235.256348,4316.410156,4262.94873,4265.769043,4311.410156,4251.538574,4291.922852,4200,4356.410156,4420.897461,4537.05127,4419.743652,4488.589844,,,,,,,,,,,,,,,,,,,,,,,,,,,,,,,,,,,,,,,,,,,,,,,,,,,,,,,,,,,,,,,,,,,,,,
1720179316,58,0,4262.307617,4235.256348,4322.563965,4266.025879,4260.512695,4306.153809,4244.102539,4280.641113,4182.436035,4347.692383,4424.102539,4544.743652,4415.128418,4492.94873,,,,,,,,,,,,,,,,,,,,,,,,,,,,,,,,,,,,,,,,,,,,,,,,,,,,,,,,,,,,,,,,,,,,,,
1720179316,59,0,4274.358887,4244.358887,4327.563965,4263.589844,4265.256348,4303.846191,4243.461426,4280,4179.871582,4350.641113,4427.307617,4555.769043,4425.769043,4493.974121,,,,,,,,,,,,,,,,,,,,,,,,,,,,,,,,,,,,,,,,,,,,,,,,,,,,,,,,,,,,,,,,,,,,,,
1720179316,60,0,4261.282227,4249.102539,4329.102539,4266.666504,4274.615234,4304.871582,4240.897461,4282.05127,4190.769043,4351.538574,4423.589844,4545.769043,4433.974121,4487.05127,,,,,,,,,,,,,,,,,,,,,,,,,,,,,,,,,,,,,,,,,,,,,,,,,,,,,,,,,,,,,,,,,,,,,,
1720179316,61,0,4244.743652,4247.820313,4333.846191,4273.205078,4272.179688,4299.358887,4243.205078,4285.384766,4201.794922,4342.05127,4427.820313,4543.589844,4432.05127,4476.025879,,,,,,,,,,,,,,,,,,,,,,,,,,,,,,,,,,,,,,,,,,,,,,,,,,,,,,,,,,,,,,,,,,,,,,
1720179316,62,0,4255.128418,4254.871582,4335.641113,4272.179688,4265.512695,4295,4246.153809,4295.512695,4224.615234,4354.871582,4427.820313,4556.666504,4433.717773,4484.615234,,,,,,,,,,,,,,,,,,,,,,,,,,,,,,,,,,,,,,,,,,,,,,,,,,,,,,,,,,,,,,,,,,,,,,
1720179316,63,0,4260.641113,4252.436035,4325.641113,4270.641113,4258.589844,4296.666504,4237.563965,4301.538574,4248.077148,4367.820313,4423.846191,4551.666504,4433.589844,4493.974121,,,,,,,,,,,,,,,,,,,,,,,,,,,,,,,,,,,,,,,,,,,,,,,,,,,,,,,,,,,,,,,,,,,,,,
1720179316,64,0,4240.384766,4231.666504,4310.256348,4262.563965,4246.153809,4294.102539,4235.512695,4297.05127,4253.461426,4355,4426.153809,4527.436035,4421.282227,4472.692383,1.077786,6.70947,1.308314,0.536005,0.649307,1.68946,6.833913,1.690273,0.859691,0.309006,1.672813,11.956724,1.893146,0.728856,0.272807,1.570253,7.121403,1.587343,0.933686,0.406357,0.730148,1.326181,0.246531,0.350856,0.144226,0.276075,2.411706,0.19388,0.16047,0.070705,1.378573,17.810392,1.289212,0.724036,0.143899,1.441231,10.568698,1.305576,0.588543,0.218921,0.857207,26.408684,3.45677,1.706738,0.237042,0.719535,2.20383,1.432198,1.072715,0.416413,0.111816,0.203596,0.076075,0.062377,0.109194,2.311099,12.345612,3.337559,0.732444,0.432715,1.39778,5.695646,1.952328,0.960288,0.515537,2.131481,9.475684,3.918853,1.367772,0.63508
1720179316,65,0,4233.205078,4226.922852,4299.615234,4248.461426,4241.794922,4291.794922,4245.641113,4294.615234,4250.769043,4340,4421.153809,4510.641113,4413.077148,4448.974121,,,,,,,,,,,,,,,,,,,,,,,,,,,,,,,,,,,,,,,,,,,,,,,,,,,,,,,,,,,,,,,,,,,,,,
1720179316,66,0,4248.461426,4243.461426,4292.820313,4250.641113,4251.153809,4296.666504,4248.333496,4295.641113,4244.487305,4332.05127,4414.358887,4502.307617,4404.487305,4448.333496,,,,,,,,,,,,,,,,,,,,,,,,,,,,,,,,,,,,,,,,,,,,,,,,,,,,,,,,,,,,,,,,,,,,,,
1720179316,67,0,4249.487305,4251.282227,4291.666504,4264.871582,4256.410156,4301.153809,4246.410156,4295.512695,4235.384766,4324.487305,4423.205078,4501.922852,4391.282227,4441.666504,,,,,,,,,,,,,,,,,,,,,,,,,,,,,,,,,,,,,,,,,,,,,,,,,,,,,,,,,,,,,,,,,,,,,,
1720179316,68,0,4232.563965,4244.358887,4298.846191,4263.717773,4252.820313,4300.256348,4248.589844,4292.94873,4232.692383,4317.820313,4422.307617,4511.282227,4387.692383,4418.205078,,,,,,,,,,,,,,,,,,,,,,,,,,,,,,,,,,,,,,,,,,,,,,,,,,,,,,,,,,,,,,,,,,,,,,
1720179316,69,0,4230.641113,4244.871582,4308.974121,4260.512695,4248.205078,4295.512695,4246.153809,4288.461426,4232.820313,4314.487305,4416.538574,4511.922852,4392.94873,4422.05127,,,,,,,,,,,,,,,,,,,,,,,,,,,,,,,,,,,,,,,,,,,,,,,,,,,,,,,,,,,,,,,,,,,,,,
1720179316,70,0,4246.025879,4256.922852,4316.538574,4275.384766,4248.717773,4291.153809,4241.666504,4285.128418,4228.205078,4323.077148,4421.538574,4505,4398.589844,4450.897461,,,,,,,,,,,,,,,,,,,,,,,,,,,,,,,,,,,,,,,,,,,,,,,,,,,,,,,,,,,,,,,,,,,,,,
1720179316,71,0,4257.563965,4262.563965,4319.743652,4284.871582,4252.94873,4290.641113,4243.974121,4285,4226.794922,4330.512695,4420.897461,4512.563965,4400.384766,4464.871582,,,,,,,,,,,,,,,,,,,,,,,,,,,,,,,,,,,,,,,,,,,,,,,,,,,,,,,,,,,,,,,,,,,,,,
1720179316,72,0,4261.410156,4262.563965,4326.282227,4282.94873,4258.333496,4293.205078,4247.94873,4285.641113,4229.615234,4316.922852,4420.897461,4532.05127,4405.641113,4459.743652,,,,,,,,,,,,,,,,,,,,,,,,,,,,,,,,,,,,,,,,,,,,,,,,,,,,,,,,,,,,,,,,,,,,,,
1720179316,73,0,4264.871582,4271.666504,4335.897461,4289.230957,4262.820313,4292.05127,4248.589844,4283.589844,4229.230957,4304.358887,4424.230957,4540,4412.563965,4451.922852,,,,,,,,,,,,,,,,,,,,,,,,,,,,,,,,,,,,,,,,,,,,,,,,,,,,,,,,,,,,,,,,,,,,,,
1720179316,74,0,4262.692383,4285.897461,4333.461426,4300,4256.538574,4291.153809,4243.333496,4280.384766,4231.153809,4313.461426,4423.077148,4526.410156,4409.102539,4447.307617,,,,,,,,,,,,,,,,,,,,,,,,,,,,,,,,,,,,,,,,,,,,,,,,,,,,,,,,,,,,,,,,,,,,,,
1720179316,75,0,4246.794922,4279.615234,4320.641113,4295.897461,4245.256348,4287.94873,4239.102539,4275.641113,4238.333496,4314.230957,4418.205078,4509.743652,4399.615234,4438.717773,,,,,,,,,,,,,,,,,,,,,,,,,,,,,,,,,,,,,,,,,,,,,,,,,,,,,,,,,,,,,,,,,,,,,,
1720179316,76,0,4237.179688,4264.615234,4309.487305,4283.461426,4242.94873,4283.717773,4243.461426,4278.205078,4253.333496,4298.589844,4417.820313,4504.743652,4395.897461,4430.897461,,,,,,,,,,,,,,,,,,,,,,,,,,,,,,,,,,,,,,,,,,,,,,,,,,,,,,,,,,,,,,,,,,,,,,
1720179316,77,0,4242.307617,4264.230957,4302.94873,4274.615234,4245.897461,4287.436035,4249.358887,4290.384766,4276.282227,4298.077148,4418.974121,4504.230957,4395.256348,4428.077148,,,,,,,,,,,,,,,,,,,,,,,,,,,,,,,,,,,,,,,,,,,,,,,,,,,,,,,,,,,,,,,,,,,,,,
1720179316,78,0,4241.666504,4266.282227,4295.641113,4269.487305,4246.410156,4288.974121,4249.487305,4292.307617,4289.230957,4310.256348,4413.717773,4500.897461,4387.179688,4426.410156,,,,,,,,,,,,,,,,,,,,,,,,,,,,,,,,,,,,,,,,,,,,,,,,,,,,,,,,,,,,,,,,,,,,,,
1720179316,79,0,4232.563965,4265,4291.666504,4273.461426,4246.025879,4286.282227,4250,4283.717773,4285.897461,4303.461426,4410.512695,4501.794922,4382.563965,4414.487305,,,,,,,,,,,,,,,,,,,,,,,,,,,,,,,,,,,,,,,,,,,,,,,,,,,,,,,,,,,,,,,,,,,,,,
1720179316,80,0,4233.333496,4265.512695,4292.436035,4283.589844,4241.282227,4288.205078,4248.717773,4276.922852,4277.692383,4280.256348,4414.358887,4493.461426,4380.512695,4397.05127,0.931886,5.919738,1.403225,0.551403,0.679854,1.736821,6.073042,2.003473,0.918382,0.280776,1.767867,10.564651,2.046141,0.761399,0.302848,1.522883,6.147236,1.626387,0.917092,0.430412,0.707885,1.14866,0.229824,0.376843,0.129851,0.282808,2.010876,0.152133,0.148885,0.070244,1.401268,13.373935,1.142518,0.655048,0.131733,1.399876,9.105262,1.154086,0.538369,0.187884,0.945391,25.974138,2.865549,1.509415,0.202521,0.679989,2.725734,1.432346,1.083028,0.399995,0.106362,0.207043,0.07369,0.058878,0.122741,2.413491,11.694386,3.394371,0.6742,0.403124,1.312816,5.876503,2.090062,0.93038,0.446638,1.950245,8.758597,4.430816,1.394032,0.619359
1720179316,81,0,4234.358887,4268.333496,4288.589844,4280.769043,4237.05127,4285.897461,4236.666504,4268.461426,4264.871582,4266.025879,4414.358887,4469.102539,4367.05127,4400.512695,,,,,,,,,,,,,,,,,,,,,,,,,,,,,,,,,,,,,,,,,,,,,,,,,,,,,,,,,,,,,,,,,,,,,,
1720179316,82,0,4221.410156,4260.512695,4270.512695,4264.615234,4226.153809,4272.179688,4217.820313,4248.333496,4238.205078,4252.820313,4402.563965,4440.769043,4345.384766,4396.922852,,,,,,,,,,,,,,,,,,,,,,,,,,,,,,,,,,,,,,,,,,,,,,,,,,,,,,,,,,,,,,,,,,,,,,
1720179316,83,0,4210.128418,4249.102539,4251.666504,4256.666504,4211.282227,4265.256348,4208.077148,4231.922852,4212.692383,4235,4402.436035,4422.94873,4332.94873,4372.179688,,,,,,,,,,,,,,,,,,,,,,,,,,,,,,,,,,,,,,,,,,,,,,,,,,,,,,,,,,,,,,,,,,,,,,
1720179316,84,0,4221.538574,4258.717773,4262.94873,4265.769043,4216.666504,4271.922852,4218.333496,4233.717773,4212.94873,4234.230957,4407.692383,4434.102539,4344.871582,4377.692383,,,,,,,,,,,,,,,,,,,,,,,,,,,,,,,,,,,,,,,,,,,,,,,,,,,,,,,,,,,,,,,,,,,,,,
1720179316,85,0,4248.589844,4281.282227,4291.922852,4283.461426,4235.897461,4274.871582,4232.307617,4244.487305,4233.974121,4252.436035,4401.153809,4471.153809,4375.769043,4420,,,,,,,,,,,,,,,,,,,,,,,,,,,,,,,,,,,,,,,,,,,,,,,,,,,,,,,,,,,,,,,,,,,,,,
1720179316,86,0,4261.538574,4291.538574,4300,4295.384766,4242.820313,4272.179688,4236.153809,4255.897461,4256.538574,4264.102539,4407.436035,4492.692383,4400.256348,4440.641113,,,,,,,,,,,,,,,,,,,,,,,,,,,,,,,,,,,,,,,,,,,,,,,,,,,,,,,,,,,,,,,,,,,,,,
1720179316,87,0,4246.794922,4283.077148,4293.717773,4297.563965,4233.461426,4270.512695,4240.256348,4260.641113,4273.717773,4262.05127,4412.05127,4484.615234,4395.769043,4422.05127,,,,,,,,,,,,,,,,,,,,,,,,,,,,,,,,,,,,,,,,,,,,,,,,,,,,,,,,,,,,,,,,,,,,,,
1720179316,88,0,4236.153809,4276.282227,4296.794922,4291.153809,4227.94873,4271.794922,4247.436035,4262.820313,4292.563965,4264.102539,4404.871582,4478.205078,4379.871582,4406.410156,,,,,,,,,,,,,,,,,,,,,,,,,,,,,,,,,,,,,,,,,,,,,,,,,,,,,,,,,,,,,,,,,,,,,,
1720179316,89,0,4246.153809,4280.897461,4294.615234,4283.589844,4228.461426,4268.205078,4249.487305,4267.692383,4311.410156,4262.307617,4406.410156,4478.717773,4379.871582,4400.769043,,,,,,,,,,,,,,,,,,,,,,,,,,,,,,,,,,,,,,,,,,,,,,,,,,,,,,,,,,,,,,,,,,,,,,
1720179316,90,0,4239.615234,4279.871582,4276.922852,4280.128418,4220.641113,4261.282227,4248.717773,4268.077148,4318.974121,4252.436035,4407.179688,4463.974121,4376.794922,4392.692383,,,,,,,,,,,,,,,,,,,,,,,,,,,,,,,,,,,,,,,,,,,,,,,,,,,,,,,,,,,,,,,,,,,,,,
1720179316,91,0,4217.94873,4270.256348,4268.589844,4278.974121,4212.179688,4262.179688,4249.487305,4266.922852,4317.563965,4246.282227,4403.333496,4446.153809,4366.025879,4390.128418,,,,,,,,,,,,,,,,,,,,,,,,,,,,,,,,,,,,,,,,,,,,,,,,,,,,,,,,,,,,,,,,,,,,,,
1720179316,92,0,4224.487305,4273.205078,4272.563965,4285.128418,4215.897461,4265.641113,4248.461426,4264.230957,4312.436035,4236.410156,4406.922852,4444.358887,4366.538574,4397.563965,,,,,,,,,,,,,,,,,,,,,,,,,,,,,,,,,,,,,,,,,,,,,,,,,,,,,,,,,,,,,,,,,,,,,,
1720179316,93,0,4243.589844,4289.743652,4268.589844,4296.153809,4221.282227,4262.563965,4242.436035,4253.205078,4304.615234,4220.769043,4405.512695,4442.563965,4369.358887,4402.94873,,,,,,,,,,,,,,,,,,,,,,,,,,,,,,,,,,,,,,,,,,,,,,,,,,,,,,,,,,,,,,,,,,,,,,
1720179316,94,0,4242.179688,4296.538574,4260.256348,4297.05127,4222.179688,4256.538574,4234.102539,4236.922852,4292.94873,4218.205078,4396.794922,4432.05127,4362.307617,4389.615234,,,,,,,,,,,,,,,,,,,,,,,,,,,,,,,,,,,,,,,,,,,,,,,,,,,,,,,,,,,,,,,,,,,,,,
1720179316,95,0,4238.205078,4294.102539,4263.077148,4285.128418,4228.846191,4255.512695,4225.769043,4225.256348,4275.641113,4218.589844,4402.307617,4430.384766,4358.974121,4377.307617,,,,,,,,,,,,,,,,,,,,,,,,,,,,,,,,,,,,,,,,,,,,,,,,,,,,,,,,,,,,,,,,,,,,,,
1720179316,96,0,4234.871582,4292.179688,4267.692383,4282.820313,4230.256348,4253.846191,4219.871582,4216.538574,4260.769043,4206.282227,4402.05127,4430,4359.487305,4376.410156,0.804152,5.20961,1.465929,0.607008,0.715659,1.804456,5.343658,2.34401,0.988721,0.254341,1.853098,9.164376,2.137329,0.840952,0.330689,1.466579,5.218818,1.645921,0.882414,0.4651,0.683571,1.042253,0.227058,0.400971,0.121309,0.264796,1.642631,0.122961,0.137772,0.070166,1.327162,9.534382,0.952409,0.56032,0.123325,1.273813,8.030863,0.910903,0.47647,0.158157,1.073128,27.310534,2.131228,1.242774,0.175335,0.714004,3.386378,1.361005,1.050825,0.390387,0.109712,0.214304,0.069991,0.05466,0.134442,2.600209,11.323238,3.221354,0.648619,0.382259,1.436535,6.183134,2.153503,0.901794,0.395892,2.079085,8.571966,4.712708,1.481986,0.615498
1720179316,97,0,4227.94873,4292.820313,4262.820313,4295.384766,4218.077148,4247.94873,4220.641113,4212.563965,4258.333496,4197.692383,4393.589844,4418.717773,4350.128418,4364.487305,,,,,,,,,,,,,,,,,,,,,,,,,,,,,,,,,,,,,,,,,,,,,,,,,,,,,,,,,,,,,,,,,,,,,,
1720179316,98,0,4232.179688,4296.153809,4259.358887,4300.897461,4213.205078,4242.820313,4228.077148,4220.384766,4263.205078,4193.589844,4395.128418,4413.333496,4344.230957,4352.436035,,,,,,,,,,,,,,,,,,,,,,,,,,,,,,,,,,,,,,,,,,,,,,,,,,,,,,,,,,,,,,,,,,,,,,
1720179316,99,0,4231.794922,4293.717773,4263.077148,4294.487305,4219.487305,4241.538574,4234.487305,4228.717773,4271.282227,4194.102539,4393.077148,4415,4346.282227,4362.307617,,,,,,,,,,,,,,,,,,,,,,,,,,,,,,,,,,,,,,,,,,,,,,,,,,,,,,,,,,,,,,,,,,,,,,
1720179316,100,0,4217.436035,4288.077148,4260.769043,4287.05127,4220.384766,4242.692383,4232.563965,4229.871582,4287.05127,4196.794922,4393.077148,4405.256348,4341.922852,4366.922852,,,,,,,,,,,,,,,,,,,,,,,,,,,,,,,,,,,,,,,,,,,,,,,,,,,,,,,,,,,,,,,,,,,,,,
1720179316,101,0,4219.230957,4290.897461,4248.589844,4292.179688,4214.487305,4240.512695,4232.436035,4230.769043,4308.461426,4190.641113,4394.230957,4396.025879,4336.282227,4345.512695,,,,,,,,,,,,,,,,,,,,,,,,,,,,,,,,,,,,,,,,,,,,,,,,,,,,,,,,,,,,,,,,,,,,,,
1720179316,102,0,4229.230957,4296.153809,4244.487305,4301.794922,4211.538574,4240.641113,4237.94873,4234.615234,4325.769043,4183.077148,4390.384766,4398.846191,4337.563965,4338.461426,,,,,,,,,,,,,,,,,,,,,,,,,,,,,,,,,,,,,,,,,,,,,,,,,,,,,,,,,,,,,,,,,,,,,,
1720179316,103,0,4216.922852,4294.487305,4250.512695,4298.974121,4215.128418,4241.282227,4238.205078,4236.025879,4331.666504,4185.512695,4391.025879,4399.487305,4338.205078,4343.077148,,,,,,,,,,,,,,,,,,,,,,,,,,,,,,,,,,,,,,,,,,,,,,,,,,,,,,,,,,,,,,,,,,,,,,
1720179316,104,0,4211.282227,4292.179688,4250.256348,4292.307617,4212.563965,4236.666504,4233.461426,4229.358887,4329.871582,4187.563965,4391.282227,4391.794922,4332.307617,4327.179688,,,,,,,,,,,,,,,,,,,,,,,,,,,,,,,,,,,,,,,,,,,,,,,,,,,,,,,,,,,,,,,,,,,,,,
1720179316,105,0,4225,4292.820313,4240.897461,4293.717773,4204.102539,4230,4230.512695,4220,4324.358887,4177.179688,4389.487305,4378.077148,4327.179688,4320.384766,,,,,,,,,,,,,,,,,,,,,,,,,,,,,,,,,,,,,,,,,,,,,,,,,,,,,,,,,,,,,,,,,,,,,,
1720179316,106,0,4225.769043,4296.538574,4238.974121,4294.358887,4200,4227.94873,4233.589844,4216.282227,4315.641113,4171.538574,4388.333496,4368.333496,4324.743652,4334.230957,,,,,,,,,,,,,,,,,,,,,,,,,,,,,,,,,,,,,,,,,,,,,,,,,,,,,,,,,,,,,,,,,,,,,,
1720179316,107,0,4219.358887,4302.436035,4245.384766,4295.897461,4202.563965,4230.512695,4233.333496,4215,4307.05127,4170.384766,4385.769043,4369.871582,4325.384766,4338.717773,,,,,,,,,,,,,,,,,,,,,,,,,,,,,,,,,,,,,,,,,,,,,,,,,,,,,,,,,,,,,,,,,,,,,,
1720179316,108,0,4224.102539,4308.589844,4251.666504,4304.871582,4210.641113,4227.94873,4230.512695,4211.666504,4302.820313,4157.436035,4387.820313,4378.077148,4327.436035,4336.794922,,,,,,,,,,,,,,,,,,,,,,,,,,,,,,,,,,,,,,,,,,,,,,,,,,,,,,,,,,,,,,,,,,,,,,
1720179316,109,0,4228.333496,4316.922852,4259.358887,4313.589844,4215.512695,4221.794922,4236.666504,4211.410156,4304.102539,4148.974121,4392.692383,4390.256348,4325,4342.94873,,,,,,,,,,,,,,,,,,,,,,,,,,,,,,,,,,,,,,,,,,,,,,,,,,,,,,,,,,,,,,,,,,,,,,
1720179316,110,0,4231.282227,4321.025879,4262.820313,4321.025879,4217.05127,4223.846191,4248.974121,4214.487305,4315.641113,4160.128418,4387.94873,4395.512695,4326.025879,4339.487305,,,,,,,,,,,,,,,,,,,,,,,,,,,,,,,,,,,,,,,,,,,,,,,,,,,,,,,,,,,,,,,,,,,,,,
1720179316,111,0,4236.538574,4317.307617,4253.461426,4322.436035,4223.205078,4230.384766,4254.230957,4216.538574,4330,4166.025879,4386.025879,4382.94873,4328.077148,4325.512695,,,,,,,,,,,,,,,,,,,,,,,,,,,,,,,,,,,,,,,,,,,,,,,,,,,,,,,,,,,,,,,,,,,,,,
1720179317,112,0,4230.641113,4313.589844,4243.205078,4312.307617,4222.94873,4224.230957,4248.846191,4216.666504,4337.307617,4155.641113,4389.487305,4368.589844,4319.743652,4320.641113,0.734615,4.675129,1.478729,0.684289,0.746816,1.952297,4.753277,2.624187,1.057259,0.238192,1.894313,8.038409,2.149781,0.935388,0.341599,1.476387,4.487921,1.617937,0.838873,0.499664,0.670617,1.015325,0.237893,0.422571,0.117821,0.232983,1.316329,0.100979,0.129423,0.071391,1.163771,6.692836,0.777057,0.454389,0.119878,1.073619,7.367321,0.658145,0.40816,0.132466,1.126823,29.528912,1.464513,0.971351,0.156304,0.745393,3.998212,1.228479,0.984001,0.389659,0.117874,0.220465,0.066233,0.050571,0.140848,2.797205,11.252277,2.921352,0.667637,0.365447,1.794493,6.494872,2.139235,0.871661,0.367954,2.551209,8.821307,4.717653,1.597941,0.625467
1720179317,113,0,4217.307617,4313.205078,4245.256348,4310.128418,4208.461426,4215.769043,4246.282227,4215.641113,4343.974121,4148.717773,4383.205078,4363.589844,4309.230957,4316.794922,,,,,,,,,,,,,,,,,,,,,,,,,,,,,,,,,,,,,,,,,,,,,,,,,,,,,,,,,,,,,,,,,,,,,,
1720179317,114,0,4212.94873,4311.538574,4246.025879,4315.769043,4203.717773,4219.358887,4248.461426,4211.666504,4344.615234,4136.794922,4383.077148,4353.333496,4308.589844,4309.743652,,,,,,,,,,,,,,,,,,,,,,,,,,,,,,,,,,,,,,,,,,,,,,,,,,,,,,,,,,,,,,,,,,,,,,
1720179317,115,0,4207.94873,4307.436035,4239.615234,4309.871582,4215.256348,4220.512695,4244.358887,4204.615234,4334.358887,4122.307617,4387.436035,4344.871582,4308.205078,4310.128418,,,,,,,,,,,,,,,,,,,,,,,,,,,,,,,,,,,,,,,,,,,,,,,,,,,,,,,,,,,,,,,,,,,,,,
1720179317,116,0,4204.871582,4307.94873,4240.769043,4309.487305,4218.077148,4211.410156,4236.282227,4197.820313,4327.179688,4120,4383.717773,4349.230957,4302.307617,4310.256348,,,,,,,,,,,,,,,,,,,,,,,,,,,,,,,,,,,,,,,,,,,,,,,,,,,,,,,,,,,,,,,,,,,,,,
1720179317,117,0,4218.846191,4315.897461,4247.692383,4324.358887,4213.077148,4207.820313,4232.179688,4190.897461,4321.282227,4117.94873,4382.94873,4349.102539,4297.692383,4303.717773,,,,,,,,,,,,,,,,,,,,,,,,,,,,,,,,,,,,,,,,,,,,,,,,,,,,,,,,,,,,,,,,,,,,,,
1720179317,118,0,4230.512695,4318.846191,4249.743652,4329.487305,4213.717773,4207.179688,4233.077148,4184.102539,4309.358887,4116.666504,4380.128418,4347.820313,4294.487305,4296.538574,,,,,,,,,,,,,,,,,,,,,,,,,,,,,,,,,,,,,,,,,,,,,,,,,,,,,,,,,,,,,,,,,,,,,,
1720179317,119,0,4226.794922,4314.487305,4251.794922,4323.077148,4215.128418,4205.512695,4236.666504,4186.538574,4305.641113,4123.461426,4377.692383,4350.641113,4297.820313,4302.563965,,,,,,,,,,,,,,,,,,,,,,,,,,,,,,,,,,,,,,,,,,,,,,,,,,,,,,,,,,,,,,,,,,,,,,
1720179317,120,0,4224.487305,4315.641113,4258.974121,4324.230957,4216.153809,4210.512695,4244.102539,4198.077148,4317.692383,4126.794922,4386.666504,4349.871582,4304.487305,4317.820313,,,,,,,,,,,,,,,,,,,,,,,,,,,,,,,,,,,,,,,,,,,,,,,,,,,,,,,,,,,,,,,,,,,,,,
1720179317,121,0,4226.025879,4318.077148,4263.974121,4330.641113,4218.333496,4213.717773,4251.922852,4204.871582,4327.94873,4123.974121,4386.282227,4351.794922,4300.769043,4322.05127,,,,,,,,,,,,,,,,,,,,,,,,,,,,,,,,,,,,,,,,,,,,,,,,,,,,,,,,,,,,,,,,,,,,,,
1720179317,122,0,4223.461426,4312.05127,4265.256348,4331.025879,4216.282227,4210.512695,4253.717773,4203.205078,4330,4116.153809,4371.922852,4358.333496,4294.743652,4307.05127,,,,,,,,,,,,,,,,,,,,,,,,,,,,,,,,,,,,,,,,,,,,,,,,,,,,,,,,,,,,,,,,,,,,,,
1720179317,123,0,4225.769043,4310.384766,4259.358887,4327.94873,4213.461426,4208.974121,4252.179688,4203.333496,4334.230957,4108.205078,4377.307617,4355.256348,4297.563965,4295.128418,,,,,,,,,,,,,,,,,,,,,,,,,,,,,,,,,,,,,,,,,,,,,,,,,,,,,,,,,,,,,,,,,,,,,,
1720179317,124,0,4227.563965,4312.307617,4241.282227,4328.333496,4217.307617,4208.589844,4251.794922,4199.358887,4341.025879,4104.871582,4382.563965,4337.563965,4296.538574,4304.230957,,,,,,,,,,,,,,,,,,,,,,,,,,,,,,,,,,,,,,,,,,,,,,,,,,,,,,,,,,,,,,,,,,,,,,
1720179317,125,0,4213.333496,4301.025879,4225.256348,4325.128418,4216.153809,4204.230957,4249.487305,4189.871582,4336.922852,4095.512939,4371.538574,4317.692383,4280.769043,4299.487305,,,,,,,,,,,,,,,,,,,,,,,,,,,,,,,,,,,,,,,,,,,,,,,,,,,,,,,,,,,,,,,,,,,,,,
1720179317,126,0,4203.717773,4289.358887,4226.282227,4311.666504,4206.538574,4200.641113,4246.153809,4187.05127,4329.358887,4087.820557,4370.897461,4312.820313,4271.538574,4280.897461,,,,,,,,,,,,,,,,,,,,,,,,,,,,,,,,,,,,,,,,,,,,,,,,,,,,,,,,,,,,,,,,,,,,,,
1720179317,127,0,4209.358887,4296.410156,4232.94873,4306.538574,4203.333496,4197.94873,4246.922852,4190.128418,4333.974121,4097.563965,4374.743652,4322.563965,4285,4288.589844,,,,,,,,,,,,,,,,,,,,,,,,,,,,,,,,,,,,,,,,,,,,,,,,,,,,,,,,,,,,,,,,,,,,,,
1720179317,0,0,4212.94873,4304.743652,4231.666504,4319.102539,4202.05127,4193.974121,4243.717773,4188.333496,4335.897461,4102.436035,4374.871582,4328.461426,4295.512695,4304.487305,0.753535,4.316983,1.422216,0.765394,0.764278,2.209848,4.29798,2.746796,1.106016,0.236545,1.983228,7.316498,2.083056,1.014686,0.330294,1.613121,3.974609,1.517067,0.803605,0.520556,0.704844,1.050816,0.269229,0.449726,0.117376,0.195825,1.030247,0.082887,0.125751,0.073799,1.0304,4.963725,0.642427,0.364446,0.120666,0.893432,7.043184,0.469197,0.348061,0.112992,1.104434,31.704285,1.027801,0.760227,0.143848,0.749535,4.41942,1.09951,0.913865,0.395721,0.126159,0.220071,0.062854,0.047488,0.140786,2.961533,11.303896,2.635855,0.763029,0.351365,2.151221,6.699473,2.067064,0.855731,0.35716,3.181605,9.201218,4.446585,1.716404,0.64964
1720179317,1,0,4209.487305,4300.128418,4227.179688,4324.358887,4202.307617,4193.205078,4233.077148,4180.384766,4321.282227,4092.94873,4372.94873,4320.512695,4283.205078,4296.922852,,,,,,,,,,,,,,,,,,,,,,,,,,,,,,,,,,,,,,,,,,,,,,,,,,,,,,,,,,,,,,,,,,,,,,
1720179317,2,0,4211.794922,4295.512695,4228.461426,4321.282227,4209.487305,4187.692383,4227.692383,4172.307617,4308.333496,4089.743652,4370.256348,4309.871582,4273.717773,4289.743652,,,,,,,,,,,,,,,,,,,,,,,,,,,,,,,,,,,,,,,,,,,,,,,,,,,,,,,,,,,,,,,,,,,,,,
1720179317,3,0,4218.589844,4298.461426,4234.102539,4325,4209.615234,4181.666504,4229.487305,4168.461426,4309.230957,4091.410156,4372.05127,4313.333496,4284.358887,4294.487305,,,,,,,,,,,,,,,,,,,,,,,,,,,,,,,,,,,,,,,,,,,,,,,,,,,,,,,,,,,,,,,,,,,,,,
1720179317,4,0,4221.410156,4302.307617,4231.153809,4326.153809,4205,4185.769043,4232.820313,4171.282227,4310,4094.871826,4374.743652,4327.05127,4297.307617,4290.128418,,,,,,,,,,,,,,,,,,,,,,,,,,,,,,,,,,,,,,,,,,,,,,,,,,,,,,,,,,,,,,,,,,,,,,
1720179317,5,0,4227.05127,4301.794922,4229.743652,4323.974121,4203.461426,4187.692383,4238.589844,4178.974121,4305.897461,4093.205078,4372.563965,4330.384766,4293.589844,4292.563965,,,,,,,,,,,,,,,,,,,,,,,,,,,,,,,,,,,,,,,,,,,,,,,,,,,,,,,,,,,,,,,,,,,,,,
1720179317,6,0,4225.128418,4298.589844,4244.615234,4330,4202.820313,4184.743652,4244.230957,4179.743652,4305.769043,4073.718018,4369.358887,4323.333496,4282.563965,4301.922852,,,,,,,,,,,,,,,,,,,,,,,,,,,,,,,,,,,,,,,,,,,,,,,,,,,,,,,,,,,,,,,,,,,,,,
1720179317,7,0,4212.05127,4294.358887,4252.563965,4329.487305,4204.615234,4185,4246.794922,4179.358887,4313.461426,4065.128174,4368.846191,4322.94873,4280.641113,4290.641113,,,,,,,,,,,,,,,,,,,,,,,,,,,,,,,,,,,,,,,,,,,,,,,,,,,,,,,,,,,,,,,,,,,,,,
1720179317,8,0,4209.487305,4286.153809,4232.820313,4314.871582,4206.666504,4187.307617,4248.846191,4181.153809,4322.563965,4078.589844,4369.487305,4316.410156,4277.563965,4274.871582,,,,,,,,,,,,,,,,,,,,,,,,,,,,,,,,,,,,,,,,,,,,,,,,,,,,,,,,,,,,,,,,,,,,,,
1720179317,9,0,4215.769043,4276.282227,4212.307617,4306.538574,4202.692383,4188.205078,4246.153809,4177.820313,4333.205078,4080.897461,4367.820313,4300.769043,4268.974121,4277.820313,,,,,,,,,,,,,,,,,,,,,,,,,,,,,,,,,,,,,,,,,,,,,,,,,,,,,,,,,,,,,,,,,,,,,,
1720179317,10,0,4212.563965,4275.897461,4212.820313,4308.589844,4199.358887,4185.128418,4239.487305,4172.05127,4342.179688,4074.615479,4359.487305,4292.05127,4267.820313,4286.794922,,,,,,,,,,,,,,,,,,,,,,,,,,,,,,,,,,,,,,,,,,,,,,,,,,,,,,,,,,,,,,,,,,,,,,
1720179317,11,0,4207.563965,4281.666504,4216.538574,4311.794922,4202.692383,4180.897461,4235.512695,4169.615234,4336.538574,4079.743652,4360.384766,4285.512695,4269.102539,4280.128418,,,,,,,,,,,,,,,,,,,,,,,,,,,,,,,,,,,,,,,,,,,,,,,,,,,,,,,,,,,,,,,,,,,,,,
1720179317,12,0,4205.256348,4277.94873,4213.717773,4314.102539,4206.025879,4181.282227,4233.589844,4163.974121,4320.897461,4086.153809,4369.487305,4279.487305,4262.692383,4264.230957,,,,,,,,,,,,,,,,,,,,,,,,,,,,,,,,,,,,,,,,,,,,,,,,,,,,,,,,,,,,,,,,,,,,,,
1720179317,13,0,4200.641113,4275.897461,4213.974121,4318.846191,4207.179688,4183.717773,4233.461426,4154.743652,4307.436035,4074.102539,4365.384766,4280.897461,4261.794922,4260.384766,,,,,,,,,,,,,,,,,,,,,,,,,,,,,,,,,,,,,,,,,,,,,,,,,,,,,,,,,,,,,,,,,,,,,,
1720179317,14,0,4211.922852,4289.615234,4223.077148,4325.897461,4202.563965,4179.871582,4231.922852,4154.487305,4296.282227,4055.384521,4362.94873,4292.307617,4266.666504,4268.077148,,,,,,,,,,,,,,,,,,,,,,,,,,,,,,,,,,,,,,,,,,,,,,,,,,,,,,,,,,,,,,,,,,,,,,
1720179317,15,0,4229.358887,4298.333496,4231.794922,4331.282227,4197.179688,4171.153809,4228.077148,4156.153809,4283.589844,4056.025635,4368.333496,4302.820313,4263.333496,4273.589844,,,,,,,,,,,,,,,,,,,,,,,,,,,,,,,,,,,,,,,,,,,,,,,,,,,,,,,,,,,,,,,,,,,,,,
1720179317,16,0,4226.282227,4288.333496,4234.358887,4325.769043,4199.358887,4167.179688,4227.94873,4152.94873,4277.692383,4066.538574,4364.743652,4302.94873,4265.641113,4281.025879,0.850071,4.085782,1.295697,0.840094,0.763363,2.498311,3.914072,2.647101,1.117876,0.247541,2.119274,6.959373,1.941089,1.056072,0.301717,1.832856,3.614865,1.339796,0.794218,0.517166,0.77717,1.116492,0.327605,0.491699,0.118893,0.16657,0.783239,0.071579,0.126557,0.076623,1.006464,4.09232,0.558637,0.310889,0.123761,0.821507,6.890114,0.388991,0.309727,0.100718,1.086186,33.158504,0.902309,0.643795,0.135715,0.810131,4.585962,1.055262,0.872851,0.403519,0.139839,0.209224,0.059021,0.045752,0.135195,3.177558,11.217559,2.452883,0.95644,0.341787,2.631549,6.724888,1.950287,0.867866,0.351954,3.923547,9.375719,3.931293,1.815176,0.68244
1720179317,17,0,4220.256348,4280.384766,4233.461426,4319.743652,4202.94873,4168.974121,4231.922852,4152.179688,4281.410156,4063.333252,4360.769043,4300,4273.589844,4294.230957,,,,,,,,,,,,,,,,,,,,,,,,,,,,,,,,,,,,,,,,,,,,,,,,,,,,,,,,,,,,,,,,,,,,,,
1720179317,18,0,4220.384766,4285.256348,4226.410156,4324.871582,4203.974121,4174.230957,4235.384766,4157.94873,4295.256348,4064.743652,4363.589844,4302.436035,4270.384766,4289.230957,,,,,,,,,,,,,,,,,,,,,,,,,,,,,,,,,,,,,,,,,,,,,,,,,,,,,,,,,,,,,,,,,,,,,,
1720179317,19,0,4217.436035,4281.025879,4219.743652,4323.077148,4203.717773,4178.333496,4242.820313,4170.256348,4316.794922,4082.692383,4365,4311.025879,4266.153809,4268.205078,,,,,,,,,,,,,,,,,,,,,,,,,,,,,,,,,,,,,,,,,,,,,,,,,,,,,,,,,,,,,,,,,,,,,,
1720179317,20,0,4207.820313,4267.179688,4217.692383,4311.794922,4197.820313,4176.282227,4253.333496,4179.743652,4325.256348,4081.666748,4364.230957,4305.384766,4263.461426,4263.333496,,,,,,,,,,,,,,,,,,,,,,,,,,,,,,,,,,,,,,,,,,,,,,,,,,,,,,,,,,,,,,,,,,,,,,
1720179317,21,0,4190.769043,4260.897461,4207.820313,4308.205078,4184.102539,4170.769043,4249.102539,4170,4314.487305,4061.538574,4359.871582,4278.974121,4249.230957,4264.487305,,,,,,,,,,,,,,,,,,,,,,,,,,,,,,,,,,,,,,,,,,,,,,,,,,,,,,,,,,,,,,,,,,,,,,
1720179317,22,0,4179.487305,4259.615234,4195.897461,4306.538574,4180.128418,4170.384766,4233.717773,4154.615234,4305.769043,4056.410156,4354.743652,4264.487305,4237.94873,4246.666504,,,,,,,,,,,,,,,,,,,,,,,,,,,,,,,,,,,,,,,,,,,,,,,,,,,,,,,,,,,,,,,,,,,,,,
1720179317,23,0,4195.641113,4260.897461,4201.153809,4299.743652,4195.512695,4175.256348,4230.641113,4160.256348,4312.692383,4066.025635,4358.717773,4277.692383,4244.487305,4233.077148,,,,,,,,,,,,,,,,,,,,,,,,,,,,,,,,,,,,,,,,,,,,,,,,,,,,,,,,,,,,,,,,,,,,,,
1720179317,24,0,4206.410156,4265.512695,4207.563965,4303.717773,4203.461426,4175.512695,4236.153809,4167.692383,4314.615234,4074.230713,4357.94873,4282.692383,4248.333496,4249.615234,,,,,,,,,,,,,,,,,,,,,,,,,,,,,,,,,,,,,,,,,,,,,,,,,,,,,,,,,,,,,,,,,,,,,,
1720179317,25,0,4197.563965,4265.128418,4205.512695,4313.846191,4198.717773,4170.769043,4235.769043,4158.461426,4301.282227,4072.05127,4351.538574,4271.922852,4245.769043,4265.769043,,,,,,,,,,,,,,,,,,,,,,,,,,,,,,,,,,,,,,,,,,,,,,,,,,,,,,,,,,,,,,,,,,,,,,
1720179317,26,0,4202.692383,4262.94873,4215.128418,4312.94873,4200.128418,4168.717773,4234.230957,4153.333496,4282.94873,4065.769287,4355.769043,4278.077148,4254.358887,4262.307617,,,,,,,,,,,,,,,,,,,,,,,,,,,,,,,,,,,,,,,,,,,,,,,,,,,,,,,,,,,,,,,,,,,,,,
1720179317,27,0,4210.512695,4267.563965,4228.589844,4313.461426,4202.436035,4166.153809,4232.94873,4151.922852,4265.897461,4063.205078,4358.333496,4290.384766,4260.769043,4265.512695,,,,,,,,,,,,,,,,,,,,,,,,,,,,,,,,,,,,,,,,,,,,,,,,,,,,,,,,,,,,,,,,,,,,,,
1720179317,28,0,4220.641113,4280,4233.717773,4328.333496,4202.436035,4162.94873,4230.384766,4146.922852,4257.179688,4065.512939,4358.077148,4303.077148,4260.769043,4285.769043,,,,,,,,,,,,,,,,,,,,,,,,,,,,,,,,,,,,,,,,,,,,,,,,,,,,,,,,,,,,,,,,,,,,,,
1720179317,29,0,4238.717773,4287.692383,4240.256348,4343.717773,4198.461426,4163.333496,4230.256348,4146.282227,4258.974121,4069.230713,4361.153809,4316.922852,4264.871582,4296.794922,,,,,,,,,,,,,,,,,,,,,,,,,,,,,,,,,,,,,,,,,,,,,,,,,,,,,,,,,,,,,,,,,,,,,,
1720179317,30,0,4228.205078,4274.358887,4234.102539,4333.333496,4183.717773,4157.436035,4222.179688,4142.692383,4258.333496,4058.974365,4358.077148,4298.717773,4248.333496,4276.922852,,,,,,,,,,,,,,,,,,,,,,,,,,,,,,,,,,,,,,,,,,,,,,,,,,,,,,,,,,,,,,,,,,,,,,
1720179317,31,0,4201.666504,4250.641113,4213.589844,4308.974121,4175.512695,4150.512695,4214.358887,4136.282227,4260.641113,4040.128174,4352.820313,4275.641113,4215.769043,4250.256348,,,,,,,,,,,,,,,,,,,,,,,,,,,,,,,,,,,,,,,,,,,,,,,,,,,,,,,,,,,,,,,,,,,,,,
1720179317,32,0,4199.615234,4245.128418,4208.717773,4301.410156,4183.974121,4161.666504,4229.487305,4148.333496,4285.769043,4045.384521,4354.358887,4296.922852,4219.230957,4247.307617,0.979877,3.932789,1.115661,0.89794,0.74414,2.72243,3.546952,2.326096,1.079202,0.264155,2.28113,6.854197,1.739592,1.049205,0.266938,2.050591,3.335773,1.102663,0.813638,0.486129,0.851646,1.169868,0.409787,0.548967,0.122981,0.148733,0.584219,0.071926,0.12994,0.079107,1.090672,3.706175,0.524946,0.295544,0.126174,0.860658,6.773795,0.427023,0.297017,0.093993,1.151705,33.653381,1.094402,0.614141,0.129705,0.895978,4.526553,1.150166,0.862,0.406869,0.153919,0.187611,0.053575,0.045115,0.126568,3.365871,10.830677,2.398488,1.228093,0.336452,2.950228,6.548184,1.796339,0.903434,0.342141,4.558038,9.125088,3.237377,1.874611,0.713271
1720179317,33,0,4209.743652,4256.153809,4218.846191,4309.743652,4190.512695,4173.333496,4251.282227,4168.461426,4315,4073.589844,4357.307617,4320.384766,4244.615234,4262.692383,,,,,,,,,,,,,,,,,,,,,,,,,,,,,,,,,,,,,,,,,,,,,,,,,,,,,,,,,,,,,,,,,,,,,,
1720179317,34,0,4204.871582,4258.974121,4213.717773,4313.589844,4187.179688,4169.102539,4251.794922,4168.333496,4313.589844,4083.974365,4355.641113,4306.922852,4240.897461,4266.666504,,,,,,,,,,,,,,,,,,,,,,,,,,,,,,,,,,,,,,,,,,,,,,,,,,,,,,,,,,,,,,,,,,,,,,
1720179317,35,0,4195.897461,4248.205078,4200.769043,4307.820313,4183.205078,4166.666504,4239.487305,4159.743652,4299.230957,4070.512939,4351.922852,4297.563965,4224.743652,4247.692383,,,,,,,,,,,,,,,,,,,,,,,,,,,,,,,,,,,,,,,,,,,,,,,,,,,,,,,,,,,,,,,,,,,,,,
1720179317,36,0,4199.615234,4244.487305,4202.820313,4305.384766,4182.563965,4169.487305,4234.358887,4158.589844,4294.871582,4064.871826,4353.077148,4308.846191,4230.769043,4241.666504,,,,,,,,,,,,,,,,,,,,,,,,,,,,,,,,,,,,,,,,,,,,,,,,,,,,,,,,,,,,,,,,,,,,,,
1720179317,37,0,4213.717773,4253.461426,4212.94873,4311.153809,4184.615234,4166.153809,4235,4159.230957,4288.974121,4076.025635,4356.922852,4316.794922,4246.153809,4265.512695,,,,,,,,,,,,,,,,,,,,,,,,,,,,,,,,,,,,,,,,,,,,,,,,,,,,,,,,,,,,,,,,,,,,,,
1720179317,38,0,4225.897461,4265.384766,4221.666504,4318.077148,4186.410156,4157.692383,4226.922852,4154.102539,4270.769043,4083.974365,4354.615234,4328.974121,4256.538574,4286.410156,,,,,,,,,,,,,,,,,,,,,,,,,,,,,,,,,,,,,,,,,,,,,,,,,,,,,,,,,,,,,,,,,,,,,,
1720179317,39,0,4236.025879,4273.205078,4232.692383,4324.615234,4189.230957,4152.307617,4215.897461,4151.025879,4252.179688,4079.743652,4356.794922,4348.205078,4266.410156,4298.461426,,,,,,,,,,,,,,,,,,,,,,,,,,,,,,,,,,,,,,,,,,,,,,,,,,,,,,,,,,,,,,,,,,,,,,
1720179317,40,0,4248.589844,4281.410156,4247.563965,4332.307617,4195.769043,4153.589844,4220.384766,4152.94873,4244.358887,4072.94873,4365.641113,4358.333496,4276.025879,4316.153809,,,,,,,,,,,,,,,,,,,,,,,,,,,,,,,,,,,,,,,,,,,,,,,,,,,,,,,,,,,,,,,,,,,,,,
1720179317,41,0,4251.025879,4290.512695,4257.307617,4340.128418,4201.666504,4161.410156,4230.641113,4149.615234,4240.384766,4074.615479,4360,4364.487305,4280.769043,4317.307617,,,,,,,,,,,,,,,,,,,,,,,,,,,,,,,,,,,,,,,,,,,,,,,,,,,,,,,,,,,,,,,,,,,,,,
1720179317,42,0,4243.974121,4292.307617,4258.205078,4344.743652,4206.025879,4166.922852,4234.615234,4153.461426,4241.025879,4086.153809,4354.871582,4375,4279.615234,4302.436035,,,,,,,,,,,,,,,,,,,,,,,,,,,,,,,,,,,,,,,,,,,,,,,,,,,,,,,,,,,,,,,,,,,,,,
1720179317,43,0,4236.025879,4283.974121,4251.666504,4343.846191,4200.384766,4163.974121,4242.563965,4167.563965,4258.846191,4100.512695,4362.179688,4376.410156,4277.820313,4303.717773,,,,,,,,,,,,,,,,,,,,,,,,,,,,,,,,,,,,,,,,,,,,,,,,,,,,,,,,,,,,,,,,,,,,,,
1720179317,44,0,4221.794922,4266.282227,4234.487305,4332.436035,4183.461426,4162.179688,4247.563965,4178.205078,4287.692383,4109.871582,4361.794922,4359.871582,4274.487305,4299.871582,,,,,,,,,,,,,,,,,,,,,,,,,,,,,,,,,,,,,,,,,,,,,,,,,,,,,,,,,,,,,,,,,,,,,,
1720179317,45,0,4209.358887,4247.436035,4217.692383,4314.743652,4178.589844,4168.589844,4246.153809,4185.897461,4308.974121,4110.128418,4355.128418,4343.974121,4264.615234,4275.128418,,,,,,,,,,,,,,,,,,,,,,,,,,,,,,,,,,,,,,,,,,,,,,,,,,,,,,,,,,,,,,,,,,,,,,
1720179317,46,0,4210.897461,4239.358887,4208.333496,4301.794922,4188.461426,4170.897461,4243.461426,4186.666504,4310.897461,4100.641113,4353.461426,4340.897461,4251.922852,4269.358887,,,,,,,,,,,,,,,,,,,,,,,,,,,,,,,,,,,,,,,,,,,,,,,,,,,,,,,,,,,,,,,,,,,,,,
1720179317,47,0,4217.307617,4240.641113,4201.153809,4298.974121,4189.358887,4167.820313,4234.615234,4176.410156,4299.743652,4096.282227,4354.102539,4337.692383,4247.94873,4281.282227,,,,,,,,,,,,,,,,,,,,,,,,,,,,,,,,,,,,,,,,,,,,,,,,,,,,,,,,,,,,,,,,,,,,,,
1720179317,48,0,4215.384766,4243.461426,4198.846191,4302.179688,4181.153809,4168.077148,4226.282227,4168.846191,4290,4102.307617,4354.102539,4331.410156,4252.692383,4276.410156,1.087019,3.840195,0.916506,0.925629,0.710318,2.748626,3.184343,1.838739,0.985808,0.277617,2.444136,6.880966,1.502414,1.00197,0.238224,2.152398,3.096974,0.832281,0.847554,0.43276,0.896938,1.175982,0.496709,0.607728,0.130235,0.143587,0.452616,0.084315,0.132639,0.08083,1.241693,3.556046,0.519607,0.304098,0.125157,0.973238,6.656955,0.548032,0.304937,0.091071,1.367801,33.285496,1.502558,0.629441,0.126233,0.995263,4.311533,1.376296,0.853883,0.402543,0.166926,0.160283,0.045905,0.045163,0.117795,3.443953,10.192616,2.415629,1.514292,0.334393,3.078136,6.202028,1.598977,0.939601,0.325284,4.761874,8.446675,2.459226,1.878794,0.73082
1720179317,49,0,4211.794922,4245,4207.307617,4303.717773,4183.589844,4169.487305,4230.512695,4169.615234,4283.333496,4096.794922,4354.871582,4335.128418,4254.102539,4274.615234,,,,,,,,,,,,,,,,,,,,,,,,,,,,,,,,,,,,,,,,,,,,,,,,,,,,,,,,,,,,,,,,,,,,,,
1720179317,50,0,4220.256348,4246.282227,4217.94873,4306.282227,4194.102539,4171.025879,4233.974121,4168.205078,4271.282227,4089.871826,4352.436035,4342.94873,4252.05127,4285.769043,,,,,,,,,,,,,,,,,,,,,,,,,,,,,,,,,,,,,,,,,,,,,,,,,,,,,,,,,,,,,,,,,,,,,,
1720179317,51,0,4229.615234,4249.102539,4223.333496,4312.820313,4197.820313,4170.384766,4233.461426,4168.333496,4259.743652,4098.589844,4356.025879,4351.538574,4256.538574,4283.589844,,,,,,,,,,,,,,,,,,,,,,,,,,,,,,,,,,,,,,,,,,,,,,,,,,,,,,,,,,,,,,,,,,,,,,
1720179317,52,0,4229.743652,4256.410156,4229.487305,4314.487305,4197.05127,4167.307617,4231.538574,4164.871582,4249.102539,4096.666504,4361.922852,4361.410156,4262.179688,4282.820313,,,,,,,,,,,,,,,,,,,,,,,,,,,,,,,,,,,,,,,,,,,,,,,,,,,,,,,,,,,,,,,,,,,,,,
1720179317,53,0,4235.128418,4264.358887,4243.846191,4320.128418,4199.230957,4167.05127,4222.436035,4155,4231.282227,4083.846191,4358.589844,4369.615234,4262.820313,4304.743652,,,,,,,,,,,,,,,,,,,,,,,,,,,,,,,,,,,,,,,,,,,,,,,,,,,,,,,,,,,,,,,,,,,,,,
1720179317,54,0,4252.820313,4269.487305,4258.846191,4336.794922,4200.769043,4168.589844,4220,4156.153809,4225.256348,4095.128174,4359.230957,4381.153809,4271.666504,4329.871582,,,,,,,,,,,,,,,,,,,,,,,,,,,,,,,,,,,,,,,,,,,,,,,,,,,,,,,,,,,,,,,,,,,,,,
1720179317,55,0,4255.256348,4269.743652,4256.282227,4339.230957,4198.333496,4169.230957,4230.128418,4167.820313,4240,4112.563965,4360.512695,4393.333496,4279.358887,4332.820313,,,,,,,,,,,,,,,,,,,,,,,,,,,,,,,,,,,,,,,,,,,,,,,,,,,,,,,,,,,,,,,,,,,,,,
1720179317,56,0,4234.871582,4254.358887,4233.846191,4315.897461,4194.230957,4170.128418,4233.974121,4177.179688,4258.077148,4110,4358.205078,4384.358887,4272.179688,4315.384766,,,,,,,,,,,,,,,,,,,,,,,,,,,,,,,,,,,,,,,,,,,,,,,,,,,,,,,,,,,,,,,,,,,,,,
1720179317,57,0,4218.717773,4236.153809,4214.615234,4295.256348,4190.769043,4169.358887,4229.871582,4183.077148,4277.436035,4107.436035,4355.256348,4358.974121,4261.410156,4296.282227,,,,,,,,,,,,,,,,,,,,,,,,,,,,,,,,,,,,,,,,,,,,,,,,,,,,,,,,,,,,,,,,,,,,,,
1720179317,58,0,4215.769043,4236.025879,4214.615234,4293.333496,4187.692383,4169.743652,4234.871582,4187.307617,4295.897461,4110.512695,4356.922852,4352.436035,4253.461426,4296.794922,,,,,,,,,,,,,,,,,,,,,,,,,,,,,,,,,,,,,,,,,,,,,,,,,,,,,,,,,,,,,,,,,,,,,,
1720179317,59,0,4211.282227,4239.743652,4215.769043,4295,4186.794922,4179.358887,4242.820313,4189.487305,4296.666504,4103.461426,4360.769043,4360.384766,4245.641113,4296.666504,,,,,,,,,,,,,,,,,,,,,,,,,,,,,,,,,,,,,,,,,,,,,,,,,,,,,,,,,,,,,,,,,,,,,,
1720179317,60,0,4203.717773,4227.563965,4202.563965,4288.077148,4187.563965,4181.282227,4236.794922,4186.025879,4285.512695,4097.820313,4355.512695,4352.692383,4242.05127,4276.922852,,,,,,,,,,,,,,,,,,,,,,,,,,,,,,,,,,,,,,,,,,,,,,,,,,,,,,,,,,,,,,,,,,,,,,
1720179317,61,0,4201.794922,4217.563965,4193.589844,4279.615234,4187.94873,4173.846191,4228.205078,4179.358887,4278.717773,4109.615234,4351.794922,4337.692383,4244.871582,4275,,,,,,,,,,,,,,,,,,,,,,,,,,,,,,,,,,,,,,,,,,,,,,,,,,,,,,,,,,,,,,,,,,,,,,
1720179317,62,0,4206.922852,4222.436035,4203.333496,4276.025879,4185,4174.358887,4224.615234,4176.153809,4269.487305,4120.641113,4355.897461,4338.846191,4248.974121,4289.102539,,,,,,,,,,,,,,,,,,,,,,,,,,,,,,,,,,,,,,,,,,,,,,,,,,,,,,,,,,,,,,,,,,,,,,
1720179317,63,0,4218.974121,4231.666504,4220,4280,4184.487305,4176.153809,4221.153809,4176.538574,4253.333496,4121.666504,4358.077148,4358.461426,4256.410156,4300,,,,,,,,,,,,,,,,,,,,,,,,,,,,,,,,,,,,,,,,,,,,,,,,,,,,,,,,,,,,,,,,,,,,,,
1720179317,64,0,4233.589844,4242.179688,4232.563965,4291.153809,4185.897461,4170.384766,4217.563965,4174.871582,4239.487305,4120.769043,4358.974121,4378.205078,4265.512695,4318.717773,1.150354,3.830812,0.737088,0.913497,0.667317,2.560791,2.869899,1.292382,0.849727,0.283247,2.554174,6.953071,1.251716,0.930192,0.224426,2.085711,2.914815,0.576582,0.873237,0.370137,0.891327,1.122459,0.559736,0.648098,0.140571,0.153578,0.397666,0.104328,0.132119,0.082384,1.379969,3.535667,0.531622,0.319061,0.120575,1.097893,6.535829,0.706998,0.320658,0.091588,1.694145,32.229607,1.994523,0.636407,0.128689,1.096714,4.002662,1.682006,0.817815,0.394306,0.176206,0.136965,0.037204,0.045536,0.111057,3.419709,9.510471,2.406093,1.727517,0.340018,3.007631,5.765811,1.368343,0.949444,0.307873,4.675787,7.563705,1.718279,1.821854,0.732068
1720179317,65,0,4237.179688,4250.384766,4237.692383,4300.512695,4185.384766,4167.563965,4214.487305,4170.897461,4226.025879,4113.205078,4362.94873,4385.256348,4272.179688,4331.282227,,,,,,,,,,,,,,,,,,,,,,,,,,,,,,,,,,,,,,,,,,,,,,,,,,,,,,,,,,,,,,,,,,,,,,
1720179317,66,0,4238.461426,4252.179688,4241.538574,4305.128418,4192.436035,4172.179688,4215.512695,4168.717773,4209.230957,4105.769043,4358.846191,4385.256348,4276.922852,4332.179688,,,,,,,,,,,,,,,,,,,,,,,,,,,,,,,,,,,,,,,,,,,,,,,,,,,,,,,,,,,,,,,,,,,,,,
1720179317,67,0,4251.282227,4252.692383,4258.717773,4310.769043,4200.641113,4178.461426,4225.897461,4174.230957,4197.307617,4108.846191,4356.025879,4398.717773,4280.128418,4339.358887,,,,,,,,,,,,,,,,,,,,,,,,,,,,,,,,,,,,,,,,,,,,,,,,,,,,,,,,,,,,,,,,,,,,,,
1720179317,68,0,4257.179688,4253.846191,4272.563965,4317.436035,4199.102539,4183.589844,4236.922852,4184.871582,4197.563965,4106.410156,4366.538574,4418.589844,4284.102539,4347.05127,,,,,,,,,,,,,,,,,,,,,,,,,,,,,,,,,,,,,,,,,,,,,,,,,,,,,,,,,,,,,,,,,,,,,,
1720179317,69,0,4245.384766,4247.692383,4256.794922,4313.333496,4196.025879,4186.922852,4239.743652,4193.077148,4213.717773,4107.563965,4364.615234,4418.461426,4284.487305,4345.897461,,,,,,,,,,,,,,,,,,,,,,,,,,,,,,,,,,,,,,,,,,,,,,,,,,,,,,,,,,,,,,,,,,,,,,
1720179317,70,0,4237.94873,4232.436035,4236.538574,4293.974121,4195.128418,4191.025879,4245.641113,4207.05127,4245.641113,4133.077148,4359.102539,4407.436035,4282.563965,4336.666504,,,,,,,,,,,,,,,,,,,,,,,,,,,,,,,,,,,,,,,,,,,,,,,,,,,,,,,,,,,,,,,,,,,,,,
1720179317,71,0,4226.538574,4221.794922,4229.871582,4275.512695,4189.230957,4193.205078,4249.871582,4216.153809,4272.94873,4150.256348,4364.487305,4398.333496,4279.487305,4311.153809,,,,,,,,,,,,,,,,,,,,,,,,,,,,,,,,,,,,,,,,,,,,,,,,,,,,,,,,,,,,,,,,,,,,,,
1720179317,72,0,4205.384766,4211.538574,4221.666504,4274.743652,4183.589844,4189.102539,4244.871582,4210,4282.05127,4143.717773,4365.128418,4384.871582,4266.922852,4301.025879,,,,,,,,,,,,,,,,,,,,,,,,,,,,,,,,,,,,,,,,,,,,,,,,,,,,,,,,,,,,,,,,,,,,,,
1720179317,73,0,4203.589844,4203.077148,4212.436035,4280.256348,4184.615234,4188.205078,4241.538574,4207.820313,4282.94873,4146.538574,4362.436035,4375.512695,4256.410156,4319.230957,,,,,,,,,,,,,,,,,,,,,,,,,,,,,,,,,,,,,,,,,,,,,,,,,,,,,,,,,,,,,,,,,,,,,,
1720179317,74,0,4218.974121,4207.179688,4209.871582,4270.256348,4185.897461,4188.333496,4235.897461,4208.717773,4280.384766,4160.769043,4361.153809,4383.461426,4273.077148,4326.282227,,,,,,,,,,,,,,,,,,,,,,,,,,,,,,,,,,,,,,,,,,,,,,,,,,,,,,,,,,,,,,,,,,,,,,
1720179317,75,0,4219.871582,4212.820313,4217.05127,4259.615234,4188.974121,4183.717773,4223.205078,4204.102539,4274.358887,4162.436035,4360.897461,4394.230957,4293.846191,4327.436035,,,,,,,,,,,,,,,,,,,,,,,,,,,,,,,,,,,,,,,,,,,,,,,,,,,,,,,,,,,,,,,,,,,,,,
1720179317,76,0,4219.230957,4215.128418,4229.358887,4271.666504,4195.128418,4183.205078,4217.436035,4203.205078,4263.333496,4157.820313,4364.487305,4401.666504,4297.179688,4343.205078,,,,,,,,,,,,,,,,,,,,,,,,,,,,,,,,,,,,,,,,,,,,,,,,,,,,,,,,,,,,,,,,,,,,,,
1720179317,77,0,4235.128418,4215.641113,4237.05127,4284.743652,4195.256348,4187.05127,4218.461426,4201.666504,4243.974121,4154.230957,4368.205078,4410.769043,4304.230957,4354.871582,,,,,,,,,,,,,,,,,,,,,,,,,,,,,,,,,,,,,,,,,,,,,,,,,,,,,,,,,,,,,,,,,,,,,,
1720179317,78,0,4235.512695,4209.358887,4237.563965,4279.102539,4190.256348,4180.641113,4215,4195.128418,4227.05127,4152.179688,4364.358887,4417.05127,4323.846191,4363.461426,,,,,,,,,,,,,,,,,,,,,,,,,,,,,,,,,,,,,,,,,,,,,,,,,,,,,,,,,,,,,,,,,,,,,,
1720179317,79,0,4228.589844,4206.794922,4246.153809,4277.307617,4192.05127,4173.974121,4214.871582,4197.692383,4225.384766,4160,4367.692383,4429.102539,4346.538574,4385.769043,,,,,,,,,,,,,,,,,,,,,,,,,,,,,,,,,,,,,,,,,,,,,,,,,,,,,,,,,,,,,,,,,,,,,,
1720179317,80,0,4243.589844,4213.974121,4261.282227,4293.589844,4198.974121,4178.077148,4225.128418,4204.358887,4222.563965,4173.717773,4375.641113,4445.512695,4361.025879,4402.563965,1.140659,4.003778,0.606868,0.861771,0.619982,2.195259,2.751868,0.812028,0.700471,0.282536,2.511271,7.126633,1.025031,0.849105,0.226834,1.865453,2.892665,0.385063,0.874558,0.314326,0.829543,1.042308,0.579089,0.655391,0.153053,0.162133,0.408883,0.127226,0.128272,0.084897,1.432508,3.571614,0.561794,0.335268,0.115932,1.185088,6.382725,0.854012,0.335587,0.097165,2.040015,30.832312,2.395256,0.615757,0.141591,1.158417,3.620666,1.985564,0.749374,0.391663,0.175148,0.125753,0.028991,0.045947,0.107178,3.247365,8.995602,2.308318,1.796709,0.36111,2.732136,5.332911,1.140877,0.923108,0.301586,4.149856,6.848435,1.166718,1.712513,0.724625
1720179317,81,0,4251.922852,4212.820313,4264.487305,4300.897461,4199.487305,4185.256348,4236.153809,4201.538574,4208.205078,4179.358887,4372.820313,4452.05127,4362.436035,4400.641113,,,,,,,,,,,,,,,,,,,,,,,,,,,,,,,,,,,,,,,,,,,,,,,,,,,,,,,,,,,,,,,,,,,,,,
1720179317,82,0,4238.461426,4198.333496,4258.461426,4284.487305,4202.436035,4192.307617,4244.230957,4206.538574,4213.205078,4176.538574,4373.461426,4453.333496,4358.333496,4394.358887,,,,,,,,,,,,,,,,,,,,,,,,,,,,,,,,,,,,,,,,,,,,,,,,,,,,,,,,,,,,,,,,,,,,,,
1720179317,83,0,4223.333496,4185.256348,4243.461426,4266.025879,4200.897461,4199.743652,4248.717773,4224.230957,4241.153809,4170.128418,4374.487305,4452.820313,4350,4385.256348,,,,,,,,,,,,,,,,,,,,,,,,,,,,,,,,,,,,,,,,,,,,,,,,,,,,,,,,,,,,,,,,,,,,,,
1720179317,84,0,4209.871582,4174.230957,4230.641113,4258.717773,4186.922852,4200.641113,4248.717773,4235.641113,4258.974121,4168.333496,4372.94873,4439.615234,4332.179688,4374.743652,,,,,,,,,,,,,,,,,,,,,,,,,,,,,,,,,,,,,,,,,,,,,,,,,,,,,,,,,,,,,,,,,,,,,,
1720179317,85,0,4202.05127,4168.333496,4231.538574,4253.846191,4187.307617,4200.641113,4247.307617,4233.846191,4263.589844,4168.974121,4375.128418,4426.666504,4321.922852,4366.538574,,,,,,,,,,,,,,,,,,,,,,,,,,,,,,,,,,,,,,,,,,,,,,,,,,,,,,,,,,,,,,,,,,,,,,
1720179317,86,0,4203.333496,4167.179688,4227.820313,4247.820313,4202.179688,4205.897461,4243.974121,4233.589844,4263.974121,4166.922852,4373.461426,4423.461426,4329.743652,4356.153809,,,,,,,,,,,,,,,,,,,,,,,,,,,,,,,,,,,,,,,,,,,,,,,,,,,,,,,,,,,,,,,,,,,,,,
1720179317,87,0,4197.563965,4162.436035,4214.230957,4243.077148,4200.512695,4203.717773,4233.589844,4233.077148,4259.615234,4178.589844,4373.077148,4420.897461,4338.461426,4350.641113,,,,,,,,,,,,,,,,,,,,,,,,,,,,,,,,,,,,,,,,,,,,,,,,,,,,,,,,,,,,,,,,,,,,,,
1720179317,88,0,4198.717773,4163.717773,4217.436035,4246.282227,4192.563965,4198.717773,4221.153809,4222.179688,4252.436035,4200.512695,4374.615234,4428.974121,4342.307617,4360,,,,,,,,,,,,,,,,,,,,,,,,,,,,,,,,,,,,,,,,,,,,,,,,,,,,,,,,,,,,,,,,,,,,,,
1720179317,89,0,4224.102539,4176.282227,4241.538574,4256.538574,4197.692383,4201.922852,4217.692383,4213.461426,4246.282227,4204.871582,4374.230957,4443.846191,4351.538574,4377.307617,,,,,,,,,,,,,,,,,,,,,,,,,,,,,,,,,,,,,,,,,,,,,,,,,,,,,,,,,,,,,,,,,,,,,,
1720179317,90,0,4235.384766,4185,4251.922852,4265.256348,4198.333496,4198.205078,4213.974121,4213.333496,4235.512695,4205.512695,4377.563965,4448.974121,4361.794922,4390,,,,,,,,,,,,,,,,,,,,,,,,,,,,,,,,,,,,,,,,,,,,,,,,,,,,,,,,,,,,,,,,,,,,,,
1720179317,91,0,4225.641113,4186.794922,4248.461426,4272.692383,4193.077148,4184.615234,4200,4206.666504,4217.563965,4214.615234,4378.333496,4450.512695,4365.128418,4393.974121,,,,,,,,,,,,,,,,,,,,,,,,,,,,,,,,,,,,,,,,,,,,,,,,,,,,,,,,,,,,,,,,,,,,,,
1720179317,92,0,4238.205078,4195.512695,4255.128418,4281.025879,4199.358887,4181.922852,4192.307617,4197.563965,4196.153809,4209.743652,4374.743652,4458.077148,4368.974121,4403.077148,,,,,,,,,,,,,,,,,,,,,,,,,,,,,,,,,,,,,,,,,,,,,,,,,,,,,,,,,,,,,,,,,,,,,,
1720179317,93,0,4261.025879,4204.358887,4269.871582,4281.538574,4206.025879,4195.641113,4211.922852,4208.974121,4180.256348,4194.358887,4378.846191,4468.589844,4372.820313,4417.436035,,,,,,,,,,,,,,,,,,,,,,,,,,,,,,,,,,,,,,,,,,,,,,,,,,,,,,,,,,,,,,,,,,,,,,
1720179317,94,0,4245.769043,4193.717773,4272.307617,4270.769043,4204.871582,4203.974121,4241.794922,4231.922852,4190.128418,4193.717773,4378.333496,4475,4359.487305,4402.94873,,,,,,,,,,,,,,,,,,,,,,,,,,,,,,,,,,,,,,,,,,,,,,,,,,,,,,,,,,,,,,,,,,,,,,
1720179317,95,0,4218.974121,4170,4251.666504,4254.871582,4200.897461,4200.128418,4248.333496,4243.846191,4217.692383,4193.077148,4371.282227,4466.538574,4342.563965,4375.512695,,,,,,,,,,,,,,,,,,,,,,,,,,,,,,,,,,,,,,,,,,,,,,,,,,,,,,,,,,,,,,,,,,,,,,
1720179317,96,0,4219.358887,4155.769043,4226.025879,4243.717773,4195.384766,4200.897461,4237.563965,4246.666504,4232.692383,4191.153809,4376.153809,4447.94873,4345.641113,4377.94873,1.064999,4.523176,0.534912,0.780282,0.572808,1.731169,3.039092,0.474523,0.569817,0.280042,2.274126,7.654496,0.840578,0.768879,0.241948,1.513706,3.210169,0.273477,0.845587,0.277388,0.738001,0.99374,0.553861,0.625417,0.165195,0.174505,0.466774,0.151665,0.122158,0.089206,1.356986,3.594914,0.60711,0.353245,0.115462,1.210972,6.153506,0.935815,0.345741,0.108459,2.285326,29.629757,2.553279,0.584892,0.165512,1.227412,3.149386,2.211899,0.673587,0.402937,0.164835,0.129826,0.022386,0.045983,0.105496,3.005142,8.858647,2.090054,1.697618,0.404421,2.396518,5.0148,0.951939,0.86175,0.313243,3.415724,6.692426,0.896353,1.562541,0.721156
1720179317,97,0,4213.974121,4155.641113,4219.487305,4245.128418,4196.666504,4211.922852,4233.974121,4246.282227,4238.589844,4204.230957,4377.307617,4438.333496,4348.589844,4377.179688,,,,,,,,,,,,,,,,,,,,,,,,,,,,,,,,,,,,,,,,,,,,,,,,,,,,,,,,,,,,,,,,,,,,,,
1720179317,98,0,4197.179688,4155.897461,4227.436035,4246.922852,4204.230957,4219.615234,4240.641113,4247.05127,4247.179688,4217.820313,4373.461426,4435.641113,4341.282227,4357.692383,,,,,,,,,,,,,,,,,,,,,,,,,,,,,,,,,,,,,,,,,,,,,,,,,,,,,,,,,,,,,,,,,,,,,,
1720179317,99,0,4205.256348,4151.922852,4227.820313,4240,4200.897461,4213.205078,4235.769043,4247.692383,4245.897461,4216.410156,4377.692383,4433.461426,4341.282227,4362.692383,,,,,,,,,,,,,,,,,,,,,,,,,,,,,,,,,,,,,,,,,,,,,,,,,,,,,,,,,,,,,,,,,,,,,,
1720179317,100,0,4225.769043,4159.487305,4227.563965,4240.512695,4195.256348,4201.410156,4220.897461,4241.922852,4237.820313,4214.615234,4377.820313,4440.256348,4349.102539,4386.153809,,,,,,,,,,,,,,,,,,,,,,,,,,,,,,,,,,,,,,,,,,,,,,,,,,,,,,,,,,,,,,,,,,,,,,
1720179317,101,0,4232.692383,4176.410156,4242.563965,4254.102539,4204.102539,4201.282227,4213.333496,4233.717773,4233.717773,4227.307617,4377.692383,4454.358887,4358.205078,4395.512695,,,,,,,,,,,,,,,,,,,,,,,,,,,,,,,,,,,,,,,,,,,,,,,,,,,,,,,,,,,,,,,,,,,,,,
1720179317,102,0,4233.333496,4178.461426,4253.205078,4264.743652,4216.025879,4208.461426,4207.94873,4230.256348,4225.128418,4238.589844,4379.871582,4461.025879,4366.794922,4396.538574,,,,,,,,,,,,,,,,,,,,,,,,,,,,,,,,,,,,,,,,,,,,,,,,,,,,,,,,,,,,,,,,,,,,,,
1720179317,103,0,4233.333496,4171.666504,4250.128418,4262.05127,4217.05127,4210.769043,4202.179688,4226.666504,4212.820313,4235.641113,4376.538574,4459.358887,4368.846191,4396.538574,,,,,,,,,,,,,,,,,,,,,,,,,,,,,,,,,,,,,,,,,,,,,,,,,,,,,,,,,,,,,,,,,,,,,,
1720179317,104,0,4236.282227,4178.333496,4256.025879,4261.666504,4215.128418,4212.692383,4208.846191,4223.333496,4202.307617,4233.974121,4379.487305,4465.256348,4367.05127,4397.05127,,,,,,,,,,,,,,,,,,,,,,,,,,,,,,,,,,,,,,,,,,,,,,,,,,,,,,,,,,,,,,,,,,,,,,
1720179317,105,0,4247.692383,4189.615234,4273.974121,4275.256348,4219.230957,4214.102539,4223.589844,4233.974121,4190.384766,4231.794922,4390.897461,4485.256348,4373.461426,4405.512695,,,,,,,,,,,,,,,,,,,,,,,,,,,,,,,,,,,,,,,,,,,,,,,,,,,,,,,,,,,,,,,,,,,,,,
1720179317,106,0,4242.05127,4181.282227,4275,4274.358887,4217.563965,4206.666504,4229.615234,4247.820313,4182.692383,4212.436035,4383.846191,4490.512695,4365.641113,4399.230957,,,,,,,,,,,,,,,,,,,,,,,,,,,,,,,,,,,,,,,,,,,,,,,,,,,,,,,,,,,,,,,,,,,,,,
1720179317,107,0,4216.666504,4151.282227,4249.615234,4241.538574,4203.461426,4203.333496,4227.05127,4245.641113,4180.384766,4188.333496,4372.563965,4455.769043,4330.256348,4371.025879,,,,,,,,,,,,,,,,,,,,,,,,,,,,,,,,,,,,,,,,,,,,,,,,,,,,,,,,,,,,,,,,,,,,,,
1720179317,108,0,4209.615234,4132.820313,4228.589844,4218.461426,4195.128418,4211.410156,4230.256348,4246.794922,4185,4196.538574,4380.256348,4428.461426,4312.94873,4362.436035,,,,,,,,,,,,,,,,,,,,,,,,,,,,,,,,,,,,,,,,,,,,,,,,,,,,,,,,,,,,,,,,,,,,,,
1720179317,109,0,4225.384766,4143.333496,4235,4231.666504,4206.153809,4222.179688,4243.589844,4263.974121,4211.538574,4223.974121,4384.743652,4452.179688,4339.871582,4379.358887,,,,,,,,,,,,,,,,,,,,,,,,,,,,,,,,,,,,,,,,,,,,,,,,,,,,,,,,,,,,,,,,,,,,,,
1720179317,110,0,4232.05127,4155.897461,4253.717773,4248.974121,4218.589844,4228.846191,4252.94873,4273.077148,4236.025879,4234.358887,4385.256348,4483.589844,4365.641113,4385.897461,,,,,,,,,,,,,,,,,,,,,,,,,,,,,,,,,,,,,,,,,,,,,,,,,,,,,,,,,,,,,,,,,,,,,,
1720179317,111,0,4228.717773,4158.974121,4260.512695,4249.743652,4221.666504,4231.538574,4244.615234,4265.769043,4229.615234,4239.871582,4389.230957,4481.666504,4361.538574,4390.384766,,,,,,,,,,,,,,,,,,,,,,,,,,,,,,,,,,,,,,,,,,,,,,,,,,,,,,,,,,,,,,,,,,,,,,
1720179318,112,0,4235.384766,4164.230957,4257.692383,4246.794922,4222.94873,4230,4227.94873,4258.589844,4217.179688,4255,4389.358887,4473.974121,4361.666504,4410.384766,0.952091,5.574006,0.505165,0.68493,0.530762,1.350322,3.896993,0.279695,0.479753,0.279128,1.872345,8.8608,0.680234,0.689768,0.265345,1.146377,4.046473,0.215585,0.792108,0.263962,0.617935,1.020441,0.499656,0.566557,0.174024,0.172858,0.561709,0.178876,0.115504,0.09508,1.149987,3.612463,0.658679,0.371684,0.121629,1.164573,5.84459,0.92399,0.350813,0.124157,2.374704,29.298199,2.430302,0.582236,0.196962,1.315067,2.605251,2.333302,0.619247,0.429278,0.143825,0.147215,0.018083,0.045191,0.104489,2.731115,9.277863,1.740588,1.459619,0.468686,2.126663,4.996334,0.810613,0.776289,0.3385,2.587916,7.459853,0.862092,1.385997,0.72826
1720179318,113,0,4239.358887,4167.563965,4255.641113,4246.538574,4219.743652,4227.692383,4214.743652,4251.025879,4215.897461,4264.871582,4389.871582,4480.384766,4380.384766,4414.871582,,,,,,,,,,,,,,,,,,,,,,,,,,,,,,,,,,,,,,,,,,,,,,,,,,,,,,,,,,,,,,,,,,,,,,
1720179318,114,0,4240.256348,4171.025879,4262.436035,4253.846191,4220.256348,4230.641113,4209.743652,4245.256348,4211.025879,4268.077148,4390.769043,4492.94873,4398.333496,4410.128418,,,,,,,,,,,,,,,,,,,,,,,,,,,,,,,,,,,,,,,,,,,,,,,,,,,,,,,,,,,,,,,,,,,,,,
1720179318,115,0,4255,4183.974121,4281.282227,4270.769043,4232.179688,4233.461426,4212.179688,4245.128418,4192.179688,4264.743652,4394.230957,4504.615234,4403.205078,4433.205078,,,,,,,,,,,,,,,,,,,,,,,,,,,,,,,,,,,,,,,,,,,,,,,,,,,,,,,,,,,,,,,,,,,,,,
1720179318,116,0,4270,4194.615234,4299.743652,4283.846191,4237.94873,4232.692383,4218.974121,4243.461426,4170.897461,4259.487305,4399.102539,4511.922852,4403.461426,4456.794922,,,,,,,,,,,,,,,,,,,,,,,,,,,,,,,,,,,,,,,,,,,,,,,,,,,,,,,,,,,,,,,,,,,,,,
1720179318,117,0,4271.794922,4193.461426,4307.05127,4285.769043,4230.641113,4231.025879,4234.102539,4256.538574,4176.025879,4268.205078,4398.846191,4524.871582,4409.743652,4448.077148,,,,,,,,,,,,,,,,,,,,,,,,,,,,,,,,,,,,,,,,,,,,,,,,,,,,,,,,,,,,,,,,,,,,,,
1720179318,118,0,4267.179688,4190.384766,4305,4279.743652,4227.307617,4231.410156,4254.743652,4290.641113,4210.769043,4284.358887,4398.461426,4542.563965,4415.641113,4438.974121,,,,,,,,,,,,,,,,,,,,,,,,,,,,,,,,,,,,,,,,,,,,,,,,,,,,,,,,,,,,,,,,,,,,,,
1720179318,119,0,4266.153809,4190.128418,4299.102539,4269.102539,4232.05127,4234.102539,4268.717773,4313.717773,4239.871582,4282.436035,4400.512695,4545.769043,4413.846191,4451.666504,,,,,,,,,,,,,,,,,,,,,,,,,,,,,,,,,,,,,,,,,,,,,,,,,,,,,,,,,,,,,,,,,,,,,,
1720179318,120,0,4271.666504,4185.897461,4296.666504,4262.563965,4228.077148,4236.153809,4268.333496,4312.820313,4246.410156,4278.333496,4399.102539,4540,4413.333496,4465.256348,,,,,,,,,,,,,,,,,,,,,,,,,,,,,,,,,,,,,,,,,,,,,,,,,,,,,,,,,,,,,,,,,,,,,,
1720179318,121,0,4272.94873,4173.333496,4296.025879,4263.589844,4217.692383,4234.743652,4258.077148,4306.410156,4242.820313,4280.128418,4402.820313,4540,4412.436035,4461.025879,,,,,,,,,,,,,,,,,,,,,,,,,,,,,,,,,,,,,,,,,,,,,,,,,,,,,,,,,,,,,,,,,,,,,,
1720179318,122,0,4262.05127,4169.871582,4291.153809,4263.974121,4220.641113,4231.794922,4247.820313,4302.94873,4235.512695,4277.436035,4404.102539,4537.307617,4407.179688,4455.384766,,,,,,,,,,,,,,,,,,,,,,,,,,,,,,,,,,,,,,,,,,,,,,,,,,,,,,,,,,,,,,,,,,,,,,
1720179318,123,0,4262.563965,4182.692383,4287.820313,4261.794922,4233.974121,4238.589844,4240.769043,4294.102539,4227.307617,4285.256348,4396.666504,4530,4407.436035,4460.641113,,,,,,,,,,,,,,,,,,,,,,,,,,,,,,,,,,,,,,,,,,,,,,,,,,,,,,,,,,,,,,,,,,,,,,
1720179318,124,0,4277.307617,4187.94873,4290.512695,4263.717773,4235.769043,4244.358887,4233.461426,4282.820313,4215.512695,4291.410156,4399.871582,4529.615234,4416.025879,4455.256348,,,,,,,,,,,,,,,,,,,,,,,,,,,,,,,,,,,,,,,,,,,,,,,,,,,,,,,,,,,,,,,,,,,,,,
1720179318,125,0,4278.846191,4182.179688,4296.410156,4271.538574,4233.333496,4237.05127,4225.384766,4275.256348,4203.205078,4282.563965,4404.358887,4536.282227,4425,4447.820313,,,,,,,,,,,,,,,,,,,,,,,,,,,,,,,,,,,,,,,,,,,,,,,,,,,,,,,,,,,,,,,,,,,,,,
1720179318,126,0,4280.384766,4191.025879,4303.333496,4277.436035,4236.538574,4236.282227,4220.897461,4271.794922,4194.871582,4286.538574,4399.743652,4537.563965,4429.230957,4456.922852,,,,,,,,,,,,,,,,,,,,,,,,,,,,,,,,,,,,,,,,,,,,,,,,,,,,,,,,,,,,,,,,,,,,,,
1720179318,127,0,4292.436035,4202.436035,4308.205078,4279.871582,4235.641113,4246.153809,4222.820313,4271.794922,4189.615234,4298.205078,4401.922852,4535.256348,4427.94873,4474.871582,,,,,,,,,,,,,,,,,,,,,,,,,,,,,,,,,,,,,,,,,,,,,,,,,,,,,,,,,,,,,,,,,,,,,,
1720179318,0,0,4296.538574,4200.512695,4313.846191,4286.153809,4238.333496,4247.692383,4231.538574,4274.102539,4182.179688,4288.461426,4405.641113,4545.384766,4433.974121,4492.05127,0.838332,7.248196,0.501145,0.594673,0.500509,1.130684,5.352397,0.199401,0.436447,0.280192,1.43811,10.920367,0.539834,0.612986,0.294685,0.826405,5.477911,0.188176,0.726744,0.272749,0.515903,1.127621,0.439661,0.496059,0.178248,0.182303,0.700271,0.209544,0.110939,0.101706,0.881513,3.77034,0.71101,0.387618,0.135026,1.056047,5.571331,0.843808,0.35307,0.141424,2.287111,30.42366,2.113668,0.639041,0.229942,1.407237,2.067128,2.366431,0.605603,0.462726,0.118585,0.17263,0.016413,0.043644,0.102879,2.475077,10.345034,1.312789,1.163674,0.54155,1.992623,5.487908,0.718597,0.688013,0.364921,1.8503,9.339277,0.954936,1.203149,0.742569
1720179318,1,0,4298.589844,4206.538574,4326.410156,4294.358887,4250.384766,4247.179688,4237.05127,4278.333496,4173.205078,4274.615234,4406.922852,4560,4443.717773,4491.922852,,,,,,,,,,,,,,,,,,,,,,,,,,,,,,,,,,,,,,,,,,,,,,,,,,,,,,,,,,,,,,,,,,,,,,
1720179318,2,0,4303.974121,4213.717773,4332.436035,4292.820313,4252.692383,4249.743652,4233.333496,4281.922852,4172.05127,4278.205078,4406.922852,4558.461426,4442.94873,4483.974121,,,,,,,,,,,,,,,,,,,,,,,,,,,,,,,,,,,,,,,,,,,,,,,,,,,,,,,,,,,,,,,,,,,,,,
1720179318,3,0,4295.769043,4205.512695,4320.384766,4281.282227,4248.333496,4246.922852,4241.794922,4291.025879,4184.358887,4282.563965,4405.256348,4551.538574,4441.666504,4492.563965,,,,,,,,,,,,,,,,,,,,,,,,,,,,,,,,,,,,,,,,,,,,,,,,,,,,,,,,,,,,,,,,,,,,,,
1720179318,4,0,4286.025879,4199.358887,4310.641113,4271.410156,4249.743652,4252.563965,4258.974121,4305.897461,4199.743652,4288.589844,4405.384766,4556.538574,4442.692383,4502.94873,,,,,,,,,,,,,,,,,,,,,,,,,,,,,,,,,,,,,,,,,,,,,,,,,,,,,,,,,,,,,,,,,,,,,,
1720179318,5,0,4293.589844,4198.077148,4309.230957,4268.589844,4249.358887,4259.743652,4260.769043,4315.256348,4212.307617,4293.717773,4406.666504,4553.589844,4435.384766,4485.512695,,,,,,,,,,,,,,,,,,,,,,,,,,,,,,,,,,,,,,,,,,,,,,,,,,,,,,,,,,,,,,,,,,,,,,
1720179318,6,0,4287.436035,4186.666504,4300.769043,4266.538574,4244.743652,4254.871582,4248.589844,4311.025879,4221.025879,4290.641113,4402.820313,4538.077148,4429.615234,4465,,,,,,,,,,,,,,,,,,,,,,,,,,,,,,,,,,,,,,,,,,,,,,,,,,,,,,,,,,,,,,,,,,,,,,
1720179318,7,0,4269.230957,4184.871582,4293.846191,4261.282227,4244.743652,4256.282227,4240,4301.410156,4217.563965,4297.307617,4402.820313,4537.94873,4438.974121,4476.794922,,,,,,,,,,,,,,,,,,,,,,,,,,,,,,,,,,,,,,,,,,,,,,,,,,,,,,,,,,,,,,,,,,,,,,
1720179318,8,0,4278.974121,4197.179688,4300.641113,4258.974121,4247.94873,4264.230957,4231.794922,4297.563965,4208.077148,4311.282227,4412.692383,4554.230957,4453.974121,4493.846191,,,,,,,,,,,,,,,,,,,,,,,,,,,,,,,,,,,,,,,,,,,,,,,,,,,,,,,,,,,,,,,,,,,,,,
1720179318,9,0,4297.307617,4199.230957,4313.589844,4266.025879,4249.487305,4259.487305,4219.871582,4290.641113,4200.512695,4316.666504,4412.05127,4563.846191,4459.743652,4495.384766,,,,,,,,,,,,,,,,,,,,,,,,,,,,,,,,,,,,,,,,,,,,,,,,,,,,,,,,,,,,,,,,,,,,,,
1720179318,10,0,4300.641113,4201.666504,4327.94873,4277.563965,4246.538574,4250,4212.179688,4278.717773,4185.128418,4318.974121,4410.256348,4568.461426,4457.94873,4497.820313,,,,,,,,,,,,,,,,,,,,,,,,,,,,,,,,,,,,,,,,,,,,,,,,,,,,,,,,,,,,,,,,,,,,,,
1720179318,11,0,4312.820313,4215.769043,4342.179688,4286.666504,4247.05127,4248.333496,4210.384766,4272.563965,4168.205078,4324.358887,4414.358887,4579.102539,4464.615234,4521.666504,,,,,,,,,,,,,,,,,,,,,,,,,,,,,,,,,,,,,,,,,,,,,,,,,,,,,,,,,,,,,,,,,,,,,,
1720179318,12,0,4326.922852,4222.820313,4345.256348,4293.974121,4256.282227,4248.974121,4213.333496,4277.563965,4167.179688,4326.282227,4416.025879,4587.179688,4482.436035,4544.743652,,,,,,,,,,,,,,,,,,,,,,,,,,,,,,,,,,,,,,,,,,,,,,,,,,,,,,,,,,,,,,,,,,,,,,
1720179318,13,0,4317.820313,4220.512695,4343.205078,4296.153809,4261.153809,4253.717773,4221.282227,4286.153809,4177.692383,4326.538574,4420.897461,4590.897461,4485.256348,4533.461426,,,,,,,,,,,,,,,,,,,,,,,,,,,,,,,,,,,,,,,,,,,,,,,,,,,,,,,,,,,,,,,,,,,,,,
1720179318,14,0,4300.256348,4219.102539,4339.871582,4288.589844,4258.461426,4263.846191,4238.974121,4295,4184.230957,4322.563965,4419.615234,4586.153809,4466.538574,4511.025879,,,,,,,,,,,,,,,,,,,,,,,,,,,,,,,,,,,,,,,,,,,,,,,,,,,,,,,,,,,,,,,,,,,,,,
1720179318,15,0,4289.102539,4212.820313,4329.358887,4274.102539,4263.461426,4271.922852,4260.897461,4309.871582,4193.077148,4304.487305,4413.974121,4568.333496,4453.717773,4499.487305,,,,,,,,,,,,,,,,,,,,,,,,,,,,,,,,,,,,,,,,,,,,,,,,,,,,,,,,,,,,,,,,,,,,,,
1720179318,16,0,4280.769043,4201.410156,4320.256348,4267.436035,4266.153809,4276.025879,4269.871582,4329.102539,4218.589844,4290.897461,4415.384766,4566.153809,4457.436035,4493.717773,0.748685,9.389322,0.51843,0.527753,0.487782,1.06438,7.220884,0.208496,0.43432,0.282235,1.05773,13.650309,0.434495,0.550744,0.329682,0.601434,7.378598,0.185212,0.67043,0.299613,0.410615,1.282305,0.39443,0.43067,0.178698,0.190048,0.889592,0.23906,0.113099,0.108462,0.629474,4.292777,0.757713,0.401407,0.154749,0.928628,5.580416,0.7555,0.354969,0.15713,2.165711,33.190582,1.750201,0.7656,0.258991,1.481028,1.72576,2.366029,0.635879,0.489514,0.093936,0.198868,0.016832,0.042216,0.100013,2.275597,11.977421,0.910073,0.90768,0.605892,1.99483,6.601158,0.68557,0.620648,0.383126,1.340056,12.136047,1.093108,1.041735,0.755571
1720179318,17,0,4272.94873,4190.769043,4318.974121,4260.128418,4251.666504,4277.436035,4267.179688,4339.230957,4237.94873,4291.410156,4419.102539,4581.666504,4459.615234,4488.974121,,,,,,,,,,,,,,,,,,,,,,,,,,,,,,,,,,,,,,,,,,,,,,,,,,,,,,,,,,,,,,,,,,,,,,
1720179318,18,0,4272.820313,4183.205078,4319.230957,4248.205078,4245.512695,4277.179688,4261.666504,4334.102539,4229.358887,4294.358887,4417.692383,4579.230957,4452.563965,4488.077148,,,,,,,,,,,,,,,,,,,,,,,,,,,,,,,,,,,,,,,,,,,,,,,,,,,,,,,,,,,,,,,,,,,,,,
1720179318,19,0,4285.256348,4187.692383,4321.025879,4250.641113,4259.871582,4278.333496,4255.897461,4327.05127,4215.641113,4301.538574,4419.743652,4569.615234,4452.307617,4497.820313,,,,,,,,,,,,,,,,,,,,,,,,,,,,,,,,,,,,,,,,,,,,,,,,,,,,,,,,,,,,,,,,,,,,,,
1720179318,20,0,4293.461426,4197.94873,4323.846191,4261.410156,4265.384766,4277.05127,4242.820313,4321.282227,4211.025879,4311.922852,4421.153809,4580.512695,4459.230957,4503.974121,,,,,,,,,,,,,,,,,,,,,,,,,,,,,,,,,,,,,,,,,,,,,,,,,,,,,,,,,,,,,,,,,,,,,,
1720179318,21,0,4292.692383,4202.563965,4326.153809,4263.333496,4257.179688,4269.358887,4226.794922,4311.410156,4199.230957,4312.179688,4422.307617,4587.820313,4464.230957,4505.641113,,,,,,,,,,,,,,,,,,,,,,,,,,,,,,,,,,,,,,,,,,,,,,,,,,,,,,,,,,,,,,,,,,,,,,
1720179318,22,0,4296.282227,4208.077148,4333.077148,4264.230957,4257.820313,4263.974121,4212.307617,4300.512695,4179.615234,4311.666504,4424.230957,4581.794922,4469.743652,4513.974121,,,,,,,,,,,,,,,,,,,,,,,,,,,,,,,,,,,,,,,,,,,,,,,,,,,,,,,,,,,,,,,,,,,,,,
1720179318,23,0,4311.794922,4223.077148,4347.692383,4274.743652,4265.641113,4263.077148,4201.538574,4287.820313,4162.692383,4321.025879,4421.025879,4584.871582,4481.282227,4527.05127,,,,,,,,,,,,,,,,,,,,,,,,,,,,,,,,,,,,,,,,,,,,,,,,,,,,,,,,,,,,,,,,,,,,,,
1720179318,24,0,4327.05127,4235.641113,4366.025879,4284.743652,4269.487305,4261.794922,4207.179688,4285,4156.666504,4327.436035,4424.871582,4602.820313,4492.307617,4545,,,,,,,,,,,,,,,,,,,,,,,,,,,,,,,,,,,,,,,,,,,,,,,,,,,,,,,,,,,,,,,,,,,,,,
1720179318,25,0,4327.820313,4236.922852,4378.589844,4289.487305,4273.846191,4262.179688,4225.769043,4305.769043,4170.384766,4321.282227,4429.615234,4625.512695,4497.94873,4561.025879,,,,,,,,,,,,,,,,,,,,,,,,,,,,,,,,,,,,,,,,,,,,,,,,,,,,,,,,,,,,,,,,,,,,,,
1720179318,26,0,4317.563965,4227.436035,4372.563965,4285,4274.230957,4273.333496,4245.512695,4330.512695,4189.102539,4316.538574,4428.846191,4632.436035,4495.897461,4551.666504,,,,,,,,,,,,,,,,,,,,,,,,,,,,,,,,,,,,,,,,,,,,,,,,,,,,,,,,,,,,,,,,,,,,,,
1720179318,27,0,4301.794922,4205.897461,4348.461426,4263.205078,4266.666504,4288.589844,4264.358887,4340.641113,4195.512695,4320.384766,4428.461426,4614.615234,4479.871582,4520.769043,,,,,,,,,,,,,,,,,,,,,,,,,,,,,,,,,,,,,,,,,,,,,,,,,,,,,,,,,,,,,,,,,,,,,,
1720179318,28,0,4284.487305,4186.922852,4326.922852,4243.717773,4262.05127,4295.769043,4275.256348,4347.436035,4199.230957,4321.410156,4423.333496,4594.230957,4462.05127,4509.743652,,,,,,,,,,,,,,,,,,,,,,,,,,,,,,,,,,,,,,,,,,,,,,,,,,,,,,,,,,,,,,,,,,,,,,
1720179318,29,0,4277.179688,4182.436035,4323.333496,4240.641113,4265.384766,4297.307617,4272.05127,4352.436035,4201.410156,4310.641113,4422.179688,4585.769043,4454.871582,4509.743652,,,,,,,,,,,,,,,,,,,,,,,,,,,,,,,,,,,,,,,,,,,,,,,,,,,,,,,,,,,,,,,,,,,,,,
1720179318,30,0,4282.94873,4184.743652,4327.05127,4242.05127,4265.384766,4294.743652,4266.922852,4350.769043,4199.871582,4306.538574,4424.487305,4584.102539,4456.282227,4500.256348,,,,,,,,,,,,,,,,,,,,,,,,,,,,,,,,,,,,,,,,,,,,,,,,,,,,,,,,,,,,,,,,,,,,,,
1720179318,31,0,4286.025879,4188.974121,4324.358887,4240.256348,4262.94873,4293.974121,4264.487305,4345.641113,4203.461426,4327.307617,4422.179688,4583.205078,4462.94873,4503.589844,,,,,,,,,,,,,,,,,,,,,,,,,,,,,,,,,,,,,,,,,,,,,,,,,,,,,,,,,,,,,,,,,,,,,,
1720179318,32,0,4290.128418,4196.666504,4324.871582,4241.666504,4267.692383,4294.487305,4251.025879,4335.769043,4201.666504,4345.384766,4420,4582.94873,4470.256348,4523.461426,0.719941,11.580416,0.555712,0.496112,0.492817,1.128569,9.161381,0.278926,0.46295,0.284749,0.817258,16.493305,0.38483,0.525744,0.369858,0.487723,9.432631,0.201316,0.643604,0.337952,0.327567,1.431213,0.371788,0.382844,0.178229,0.214635,1.121253,0.260894,0.126552,0.115216,0.466407,5.384494,0.792666,0.41535,0.178261,0.840235,6.112017,0.710953,0.357824,0.169675,2.144126,36.970661,1.466315,0.943635,0.282607,1.60066,1.763793,2.371876,0.699001,0.498457,0.082344,0.218456,0.019087,0.04207,0.096193,2.161389,13.807059,0.645141,0.766013,0.649409,2.149869,8.210014,0.717825,0.595128,0.393622,1.109319,15.234342,1.259025,0.931046,0.761007
1720179318,33,0,4305.512695,4208.461426,4341.153809,4253.974121,4269.871582,4289.230957,4238.077148,4325.769043,4184.743652,4343.717773,4430,4591.282227,4478.205078,4535,,,,,,,,,,,,,,,,,,,,,,,,,,,,,,,,,,,,,,,,,,,,,,,,,,,,,,,,,,,,,,,,,,,,,,
1720179318,34,0,4314.102539,4217.563965,4356.410156,4264.230957,4264.743652,4281.025879,4231.025879,4319.743652,4170.641113,4339.102539,4434.358887,4607.563965,4483.717773,4525,,,,,,,,,,,,,,,,,,,,,,,,,,,,,,,,,,,,,,,,,,,,,,,,,,,,,,,,,,,,,,,,,,,,,,
1720179318,35,0,4311.153809,4220.769043,4359.871582,4263.846191,4268.077148,4279.743652,4219.743652,4312.05127,4167.692383,4340.897461,4426.282227,4614.230957,4490.128418,4528.077148,,,,,,,,,,,,,,,,,,,,,,,,,,,,,,,,,,,,,,,,,,,,,,,,,,,,,,,,,,,,,,,,,,,,,,
1720179318,36,0,4313.846191,4221.538574,4362.179688,4264.102539,4278.589844,4280.769043,4211.538574,4307.307617,4168.461426,4350,4429.487305,4612.05127,4502.436035,4548.974121,,,,,,,,,,,,,,,,,,,,,,,,,,,,,,,,,,,,,,,,,,,,,,,,,,,,,,,,,,,,,,,,,,,,,,
1720179318,37,0,4320.384766,4221.025879,4363.589844,4267.563965,4274.615234,4279.230957,4211.794922,4309.230957,4169.102539,4355.384766,4435.641113,4614.743652,4507.94873,4547.820313,,,,,,,,,,,,,,,,,,,,,,,,,,,,,,,,,,,,,,,,,,,,,,,,,,,,,,,,,,,,,,,,,,,,,,
1720179318,38,0,4316.922852,4219.871582,4359.487305,4267.820313,4264.743652,4282.563965,4213.589844,4312.563965,4166.025879,4355.128418,4434.358887,4617.436035,4498.333496,4545.897461,,,,,,,,,,,,,,,,,,,,,,,,,,,,,,,,,,,,,,,,,,,,,,,,,,,,,,,,,,,,,,,,,,,,,,
1720179318,39,0,4307.05127,4216.410156,4352.820313,4263.589844,4270.256348,4289.615234,4218.717773,4323.205078,4167.179688,4354.743652,4432.436035,4612.692383,4483.589844,4554.871582,,,,,,,,,,,,,,,,,,,,,,,,,,,,,,,,,,,,,,,,,,,,,,,,,,,,,,,,,,,,,,,,,,,,,,
1720179318,40,0,4296.025879,4209.487305,4341.153809,4253.974121,4279.743652,4294.743652,4233.589844,4339.358887,4179.743652,4350,4430.256348,4601.153809,4476.922852,4531.153809,,,,,,,,,,,,,,,,,,,,,,,,,,,,,,,,,,,,,,,,,,,,,,,,,,,,,,,,,,,,,,,,,,,,,,
1720179318,41,0,4284.871582,4196.538574,4322.179688,4236.538574,4276.410156,4299.871582,4247.820313,4345.512695,4187.820313,4343.846191,4431.410156,4588.205078,4469.102539,4490.384766,,,,,,,,,,,,,,,,,,,,,,,,,,,,,,,,,,,,,,,,,,,,,,,,,,,,,,,,,,,,,,,,,,,,,,
1720179318,42,0,4276.410156,4182.820313,4310.641113,4223.717773,4271.025879,4304.487305,4252.94873,4344.102539,4186.410156,4348.461426,4431.794922,4581.025879,4460,4499.743652,,,,,,,,,,,,,,,,,,,,,,,,,,,,,,,,,,,,,,,,,,,,,,,,,,,,,,,,,,,,,,,,,,,,,,
1720179318,43,0,4274.358887,4181.538574,4315.128418,4223.717773,4275.641113,4309.871582,4255.128418,4346.666504,4184.487305,4359.358887,4430,4582.05127,4459.871582,4522.05127,,,,,,,,,,,,,,,,,,,,,,,,,,,,,,,,,,,,,,,,,,,,,,,,,,,,,,,,,,,,,,,,,,,,,,
1720179318,44,0,4279.871582,4190.384766,4322.307617,4230.512695,4274.230957,4311.410156,4253.461426,4342.05127,4177.692383,4355.769043,4431.538574,4582.179688,4461.153809,4510.769043,,,,,,,,,,,,,,,,,,,,,,,,,,,,,,,,,,,,,,,,,,,,,,,,,,,,,,,,,,,,,,,,,,,,,,
1720179318,45,0,4284.487305,4197.05127,4325.641113,4240.512695,4265.256348,4306.922852,4244.487305,4330.512695,4167.05127,4346.282227,4434.615234,4582.436035,4462.94873,4508.974121,,,,,,,,,,,,,,,,,,,,,,,,,,,,,,,,,,,,,,,,,,,,,,,,,,,,,,,,,,,,,,,,,,,,,,
1720179318,46,0,4291.025879,4203.717773,4334.871582,4251.666504,4268.974121,4302.820313,4231.153809,4323.589844,4160.256348,4352.307617,4436.794922,4595.256348,4470.897461,4526.410156,,,,,,,,,,,,,,,,,,,,,,,,,,,,,,,,,,,,,,,,,,,,,,,,,,,,,,,,,,,,,,,,,,,,,,
1720179318,47,0,4311.410156,4216.922852,4357.563965,4264.871582,4280.512695,4302.307617,4220.128418,4318.461426,4157.563965,4366.410156,4440.128418,4618.205078,4486.282227,4547.563965,,,,,,,,,,,,,,,,,,,,,,,,,,,,,,,,,,,,,,,,,,,,,,,,,,,,,,,,,,,,,,,,,,,,,,
1720179318,48,0,4335.256348,4230.512695,4378.717773,4274.230957,4283.589844,4299.743652,4215.512695,4309.615234,4148.333496,4369.871582,4440.384766,4636.666504,4501.794922,4572.307617,0.742473,13.297743,0.615408,0.500068,0.509174,1.262936,10.797164,0.38944,0.506362,0.287565,0.725558,18.705946,0.398167,0.55183,0.409064,0.475375,11.233181,0.233975,0.650884,0.377082,0.259688,1.524916,0.366168,0.354914,0.179431,0.239235,1.372508,0.272137,0.152556,0.121846,0.393339,7.176584,0.802087,0.432156,0.201506,0.808587,7.302014,0.714798,0.360896,0.179232,2.290314,40.485138,1.314511,1.126824,0.30213,1.776205,2.215881,2.388094,0.771852,0.484563,0.087615,0.224712,0.022844,0.043624,0.092003,2.142996,15.227872,0.57735,0.751237,0.6667,2.442475,9.898539,0.812574,0.606375,0.402153,1.179891,17.762684,1.470976,0.872282,0.757165
1720179318,49,0,4333.974121,4236.794922,4383.974121,4278.333496,4280.641113,4293.205078,4211.922852,4306.282227,4136.025879,4362.94873,4441.538574,4646.025879,4510.512695,4579.871582,,,,,,,,,,,,,,,,,,,,,,,,,,,,,,,,,,,,,,,,,,,,,,,,,,,,,,,,,,,,,,,,,,,,,,
1720179318,50,0,4322.179688,4236.025879,4381.282227,4279.487305,4278.077148,4294.102539,4211.666504,4315.384766,4138.717773,4366.282227,4445.256348,4652.436035,4508.589844,4560.384766,,,,,,,,,,,,,,,,,,,,,,,,,,,,,,,,,,,,,,,,,,,,,,,,,,,,,,,,,,,,,,,,,,,,,,
1720179318,51,0,4327.179688,4228.717773,4376.666504,4273.846191,4277.94873,4302.94873,4225.897461,4332.179688,4161.282227,4374.358887,4442.05127,4653.461426,4500,4550.769043,,,,,,,,,,,,,,,,,,,,,,,,,,,,,,,,,,,,,,,,,,,,,,,,,,,,,,,,,,,,,,,,,,,,,,
1720179318,52,0,4322.692383,4215,4364.615234,4262.94873,4282.179688,4311.153809,4251.153809,4347.307617,4180.641113,4372.692383,4442.179688,4637.179688,4490.641113,4561.922852,,,,,,,,,,,,,,,,,,,,,,,,,,,,,,,,,,,,,,,,,,,,,,,,,,,,,,,,,,,,,,,,,,,,,,
1720179318,53,0,4297.05127,4200.256348,4344.615234,4254.358887,4280.769043,4318.077148,4264.358887,4353.077148,4183.717773,4365.897461,4444.230957,4612.436035,4477.179688,4553.974121,,,,,,,,,,,,,,,,,,,,,,,,,,,,,,,,,,,,,,,,,,,,,,,,,,,,,,,,,,,,,,,,,,,,,,
1720179318,54,0,4279.871582,4183.333496,4323.205078,4238.846191,4270.128418,4318.077148,4255,4346.153809,4177.436035,4356.153809,4437.179688,4589.487305,4455.128418,4520.128418,,,,,,,,,,,,,,,,,,,,,,,,,,,,,,,,,,,,,,,,,,,,,,,,,,,,,,,,,,,,,,,,,,,,,,
1720179318,55,0,4260.641113,4159.743652,4299.230957,4208.205078,4254.615234,4312.179688,4238.461426,4332.436035,4159.615234,4338.333496,4430.897461,4559.871582,4422.05127,4479.230957,,,,,,,,,,,,,,,,,,,,,,,,,,,,,,,,,,,,,,,,,,,,,,,,,,,,,,,,,,,,,,,,,,,,,,
1720179318,56,0,4236.666504,4143.717773,4282.05127,4189.358887,4244.615234,4309.358887,4230.769043,4321.538574,4145,4326.538574,4427.692383,4536.794922,4397.563965,4460.897461,,,,,,,,,,,,,,,,,,,,,,,,,,,,,,,,,,,,,,,,,,,,,,,,,,,,,,,,,,,,,,,,,,,,,,
1720179318,57,0,4246.666504,4153.333496,4291.922852,4199.487305,4252.307617,4313.589844,4232.179688,4326.153809,4153.461426,4341.538574,4429.743652,4550.512695,4410.897461,4483.589844,,,,,,,,,,,,,,,,,,,,,,,,,,,,,,,,,,,,,,,,,,,,,,,,,,,,,,,,,,,,,,,,,,,,,,
1720179318,58,0,4275.641113,4177.563965,4319.102539,4218.974121,4265.897461,4314.230957,4234.102539,4334.871582,4170.769043,4366.794922,4439.743652,4582.05127,4446.282227,4515.512695,,,,,,,,,,,,,,,,,,,,,,,,,,,,,,,,,,,,,,,,,,,,,,,,,,,,,,,,,,,,,,,,,,,,,,
1720179318,59,0,4284.871582,4193.205078,4336.922852,4235,4265.512695,4308.717773,4227.94873,4331.538574,4170.641113,4380.512695,4442.820313,4599.871582,4467.692383,4530.641113,,,,,,,,,,,,,,,,,,,,,,,,,,,,,,,,,,,,,,,,,,,,,,,,,,,,,,,,,,,,,,,,,,,,,,
1720179318,60,0,4288.974121,4200.384766,4343.717773,4245.128418,4264.487305,4308.589844,4219.230957,4323.717773,4152.820313,4384.230957,4437.179688,4612.307617,4477.94873,4546.922852,,,,,,,,,,,,,,,,,,,,,,,,,,,,,,,,,,,,,,,,,,,,,,,,,,,,,,,,,,,,,,,,,,,,,,
1720179318,61,0,4311.666504,4213.077148,4354.230957,4251.922852,4268.589844,4309.358887,4215.384766,4321.282227,4133.717773,4382.820313,4442.692383,4629.871582,4495.769043,4573.077148,,,,,,,,,,,,,,,,,,,,,,,,,,,,,,,,,,,,,,,,,,,,,,,,,,,,,,,,,,,,,,,,,,,,,,
1720179318,62,0,4336.025879,4231.922852,4375.256348,4268.974121,4268.974121,4308.205078,4216.410156,4319.358887,4121.025879,4383.077148,4451.794922,4646.025879,4513.717773,4593.205078,,,,,,,,,,,,,,,,,,,,,,,,,,,,,,,,,,,,,,,,,,,,,,,,,,,,,,,,,,,,,,,,,,,,,,
1720179318,63,0,4337.820313,4239.230957,4392.05127,4285.384766,4274.102539,4308.846191,4225.769043,4321.666504,4123.333496,4381.153809,4448.205078,4657.563965,4512.563965,4592.692383,,,,,,,,,,,,,,,,,,,,,,,,,,,,,,,,,,,,,,,,,,,,,,,,,,,,,,,,,,,,,,,,,,,,,,
1720179318,64,0,4325.769043,4226.410156,4386.538574,4275.512695,4281.922852,4311.153809,4239.743652,4332.436035,4136.666504,4372.179688,4447.436035,4660.256348,4499.102539,4576.025879,0.78889,14.209603,0.703071,0.525041,0.524794,1.364329,11.896696,0.53248,0.544358,0.289407,0.740145,19.757652,0.460507,0.625783,0.436509,0.508423,12.478031,0.283521,0.677514,0.405014,0.217697,1.538113,0.363389,0.343145,0.183666,0.26122,1.634663,0.275308,0.18677,0.127631,0.401164,9.700662,0.788204,0.452869,0.219574,0.842691,9.153123,0.752421,0.362893,0.18699,2.576966,42.414379,1.321914,1.264688,0.320368,2.066762,2.951663,2.380671,0.828692,0.452454,0.111134,0.217303,0.027834,0.046761,0.087999,2.217277,15.717807,0.691387,0.823097,0.66142,2.720469,11.206813,0.94722,0.629818,0.413879,1.466803,19.075611,1.739236,0.846384,0.748469
