Timestamp,EEG.Counter,EEG.Interpolated,EEG.AF3,EEG.F7,EEG.F3,EEG.FC5,EEG.T7,EEG.P7,EEG.O1,EEG.O2,EEG.P8,EEG.T8,EEG.FC6,EEG.F4,EEG.F8,EEG.AF4,POW.AF3.Theta,POW.AF3.Alpha,POW.AF3.BetaL,POW.AF3.BetaH,POW.AF3.Gamma,POW.F7.Theta,POW.F7.Alpha,POW.F7.BetaL,POW.F7.BetaH,POW.F7.Gamma,POW.F3.Theta,POW.F3.Alpha,POW.F3.BetaL,POW.F3.BetaH,POW.F3.Gamma,POW.FC5.Theta,POW.FC5.Alpha,POW.FC5.BetaL,POW.FC5.BetaH,POW.FC5.Gamma,POW.T7.Theta,POW.T7.Alpha,POW.T7.BetaL,POW.T7.BetaH,POW.T7.Gamma,POW.P7.Theta,POW.P7.Alpha,POW.P7.BetaL,POW.P7.BetaH,POW.P7.Gamma,POW.O1.Theta,POW.O1.Alpha,POW.O1.BetaL,POW.O1.BetaH,POW.O1.Gamma,POW.O2.Theta,POW.O2.Alpha,POW.O2.BetaL,POW.O2.BetaH,POW.O2.Gamma,POW.P8.Theta,POW.P8.Alpha,POW.P8.BetaL,POW.P8.BetaH,POW.P8.Gamma,POW.T8.Theta,POW.T8.Alpha,POW.T8.BetaL,POW.T8.BetaH,POW.T8.Gamma,POW.FC6.Theta,POW.FC6.Alpha,POW.FC6.BetaL,POW.FC6.BetaH,POW.FC6.Gamma,POW.F4.Theta,POW.F4.Alpha,POW.F4.BetaL,POW.F4.BetaH,POW.F4.Gamma,POW.F8.Theta,POW.F8.Alpha,POW.F8.BetaL,POW.F8.BetaH,POW.F8.Gamma,POW.AF4.Theta,POW.AF4.Alpha,POW.AF4.BetaL,POW.AF4.BetaH,POW.AF4.Gamma
1720177995,101,0,4272.307617,4130.512695,4162.820313,4170.512695,4110.384766,4207.692383,4136.666504,4061.410156,3983.846191,4266.282227,4141.153809,4336.410156,4062.307617,4356.282227,,,,,,,,,,,,,,,,,,,,,,,,,,,,,,,,,,,,,,,,,,,,,,,,,,,,,,,,,,,,,,,,,,,,,,
1720177995,102,0,4255.256348,4128.077148,4154.102539,4171.025879,4105.512695,4209.615234,4136.666504,4072.94873,4000.128174,4262.179688,4142.820313,4339.230957,4055.769287,4361.153809,,,,,,,,,,,,,,,,,,,,,,,,,,,,,,,,,,,,,,,,,,,,,,,,,,,,,,,,,,,,,,,,,,,,,,
1720177995,103,0,4236.282227,4117.94873,4146.922852,4166.153809,4110.641113,4207.692383,4141.794922,4078.076904,4000.256348,4262.563965,4145.128418,4332.05127,4056.281982,4344.230957,9.84693,5.67683,3.701525,2.246629,1.036791,7.92968,4.304336,3.031406,2.210762,0.884984,4.172534,6.977719,3.077518,1.594759,0.686154,5.412215,3.912452,2.302723,1.972191,0.834185,3.368089,2.246315,2.982791,1.0427,0.340232,0.340627,0.28798,0.161644,0.114274,0.092835,2.037642,6.078789,1.206876,0.722291,0.213304,2.480007,8.434916,1.911598,0.746381,0.179762,3.753834,5.879555,2.877121,1.808071,0.160801,9.846119,1.748473,1.25775,0.673838,0.228867,1.639902,3.00102,1.025465,1.011738,0.372265,5.143023,9.010592,2.525439,2.018826,0.627456,6.335065,6.011484,2.619494,2.264102,0.588538,4.914451,6.542202,2.08172,2.287534,0.907936
1720177995,104,0,4230.384766,4105.769043,4147.307617,4147.563965,4121.794922,4208.461426,4141.153809,4070.256348,3992.179443,4263.077148,4144.615234,4312.820313,4051.025635,4330.384766,,,,,,,,,,,,,,,,,,,,,,,,,,,,,,,,,,,,,,,,,,,,,,,,,,,,,,,,,,,,,,,,,,,,,,
1720177995,105,0,4228.461426,4105.897461,4145.384766,4147.307617,4119.871582,4214.743652,4137.692383,4070.641113,3992.179443,4259.743652,4145.128418,4316.922852,4043.076904,4329.102539,,,,,,,,,,,,,,,,,,,,,,,,,,,,,,,,,,,,,,,,,,,,,,,,,,,,,,,,,,,,,,,,,,,,,,
1720177995,106,0,4236.410156,4123.077148,4139.102539,4170.128418,4108.717773,4207.436035,4137.179688,4074.615479,3999.358887,4254.230957,4141.538574,4336.153809,4055.256348,4321.025879,,,,,,,,,,,,,,,,,,,,,,,,,,,,,,,,,,,,,,,,,,,,,,,,,,,,,,,,,,,,,,,,,,,,,,
1720177995,107,0,4260.897461,4136.794922,4152.692383,4179.102539,4107.179688,4204.230957,4141.025879,4074.871826,4000.641113,4253.846191,4150.769043,4340.512695,4074.487061,4321.025879,,,,,,,,,,,,,,,,,,,,,,,,,,,,,,,,,,,,,,,,,,,,,,,,,,,,,,,,,,,,,,,,,,,,,,
1720177995,108,0,4271.025879,4140,4172.692383,4171.025879,4107.94873,4207.94873,4141.410156,4077.564209,3996.538574,4247.692383,4162.563965,4337.436035,4075.128174,4329.871582,,,,,,,,,,,,,,,,,,,,,,,,,,,,,,,,,,,,,,,,,,,,,,,,,,,,,,,,,,,,,,,,,,,,,,
1720177995,109,0,4261.666504,4141.153809,4171.025879,4176.922852,4103.077148,4201.794922,4130.128418,4071.666748,3992.692383,4233.205078,4164.871582,4337.05127,4074.743652,4326.794922,,,,,,,,,,,,,,,,,,,,,,,,,,,,,,,,,,,,,,,,,,,,,,,,,,,,,,,,,,,,,,,,,,,,,,
1720177995,110,0,4264.743652,4144.615234,4168.717773,4186.410156,4103.846191,4200.384766,4121.153809,4058.205078,3986.153809,4232.436035,4168.589844,4334.487305,4089.230713,4316.282227,,,,,,,,,,,,,,,,,,,,,,,,,,,,,,,,,,,,,,,,,,,,,,,,,,,,,,,,,,,,,,,,,,,,,,
1720177995,111,0,4262.307617,4143.077148,4171.538574,4175.256348,4108.717773,4203.846191,4124.230957,4054.871826,3979.871826,4235.256348,4162.179688,4318.717773,4094.871826,4293.205078,,,,,,,,,,,,,,,,,,,,,,,,,,,,,,,,,,,,,,,,,,,,,,,,,,,,,,,,,,,,,,,,,,,,,,
1720177995,112,0,4244.871582,4127.820313,4160.512695,4158.333496,4110.384766,4205.256348,4131.153809,4059.615479,3976.281982,4224.358887,4152.820313,4308.333496,4081.923096,4265.641113,,,,,,,,,,,,,,,,,,,,,,,,,,,,,,,,,,,,,,,,,,,,,,,,,,,,,,,,,,,,,,,,,,,,,,
1720177995,113,0,4247.94873,4119.743652,4147.05127,4161.666504,4112.05127,4206.153809,4132.692383,4060.769287,3974.871826,4212.820313,4152.94873,4322.179688,4083.333252,4259.615234,,,,,,,,,,,,,,,,,,,,,,,,,,,,,,,,,,,,,,,,,,,,,,,,,,,,,,,,,,,,,,,,,,,,,,
1720177995,114,0,4256.922852,4132.179688,4147.94873,4176.410156,4117.563965,4205.897461,4132.307617,4064.358887,3981.538574,4208.205078,4157.692383,4335.769043,4106.538574,4263.205078,,,,,,,,,,,,,,,,,,,,,,,,,,,,,,,,,,,,,,,,,,,,,,,,,,,,,,,,,,,,,,,,,,,,,,
1720177995,115,0,4240.256348,4134.487305,4151.666504,4168.589844,4123.461426,4207.563965,4137.436035,4071.923096,3994.102539,4201.025879,4156.025879,4334.743652,4104.615234,4250.769043,,,,,,,,,,,,,,,,,,,,,,,,,,,,,,,,,,,,,,,,,,,,,,,,,,,,,,,,,,,,,,,,,,,,,,
1720177995,116,0,4233.589844,4126.538574,4142.307617,4154.615234,4123.077148,4210.128418,4140.897461,4077.05127,4002.692383,4198.077148,4149.358887,4328.333496,4078.205078,4230,,,,,,,,,,,,,,,,,,,,,,,,,,,,,,,,,,,,,,,,,,,,,,,,,,,,,,,,,,,,,,,,,,,,,,
1720177995,117,0,4255.512695,4130.512695,4135.128418,4158.589844,4120,4206.794922,4140.256348,4076.666748,4007.307617,4199.871582,4151.666504,4329.358887,4080,4222.692383,,,,,,,,,,,,,,,,,,,,,,,,,,,,,,,,,,,,,,,,,,,,,,,,,,,,,,,,,,,,,,,,,,,,,,
1720177995,118,0,4248.333496,4127.436035,4136.282227,4158.974121,4123.333496,4209.615234,4143.846191,4076.281982,4010.769287,4201.282227,4154.358887,4331.410156,4096.025879,4226.666504,,,,,,,,,,,,,,,,,,,,,,,,,,,,,,,,,,,,,,,,,,,,,,,,,,,,,,,,,,,,,,,,,,,,,,
1720177995,119,0,4215.769043,4123.846191,4129.487305,4152.94873,4133.333496,4214.102539,4153.077148,4081.410156,4016.153809,4209.615234,4150.384766,4329.871582,4090.897461,4233.461426,12.092227,6.697387,4.375608,2.641881,1.017838,8.902819,4.981086,3.334147,2.372835,0.822503,5.306315,7.882651,3.390061,1.885039,0.706253,6.368049,4.41607,2.472464,1.942586,0.777771,3.872479,2.310804,3.144558,1.280667,0.315971,0.364864,0.338742,0.172164,0.132277,0.090795,2.589254,7.087616,0.962165,0.689504,0.214413,2.882294,9.519717,1.701518,0.697914,0.196729,3.309989,6.527715,3.091273,1.703378,0.179775,11.955692,1.756745,1.518263,0.809303,0.226565,2.227559,3.232868,1.268626,1.096275,0.418144,6.678424,10.093079,2.994623,2.175066,0.636035,8.768223,7.199186,3.253375,2.591724,0.622035,5.627162,7.805313,2.467338,2.353118,0.940041
1720177995,120,0,4225.512695,4144.743652,4123.077148,4163.717773,4141.025879,4205.769043,4159.358887,4088.718018,4026.794922,4215.128418,4153.461426,4334.487305,4099.743652,4236.794922,,,,,,,,,,,,,,,,,,,,,,,,,,,,,,,,,,,,,,,,,,,,,,,,,,,,,,,,,,,,,,,,,,,,,,
1720177995,121,0,4255.512695,4158.205078,4133.589844,4171.538574,4142.692383,4206.282227,4162.820313,4100,4045.897461,4222.436035,4174.615234,4355.128418,4133.846191,4242.179688,,,,,,,,,,,,,,,,,,,,,,,,,,,,,,,,,,,,,,,,,,,,,,,,,,,,,,,,,,,,,,,,,,,,,,
1720177995,122,0,4252.05127,4152.05127,4150.641113,4171.282227,4138.461426,4211.794922,4166.922852,4106.794922,4058.205078,4231.538574,4187.307617,4377.05127,4151.922852,4249.743652,,,,,,,,,,,,,,,,,,,,,,,,,,,,,,,,,,,,,,,,,,,,,,,,,,,,,,,,,,,,,,,,,,,,,,
1720177995,123,0,4256.666504,4163.717773,4166.538574,4195.897461,4137.436035,4207.179688,4169.743652,4103.205078,4053.076904,4219.358887,4187.692383,4382.94873,4156.410156,4250.128418,,,,,,,,,,,,,,,,,,,,,,,,,,,,,,,,,,,,,,,,,,,,,,,,,,,,,,,,,,,,,,,,,,,,,,
1720177995,124,0,4296.538574,4185.897461,4190.641113,4217.820313,4152.563965,4208.205078,4174.358887,4102.563965,4046.923096,4202.94873,4199.358887,4395.128418,4167.94873,4257.307617,,,,,,,,,,,,,,,,,,,,,,,,,,,,,,,,,,,,,,,,,,,,,,,,,,,,,,,,,,,,,,,,,,,,,,
1720177995,125,0,4322.94873,4198.846191,4216.025879,4214.871582,4177.563965,4214.230957,4181.025879,4106.922852,4047.307617,4202.179688,4203.846191,4414.871582,4175,4265.256348,,,,,,,,,,,,,,,,,,,,,,,,,,,,,,,,,,,,,,,,,,,,,,,,,,,,,,,,,,,,,,,,,,,,,,
1720177995,126,0,4316.794922,4212.05127,4220,4223.205078,4187.436035,4218.717773,4187.563965,4109.615234,4043.333252,4197.179688,4203.333496,4419.230957,4176.025879,4263.333496,,,,,,,,,,,,,,,,,,,,,,,,,,,,,,,,,,,,,,,,,,,,,,,,,,,,,,,,,,,,,,,,,,,,,,
1720177995,127,0,4310,4218.205078,4209.743652,4234.230957,4187.307617,4224.743652,4197.307617,4116.282227,4043.205078,4177.692383,4216.025879,4417.563965,4179.230957,4265,,,,,,,,,,,,,,,,,,,,,,,,,,,,,,,,,,,,,,,,,,,,,,,,,,,,,,,,,,,,,,,,,,,,,,
1720177995,0,0,4323.589844,4219.230957,4210.384766,4240.256348,4202.436035,4229.230957,4211.922852,4131.153809,4061.538574,4176.410156,4223.974121,4428.461426,4186.794922,4262.563965,,,,,,,,,,,,,,,,,,,,,,,,,,,,,,,,,,,,,,,,,,,,,,,,,,,,,,,,,,,,,,,,,,,,,,
1720177995,1,0,4337.05127,4224.102539,4228.589844,4254.871582,4217.692383,4228.333496,4222.692383,4140.641113,4083.846191,4197.563965,4223.974121,4439.871582,4199.358887,4252.05127,,,,,,,,,,,,,,,,,,,,,,,,,,,,,,,,,,,,,,,,,,,,,,,,,,,,,,,,,,,,,,,,,,,,,,
1720177995,2,0,4308.077148,4213.717773,4226.153809,4250.256348,4204.615234,4229.230957,4214.102539,4136.025879,4088.461426,4199.615234,4220,4425.256348,4193.333496,4238.077148,,,,,,,,,,,,,,,,,,,,,,,,,,,,,,,,,,,,,,,,,,,,,,,,,,,,,,,,,,,,,,,,,,,,,,
1720177995,3,0,4257.179688,4170.769043,4181.282227,4206.922852,4169.230957,4224.102539,4187.05127,4116.922852,4076.025635,4175.897461,4198.717773,4384.102539,4159.102539,4199.358887,,,,,,,,,,,,,,,,,,,,,,,,,,,,,,,,,,,,,,,,,,,,,,,,,,,,,,,,,,,,,,,,,,,,,,
1720177995,4,0,4240,4139.615234,4149.743652,4170,4149.358887,4212.820313,4170.641113,4103.205078,4067.179443,4165.512695,4181.153809,4358.077148,4140.512695,4157.307617,,,,,,,,,,,,,,,,,,,,,,,,,,,,,,,,,,,,,,,,,,,,,,,,,,,,,,,,,,,,,,,,,,,,,,
1720177995,5,0,4269.230957,4174.871582,4178.846191,4191.025879,4170.769043,4217.436035,4193.205078,4123.077148,4080.256348,4182.307617,4207.563965,4397.820313,4177.692383,4183.077148,,,,,,,,,,,,,,,,,,,,,,,,,,,,,,,,,,,,,,,,,,,,,,,,,,,,,,,,,,,,,,,,,,,,,,
1720177995,6,0,4320.384766,4230.769043,4235.384766,4245.512695,4203.717773,4227.05127,4228.589844,4156.153809,4106.538574,4197.179688,4242.179688,4461.153809,4230.897461,4243.077148,,,,,,,,,,,,,,,,,,,,,,,,,,,,,,,,,,,,,,,,,,,,,,,,,,,,,,,,,,,,,,,,,,,,,,
1720177995,7,0,4349.743652,4243.717773,4264.615234,4278.589844,4213.333496,4231.025879,4241.153809,4170.384766,4124.358887,4205.512695,4253.205078,4485.256348,4250.769043,4264.871582,13.865264,8.167341,5.318666,2.963131,0.993397,9.40156,5.907374,3.695528,2.479914,0.735723,6.365357,9.103136,3.813674,2.165605,0.717472,7.126987,5.122558,2.684482,1.920589,0.747512,4.379214,2.297599,3.278567,1.597835,0.297007,0.418003,0.378268,0.170024,0.160239,0.088949,3.120937,8.107623,0.755341,0.710969,0.215992,3.207091,10.332262,1.440487,0.696141,0.216982,3.000499,7.227449,3.18807,1.498287,0.202292,13.508965,1.701753,1.762339,0.941506,0.226475,2.635439,3.517783,1.492753,1.159362,0.468576,8.316051,11.744556,3.529461,2.281439,0.633399,11.229337,9.099813,3.900359,2.846211,0.644464,6.501998,9.487981,2.775705,2.335117,0.976261
1720177995,8,0,4346.410156,4249.102539,4268.589844,4287.563965,4216.282227,4234.230957,4243.205078,4170.769043,4130.128418,4217.436035,4256.666504,4492.307617,4253.589844,4264.230957,,,,,,,,,,,,,,,,,,,,,,,,,,,,,,,,,,,,,,,,,,,,,,,,,,,,,,,,,,,,,,,,,,,,,,
1720177995,9,0,4357.05127,4271.153809,4270.512695,4294.743652,4234.487305,4235.128418,4251.666504,4172.563965,4137.563965,4223.077148,4264.102539,4501.153809,4267.436035,4270.512695,,,,,,,,,,,,,,,,,,,,,,,,,,,,,,,,,,,,,,,,,,,,,,,,,,,,,,,,,,,,,,,,,,,,,,
1720177995,10,0,4381.282227,4277.307617,4283.077148,4300,4248.077148,4239.743652,4257.307617,4177.436035,4143.333496,4215.769043,4273.717773,4498.461426,4280.256348,4272.436035,,,,,,,,,,,,,,,,,,,,,,,,,,,,,,,,,,,,,,,,,,,,,,,,,,,,,,,,,,,,,,,,,,,,,,
1720177995,11,0,4375,4274.743652,4297.307617,4300.897461,4248.717773,4247.436035,4260,4181.153809,4141.666504,4203.717773,4267.179688,4498.461426,4280.769043,4269.615234,,,,,,,,,,,,,,,,,,,,,,,,,,,,,,,,,,,,,,,,,,,,,,,,,,,,,,,,,,,,,,,,,,,,,,
1720177995,12,0,4352.05127,4279.615234,4295.769043,4296.153809,4253.333496,4248.974121,4270.512695,4186.025879,4144.743652,4202.436035,4261.922852,4513.974121,4281.410156,4270.256348,,,,,,,,,,,,,,,,,,,,,,,,,,,,,,,,,,,,,,,,,,,,,,,,,,,,,,,,,,,,,,,,,,,,,,
1720177995,13,0,4353.205078,4272.179688,4295.769043,4285.769043,4258.974121,4246.153809,4279.615234,4195.256348,4157.563965,4213.461426,4282.05127,4519.871582,4284.743652,4266.794922,,,,,,,,,,,,,,,,,,,,,,,,,,,,,,,,,,,,,,,,,,,,,,,,,,,,,,,,,,,,,,,,,,,,,,
1720177995,14,0,4353.333496,4266.282227,4296.410156,4296.282227,4256.794922,4243.333496,4278.974121,4201.794922,4168.077148,4217.94873,4298.461426,4514.230957,4290.512695,4266.282227,,,,,,,,,,,,,,,,,,,,,,,,,,,,,,,,,,,,,,,,,,,,,,,,,,,,,,,,,,,,,,,,,,,,,,
1720177995,15,0,4349.615234,4280.256348,4281.025879,4316.538574,4256.153809,4237.94873,4278.589844,4199.871582,4174.871582,4211.282227,4293.974121,4518.077148,4299.358887,4266.666504,,,,,,,,,,,,,,,,,,,,,,,,,,,,,,,,,,,,,,,,,,,,,,,,,,,,,,,,,,,,,,,,,,,,,,
1720177995,16,0,4368.077148,4283.205078,4272.94873,4303.717773,4262.307617,4233.974121,4285.512695,4203.589844,4188.589844,4212.179688,4291.922852,4520,4298.589844,4258.717773,,,,,,,,,,,,,,,,,,,,,,,,,,,,,,,,,,,,,,,,,,,,,,,,,,,,,,,,,,,,,,,,,,,,,,
1720177995,17,0,4377.05127,4274.358887,4285.641113,4292.692383,4264.358887,4229.615234,4293.077148,4215.384766,4199.487305,4219.358887,4298.717773,4512.94873,4294.615234,4261.538574,,,,,,,,,,,,,,,,,,,,,,,,,,,,,,,,,,,,,,,,,,,,,,,,,,,,,,,,,,,,,,,,,,,,,,
1720177995,18,0,4361.666504,4284.102539,4294.230957,4317.820313,4260.641113,4227.692383,4296.153809,4220,4200.384766,4219.871582,4306.282227,4516.922852,4303.717773,4277.563965,,,,,,,,,,,,,,,,,,,,,,,,,,,,,,,,,,,,,,,,,,,,,,,,,,,,,,,,,,,,,,,,,,,,,,
1720177995,19,0,4356.538574,4299.615234,4292.820313,4326.538574,4262.820313,4229.230957,4291.666504,4217.820313,4204.871582,4216.153809,4315.128418,4532.436035,4311.794922,4288.205078,,,,,,,,,,,,,,,,,,,,,,,,,,,,,,,,,,,,,,,,,,,,,,,,,,,,,,,,,,,,,,,,,,,,,,
1720177995,20,0,4372.179688,4295.641113,4300.641113,4298.205078,4262.820313,4218.846191,4286.153809,4216.153809,4208.717773,4216.922852,4309.743652,4535.128418,4308.205078,4284.358887,,,,,,,,,,,,,,,,,,,,,,,,,,,,,,,,,,,,,,,,,,,,,,,,,,,,,,,,,,,,,,,,,,,,,,
1720177995,21,0,4389.615234,4291.025879,4311.153809,4296.922852,4258.974121,4215.128418,4288.333496,4214.615234,4201.282227,4218.205078,4311.666504,4534.871582,4314.743652,4287.692383,,,,,,,,,,,,,,,,,,,,,,,,,,,,,,,,,,,,,,,,,,,,,,,,,,,,,,,,,,,,,,,,,,,,,,
1720177995,22,0,4390.512695,4304.230957,4317.307617,4329.358887,4267.179688,4225.256348,4295.128418,4216.025879,4195.384766,4204.615234,4337.94873,4545.128418,4331.410156,4303.974121,,,,,,,,,,,,,,,,,,,,,,,,,,,,,,,,,,,,,,,,,,,,,,,,,,,,,,,,,,,,,,,,,,,,,,
1720177995,23,0,4380.128418,4313.077148,4320.897461,4342.179688,4279.487305,4224.743652,4301.794922,4221.666504,4196.538574,4185,4343.077148,4543.974121,4329.615234,4308.205078,14.78382,9.970994,6.398041,3.124121,0.979372,9.419188,6.924974,4.090951,2.497686,0.651885,7.210725,10.588233,4.293891,2.357181,0.714436,7.593989,5.946679,2.919488,1.905872,0.738733,4.808325,2.239976,3.376159,1.917645,0.291107,0.476674,0.403381,0.158348,0.188587,0.087638,3.54599,8.857159,0.589691,0.763722,0.216705,3.404205,10.549286,1.155256,0.737423,0.235793,2.943545,7.655501,3.089467,1.245596,0.222685,13.98946,1.584706,1.904898,1.018268,0.227724,2.988914,3.793332,1.639768,1.170873,0.508643,9.709367,13.670226,3.999285,2.295812,0.622022,13.351632,11.536764,4.401583,2.939098,0.657507,7.590566,11.27212,2.925719,2.202353,1.000349
1720177995,24,0,4382.692383,4313.589844,4324.102539,4334.230957,4284.102539,4223.333496,4308.077148,4226.922852,4192.179688,4179.358887,4330.512695,4542.436035,4311.922852,4305.897461,,,,,,,,,,,,,,,,,,,,,,,,,,,,,,,,,,,,,,,,,,,,,,,,,,,,,,,,,,,,,,,,,,,,,,
1720177995,25,0,4394.102539,4319.487305,4336.794922,4335.128418,4291.153809,4230.512695,4318.717773,4232.563965,4185.641113,4181.922852,4326.922852,4554.230957,4306.153809,4311.282227,,,,,,,,,,,,,,,,,,,,,,,,,,,,,,,,,,,,,,,,,,,,,,,,,,,,,,,,,,,,,,,,,,,,,,
1720177995,26,0,4385.769043,4316.794922,4346.153809,4334.615234,4299.358887,4232.94873,4324.615234,4236.153809,4189.230957,4180.512695,4330.384766,4555.128418,4313.974121,4312.563965,,,,,,,,,,,,,,,,,,,,,,,,,,,,,,,,,,,,,,,,,,,,,,,,,,,,,,,,,,,,,,,,,,,,,,
1720177995,27,0,4375.641113,4300.641113,4336.922852,4329.743652,4297.436035,4226.922852,4320,4237.05127,4204.743652,4180.384766,4339.615234,4550.256348,4320.128418,4311.153809,,,,,,,,,,,,,,,,,,,,,,,,,,,,,,,,,,,,,,,,,,,,,,,,,,,,,,,,,,,,,,,,,,,,,,
1720177996,28,0,4374.358887,4302.436035,4326.153809,4343.974121,4298.205078,4221.410156,4315.512695,4243.589844,4223.846191,4185.384766,4350.512695,4556.025879,4323.333496,4317.563965,,,,,,,,,,,,,,,,,,,,,,,,,,,,,,,,,,,,,,,,,,,,,,,,,,,,,,,,,,,,,,,,,,,,,,
1720177996,29,0,4371.282227,4318.333496,4326.666504,4355.128418,4304.615234,4221.922852,4318.589844,4253.205078,4243.205078,4193.333496,4358.333496,4569.487305,4331.282227,4326.282227,,,,,,,,,,,,,,,,,,,,,,,,,,,,,,,,,,,,,,,,,,,,,,,,,,,,,,,,,,,,,,,,,,,,,,
1720177996,30,0,4373.717773,4313.461426,4326.282227,4333.846191,4300,4225.128418,4321.153809,4253.589844,4253.717773,4199.871582,4353.205078,4575.897461,4330.641113,4328.846191,,,,,,,,,,,,,,,,,,,,,,,,,,,,,,,,,,,,,,,,,,,,,,,,,,,,,,,,,,,,,,,,,,,,,,
1720177996,31,0,4374.102539,4307.307617,4326.666504,4320.256348,4291.794922,4223.205078,4317.820313,4250.384766,4251.666504,4198.589844,4343.717773,4568.333496,4318.717773,4326.538574,,,,,,,,,,,,,,,,,,,,,,,,,,,,,,,,,,,,,,,,,,,,,,,,,,,,,,,,,,,,,,,,,,,,,,
1720177996,32,0,4379.358887,4324.487305,4340.512695,4345.128418,4295.384766,4219.358887,4314.615234,4253.333496,4242.820313,4198.846191,4350.769043,4566.666504,4319.871582,4328.461426,,,,,,,,,,,,,,,,,,,,,,,,,,,,,,,,,,,,,,,,,,,,,,,,,,,,,,,,,,,,,,,,,,,,,,
1720177996,33,0,4387.436035,4335.128418,4345.128418,4358.333496,4306.282227,4225.384766,4310.256348,4248.589844,4231.025879,4202.563965,4366.153809,4573.846191,4338.333496,4337.692383,,,,,,,,,,,,,,,,,,,,,,,,,,,,,,,,,,,,,,,,,,,,,,,,,,,,,,,,,,,,,,,,,,,,,,
1720177996,34,0,4374.871582,4322.563965,4328.717773,4344.358887,4311.025879,4226.025879,4306.025879,4233.077148,4218.205078,4192.307617,4358.589844,4560.769043,4344.615234,4326.282227,,,,,,,,,,,,,,,,,,,,,,,,,,,,,,,,,,,,,,,,,,,,,,,,,,,,,,,,,,,,,,,,,,,,,,
1720177996,35,0,4360.128418,4313.077148,4323.333496,4345.897461,4306.025879,4219.615234,4308.717773,4230.512695,4210.512695,4179.615234,4352.563965,4548.717773,4332.94873,4312.179688,,,,,,,,,,,,,,,,,,,,,,,,,,,,,,,,,,,,,,,,,,,,,,,,,,,,,,,,,,,,,,,,,,,,,,
1720177996,36,0,4359.615234,4314.102539,4334.102539,4342.820313,4302.94873,4221.794922,4317.436035,4242.307617,4215.512695,4188.333496,4364.615234,4562.94873,4327.820313,4323.077148,,,,,,,,,,,,,,,,,,,,,,,,,,,,,,,,,,,,,,,,,,,,,,,,,,,,,,,,,,,,,,,,,,,,,,
1720177996,37,0,4360.128418,4318.846191,4343.846191,4335.128418,4309.358887,4224.230957,4326.538574,4250.512695,4225.256348,4201.666504,4366.410156,4563.333496,4339.743652,4322.179688,,,,,,,,,,,,,,,,,,,,,,,,,,,,,,,,,,,,,,,,,,,,,,,,,,,,,,,,,,,,,,,,,,,,,,
1720177996,38,0,4375.769043,4331.025879,4357.436035,4357.692383,4320.384766,4228.333496,4337.179688,4260.769043,4235.641113,4203.077148,4365.897461,4566.282227,4352.692383,4313.461426,,,,,,,,,,,,,,,,,,,,,,,,,,,,,,,,,,,,,,,,,,,,,,,,,,,,,,,,,,,,,,,,,,,,,,
1720177996,39,0,4393.974121,4335.641113,4371.410156,4368.717773,4327.436035,4234.615234,4349.871582,4274.487305,4246.538574,4198.717773,4367.307617,4594.487305,4348.205078,4318.846191,14.658072,11.999937,7.419829,3.08856,0.988658,8.93531,7.910093,4.487287,2.404598,0.591826,7.733288,12.24482,4.728794,2.411972,0.698805,7.65766,6.812531,3.16044,1.893358,0.739345,5.017517,2.214047,3.402785,2.131599,0.302614,0.544333,0.424185,0.143137,0.207042,0.086484,3.745864,9.072042,0.482043,0.825591,0.214858,3.401426,9.978391,0.902382,0.809136,0.247531,3.137458,7.560198,2.807326,1.026903,0.236093,13.226054,1.456032,1.90281,1.015784,0.230696,3.098705,3.991009,1.680794,1.129555,0.524513,10.696782,15.367355,4.329261,2.243701,0.606537,14.483255,14.059488,4.621845,2.853188,0.66496,9.145796,12.802012,2.965949,1.993655,0.991496
1720177996,40,0,4377.820313,4329.743652,4365.769043,4350.512695,4327.307617,4233.333496,4353.974121,4280.384766,4250.897461,4200.128418,4371.538574,4598.974121,4341.922852,4321.410156,,,,,,,,,,,,,,,,,,,,,,,,,,,,,,,,,,,,,,,,,,,,,,,,,,,,,,,,,,,,,,,,,,,,,,
1720177996,41,0,4361.025879,4335.256348,4355.769043,4358.846191,4323.717773,4233.846191,4350.641113,4281.153809,4256.282227,4210.512695,4385.641113,4583.846191,4350.256348,4319.871582,,,,,,,,,,,,,,,,,,,,,,,,,,,,,,,,,,,,,,,,,,,,,,,,,,,,,,,,,,,,,,,,,,,,,,
1720177996,42,0,4364.358887,4342.05127,4358.974121,4382.436035,4330,4234.743652,4352.563965,4284.743652,4268.205078,4218.205078,4397.692383,4586.538574,4358.333496,4328.077148,,,,,,,,,,,,,,,,,,,,,,,,,,,,,,,,,,,,,,,,,,,,,,,,,,,,,,,,,,,,,,,,,,,,,,
1720177996,43,0,4361.282227,4333.846191,4356.153809,4362.820313,4340.384766,4232.563965,4355.769043,4287.179688,4279.358887,4220.769043,4394.487305,4590.256348,4358.461426,4328.205078,,,,,,,,,,,,,,,,,,,,,,,,,,,,,,,,,,,,,,,,,,,,,,,,,,,,,,,,,,,,,,,,,,,,,,
1720177996,44,0,4371.538574,4327.05127,4353.846191,4337.692383,4337.179688,4237.692383,4356.410156,4290.128418,4285.641113,4227.563965,4397.179688,4584.743652,4363.846191,4316.666504,,,,,,,,,,,,,,,,,,,,,,,,,,,,,,,,,,,,,,,,,,,,,,,,,,,,,,,,,,,,,,,,,,,,,,
1720177996,45,0,4378.205078,4333.974121,4360.769043,4351.153809,4326.410156,4236.922852,4359.230957,4295.769043,4288.846191,4231.922852,4415.256348,4588.333496,4375.897461,4319.743652,,,,,,,,,,,,,,,,,,,,,,,,,,,,,,,,,,,,,,,,,,,,,,,,,,,,,,,,,,,,,,,,,,,,,,
1720177996,46,0,4367.05127,4346.025879,4360.384766,4366.538574,4322.94873,4226.538574,4357.820313,4293.717773,4288.974121,4225.769043,4422.94873,4595.384766,4381.025879,4331.410156,,,,,,,,,,,,,,,,,,,,,,,,,,,,,,,,,,,,,,,,,,,,,,,,,,,,,,,,,,,,,,,,,,,,,,
1720177996,47,0,4388.205078,4356.153809,4374.102539,4372.820313,4328.717773,4232.307617,4356.410156,4296.410156,4294.230957,4228.717773,4423.333496,4606.153809,4387.692383,4347.436035,,,,,,,,,,,,,,,,,,,,,,,,,,,,,,,,,,,,,,,,,,,,,,,,,,,,,,,,,,,,,,,,,,,,,,
1720177996,48,0,4416.538574,4361.666504,4401.538574,4381.282227,4335.897461,4235,4360.769043,4306.666504,4305,4235.769043,4422.820313,4621.538574,4399.871582,4362.307617,,,,,,,,,,,,,,,,,,,,,,,,,,,,,,,,,,,,,,,,,,,,,,,,,,,,,,,,,,,,,,,,,,,,,,
1720177996,49,0,4400.769043,4370.256348,4400,4388.589844,4340.641113,4228.205078,4362.307617,4302.94873,4300.128418,4226.922852,4424.230957,4626.282227,4404.871582,4367.179688,,,,,,,,,,,,,,,,,,,,,,,,,,,,,,,,,,,,,,,,,,,,,,,,,,,,,,,,,,,,,,,,,,,,,,
1720177996,50,0,4388.589844,4382.179688,4383.974121,4391.794922,4347.05127,4237.05127,4362.436035,4294.615234,4278.974121,4214.487305,4428.846191,4618.333496,4400.641113,4364.358887,,,,,,,,,,,,,,,,,,,,,,,,,,,,,,,,,,,,,,,,,,,,,,,,,,,,,,,,,,,,,,,,,,,,,,
1720177996,51,0,4403.974121,4379.615234,4389.871582,4398.077148,4359.230957,4246.282227,4371.153809,4301.025879,4266.025879,4204.871582,4432.563965,4609.358887,4403.717773,4362.307617,,,,,,,,,,,,,,,,,,,,,,,,,,,,,,,,,,,,,,,,,,,,,,,,,,,,,,,,,,,,,,,,,,,,,,
1720177996,52,0,4408.974121,4370.641113,4402.179688,4401.922852,4369.358887,4248.205078,4380,4310.256348,4273.974121,4207.563965,4439.230957,4618.333496,4421.538574,4379.615234,,,,,,,,,,,,,,,,,,,,,,,,,,,,,,,,,,,,,,,,,,,,,,,,,,,,,,,,,,,,,,,,,,,,,,
1720177996,53,0,4408.717773,4376.410156,4406.666504,4396.666504,4369.871582,4251.153809,4385.512695,4311.538574,4290.769043,4220.641113,4441.666504,4636.538574,4435.897461,4401.666504,,,,,,,,,,,,,,,,,,,,,,,,,,,,,,,,,,,,,,,,,,,,,,,,,,,,,,,,,,,,,,,,,,,,,,
1720177996,54,0,4410.769043,4382.05127,4417.94873,4398.461426,4367.820313,4252.179688,4392.692383,4319.358887,4305.897461,4231.666504,4435.769043,4649.102539,4439.487305,4408.461426,,,,,,,,,,,,,,,,,,,,,,,,,,,,,,,,,,,,,,,,,,,,,,,,,,,,,,,,,,,,,,,,,,,,,,
1720177996,55,0,4415.128418,4375.384766,4429.230957,4399.102539,4363.205078,4248.077148,4393.717773,4331.153809,4321.794922,4238.717773,4441.922852,4660.512695,4454.102539,4413.717773,13.388225,14.098488,8.157639,2.874594,1.023456,7.954234,8.796541,4.815933,2.202059,0.565956,7.790032,13.962572,4.976189,2.33067,0.677432,7.179374,7.657024,3.392274,1.890878,0.743698,4.962346,2.345976,3.329269,2.152336,0.329593,0.608082,0.468313,0.13228,0.208955,0.084919,3.722811,8.60187,0.451147,0.886871,0.209507,3.241128,8.630423,0.729568,0.898133,0.248196,3.572876,6.881973,2.413564,0.909825,0.239026,11.455984,1.393628,1.757911,0.944014,0.236618,2.958683,4.051379,1.620482,1.061964,0.510921,10.956076,16.310108,4.482116,2.194598,0.590539,14.334904,16.047443,4.465349,2.636876,0.669011,11.095651,13.789185,2.996146,1.786907,0.93754
1720177996,56,0,4425.512695,4363.333496,4433.077148,4395.256348,4356.922852,4242.94873,4396.922852,4340.897461,4333.846191,4245.256348,4461.922852,4670.897461,4477.94873,4432.179688,,,,,,,,,,,,,,,,,,,,,,,,,,,,,,,,,,,,,,,,,,,,,,,,,,,,,,,,,,,,,,,,,,,,,,
1720177996,57,0,4415,4359.487305,4427.94873,4394.615234,4361.666504,4242.94873,4408.461426,4350.641113,4340.512695,4256.025879,4468.461426,4675.128418,4482.05127,4443.205078,,,,,,,,,,,,,,,,,,,,,,,,,,,,,,,,,,,,,,,,,,,,,,,,,,,,,,,,,,,,,,,,,,,,,,
1720177996,58,0,4392.94873,4367.820313,4415.641113,4395,4375.384766,4248.461426,4408.974121,4348.589844,4341.922852,4269.102539,4467.563965,4674.102539,4476.410156,4438.717773,,,,,,,,,,,,,,,,,,,,,,,,,,,,,,,,,,,,,,,,,,,,,,,,,,,,,,,,,,,,,,,,,,,,,,
1720177996,59,0,4392.94873,4373.077148,4411.410156,4401.153809,4379.743652,4251.794922,4400.384766,4341.538574,4330.769043,4273.589844,4476.922852,4673.846191,4486.025879,4441.538574,,,,,,,,,,,,,,,,,,,,,,,,,,,,,,,,,,,,,,,,,,,,,,,,,,,,,,,,,,,,,,,,,,,,,,
1720177996,60,0,4400,4363.974121,4414.102539,4398.461426,4374.358887,4245.256348,4398.461426,4340.256348,4319.102539,4271.410156,4481.025879,4676.025879,4501.282227,4448.717773,,,,,,,,,,,,,,,,,,,,,,,,,,,,,,,,,,,,,,,,,,,,,,,,,,,,,,,,,,,,,,,,,,,,,,
1720177996,61,0,4408.717773,4362.307617,4425.384766,4389.871582,4369.230957,4246.922852,4397.820313,4340.897461,4324.230957,4286.666504,4483.589844,4684.615234,4511.794922,4452.820313,,,,,,,,,,,,,,,,,,,,,,,,,,,,,,,,,,,,,,,,,,,,,,,,,,,,,,,,,,,,,,,,,,,,,,
1720177996,62,0,4418.461426,4381.538574,4436.794922,4404.102539,4364.743652,4253.589844,4395.641113,4338.717773,4332.563965,4302.307617,4490.128418,4682.307617,4512.94873,4443.974121,,,,,,,,,,,,,,,,,,,,,,,,,,,,,,,,,,,,,,,,,,,,,,,,,,,,,,,,,,,,,,,,,,,,,,
1720177996,63,0,4412.692383,4389.871582,4435.256348,4423.846191,4365.897461,4253.205078,4395.897461,4337.307617,4325.897461,4296.666504,4490.512695,4665,4506.410156,4427.307617,,,,,,,,,,,,,,,,,,,,,,,,,,,,,,,,,,,,,,,,,,,,,,,,,,,,,,,,,,,,,,,,,,,,,,
1720177996,64,0,4405.128418,4373.205078,4426.666504,4408.974121,4375.512695,4256.153809,4400.512695,4341.282227,4321.153809,4296.410156,4491.666504,4658.205078,4504.871582,4420.769043,,,,,,,,,,,,,,,,,,,,,,,,,,,,,,,,,,,,,,,,,,,,,,,,,,,,,,,,,,,,,,,,,,,,,,
1720177996,65,0,4402.179688,4373.589844,4421.794922,4399.102539,4384.230957,4259.230957,4412.179688,4348.974121,4335.897461,4309.615234,4494.230957,4662.692383,4506.410156,4416.025879,,,,,,,,,,,,,,,,,,,,,,,,,,,,,,,,,,,,,,,,,,,,,,,,,,,,,,,,,,,,,,,,,,,,,,
1720177996,66,0,4395.256348,4390,4421.025879,4420,4383.077148,4260.384766,4417.94873,4354.871582,4349.487305,4318.589844,4496.025879,4665.512695,4501.410156,4408.974121,,,,,,,,,,,,,,,,,,,,,,,,,,,,,,,,,,,,,,,,,,,,,,,,,,,,,,,,,,,,,,,,,,,,,,
1720177996,67,0,4392.820313,4376.153809,4418.717773,4411.282227,4379.487305,4259.487305,4412.179688,4355.128418,4350.512695,4322.307617,4485.384766,4659.102539,4489.871582,4402.692383,,,,,,,,,,,,,,,,,,,,,,,,,,,,,,,,,,,,,,,,,,,,,,,,,,,,,,,,,,,,,,,,,,,,,,
1720177996,68,0,4391.282227,4352.179688,4413.333496,4388.974121,4379.230957,4257.179688,4411.794922,4355.769043,4357.05127,4330.384766,4472.94873,4651.794922,4482.820313,4405.256348,,,,,,,,,,,,,,,,,,,,,,,,,,,,,,,,,,,,,,,,,,,,,,,,,,,,,,,,,,,,,,,,,,,,,,
1720177996,69,0,4375.897461,4352.692383,4400.897461,4392.563965,4376.410156,4257.820313,4416.794922,4362.94873,4371.538574,4335.897461,4486.666504,4656.538574,4488.205078,4413.205078,,,,,,,,,,,,,,,,,,,,,,,,,,,,,,,,,,,,,,,,,,,,,,,,,,,,,,,,,,,,,,,,,,,,,,
1720177996,70,0,4358.077148,4354.871582,4390.769043,4386.025879,4370.384766,4257.563965,4408.589844,4361.410156,4374.358887,4335.256348,4495,4655.897461,4495.641113,4406.025879,,,,,,,,,,,,,,,,,,,,,,,,,,,,,,,,,,,,,,,,,,,,,,,,,,,,,,,,,,,,,,,,,,,,,,
1720177996,71,0,4362.820313,4353.589844,4391.794922,4378.717773,4372.05127,4254.615234,4392.436035,4346.666504,4365.128418,4337.307617,4482.436035,4641.538574,4491.025879,4392.179688,11.428811,15.967293,8.478959,2.555033,1.077901,6.839898,9.504096,5.050052,1.927398,0.573809,7.657155,15.537663,4.958688,2.159527,0.658906,6.435709,8.381161,3.640142,1.922051,0.76006,4.574404,2.728012,3.180025,1.96118,0.364911,0.648605,0.561738,0.132144,0.193906,0.082704,3.515341,7.529062,0.515427,0.950322,0.200949,2.975461,6.78591,0.665111,0.992652,0.237298,3.994641,5.877713,2.020988,0.906826,0.231018,9.220417,1.455393,1.511529,0.838177,0.246645,2.813566,3.9512,1.483129,1.003895,0.47602,10.782772,16.193495,4.491841,2.205892,0.577369,13.09398,16.945412,3.93189,2.377933,0.672276,13.146569,14.074841,3.097842,1.655116,0.843726
1720177996,72,0,4373.077148,4364.871582,4397.820313,4398.461426,4381.410156,4257.820313,4386.410156,4342.820313,4362.820313,4341.666504,4475.769043,4637.05127,4481.025879,4394.615234,,,,,,,,,,,,,,,,,,,,,,,,,,,,,,,,,,,,,,,,,,,,,,,,,,,,,,,,,,,,,,,,,,,,,,
1720177996,73,0,4370.256348,4375.641113,4407.563965,4406.410156,4383.846191,4262.563965,4396.922852,4355.641113,4367.05127,4345.641113,4478.717773,4642.05127,4477.05127,4394.102539,,,,,,,,,,,,,,,,,,,,,,,,,,,,,,,,,,,,,,,,,,,,,,,,,,,,,,,,,,,,,,,,,,,,,,
1720177996,74,0,4373.717773,4375.384766,4422.94873,4400.384766,4380.128418,4261.282227,4413.974121,4363.846191,4367.179688,4342.307617,4475,4640.512695,4466.282227,4372.307617,,,,,,,,,,,,,,,,,,,,,,,,,,,,,,,,,,,,,,,,,,,,,,,,,,,,,,,,,,,,,,,,,,,,,,
1720177996,75,0,4393.461426,4384.230957,4433.717773,4423.205078,4380,4269.230957,4421.922852,4368.974121,4364.230957,4339.871582,4479.743652,4650.769043,4461.025879,4377.179688,,,,,,,,,,,,,,,,,,,,,,,,,,,,,,,,,,,,,,,,,,,,,,,,,,,,,,,,,,,,,,,,,,,,,,
1720177996,76,0,4398.077148,4392.307617,4427.563965,4425.641113,4382.05127,4269.871582,4421.025879,4376.153809,4363.717773,4349.871582,4487.563965,4667.05127,4477.563965,4409.230957,,,,,,,,,,,,,,,,,,,,,,,,,,,,,,,,,,,,,,,,,,,,,,,,,,,,,,,,,,,,,,,,,,,,,,
1720177996,77,0,4393.333496,4380.641113,4424.358887,4397.94873,4379.871582,4258.846191,4418.846191,4374.102539,4368.461426,4358.974121,4482.563965,4668.846191,4495.256348,4415.769043,,,,,,,,,,,,,,,,,,,,,,,,,,,,,,,,,,,,,,,,,,,,,,,,,,,,,,,,,,,,,,,,,,,,,,
1720177996,78,0,4406.410156,4372.307617,4446.666504,4405.384766,4376.794922,4265,4414.743652,4368.717773,4371.282227,4356.410156,4494.487305,4674.615234,4500.256348,4406.282227,,,,,,,,,,,,,,,,,,,,,,,,,,,,,,,,,,,,,,,,,,,,,,,,,,,,,,,,,,,,,,,,,,,,,,
1720177996,79,0,4411.153809,4388.205078,4467.563965,4432.820313,4385,4271.410156,4412.94873,4369.743652,4368.205078,4355,4502.307617,4686.153809,4504.487305,4414.358887,,,,,,,,,,,,,,,,,,,,,,,,,,,,,,,,,,,,,,,,,,,,,,,,,,,,,,,,,,,,,,,,,,,,,,
1720177996,80,0,4403.077148,4407.692383,4453.589844,4434.487305,4397.563965,4270.128418,4419.743652,4372.820313,4368.461426,4359.871582,4492.692383,4684.743652,4514.102539,4424.487305,,,,,,,,,,,,,,,,,,,,,,,,,,,,,,,,,,,,,,,,,,,,,,,,,,,,,,,,,,,,,,,,,,,,,,
1720177996,81,0,4410.128418,4408.205078,4440.512695,4432.94873,4399.871582,4271.666504,4426.025879,4377.820313,4379.230957,4361.282227,4491.538574,4678.717773,4508.333496,4418.974121,,,,,,,,,,,,,,,,,,,,,,,,,,,,,,,,,,,,,,,,,,,,,,,,,,,,,,,,,,,,,,,,,,,,,,
1720177996,82,0,4419.230957,4406.153809,4462.94873,4447.307617,4404.871582,4275.512695,4432.94873,4390,4391.282227,4360.256348,4490.128418,4682.820313,4495.769043,4412.436035,,,,,,,,,,,,,,,,,,,,,,,,,,,,,,,,,,,,,,,,,,,,,,,,,,,,,,,,,,,,,,,,,,,,,,
1720177996,83,0,4400.512695,4405.769043,4469.102539,4446.410156,4415.769043,4281.153809,4444.358887,4401.538574,4395,4363.717773,4489.230957,4689.743652,4495.897461,4411.538574,,,,,,,,,,,,,,,,,,,,,,,,,,,,,,,,,,,,,,,,,,,,,,,,,,,,,,,,,,,,,,,,,,,,,,
1720177996,84,0,4380.641113,4384.871582,4437.692383,4422.94873,4400.641113,4280.512695,4437.179688,4392.436035,4382.179688,4359.487305,4485.897461,4664.743652,4477.563965,4396.410156,,,,,,,,,,,,,,,,,,,,,,,,,,,,,,,,,,,,,,,,,,,,,,,,,,,,,,,,,,,,,,,,,,,,,,
1720177996,85,0,4353.077148,4355.769043,4384.615234,4396.282227,4358.333496,4269.102539,4402.179688,4358.974121,4353.589844,4342.436035,4449.743652,4593.077148,4414.743652,4343.461426,,,,,,,,,,,,,,,,,,,,,,,,,,,,,,,,,,,,,,,,,,,,,,,,,,,,,,,,,,,,,,,,,,,,,,
1720177996,86,0,4327.05127,4323.333496,4358.461426,4363.077148,4331.538574,4259.487305,4377.563965,4337.179688,4333.974121,4332.820313,4417.563965,4552.436035,4375.641113,4305,,,,,,,,,,,,,,,,,,,,,,,,,,,,,,,,,,,,,,,,,,,,,,,,,,,,,,,,,,,,,,,,,,,,,,
1720177996,87,0,4365.384766,4315,4401.153809,4357.692383,4345.769043,4265,4388.333496,4355.512695,4343.974121,4345.128418,4442.179688,4595.897461,4406.282227,4338.077148,8.925802,17.229746,8.388533,2.242797,1.141504,5.46972,9.961814,5.191756,1.64268,0.607392,6.862319,16.668503,4.7044,1.984477,0.650718,5.247387,8.861548,3.921149,2.001855,0.804142,3.980785,3.313578,2.992514,1.620876,0.399021,0.686525,0.707061,0.145754,0.168508,0.080233,3.156429,6.140739,0.670116,1.016718,0.190458,2.662973,4.901904,0.701406,1.076765,0.218204,4.436154,5.014814,1.742877,0.987571,0.215559,7.20789,1.685811,1.235885,0.742247,0.260672,2.438003,3.712347,1.299143,0.980511,0.436173,9.82425,15.016619,4.425427,2.302178,0.568601,10.801933,16.463051,3.143976,2.159638,0.676075,14.845914,13.644359,3.291413,1.641692,0.732852
1720177996,88,0,4404.102539,4362.820313,4442.563965,4398.077148,4374.615234,4267.563965,4408.974121,4378.461426,4370.641113,4363.589844,4462.05127,4637.820313,4432.820313,4377.179688,,,,,,,,,,,,,,,,,,,,,,,,,,,,,,,,,,,,,,,,,,,,,,,,,,,,,,,,,,,,,,,,,,,,,,
1720177996,89,0,4400,4413.077148,4427.563965,4427.436035,4378.846191,4266.025879,4410.769043,4374.358887,4378.589844,4373.333496,4454.358887,4634.102539,4428.974121,4383.589844,,,,,,,,,,,,,,,,,,,,,,,,,,,,,,,,,,,,,,,,,,,,,,,,,,,,,,,,,,,,,,,,,,,,,,
1720177996,90,0,4407.05127,4416.282227,4419.102539,4425.897461,4373.333496,4271.153809,4397.307617,4361.794922,4361.666504,4373.717773,4460.128418,4627.692383,4442.05127,4388.717773,,,,,,,,,,,,,,,,,,,,,,,,,,,,,,,,,,,,,,,,,,,,,,,,,,,,,,,,,,,,,,,,,,,,,,
1720177996,91,0,4427.94873,4413.461426,4469.871582,4444.102539,4393.846191,4277.94873,4402.94873,4365.256348,4361.153809,4375.897461,4467.05127,4642.692383,4467.05127,4405.769043,,,,,,,,,,,,,,,,,,,,,,,,,,,,,,,,,,,,,,,,,,,,,,,,,,,,,,,,,,,,,,,,,,,,,,
1720177996,92,0,4446.025879,4446.153809,4522.94873,4488.077148,4432.05127,4290,4443.589844,4392.307617,4394.102539,4402.179688,4482.179688,4683.589844,4492.692383,4435.641113,,,,,,,,,,,,,,,,,,,,,,,,,,,,,,,,,,,,,,,,,,,,,,,,,,,,,,,,,,,,,,,,,,,,,,
1720177996,93,0,4488.205078,4499.871582,4542.179688,4538.846191,4472.820313,4303.077148,4498.589844,4437.820313,4438.589844,4442.179688,4514.230957,4744.102539,4537.94873,4474.487305,,,,,,,,,,,,,,,,,,,,,,,,,,,,,,,,,,,,,,,,,,,,,,,,,,,,,,,,,,,,,,,,,,,,,,
1720177996,94,0,4548.717773,4559.487305,4577.563965,4590.256348,4521.025879,4318.205078,4556.794922,4493.589844,4494.102539,4473.589844,4547.05127,4812.820313,4589.743652,4523.205078,,,,,,,,,,,,,,,,,,,,,,,,,,,,,,,,,,,,,,,,,,,,,,,,,,,,,,,,,,,,,,,,,,,,,,
1720177996,95,0,4586.153809,4608.846191,4646.153809,4630.641113,4571.410156,4334.102539,4611.282227,4543.974121,4563.333496,4512.179688,4581.025879,4877.436035,4636.922852,4580.256348,,,,,,,,,,,,,,,,,,,,,,,,,,,,,,,,,,,,,,,,,,,,,,,,,,,,,,,,,,,,,,,,,,,,,,
1720177996,96,0,4635.384766,4643.717773,4717.05127,4681.538574,4621.794922,4345.641113,4653.333496,4582.94873,4626.538574,4561.666504,4621.666504,4940.256348,4699.487305,4636.794922,,,,,,,,,,,,,,,,,,,,,,,,,,,,,,,,,,,,,,,,,,,,,,,,,,,,,,,,,,,,,,,,,,,,,,
1720177996,97,0,4688.589844,4693.717773,4753.461426,4755.897461,4679.487305,4360.897461,4701.153809,4625.512695,4683.589844,4609.230957,4661.794922,5007.179688,4768.077148,4685.641113,,,,,,,,,,,,,,,,,,,,,,,,,,,,,,,,,,,,,,,,,,,,,,,,,,,,,,,,,,,,,,,,,,,,,,
1720177996,98,0,4727.820313,4759.358887,4792.692383,4815.641113,4733.461426,4380.641113,4768.717773,4684.102539,4745.769043,4652.307617,4691.282227,5072.563965,4821.410156,4731.282227,,,,,,,,,,,,,,,,,,,,,,,,,,,,,,,,,,,,,,,,,,,,,,,,,,,,,,,,,,,,,,,,,,,,,,
1720177996,99,0,4778.461426,4825.512695,4868.589844,4865.512695,4781.025879,4397.820313,4833.205078,4744.743652,4804.743652,4695.256348,4725.641113,5138.717773,4875.256348,4786.153809,,,,,,,,,,,,,,,,,,,,,,,,,,,,,,,,,,,,,,,,,,,,,,,,,,,,,,,,,,,,,,,,,,,,,,
1720177996,100,0,4828.205078,4883.205078,4940.641113,4923.461426,4832.820313,4415.128418,4886.922852,4793.974121,4859.487305,4739.230957,4774.871582,5217.436035,4944.615234,4854.871582,,,,,,,,,,,,,,,,,,,,,,,,,,,,,,,,,,,,,,,,,,,,,,,,,,,,,,,,,,,,,,,,,,,,,,
1720177996,101,0,4884.487305,4936.794922,5001.410156,4979.230957,4887.94873,4431.153809,4944.102539,4843.717773,4920.769043,4786.282227,4817.436035,5306.153809,5010.769043,4923.846191,,,,,,,,,,,,,,,,,,,,,,,,,,,,,,,,,,,,,,,,,,,,,,,,,,,,,,,,,,,,,,,,,,,,,,
1720177996,102,0,4973.077148,5002.05127,5069.871582,5048.974121,4941.153809,4442.179688,5008.077148,4903.077148,4992.563965,4834.102539,4852.563965,5383.846191,5077.563965,4987.692383,,,,,,,,,,,,,,,,,,,,,,,,,,,,,,,,,,,,,,,,,,,,,,,,,,,,,,,,,,,,,,,,,,,,,,
1720177996,103,0,5048.717773,5076.922852,5141.410156,5133.333496,4991.410156,4465.128418,5074.358887,4965.769043,5069.487305,4880.384766,4902.820313,5463.717773,5162.563965,5069.743652,6.781636,17.548969,7.96241,2.022435,1.198607,4.484657,10.126394,5.264078,1.40024,0.656828,6.164345,17.022923,4.307102,1.877524,0.65895,4.282837,9.007532,4.228267,2.109065,0.88658,3.259499,3.943504,2.831616,1.249129,0.423482,0.703307,0.878,0.172688,0.142879,0.078301,2.808257,4.783331,0.888463,1.075985,0.180513,2.41458,3.376316,0.823009,1.128983,0.197306,4.699888,4.707979,1.668094,1.095039,0.20002,6.16699,2.057926,1.00537,0.684073,0.276875,2.269925,3.396003,1.104794,0.992538,0.408024,8.907994,13.013401,4.34876,2.444379,0.566397,8.652509,14.688615,2.317741,2.013534,0.680014,15.934321,12.535385,3.511368,1.720444,0.635453
1720177996,104,0,5096.153809,5139.615234,5218.333496,5190.641113,5046.153809,4488.589844,5137.179688,5020.384766,5136.794922,4926.538574,4959.230957,5553.717773,5241.538574,5152.692383,,,,,,,,,,,,,,,,,,,,,,,,,,,,,,,,,,,,,,,,,,,,,,,,,,,,,,,,,,,,,,,,,,,,,,
1720177996,105,0,5175.512695,5195.128418,5292.179688,5242.05127,5102.307617,4498.974121,5193.461426,5069.102539,5190.256348,4973.717773,5003.461426,5632.307617,5299.102539,5212.307617,,,,,,,,,,,,,,,,,,,,,,,,,,,,,,,,,,,,,,,,,,,,,,,,,,,,,,,,,,,,,,,,,,,,,,
1720177996,106,0,5287.820313,5250.897461,5362.307617,5315.256348,5148.846191,4521.410156,5253.461426,5126.538574,5250.512695,5022.563965,5045.897461,5708.333496,5363.205078,5285.128418,,,,,,,,,,,,,,,,,,,,,,,,,,,,,,,,,,,,,,,,,,,,,,,,,,,,,,,,,,,,,,,,,,,,,,
1720177996,107,0,5342.179688,5307.05127,5428.205078,5380.512695,5192.692383,4545.769043,5314.102539,5181.922852,5311.922852,5058.717773,5076.666504,5785.128418,5429.102539,5357.820313,,,,,,,,,,,,,,,,,,,,,,,,,,,,,,,,,,,,,,,,,,,,,,,,,,,,,,,,,,,,,,,,,,,,,,
1720177996,108,0,5325.641113,5370.512695,5466.282227,5418.974121,5240.641113,4556.922852,5356.153809,5218.846191,5350.512695,5080.769043,5103.333496,5844.743652,5476.153809,5395.128418,,,,,,,,,,,,,,,,,,,,,,,,,,,,,,,,,,,,,,,,,,,,,,,,,,,,,,,,,,,,,,,,,,,,,,
1720177996,109,0,5348.333496,5419.102539,5499.615234,5456.538574,5285.256348,4570,5387.436035,5251.025879,5388.846191,5117.692383,5151.666504,5898.461426,5528.461426,5443.974121,,,,,,,,,,,,,,,,,,,,,,,,,,,,,,,,,,,,,,,,,,,,,,,,,,,,,,,,,,,,,,,,,,,,,,
1720177996,110,0,5447.94873,5442.05127,5586.153809,5507.05127,5323.205078,4588.461426,5432.05127,5295.769043,5447.436035,5160.256348,5190.512695,5966.025879,5588.717773,5514.487305,,,,,,,,,,,,,,,,,,,,,,,,,,,,,,,,,,,,,,,,,,,,,,,,,,,,,,,,,,,,,,,,,,,,,,
1720177996,111,0,5476.410156,5473.717773,5650.384766,5549.871582,5361.538574,4605.641113,5487.307617,5349.615234,5505,5184.487305,5208.333496,6028.461426,5628.974121,5552.94873,,,,,,,,,,,,,,,,,,,,,,,,,,,,,,,,,,,,,,,,,,,,,,,,,,,,,,,,,,,,,,,,,,,,,,
1720177996,112,0,5452.820313,5516.666504,5639.358887,5569.743652,5397.94873,4620.384766,5538.077148,5400.128418,5555.256348,5212.05127,5242.179688,6072.307617,5662.179688,5574.871582,,,,,,,,,,,,,,,,,,,,,,,,,,,,,,,,,,,,,,,,,,,,,,,,,,,,,,,,,,,,,,,,,,,,,,
1720177996,113,0,5519.615234,5559.871582,5666.666504,5603.205078,5436.922852,4632.436035,5578.846191,5438.974121,5605.256348,5249.871582,5276.922852,6119.871582,5704.615234,5620.897461,,,,,,,,,,,,,,,,,,,,,,,,,,,,,,,,,,,,,,,,,,,,,,,,,,,,,,,,,,,,,,,,,,,,,,
1720177996,114,0,5611.666504,5623.333496,5739.871582,5674.487305,5485.128418,4646.282227,5617.692383,5472.307617,5648.846191,5280.897461,5299.743652,6179.358887,5757.820313,5676.410156,,,,,,,,,,,,,,,,,,,,,,,,,,,,,,,,,,,,,,,,,,,,,,,,,,,,,,,,,,,,,,,,,,,,,,
1720177996,115,0,5626.538574,5693.077148,5771.025879,5743.717773,5535.769043,4669.358887,5661.410156,5514.230957,5691.025879,5319.487305,5343.077148,6245.897461,5821.794922,5731.538574,,,,,,,,,,,,,,,,,,,,,,,,,,,,,,,,,,,,,,,,,,,,,,,,,,,,,,,,,,,,,,,,,,,,,,
1720177996,116,0,5643.077148,5735.641113,5817.05127,5784.358887,5585.384766,4687.307617,5704.230957,5557.820313,5744.230957,5369.487305,5388.205078,6306.153809,5875.512695,5783.974121,,,,,,,,,,,,,,,,,,,,,,,,,,,,,,,,,,,,,,,,,,,,,,,,,,,,,,,,,,,,,,,,,,,,,,
1720177996,117,0,5710,5786.282227,5890.769043,5834.615234,5636.282227,4702.436035,5745.512695,5598.461426,5805.512695,5418.717773,5421.410156,6360.769043,5930.641113,5833.974121,,,,,,,,,,,,,,,,,,,,,,,,,,,,,,,,,,,,,,,,,,,,,,,,,,,,,,,,,,,,,,,,,,,,,,
1720177996,118,0,5773.974121,5857.94873,5922.563965,5915.256348,5690.128418,4726.410156,5799.487305,5648.461426,5867.05127,5468.205078,5473.589844,6430,6012.436035,5906.538574,,,,,,,,,,,,,,,,,,,,,,,,,,,,,,,,,,,,,,,,,,,,,,,,,,,,,,,,,,,,,,,,,,,,,,
1720177996,119,0,5844.487305,5903.974121,5983.461426,5969.487305,5736.794922,4746.410156,5865.641113,5709.102539,5928.974121,5521.282227,5527.05127,6508.461426,6094.358887,5990.512695,5.943817,16.830462,7.321022,1.929581,1.231107,4.751989,9.968773,5.286165,1.252204,0.713622,6.453452,16.473255,3.895061,1.872548,0.695276,4.546126,8.814481,4.525862,2.204397,1.003232,3.353567,4.4053,2.728926,0.971778,0.435157,0.835638,1.029261,0.210656,0.12525,0.078201,3.280704,3.77074,1.12647,1.124763,0.176775,2.824291,2.419621,0.997824,1.150793,0.183561,5.74532,5.109171,1.811674,1.189082,0.19365,6.704661,2.485163,0.862015,0.667225,0.292111,2.432202,3.060404,0.925175,1.02015,0.402391,9.409472,10.730139,4.277168,2.585911,0.577683,7.847275,12.236556,1.70128,1.931872,0.683523,16.854912,11.033841,3.665045,1.83818,0.577419
1720177996,120,0,5887.05127,5956.282227,6078.974121,5989.743652,5783.333496,4763.717773,5925.384766,5765.769043,5986.794922,5572.179688,5562.820313,6580.512695,6145.641113,6056.538574,,,,,,,,,,,,,,,,,,,,,,,,,,,,,,,,,,,,,,,,,,,,,,,,,,,,,,,,,,,,,,,,,,,,,,
1720177996,121,0,5891.922852,6037.307617,6112.692383,6035.384766,5843.589844,4783.974121,5982.05127,5814.743652,6035.512695,5611.538574,5598.717773,6647.94873,6192.820313,6105.641113,,,,,,,,,,,,,,,,,,,,,,,,,,,,,,,,,,,,,,,,,,,,,,,,,,,,,,,,,,,,,,,,,,,,,,
1720177996,122,0,5944.743652,6093.461426,6143.717773,6112.692383,5899.743652,4803.717773,6039.743652,5866.153809,6086.922852,5646.282227,5645.256348,6715.897461,6260.128418,6159.871582,,,,,,,,,,,,,,,,,,,,,,,,,,,,,,,,,,,,,,,,,,,,,,,,,,,,,,,,,,,,,,,,,,,,,,
1720177996,123,0,6018.333496,6124.615234,6216.538574,6175.897461,5938.974121,4822.94873,6080.769043,5917.563965,6143.333496,5684.487305,5685.897461,6769.230957,6316.153809,6216.538574,,,,,,,,,,,,,,,,,,,,,,,,,,,,,,,,,,,,,,,,,,,,,,,,,,,,,,,,,,,,,,,,,,,,,,
1720177996,124,0,6045,6167.179688,6252.692383,6226.025879,5971.153809,4839.743652,6115.512695,5962.307617,6196.410156,5720.769043,5718.846191,6805.897461,6348.077148,6255.769043,,,,,,,,,,,,,,,,,,,,,,,,,,,,,,,,,,,,,,,,,,,,,,,,,,,,,,,,,,,,,,,,,,,,,,
1720177996,125,0,6040.128418,6203.077148,6258.589844,6249.230957,6000,4853.077148,6152.307617,5997.179688,6242.692383,5755,5751.538574,6846.922852,6376.282227,6283.846191,,,,,,,,,,,,,,,,,,,,,,,,,,,,,,,,,,,,,,,,,,,,,,,,,,,,,,,,,,,,,,,,,,,,,,
1720177996,126,0,6068.077148,6225.769043,6294.230957,6248.717773,6032.307617,4868.077148,6178.461426,6023.717773,6281.410156,5796.538574,5776.538574,6891.025879,6411.794922,6318.589844,,,,,,,,,,,,,,,,,,,,,,,,,,,,,,,,,,,,,,,,,,,,,,,,,,,,,,,,,,,,,,,,,,,,,,
1720177996,127,0,6120.641113,6255.128418,6346.025879,6289.358887,6072.820313,4880.512695,6204.743652,6054.102539,6317.179688,5831.794922,5794.743652,6931.025879,6449.615234,6361.794922,,,,,,,,,,,,,,,,,,,,,,,,,,,,,,,,,,,,,,,,,,,,,,,,,,,,,,,,,,,,,,,,,,,,,,
1720177996,0,0,6168.717773,6284.743652,6384.871582,6349.743652,6100.897461,4891.153809,6241.666504,6091.922852,6354.102539,5853.717773,5821.794922,6970.256348,6489.871582,6402.563965,,,,,,,,,,,,,,,,,,,,,,,,,,,,,,,,,,,,,,,,,,,,,,,,,,,,,,,,,,,,,,,,,,,,,,
1720177996,1,0,6182.436035,6333.205078,6388.974121,6387.307617,6125.384766,4912.05127,6278.205078,6130.897461,6393.717773,5877.820313,5862.179688,7006.538574,6531.410156,6440,,,,,,,,,,,,,,,,,,,,,,,,,,,,,,,,,,,,,,,,,,,,,,,,,,,,,,,,,,,,,,,,,,,,,,
1720177996,2,0,6197.563965,6385.384766,6412.94873,6419.230957,6170.256348,4927.692383,6317.692383,6169.743652,6432.94873,5905.384766,5900.384766,7041.282227,6574.615234,6485.256348,,,,,,,,,,,,,,,,,,,,,,,,,,,,,,,,,,,,,,,,,,,,,,,,,,,,,,,,,,,,,,,,,,,,,,
1720177996,3,0,6270.512695,6420,6501.410156,6469.487305,6209.487305,4941.282227,6369.358887,6214.358887,6473.333496,5948.461426,5935.641113,7088.077148,6635.256348,6544.615234,,,,,,,,,,,,,,,,,,,,,,,,,,,,,,,,,,,,,,,,,,,,,,,,,,,,,,,,,,,,,,,,,,,,,,
1720177996,4,0,6322.563965,6485.128418,6573.333496,6545.769043,6240.512695,4962.563965,6417.692383,6260.384766,6521.922852,6008.846191,5978.461426,7137.692383,6708.077148,6612.820313,,,,,,,,,,,,,,,,,,,,,,,,,,,,,,,,,,,,,,,,,,,,,,,,,,,,,,,,,,,,,,,,,,,,,,
1720177996,5,0,6356.538574,6568.333496,6602.05127,6627.820313,6299.102539,4977.820313,6454.487305,6300.641113,6574.615234,6055.256348,6021.282227,7179.615234,6767.563965,6675,,,,,,,,,,,,,,,,,,,,,,,,,,,,,,,,,,,,,,,,,,,,,,,,,,,,,,,,,,,,,,,,,,,,,,
1720177996,6,0,6462.94873,6599.487305,6684.230957,6667.94873,6370.128418,5002.307617,6500.512695,6344.615234,6624.487305,6081.794922,6060.897461,7229.102539,6814.358887,6736.922852,,,,,,,,,,,,,,,,,,,,,,,,,,,,,,,,,,,,,,,,,,,,,,,,,,,,,,,,,,,,,,,,,,,,,,
1720177996,7,0,6555.384766,6625.897461,6792.307617,6676.922852,6426.538574,5031.538574,6562.563965,6401.922852,6682.05127,6113.461426,6110.641113,7275.384766,6882.820313,6808.974121,8.176225,15.355699,6.614153,1.955988,1.237925,8.393105,9.580764,5.297925,1.227438,0.771238,10.972453,15.217933,3.565227,1.951579,0.778545,8.411808,8.46649,4.771254,2.230447,1.132411,5.446339,4.688306,2.662547,0.859987,0.4351,1.164585,1.134665,0.254659,0.117971,0.080657,6.633553,3.306723,1.341428,1.172422,0.186519,5.536078,2.049734,1.187889,1.167432,0.185231,9.801073,6.126487,2.130229,1.268912,0.203416,9.476295,2.837213,0.799068,0.672632,0.302261,4.167603,2.780561,0.780522,1.03824,0.419425,14.952816,8.836877,4.179687,2.709789,0.608737,11.397586,9.940666,1.437321,1.879717,0.685902,18.797224,9.69792,3.671852,1.949612,0.567124
1720177996,8,0,6537.94873,6706.282227,6816.538574,6742.436035,6482.94873,5051.794922,6622.179688,6460.128418,6743.077148,6159.743652,6167.179688,7311.538574,6965.384766,6874.358887,,,,,,,,,,,,,,,,,,,,,,,,,,,,,,,,,,,,,,,,,,,,,,,,,,,,,,,,,,,,,,,,,,,,,,
1720177996,9,0,6560.256348,6751.153809,6832.94873,6826.538574,6533.333496,5074.743652,6668.589844,6510.128418,6791.153809,6199.871582,6209.230957,7351.282227,7015.897461,6923.461426,,,,,,,,,,,,,,,,,,,,,,,,,,,,,,,,,,,,,,,,,,,,,,,,,,,,,,,,,,,,,,,,,,,,,,
1720177996,10,0,6638.846191,6745,6894.743652,6840.256348,6553.717773,5095.512695,6713.205078,6559.230957,6844.102539,6223.974121,6228.461426,7384.743652,7043.333496,6962.05127,,,,,,,,,,,,,,,,,,,,,,,,,,,,,,,,,,,,,,,,,,,,,,,,,,,,,,,,,,,,,,,,,,,,,,
1720177996,11,0,6639.230957,6779.358887,6918.974121,6835.769043,6571.794922,5107.94873,6745.512695,6596.153809,6897.179688,6243.974121,6244.230957,7392.436035,7078.589844,6994.230957,,,,,,,,,,,,,,,,,,,,,,,,,,,,,,,,,,,,,,,,,,,,,,,,,,,,,,,,,,,,,,,,,,,,,,
1720177996,12,0,6638.589844,6844.615234,6917.820313,6898.846191,6623.333496,5122.436035,6760.769043,6616.282227,6926.153809,6270.256348,6280.641113,7396.666504,7115,7029.743652,,,,,,,,,,,,,,,,,,,,,,,,,,,,,,,,,,,,,,,,,,,,,,,,,,,,,,,,,,,,,,,,,,,,,,
1720177996,13,0,6690,6862.307617,6956.794922,6963.846191,6666.282227,5138.077148,6779.615234,6638.333496,6947.820313,6291.410156,6316.025879,7417.563965,7132.179688,7057.05127,,,,,,,,,,,,,,,,,,,,,,,,,,,,,,,,,,,,,,,,,,,,,,,,,,,,,,,,,,,,,,,,,,,,,,
1720177996,14,0,6697.692383,6872.820313,6987.179688,6956.025879,6668.077148,5145.384766,6805.641113,6662.436035,6979.743652,6299.102539,6328.589844,7427.436035,7146.666504,7071.153809,,,,,,,,,,,,,,,,,,,,,,,,,,,,,,,,,,,,,,,,,,,,,,,,,,,,,,,,,,,,,,,,,,,,,,
1720177996,15,0,6695.769043,6900.641113,6996.666504,6937.179688,6672.692383,5155.384766,6825.128418,6683.717773,7002.436035,6313.461426,6346.794922,7433.077148,7176.794922,7108.333496,,,,,,,,,,,,,,,,,,,,,,,,,,,,,,,,,,,,,,,,,,,,,,,,,,,,,,,,,,,,,,,,,,,,,,
1720177996,16,0,6738.461426,6916.410156,7025.897461,6969.230957,6704.230957,5168.717773,6842.179688,6708.846191,7019.743652,6337.820313,6380,7451.666504,7201.666504,7149.871582,,,,,,,,,,,,,,,,,,,,,,,,,,,,,,,,,,,,,,,,,,,,,,,,,,,,,,,,,,,,,,,,,,,,,,
1720177996,17,0,6763.846191,6947.179688,7053.077148,7035.512695,6723.846191,5178.589844,6857.94873,6733.333496,7052.179688,6358.717773,6413.589844,7466.153809,7219.871582,7171.153809,,,,,,,,,,,,,,,,,,,,,,,,,,,,,,,,,,,,,,,,,,,,,,,,,,,,,,,,,,,,,,,,,,,,,,
1720177996,18,0,6814.615234,6968.974121,7091.410156,7067.94873,6723.846191,5188.589844,6868.205078,6751.153809,7074.102539,6377.05127,6442.179688,7477.94873,7244.102539,7210.384766,,,,,,,,,,,,,,,,,,,,,,,,,,,,,,,,,,,,,,,,,,,,,,,,,,,,,,,,,,,,,,,,,,,,,,
1720177996,19,0,6887.692383,6957.179688,7132.179688,7052.94873,6734.102539,5197.179688,6875.384766,6761.282227,7070.128418,6388.333496,6451.282227,7485.256348,7249.230957,7234.358887,,,,,,,,,,,,,,,,,,,,,,,,,,,,,,,,,,,,,,,,,,,,,,,,,,,,,,,,,,,,,,,,,,,,,,
1720177996,20,0,6840.512695,6963.846191,7116.025879,7058.461426,6751.153809,5208.846191,6877.563965,6762.307617,7063.974121,6395.128418,6448.974121,7482.820313,7228.077148,7214.487305,,,,,,,,,,,,,,,,,,,,,,,,,,,,,,,,,,,,,,,,,,,,,,,,,,,,,,,,,,,,,,,,,,,,,,
1720177996,21,0,6777.179688,6991.282227,7095.128418,7083.205078,6762.820313,5218.846191,6885.769043,6771.794922,7077.563965,6402.820313,6459.102539,7480.769043,7228.974121,7210.897461,,,,,,,,,,,,,,,,,,,,,,,,,,,,,,,,,,,,,,,,,,,,,,,,,,,,,,,,,,,,,,,,,,,,,,
1720177996,22,0,6849.487305,6994.102539,7114.358887,7083.461426,6769.102539,5227.05127,6902.05127,6797.563965,7097.820313,6412.307617,6473.846191,7480.641113,7254.615234,7227.820313,,,,,,,,,,,,,,,,,,,,,,,,,,,,,,,,,,,,,,,,,,,,,,,,,,,,,,,,,,,,,,,,,,,,,,
1720177996,23,0,6890.384766,6976.538574,7117.05127,7077.692383,6778.205078,5240.128418,6901.922852,6807.820313,7104.615234,6421.922852,6490.256348,7482.436035,7259.871582,7227.94873,13.671311,13.613373,5.800931,2.061437,1.272713,15.156318,8.942918,5.189974,1.313926,0.824288,18.745514,13.644882,3.242561,2.051391,0.936818,15.785937,8.002006,4.820151,2.129898,1.249325,11.202254,4.777465,2.518363,0.901527,0.426591,1.58661,1.176483,0.291238,0.117403,0.085277,13.856658,3.395248,1.494153,1.233434,0.213081,11.205671,2.149287,1.344221,1.208017,0.205468,17.779099,7.370962,2.49856,1.354744,0.230117,14.067268,3.005866,0.772737,0.674193,0.303358,7.633089,2.576963,0.662877,1.026678,0.449078,26.097248,7.670005,3.938205,2.818134,0.658564,19.64884,8.412513,1.506325,1.809425,0.68709,24.221893,8.964336,3.476619,2.028344,0.594527
1720177996,24,0,6807.94873,6968.846191,7080,7081.666504,6787.436035,5245.897461,6885.384766,6795.256348,7102.563965,6425.769043,6497.307617,7481.410156,7243.333496,7212.692383,,,,,,,,,,,,,,,,,,,,,,,,,,,,,,,,,,,,,,,,,,,,,,,,,,,,,,,,,,,,,,,,,,,,,,
1720177996,25,0,6791.025879,6951.794922,7072.05127,7059.102539,6778.205078,5242.436035,6880,6794.871582,7099.230957,6422.94873,6490.897461,7469.487305,7234.358887,7204.615234,,,,,,,,,,,,,,,,,,,,,,,,,,,,,,,,,,,,,,,,,,,,,,,,,,,,,,,,,,,,,,,,,,,,,,
1720177996,26,0,6867.307617,6924.230957,7106.538574,7033.461426,6768.333496,5249.871582,6891.410156,6815.128418,7102.179688,6422.692383,6498.461426,7463.077148,7247.94873,7217.820313,,,,,,,,,,,,,,,,,,,,,,,,,,,,,,,,,,,,,,,,,,,,,,,,,,,,,,,,,,,,,,,,,,,,,,
1720177996,27,0,6869.230957,6922.692383,7100.384766,7047.820313,6771.025879,5258.461426,6889.230957,6820.641113,7104.358887,6423.589844,6515,7472.436035,7255.641113,7229.230957,,,,,,,,,,,,,,,,,,,,,,,,,,,,,,,,,,,,,,,,,,,,,,,,,,,,,,,,,,,,,,,,,,,,,,
1720177997,28,0,6821.410156,6938.589844,7048.205078,7064.743652,6772.94873,5258.333496,6874.230957,6808.717773,7095.256348,6418.333496,6512.05127,7472.307617,7238.461426,7216.282227,,,,,,,,,,,,,,,,,,,,,,,,,,,,,,,,,,,,,,,,,,,,,,,,,,,,,,,,,,,,,,,,,,,,,,
1720177997,29,0,6831.025879,6931.538574,7022.307617,7051.666504,6768.077148,5267.05127,6860.512695,6804.102539,7079.615234,6420.384766,6508.205078,7454.615234,7229.358887,7203.333496,,,,,,,,,,,,,,,,,,,,,,,,,,,,,,,,,,,,,,,,,,,,,,,,,,,,,,,,,,,,,,,,,,,,,,
1720177997,30,0,6846.410156,6923.461426,7018.461426,7034.487305,6765.128418,5268.461426,6839.102539,6794.230957,7067.436035,6421.666504,6516.025879,7446.153809,7232.179688,7202.436035,,,,,,,,,,,,,,,,,,,,,,,,,,,,,,,,,,,,,,,,,,,,,,,,,,,,,,,,,,,,,,,,,,,,,,
1720177997,31,0,6855.512695,6919.615234,7024.743652,7025.128418,6761.410156,5262.05127,6818.333496,6775.641113,7058.333496,6408.589844,6519.743652,7448.205078,7232.05127,7206.922852,,,,,,,,,,,,,,,,,,,,,,,,,,,,,,,,,,,,,,,,,,,,,,,,,,,,,,,,,,,,,,,,,,,,,,
1720177997,32,0,6887.820313,6881.538574,7040.769043,7018.974121,6747.563965,5272.307617,6815.256348,6772.692383,7039.615234,6396.666504,6524.230957,7445.128418,7238.717773,7211.794922,,,,,,,,,,,,,,,,,,,,,,,,,,,,,,,,,,,,,,,,,,,,,,,,,,,,,,,,,,,,,,,,,,,,,,
1720177997,33,0,6891.922852,6869.102539,7029.358887,7021.794922,6733.589844,5281.922852,6822.820313,6784.487305,7023.461426,6391.153809,6534.871582,7435.256348,7242.307617,7205.256348,,,,,,,,,,,,,,,,,,,,,,,,,,,,,,,,,,,,,,,,,,,,,,,,,,,,,,,,,,,,,,,,,,,,,,
1720177997,34,0,6878.846191,6898.461426,7011.153809,7017.820313,6730.641113,5288.077148,6825.384766,6797.820313,7029.358887,6389.871582,6536.922852,7434.871582,7230.384766,7201.410156,,,,,,,,,,,,,,,,,,,,,,,,,,,,,,,,,,,,,,,,,,,,,,,,,,,,,,,,,,,,,,,,,,,,,,
1720177997,35,0,6875.384766,6892.05127,7006.666504,6991.538574,6728.974121,5295.769043,6811.282227,6800.256348,7034.358887,6381.282227,6530.641113,7441.794922,7212.179688,7194.871582,,,,,,,,,,,,,,,,,,,,,,,,,,,,,,,,,,,,,,,,,,,,,,,,,,,,,,,,,,,,,,,,,,,,,,
1720177997,36,0,6850.128418,6852.692383,6963.461426,6961.153809,6705.897461,5292.692383,6774.102539,6776.153809,7002.94873,6346.922852,6522.94873,7423.461426,7188.589844,7135.641113,,,,,,,,,,,,,,,,,,,,,,,,,,,,,,,,,,,,,,,,,,,,,,,,,,,,,,,,,,,,,,,,,,,,,,
1720177997,37,0,6811.153809,6797.820313,6905.256348,6919.358887,6671.794922,5285.512695,6733.974121,6740.641113,6960.897461,6319.487305,6504.615234,7390.897461,7157.692383,7053.205078,,,,,,,,,,,,,,,,,,,,,,,,,,,,,,,,,,,,,,,,,,,,,,,,,,,,,,,,,,,,,,,,,,,,,,
1720177997,38,0,6801.794922,6753.589844,6895.256348,6889.358887,6658.846191,5285.128418,6720.512695,6729.743652,6950,6325.384766,6488.461426,7377.436035,7143.077148,7021.538574,,,,,,,,,,,,,,,,,,,,,,,,,,,,,,,,,,,,,,,,,,,,,,,,,,,,,,,,,,,,,,,,,,,,,,
1720177997,39,0,6843.589844,6772.692383,6915.512695,6898.461426,6663.461426,5294.230957,6732.436035,6746.794922,6961.794922,6342.692383,6507.94873,7386.153809,7158.846191,7042.05127,28.28056,12.505853,5.047758,2.193927,1.438493,30.58168,8.398874,4.988521,1.472185,0.876596,38.437992,12.559782,2.926894,2.103393,1.200531,33.126713,7.721468,4.721584,1.908588,1.356691,24.09024,4.856417,2.283376,1.02685,0.415691,2.839332,1.16632,0.318181,0.11763,0.090439,30.643707,3.903133,1.620393,1.317085,0.25374,24.652262,2.557518,1.471512,1.286779,0.240508,36.156582,8.341085,2.788107,1.460622,0.267187,23.869179,2.989556,0.746908,0.659928,0.294469,15.321742,2.53647,0.577645,0.986223,0.477551,51.225189,7.403376,3.549545,2.918144,0.716626,39.210331,8.106359,1.740826,1.698345,0.691036,37.299767,9.217626,3.104851,2.066621,0.640891
1720177997,40,0,6885,6815.769043,6918.846191,6908.974121,6668.846191,5306.538574,6742.94873,6761.922852,6971.282227,6363.589844,6537.692383,7398.461426,7177.692383,7065.256348,,,,,,,,,,,,,,,,,,,,,,,,,,,,,,,,,,,,,,,,,,,,,,,,,,,,,,,,,,,,,,,,,,,,,,
1720177997,41,0,6881.922852,6801.153809,6926.538574,6903.846191,6668.846191,5312.563965,6732.179688,6753.461426,6961.025879,6321.025879,6535.512695,7397.94873,7180.384766,7062.307617,,,,,,,,,,,,,,,,,,,,,,,,,,,,,,,,,,,,,,,,,,,,,,,,,,,,,,,,,,,,,,,,,,,,,,
1720177997,42,0,6857.820313,6780.641113,6924.230957,6911.282227,6666.666504,5314.230957,6709.615234,6733.974121,6932.307617,6184.102539,6522.307617,7389.871582,7175,7049.487305,,,,,,,,,,,,,,,,,,,,,,,,,,,,,,,,,,,,,,,,,,,,,,,,,,,,,,,,,,,,,,,,,,,,,,
1720177997,43,0,6887.179688,6778.333496,6919.230957,6912.436035,6662.436035,5319.358887,6696.922852,6724.871582,6912.307617,6093.205078,6535.769043,7384.615234,7171.282227,7055.256348,,,,,,,,,,,,,,,,,,,,,,,,,,,,,,,,,,,,,,,,,,,,,,,,,,,,,,,,,,,,,,,,,,,,,,
1720177997,44,0,6929.358887,6764.102539,6933.077148,6894.230957,6654.871582,5321.282227,6690.769043,6721.025879,6908.077148,6111.282227,6548.205078,7382.307617,7172.820313,7066.794922,,,,,,,,,,,,,,,,,,,,,,,,,,,,,,,,,,,,,,,,,,,,,,,,,,,,,,,,,,,,,,,,,,,,,,
1720177997,45,0,6880.512695,6778.717773,6893.077148,6880.897461,6646.153809,5317.436035,6673.333496,6709.743652,6896.025879,6122.820313,6536.922852,7379.230957,7169.743652,7062.307617,,,,,,,,,,,,,,,,,,,,,,,,,,,,,,,,,,,,,,,,,,,,,,,,,,,,,,,,,,,,,,,,,,,,,,
1720177997,46,0,6831.666504,6788.205078,6837.563965,6871.025879,6628.589844,5318.589844,6652.179688,6702.179688,6881.282227,6102.820313,6535.769043,7375.897461,7158.589844,7059.615234,,,,,,,,,,,,,,,,,,,,,,,,,,,,,,,,,,,,,,,,,,,,,,,,,,,,,,,,,,,,,,,,,,,,,,
1720177997,47,0,6878.717773,6749.743652,6874.358887,6863.077148,6606.410156,5318.846191,6648.077148,6709.871582,6883.333496,6112.820313,6555.769043,7374.615234,7157.94873,7070.384766,,,,,,,,,,,,,,,,,,,,,,,,,,,,,,,,,,,,,,,,,,,,,,,,,,,,,,,,,,,,,,,,,,,,,,
1720177997,48,0,6898.717773,6727.179688,6908.974121,6847.563965,6600.256348,5321.666504,6647.307617,6715.641113,6884.743652,6118.077148,6572.94873,7372.692383,7154.743652,7068.717773,,,,,,,,,,,,,,,,,,,,,,,,,,,,,,,,,,,,,,,,,,,,,,,,,,,,,,,,,,,,,,,,,,,,,,
1720177997,49,0,6829.230957,6748.846191,6851.410156,6834.615234,6602.307617,5330,6636.410156,6710,6870.384766,6096.410156,6576.153809,7364.102539,7135.256348,7049.487305,,,,,,,,,,,,,,,,,,,,,,,,,,,,,,,,,,,,,,,,,,,,,,,,,,,,,,,,,,,,,,,,,,,,,,
1720177997,50,0,6815.512695,6731.538574,6832.307617,6843.461426,6594.487305,5335.512695,6633.589844,6709.358887,6854.230957,6091.794922,6575.641113,7354.487305,7130.256348,7041.666504,,,,,,,,,,,,,,,,,,,,,,,,,,,,,,,,,,,,,,,,,,,,,,,,,,,,,,,,,,,,,,,,,,,,,,
1720177997,51,0,6862.05127,6681.794922,6874.871582,6824.743652,6586.538574,5341.410156,6630.769043,6712.436035,6841.922852,6103.077148,6571.538574,7356.282227,7131.410156,7048.077148,,,,,,,,,,,,,,,,,,,,,,,,,,,,,,,,,,,,,,,,,,,,,,,,,,,,,,,,,,,,,,,,,,,,,,
1720177997,52,0,6850.769043,6673.077148,6861.538574,6786.282227,6577.563965,5344.230957,6607.820313,6698.461426,6816.282227,6086.538574,6561.794922,7352.05127,7113.589844,7036.153809,,,,,,,,,,,,,,,,,,,,,,,,,,,,,,,,,,,,,,,,,,,,,,,,,,,,,,,,,,,,,,,,,,,,,,
1720177997,53,0,6802.94873,6682.94873,6810.641113,6788.974121,6559.743652,5336.794922,6581.922852,6676.410156,6776.282227,6063.077148,6557.307617,7330.256348,7108.333496,7012.179688,,,,,,,,,,,,,,,,,,,,,,,,,,,,,,,,,,,,,,,,,,,,,,,,,,,,,,,,,,,,,,,,,,,,,,
1720177997,54,0,6762.307617,6666.794922,6772.692383,6792.05127,6539.871582,5333.974121,6567.820313,6667.436035,6737.307617,6071.025879,6556.153809,7318.077148,7111.025879,6994.743652,,,,,,,,,,,,,,,,,,,,,,,,,,,,,,,,,,,,,,,,,,,,,,,,,,,,,,,,,,,,,,,,,,,,,,
1720177997,55,0,6749.487305,6631.282227,6755.641113,6758.461426,6524.743652,5338.205078,6554.487305,6660.512695,6711.666504,6076.794922,6550.769043,7309.358887,7091.410156,6980.769043,41.225819,12.889763,4.480135,2.347474,1.870835,43.139286,8.299611,4.666468,1.658738,0.940265,54.349506,12.840244,2.602791,2.084645,1.584374,47.000103,7.879184,4.481707,1.661051,1.498728,35.604721,5.062708,1.929769,1.162314,0.409586,3.445259,1.133092,0.320504,0.115858,0.093493,45.522911,4.670864,1.708298,1.423871,0.298008,35.991737,3.107694,1.528764,1.395321,0.279581,50.868973,8.641915,2.8677,1.583874,0.303315,30.850904,2.930676,0.715482,0.648897,0.278787,21.813881,2.775993,0.514975,0.938599,0.495148,74.086754,7.91385,2.973006,2.992696,0.765011,57.844128,9.116618,1.960397,1.563293,0.70572,48.785988,10.609072,2.654843,2.067487,0.689545
1720177997,56,0,6747.692383,6605.641113,6756.666504,6724.102539,6513.846191,5334.615234,6528.333496,6634.230957,6682.692383,6064.871582,6537.05127,7286.794922,7072.692383,6967.436035,,,,,,,,,,,,,,,,,,,,,,,,,,,,,,,,,,,,,,,,,,,,,,,,,,,,,,,,,,,,,,,,,,,,,,
1720177997,57,0,6708.717773,6586.410156,6738.461426,6698.205078,6501.025879,5333.205078,6488.589844,6598.974121,6628.589844,6053.077148,6521.282227,7277.307617,7057.820313,6955.512695,,,,,,,,,,,,,,,,,,,,,,,,,,,,,,,,,,,,,,,,,,,,,,,,,,,,,,,,,,,,,,,,,,,,,,
1720177997,58,0,6670.641113,6571.922852,6696.922852,6680.384766,6481.282227,5330.256348,6451.153809,6573.846191,6573.717773,6040.384766,6514.102539,7273.846191,7033.717773,6945.641113,,,,,,,,,,,,,,,,,,,,,,,,,,,,,,,,,,,,,,,,,,,,,,,,,,,,,,,,,,,,,,,,,,,,,,
1720177997,59,0,6668.461426,6553.205078,6678.205078,6672.820313,6452.563965,5317.820313,6429.487305,6559.487305,6541.538574,6031.794922,6508.974121,7252.820313,7020,6938.717773,,,,,,,,,,,,,,,,,,,,,,,,,,,,,,,,,,,,,,,,,,,,,,,,,,,,,,,,,,,,,,,,,,,,,,
1720177997,60,0,6638.461426,6526.410156,6674.871582,6652.820313,6429.487305,5319.230957,6421.666504,6554.358887,6521.410156,6026.794922,6493.974121,7237.692383,7003.846191,6925,,,,,,,,,,,,,,,,,,,,,,,,,,,,,,,,,,,,,,,,,,,,,,,,,,,,,,,,,,,,,,,,,,,,,,
1720177997,61,0,6600.384766,6512.307617,6666.282227,6631.282227,6422.179688,5329.487305,6417.692383,6555.769043,6505.128418,6009.102539,6481.922852,7235.512695,6978.205078,6901.922852,,,,,,,,,,,,,,,,,,,,,,,,,,,,,,,,,,,,,,,,,,,,,,,,,,,,,,,,,,,,,,,,,,,,,,
1720177997,62,0,6582.179688,6496.282227,6640.512695,6608.974121,6412.179688,5334.487305,6409.615234,6552.820313,6489.871582,5992.179688,6478.717773,7217.692383,6953.461426,6869.871582,,,,,,,,,,,,,,,,,,,,,,,,,,,,,,,,,,,,,,,,,,,,,,,,,,,,,,,,,,,,,,,,,,,,,,
1720177997,63,0,6536.666504,6466.153809,6587.179688,6578.333496,6390.897461,5337.05127,6391.794922,6541.025879,6463.205078,5990.512695,6467.179688,7191.538574,6924.615234,6833.717773,,,,,,,,,,,,,,,,,,,,,,,,,,,,,,,,,,,,,,,,,,,,,,,,,,,,,,,,,,,,,,,,,,,,,,
1720177997,64,0,6502.692383,6439.102539,6557.179688,6567.05127,6370,5336.282227,6367.820313,6526.025879,6424.102539,5986.282227,6461.282227,7180.897461,6899.230957,6814.102539,,,,,,,,,,,,,,,,,,,,,,,,,,,,,,,,,,,,,,,,,,,,,,,,,,,,,,,,,,,,,,,,,,,,,,
1720177997,65,0,6505.512695,6407.436035,6565.897461,6540.256348,6347.692383,5333.589844,6346.025879,6510.769043,6393.333496,5979.102539,6462.436035,7169.871582,6877.692383,6802.820313,,,,,,,,,,,,,,,,,,,,,,,,,,,,,,,,,,,,,,,,,,,,,,,,,,,,,,,,,,,,,,,,,,,,,,
1720177997,66,0,6493.333496,6365.128418,6545.512695,6494.102539,6323.717773,5327.563965,6323.589844,6490.897461,6368.974121,5971.538574,6443.974121,7145.769043,6848.077148,6779.615234,,,,,,,,,,,,,,,,,,,,,,,,,,,,,,,,,,,,,,,,,,,,,,,,,,,,,,,,,,,,,,,,,,,,,,
1720177997,67,0,6451.538574,6348.461426,6487.05127,6479.871582,6311.410156,5323.846191,6297.05127,6466.410156,6331.666504,5958.333496,6418.461426,7117.436035,6816.410156,6754.871582,,,,,,,,,,,,,,,,,,,,,,,,,,,,,,,,,,,,,,,,,,,,,,,,,,,,,,,,,,,,,,,,,,,,,,
1720177997,68,0,6409.102539,6344.358887,6454.487305,6471.922852,6299.358887,5327.307617,6269.743652,6440.512695,6281.922852,5936.410156,6405.769043,7090.384766,6786.282227,6730.384766,,,,,,,,,,,,,,,,,,,,,,,,,,,,,,,,,,,,,,,,,,,,,,,,,,,,,,,,,,,,,,,,,,,,,,
1720177997,69,0,6396.025879,6324.615234,6438.077148,6456.794922,6275.512695,5324.743652,6237.692383,6407.94873,6233.846191,5918.717773,6389.871582,7066.794922,6755.512695,6709.358887,,,,,,,,,,,,,,,,,,,,,,,,,,,,,,,,,,,,,,,,,,,,,,,,,,,,,,,,,,,,,,,,,,,,,,
1720177997,70,0,6411.794922,6307.307617,6415.897461,6441.794922,6260.384766,5313.077148,6198.717773,6370.897461,6195.384766,5916.025879,6370.641113,7050.897461,6738.846191,6696.794922,,,,,,,,,,,,,,,,,,,,,,,,,,,,,,,,,,,,,,,,,,,,,,,,,,,,,,,,,,,,,,,,,,,,,,
1720177997,71,0,6407.94873,6286.410156,6418.461426,6408.333496,6253.717773,5313.974121,6178.589844,6355.256348,6175.384766,5914.743652,6374.487305,7045.384766,6736.538574,6695.256348,63.483097,15.230947,4.333804,2.561611,2.675987,62.500629,8.969851,4.303006,1.880228,1.034261,80.32032,15.033243,2.431465,2.048011,2.070685,68.518929,8.732073,4.253999,1.530472,1.720729,53.530293,5.554592,1.594985,1.27125,0.414838,5.130421,1.128083,0.310288,0.115241,0.092476,67.970222,5.602392,1.826624,1.558146,0.333768,54.109264,3.731729,1.574192,1.524514,0.312534,74.995369,8.224568,2.766946,1.707485,0.330781,40.357487,3.130577,0.812908,0.7481,0.273488,32.256004,3.354014,0.514982,0.91867,0.500979,105.160812,9.077555,2.370425,2.998085,0.786597,86.619926,11.199203,2.090606,1.449403,0.735813,67.604836,13.186029,2.315127,2.066347,0.736957
1720177997,72,0,6362.307617,6254.871582,6408.974121,6362.436035,6226.538574,5317.179688,6175.641113,6356.025879,6163.077148,5902.563965,6375.384766,7031.282227,6718.333496,6687.820313,,,,,,,,,,,,,,,,,,,,,,,,,,,,,,,,,,,,,,,,,,,,,,,,,,,,,,,,,,,,,,,,,,,,,,
1720177997,73,0,6340.769043,6234.743652,6367.179688,6353.717773,6182.307617,5306.922852,6160.769043,6346.922852,6143.974121,5889.871582,6359.615234,7009.230957,6696.538574,6669.487305,,,,,,,,,,,,,,,,,,,,,,,,,,,,,,,,,,,,,,,,,,,,,,,,,,,,,,,,,,,,,,,,,,,,,,
1720177997,74,0,6348.974121,6228.461426,6342.820313,6370.897461,6158.974121,5301.538574,6143.205078,6340.641113,6130.769043,5889.487305,6361.282227,6996.410156,6690.641113,6670,,,,,,,,,,,,,,,,,,,,,,,,,,,,,,,,,,,,,,,,,,,,,,,,,,,,,,,,,,,,,,,,,,,,,,
1720177997,75,0,6333.846191,6202.94873,6340.384766,6336.794922,6156.410156,5303.205078,6133.077148,6338.589844,6121.025879,5886.282227,6357.05127,6975.897461,6672.692383,6673.077148,,,,,,,,,,,,,,,,,,,,,,,,,,,,,,,,,,,,,,,,,,,,,,,,,,,,,,,,,,,,,,,,,,,,,,
1720177997,76,0,6300.384766,6162.05127,6317.05127,6280,6142.179688,5304.358887,6112.436035,6317.820313,6092.179688,5870.128418,6330.512695,6941.282227,6630.769043,6651.153809,,,,,,,,,,,,,,,,,,,,,,,,,,,,,,,,,,,,,,,,,,,,,,,,,,,,,,,,,,,,,,,,,,,,,,
1720177997,77,0,6273.077148,6141.153809,6272.307617,6261.922852,6122.820313,5303.717773,6082.05127,6287.692383,6050.512695,5849.615234,6314.102539,6906.410156,6594.487305,6629.487305,,,,,,,,,,,,,,,,,,,,,,,,,,,,,,,,,,,,,,,,,,,,,,,,,,,,,,,,,,,,,,,,,,,,,,
1720177997,78,0,6253.333496,6126.666504,6243.846191,6255.256348,6109.487305,5300.512695,6058.205078,6266.922852,6019.871582,5829.615234,6302.05127,6870.512695,6570.256348,6615.128418,,,,,,,,,,,,,,,,,,,,,,,,,,,,,,,,,,,,,,,,,,,,,,,,,,,,,,,,,,,,,,,,,,,,,,
1720177997,79,0,6225.128418,6091.153809,6212.94873,6221.282227,6083.333496,5297.05127,6034.871582,6250.897461,5995.897461,5812.692383,6284.615234,6827.820313,6536.922852,6587.05127,,,,,,,,,,,,,,,,,,,,,,,,,,,,,,,,,,,,,,,,,,,,,,,,,,,,,,,,,,,,,,,,,,,,,,
1720177997,80,0,6195.897461,6054.871582,6171.282227,6183.589844,6049.615234,5290.897461,6009.743652,6231.538574,5965.128418,5804.743652,6272.692383,6795,6508.333496,6557.692383,,,,,,,,,,,,,,,,,,,,,,,,,,,,,,,,,,,,,,,,,,,,,,,,,,,,,,,,,,,,,,,,,,,,,,
1720177997,81,0,6178.077148,6043.717773,6146.025879,6165,6027.179688,5284.230957,5985.256348,6209.871582,5936.794922,5792.94873,6256.666504,6772.692383,6490.512695,6538.333496,,,,,,,,,,,,,,,,,,,,,,,,,,,,,,,,,,,,,,,,,,,,,,,,,,,,,,,,,,,,,,,,,,,,,,
1720177997,82,0,6158.205078,6035.641113,6131.538574,6146.794922,6009.358887,5279.358887,5956.538574,6185,5914.230957,5768.205078,6236.922852,6740.384766,6460.769043,6516.666504,,,,,,,,,,,,,,,,,,,,,,,,,,,,,,,,,,,,,,,,,,,,,,,,,,,,,,,,,,,,,,,,,,,,,,
1720177997,83,0,6139.743652,6011.153809,6120.128418,6127.05127,5991.794922,5274.615234,5929.487305,6159.615234,5881.282227,5781.153809,6230.384766,6707.179688,6432.94873,6504.615234,,,,,,,,,,,,,,,,,,,,,,,,,,,,,,,,,,,,,,,,,,,,,,,,,,,,,,,,,,,,,,,,,,,,,,
1720177997,84,0,6128.205078,5984.230957,6109.871582,6096.666504,5978.205078,5269.487305,5905.384766,6130.897461,5838.589844,5834.230957,6219.102539,6677.179688,6417.436035,6485.128418,,,,,,,,,,,,,,,,,,,,,,,,,,,,,,,,,,,,,,,,,,,,,,,,,,,,,,,,,,,,,,,,,,,,,,
1720177997,85,0,6110.384766,5971.025879,6088.333496,6079.743652,5958.461426,5272.179688,5878.077148,6103.974121,5808.205078,5856.666504,6202.820313,6649.487305,6398.077148,6453.333496,,,,,,,,,,,,,,,,,,,,,,,,,,,,,,,,,,,,,,,,,,,,,,,,,,,,,,,,,,,,,,,,,,,,,,
1720177997,86,0,6091.153809,5951.282227,6065.897461,6075.128418,5930.769043,5266.922852,5853.589844,6086.666504,5787.307617,5840.128418,6196.538574,6634.487305,6374.871582,6443.333496,,,,,,,,,,,,,,,,,,,,,,,,,,,,,,,,,,,,,,,,,,,,,,,,,,,,,,,,,,,,,,,,,,,,,,
1720177997,87,0,6084.102539,5920,6068.589844,6044.487305,5906.025879,5253.846191,5839.487305,6077.94873,5770.128418,5840.512695,6185.897461,6622.820313,6361.538574,6441.410156,72.379524,18.954617,4.595026,2.843128,3.843319,67.34935,10.149328,3.868989,2.151193,1.174876,88.102837,18.615875,2.592838,2.047075,2.605761,73.267662,10.008976,4.011946,1.594104,2.021588,59.133465,6.203499,1.306962,1.322437,0.429992,5.17253,1.164186,0.291687,0.121444,0.087047,75.224518,6.548726,1.966887,1.723411,0.351573,58.739914,4.370207,1.609214,1.671685,0.333493,81.598236,7.313272,2.512147,1.810176,0.348959,42.829792,3.994863,1.299821,1.143625,0.31519,34.078148,4.103126,0.59102,0.948564,0.499568,113.557571,10.402105,1.840912,2.875092,0.765951,97.38076,13.600471,2.107379,1.38359,0.772288,74.535683,16.535551,2.249929,2.102979,0.782185
1720177997,88,0,6068.589844,5907.05127,6067.436035,6017.307617,5882.692383,5259.230957,5823.461426,6072.563965,5758.589844,5846.538574,6173.589844,6597.436035,6339.615234,6417.05127,,,,,,,,,,,,,,,,,,,,,,,,,,,,,,,,,,,,,,,,,,,,,,,,,,,,,,,,,,,,,,,,,,,,,,
1720177997,89,0,6028.974121,5889.871582,6036.538574,5993.205078,5858.461426,5257.307617,5794.102539,6053.077148,5733.717773,5826.025879,6157.436035,6555.641113,6296.025879,6374.743652,,,,,,,,,,,,,,,,,,,,,,,,,,,,,,,,,,,,,,,,,,,,,,,,,,,,,,,,,,,,,,,,,,,,,,
1720177997,90,0,5995.512695,5848.461426,6009.487305,5949.871582,5845.512695,5245.641113,5765.769043,6023.205078,5696.794922,5821.282227,6134.358887,6516.025879,6256.282227,6343.589844,,,,,,,,,,,,,,,,,,,,,,,,,,,,,,,,,,,,,,,,,,,,,,,,,,,,,,,,,,,,,,,,,,,,,,
1720177997,91,0,5988.846191,5829.487305,5994.230957,5926.025879,5840.769043,5250.769043,5746.922852,6004.871582,5671.153809,5841.922852,6125.641113,6490,6236.025879,6331.410156,,,,,,,,,,,,,,,,,,,,,,,,,,,,,,,,,,,,,,,,,,,,,,,,,,,,,,,,,,,,,,,,,,,,,,
1720177997,92,0,5984.102539,5832.692383,5965.128418,5936.410156,5827.436035,5248.589844,5725.384766,5985.128418,5646.666504,5843.846191,6113.974121,6460.384766,6216.666504,6314.615234,,,,,,,,,,,,,,,,,,,,,,,,,,,,,,,,,,,,,,,,,,,,,,,,,,,,,,,,,,,,,,,,,,,,,,
1720177997,93,0,5969.230957,5812.563965,5938.717773,5930.641113,5808.077148,5235,5698.589844,5956.282227,5618.846191,5831.666504,6089.102539,6429.230957,6189.743652,6296.922852,,,,,,,,,,,,,,,,,,,,,,,,,,,,,,,,,,,,,,,,,,,,,,,,,,,,,,,,,,,,,,,,,,,,,,
1720177997,94,0,5956.282227,5787.820313,5934.230957,5898.974121,5793.717773,5237.307617,5680.641113,5937.563965,5602.692383,5822.05127,6085.128418,6418.717773,6174.102539,6294.358887,,,,,,,,,,,,,,,,,,,,,,,,,,,,,,,,,,,,,,,,,,,,,,,,,,,,,,,,,,,,,,,,,,,,,,
1720177997,95,0,5942.820313,5779.487305,5920.769043,5879.102539,5780.512695,5238.846191,5667.94873,5926.794922,5587.436035,5805.256348,6086.153809,6405.256348,6161.282227,6279.102539,,,,,,,,,,,,,,,,,,,,,,,,,,,,,,,,,,,,,,,,,,,,,,,,,,,,,,,,,,,,,,,,,,,,,,
1720177997,96,0,5917.436035,5759.230957,5885.128418,5862.692383,5757.820313,5225.384766,5647.820313,5906.538574,5562.436035,5786.410156,6059.487305,6359.743652,6126.538574,6232.563965,,,,,,,,,,,,,,,,,,,,,,,,,,,,,,,,,,,,,,,,,,,,,,,,,,,,,,,,,,,,,,,,,,,,,,
1720177997,97,0,5890.384766,5732.563965,5851.153809,5840.897461,5727.179688,5221.922852,5623.589844,5884.871582,5536.794922,5776.794922,6041.410156,6319.230957,6088.974121,6204.743652,,,,,,,,,,,,,,,,,,,,,,,,,,,,,,,,,,,,,,,,,,,,,,,,,,,,,,,,,,,,,,,,,,,,,,
1720177997,98,0,5876.666504,5715.641113,5834.871582,5818.205078,5706.922852,5223.846191,5604.615234,5867.436035,5512.692383,5763.333496,6036.666504,6301.025879,6068.846191,6194.102539,,,,,,,,,,,,,,,,,,,,,,,,,,,,,,,,,,,,,,,,,,,,,,,,,,,,,,,,,,,,,,,,,,,,,,
1720177997,99,0,5871.410156,5702.307617,5827.94873,5798.077148,5692.307617,5215.769043,5587.179688,5848.846191,5487.692383,5744.102539,6017.94873,6284.230957,6053.205078,6165.769043,,,,,,,,,,,,,,,,,,,,,,,,,,,,,,,,,,,,,,,,,,,,,,,,,,,,,,,,,,,,,,,,,,,,,,
1720177997,100,0,5861.410156,5682.563965,5805.897461,5782.05127,5664.102539,5205.897461,5561.282227,5830,5458.717773,5722.307617,6006.794922,6263.589844,6031.410156,6144.102539,,,,,,,,,,,,,,,,,,,,,,,,,,,,,,,,,,,,,,,,,,,,,,,,,,,,,,,,,,,,,,,,,,,,,,
1720177997,101,0,5829.102539,5653.077148,5768.589844,5752.94873,5639.487305,5200.897461,5533.589844,5811.282227,5434.230957,5703.974121,5993.205078,6232.692383,6003.461426,6127.05127,,,,,,,,,,,,,,,,,,,,,,,,,,,,,,,,,,,,,,,,,,,,,,,,,,,,,,,,,,,,,,,,,,,,,,
1720177997,102,0,5795.769043,5625.128418,5742.692383,5723.717773,5635.128418,5203.846191,5516.922852,5797.563965,5426.538574,5697.436035,5967.820313,6199.358887,5971.538574,6097.563965,,,,,,,,,,,,,,,,,,,,,,,,,,,,,,,,,,,,,,,,,,,,,,,,,,,,,,,,,,,,,,,,,,,,,,
1720177997,103,0,5779.871582,5611.538574,5724.615234,5713.589844,5627.563965,5203.333496,5505.641113,5785.897461,5421.153809,5684.102539,5952.820313,6175,5941.922852,6070.128418,84.174278,22.869108,5.208789,3.138449,5.202212,72.939766,11.364008,3.419615,2.464907,1.357139,96.797737,22.326891,3.231045,2.105191,3.118901,78.411865,11.270188,3.860494,1.823799,2.341493,65.417114,6.799434,1.168557,1.301475,0.44692,6.058339,1.231777,0.288911,0.140368,0.078387,81.904121,7.351258,2.154344,1.910738,0.347662,64.384735,5.046799,1.678607,1.828879,0.341519,90.099449,6.381054,2.231218,1.878896,0.362714,45.394608,5.744667,2.377789,1.964658,0.439665,38.168385,4.76374,0.759785,1.020278,0.495863,118.26619,11.315002,1.488021,2.586279,0.698327,109.496674,15.40866,2.089354,1.357799,0.795923,83.337845,19.8654,2.553183,2.19635,0.821511
1720177997,104,0,5751.538574,5593.461426,5695.641113,5689.615234,5607.307617,5194.102539,5486.794922,5768.974121,5401.538574,5653.205078,5942.307617,6147.179688,5914.102539,6049.230957,,,,,,,,,,,,,,,,,,,,,,,,,,,,,,,,,,,,,,,,,,,,,,,,,,,,,,,,,,,,,,,,,,,,,,
1720177997,105,0,5718.589844,5557.94873,5663.717773,5651.538574,5581.922852,5186.922852,5461.666504,5750.256348,5375.897461,5625.897461,5931.794922,6108.333496,5884.743652,6017.179688,,,,,,,,,,,,,,,,,,,,,,,,,,,,,,,,,,,,,,,,,,,,,,,,,,,,,,,,,,,,,,,,,,,,,,
1720177997,106,0,5700.128418,5533.205078,5637.436035,5632.563965,5554.358887,5185.128418,5441.282227,5733.589844,5352.307617,5612.820313,5922.820313,6072.820313,5854.487305,5980.256348,,,,,,,,,,,,,,,,,,,,,,,,,,,,,,,,,,,,,,,,,,,,,,,,,,,,,,,,,,,,,,,,,,,,,,
1720177997,107,0,5681.410156,5522.179688,5607.179688,5620.384766,5534.871582,5178.717773,5422.307617,5715.384766,5331.666504,5601.922852,5908.461426,6046.153809,5825,5965,,,,,,,,,,,,,,,,,,,,,,,,,,,,,,,,,,,,,,,,,,,,,,,,,,,,,,,,,,,,,,,,,,,,,,
1720177997,108,0,5660.897461,5500.128418,5581.794922,5589.230957,5525,5171.153809,5397.94873,5693.077148,5310.256348,5583.589844,5885.897461,6018.846191,5798.717773,5953.205078,,,,,,,,,,,,,,,,,,,,,,,,,,,,,,,,,,,,,,,,,,,,,,,,,,,,,,,,,,,,,,,,,,,,,,
1720177997,109,0,5651.666504,5463.333496,5568.461426,5543.974121,5509.871582,5169.871582,5375.256348,5670.256348,5284.102539,5556.794922,5866.538574,5990.641113,5769.871582,5909.102539,,,,,,,,,,,,,,,,,,,,,,,,,,,,,,,,,,,,,,,,,,,,,,,,,,,,,,,,,,,,,,,,,,,,,,
1720177997,110,0,5641.410156,5439.102539,5550.897461,5523.974121,5488.589844,5169.487305,5357.94873,5650.512695,5259.743652,5536.922852,5860.769043,5967.94873,5745.128418,5865.128418,,,,,,,,,,,,,,,,,,,,,,,,,,,,,,,,,,,,,,,,,,,,,,,,,,,,,,,,,,,,,,,,,,,,,,
1720177997,111,0,5623.974121,5445.128418,5524.358887,5537.94873,5467.05127,5166.025879,5337.307617,5631.666504,5239.487305,5532.692383,5857.179688,5949.487305,5733.589844,5862.820313,,,,,,,,,,,,,,,,,,,,,,,,,,,,,,,,,,,,,,,,,,,,,,,,,,,,,,,,,,,,,,,,,,,,,,
1720177997,112,0,5611.025879,5447.692383,5506.282227,5531.410156,5444.871582,5153.333496,5313.589844,5611.153809,5219.743652,5522.179688,5838.589844,5924.358887,5718.846191,5858.461426,,,,,,,,,,,,,,,,,,,,,,,,,,,,,,,,,,,,,,,,,,,,,,,,,,,,,,,,,,,,,,,,,,,,,,
1720177997,113,0,5583.205078,5402.94873,5491.538574,5478.846191,5410.384766,5143.077148,5286.153809,5585.256348,5191.922852,5491.282227,5810.128418,5891.794922,5677.820313,5813.846191,,,,,,,,,,,,,,,,,,,,,,,,,,,,,,,,,,,,,,,,,,,,,,,,,,,,,,,,,,,,,,,,,,,,,,
1720177997,114,0,5526.153809,5327.563965,5430.897461,5413.333496,5352.436035,5138.205078,5239.871582,5545,5143.846191,5450.256348,5781.794922,5831.666504,5611.025879,5744.871582,,,,,,,,,,,,,,,,,,,,,,,,,,,,,,,,,,,,,,,,,,,,,,,,,,,,,,,,,,,,,,,,,,,,,,
1720177997,115,0,5484.102539,5280,5364.487305,5367.179688,5311.153809,5123.846191,5202.692383,5510.512695,5104.102539,5426.922852,5752.05127,5765.128418,5561.025879,5688.717773,,,,,,,,,,,,,,,,,,,,,,,,,,,,,,,,,,,,,,,,,,,,,,,,,,,,,,,,,,,,,,,,,,,,,,
1720177997,116,0,5479.487305,5280.128418,5368.717773,5356.282227,5321.666504,5122.436035,5206.794922,5512.820313,5104.743652,5427.563965,5743.333496,5757.563965,5557.179688,5685.897461,,,,,,,,,,,,,,,,,,,,,,,,,,,,,,,,,,,,,,,,,,,,,,,,,,,,,,,,,,,,,,,,,,,,,,
1720177997,117,0,5478.077148,5297.179688,5382.436035,5365.128418,5334.743652,5133.333496,5211.282227,5517.307617,5106.794922,5413.589844,5754.743652,5766.538574,5562.94873,5702.692383,,,,,,,,,,,,,,,,,,,,,,,,,,,,,,,,,,,,,,,,,,,,,,,,,,,,,,,,,,,,,,,,,,,,,,
1720177997,118,0,5462.563965,5283.846191,5353.077148,5351.794922,5314.358887,5128.974121,5184.487305,5492.820313,5081.794922,5375.256348,5748.717773,5734.871582,5544.102539,5684.615234,,,,,,,,,,,,,,,,,,,,,,,,,,,,,,,,,,,,,,,,,,,,,,,,,,,,,,,,,,,,,,,,,,,,,,
1720177997,119,0,5439.358887,5247.307617,5323.077148,5322.436035,5294.358887,5121.666504,5156.282227,5468.846191,5063.846191,5346.794922,5719.615234,5701.794922,5508.333496,5648.717773,79.150124,25.396513,5.805109,3.352454,6.44916,63.267036,11.96345,2.918522,2.773105,1.550279,85.28524,24.642368,4.211111,2.208145,3.528757,66.415245,11.897342,3.699793,2.098105,2.586024,57.305779,6.993202,1.149608,1.224925,0.454653,5.116151,1.284858,0.300141,0.173359,0.069136,71.630821,7.870124,2.324238,2.094166,0.324487,55.160744,5.820933,1.748933,1.980801,0.338596,81.080124,5.927066,1.990053,1.92307,0.37712,42.051266,8.140041,4.032049,3.172894,0.654489,32.722321,5.079265,0.962627,1.102549,0.492223,98.263802,11.354201,1.259448,2.155282,0.595605,98.116173,15.970742,2.067536,1.344198,0.787559,77.296738,22.249598,3.103369,2.327849,0.847338
1720177997,120,0,5419.743652,5239.743652,5313.205078,5312.692383,5287.820313,5116.025879,5136.922852,5452.05127,5057.820313,5328.717773,5698.589844,5685.641113,5480.384766,5632.05127,,,,,,,,,,,,,,,,,,,,,,,,,,,,,,,,,,,,,,,,,,,,,,,,,,,,,,,,,,,,,,,,,,,,,,
1720177997,121,0,5417.436035,5244.358887,5298.205078,5304.615234,5266.666504,5110.128418,5106.922852,5422.563965,5034.871582,5310.512695,5705.512695,5655.384766,5471.794922,5624.358887,,,,,,,,,,,,,,,,,,,,,,,,,,,,,,,,,,,,,,,,,,,,,,,,,,,,,,,,,,,,,,,,,,,,,,
1720177997,122,0,5407.307617,5230,5272.307617,5285.256348,5236.282227,5106.922852,5075.256348,5392.179688,5002.94873,5298.461426,5699.358887,5620.128418,5463.589844,5605.512695,,,,,,,,,,,,,,,,,,,,,,,,,,,,,,,,,,,,,,,,,,,,,,,,,,,,,,,,,,,,,,,,,,,,,,
1720177997,123,0,5380.384766,5209.230957,5257.563965,5269.102539,5216.794922,5097.692383,5057.692383,5375.384766,4979.358887,5281.410156,5667.563965,5598.846191,5433.077148,5580.512695,,,,,,,,,,,,,,,,,,,,,,,,,,,,,,,,,,,,,,,,,,,,,,,,,,,,,,,,,,,,,,,,,,,,,,
1720177997,124,0,5363.974121,5190.769043,5249.487305,5251.153809,5201.666504,5090,5045,5362.692383,4958.461426,5257.94873,5652.179688,5577.05127,5403.717773,5556.153809,,,,,,,,,,,,,,,,,,,,,,,,,,,,,,,,,,,,,,,,,,,,,,,,,,,,,,,,,,,,,,,,,,,,,,
1720177997,125,0,5347.436035,5167.179688,5233.333496,5217.820313,5179.743652,5090.384766,5027.05127,5341.410156,4929.487305,5240.256348,5652.436035,5553.974121,5394.615234,5535.512695,,,,,,,,,,,,,,,,,,,,,,,,,,,,,,,,,,,,,,,,,,,,,,,,,,,,,,,,,,,,,,,,,,,,,,
1720177997,126,0,5315,5149.487305,5202.179688,5192.820313,5154.871582,5081.794922,5003.974121,5312.307617,4893.205078,5221.922852,5632.05127,5521.794922,5378.846191,5505.512695,,,,,,,,,,,,,,,,,,,,,,,,,,,,,,,,,,,,,,,,,,,,,,,,,,,,,,,,,,,,,,,,,,,,,,
1720177997,127,0,5288.205078,5141.922852,5174.102539,5192.94873,5136.410156,5070.897461,4985.512695,5291.153809,4872.820313,5199.487305,5600.769043,5487.05127,5351.282227,5475,,,,,,,,,,,,,,,,,,,,,,,,,,,,,,,,,,,,,,,,,,,,,,,,,,,,,,,,,,,,,,,,,,,,,,
1720177997,0,0,5264.743652,5117.179688,5157.692383,5164.615234,5118.717773,5073.205078,4972.436035,5280.128418,4868.717773,5178.589844,5584.358887,5463.589844,5324.102539,5453.717773,,,,,,,,,,,,,,,,,,,,,,,,,,,,,,,,,,,,,,,,,,,,,,,,,,,,,,,,,,,,,,,,,,,,,,
1720177997,1,0,5231.538574,5079.102539,5125.769043,5112.179688,5095.128418,5070.384766,4951.538574,5260.384766,4850.128418,5152.05127,5571.282227,5426.025879,5292.179688,5414.230957,,,,,,,,,,,,,,,,,,,,,,,,,,,,,,,,,,,,,,,,,,,,,,,,,,,,,,,,,,,,,,,,,,,,,,
1720177997,2,0,5204.487305,5053.461426,5088.333496,5093.717773,5072.94873,5059.871582,4926.538574,5237.820313,4818.589844,5122.94873,5560.769043,5381.410156,5260.384766,5372.05127,,,,,,,,,,,,,,,,,,,,,,,,,,,,,,,,,,,,,,,,,,,,,,,,,,,,,,,,,,,,,,,,,,,,,,
1720177997,3,0,5182.692383,5037.436035,5074.487305,5090.256348,5052.94873,5053.846191,4912.179688,5227.820313,4797.820313,5090.128418,5545.897461,5363.589844,5236.538574,5352.563965,,,,,,,,,,,,,,,,,,,,,,,,,,,,,,,,,,,,,,,,,,,,,,,,,,,,,,,,,,,,,,,,,,,,,,
1720177997,4,0,5154.743652,5020.641113,5061.922852,5070.256348,5029.871582,5046.922852,4900.897461,5216.282227,4782.307617,5063.589844,5519.358887,5350.641113,5216.410156,5333.205078,,,,,,,,,,,,,,,,,,,,,,,,,,,,,,,,,,,,,,,,,,,,,,,,,,,,,,,,,,,,,,,,,,,,,,
1720177997,5,0,5129.871582,5002.307617,5028.846191,5043.461426,5005.641113,5039.487305,4876.282227,5191.282227,4763.717773,5059.487305,5506.666504,5316.282227,5192.820313,5312.05127,,,,,,,,,,,,,,,,,,,,,,,,,,,,,,,,,,,,,,,,,,,,,,,,,,,,,,,,,,,,,,,,,,,,,,
1720177997,6,0,5102.179688,4970.256348,4996.538574,5000,4985.128418,5030.512695,4840,5158.589844,4744.743652,5051.922852,5496.025879,5275.897461,5160.512695,5278.846191,,,,,,,,,,,,,,,,,,,,,,,,,,,,,,,,,,,,,,,,,,,,,,,,,,,,,,,,,,,,,,,,,,,,,,
1720177997,7,0,5057.05127,4931.025879,4956.538574,4954.102539,4965.512695,5021.794922,4804.358887,5127.05127,4725.384766,5025,5463.846191,5231.666504,5123.205078,5216.666504,73.457794,25.487036,6.184431,3.39739,7.244851,53.050167,11.592171,2.445219,2.993433,1.705073,71.309868,24.599379,5.296865,2.312864,3.759502,54.009964,11.548123,3.550924,2.275017,2.667829,48.428055,6.644654,1.257889,1.126849,0.446096,4.726391,1.293173,0.330205,0.214005,0.063014,59.64402,8.042067,2.44181,2.228477,0.290229,46.263832,6.717437,1.814031,2.10005,0.327734,72.158463,6.236115,1.861813,1.96344,0.39281,40.337418,10.596758,5.977947,4.524933,0.927626,29.105003,4.953086,1.171504,1.160744,0.485567,75.955818,10.436455,1.143314,1.680147,0.483282,84.558266,15.120907,2.117419,1.326001,0.738642,71.352325,22.990612,3.738791,2.458132,0.852647
1720177997,8,0,5024.743652,4909.487305,4910.641113,4935.384766,4948.333496,5016.282227,4778.846191,5101.794922,4699.230957,4996.282227,5439.615234,5180.128418,5089.358887,5167.692383,,,,,,,,,,,,,,,,,,,,,,,,,,,,,,,,,,,,,,,,,,,,,,,,,,,,,,,,,,,,,,,,,,,,,,
1720177997,9,0,5019.871582,4885.897461,4897.692383,4910.769043,4932.94873,5010.512695,4761.282227,5080,4669.615234,4979.487305,5421.025879,5141.153809,5059.871582,5149.358887,,,,,,,,,,,,,,,,,,,,,,,,,,,,,,,,,,,,,,,,,,,,,,,,,,,,,,,,,,,,,,,,,,,,,,
1720177997,10,0,5011.410156,4861.025879,4895.512695,4892.05127,4915,4999.871582,4742.179688,5058.974121,4648.205078,4964.102539,5388.974121,5126.153809,5035,5125.897461,,,,,,,,,,,,,,,,,,,,,,,,,,,,,,,,,,,,,,,,,,,,,,,,,,,,,,,,,,,,,,,,,,,,,,
1720177997,11,0,4996.922852,4866.025879,4875.897461,4907.692383,4900.128418,4995.769043,4725.128418,5041.794922,4632.94873,4947.692383,5391.282227,5125.384766,5023.717773,5107.307617,,,,,,,,,,,,,,,,,,,,,,,,,,,,,,,,,,,,,,,,,,,,,,,,,,,,,,,,,,,,,,,,,,,,,,
1720177997,12,0,4992.307617,4867.94873,4867.692383,4898.846191,4881.666504,4995.128418,4713.461426,5025.512695,4610.769043,4934.230957,5411.410156,5113.974121,5015.769043,5099.871582,,,,,,,,,,,,,,,,,,,,,,,,,,,,,,,,,,,,,,,,,,,,,,,,,,,,,,,,,,,,,,,,,,,,,,
1720177997,13,0,4980.384766,4837.94873,4862.436035,4857.436035,4860.256348,4988.589844,4698.205078,5004.743652,4585.897461,4920.128418,5388.974121,5085.897461,4995,5076.794922,,,,,,,,,,,,,,,,,,,,,,,,,,,,,,,,,,,,,,,,,,,,,,,,,,,,,,,,,,,,,,,,,,,,,,
1720177997,14,0,4960.897461,4814.102539,4835.128418,4837.94873,4850.128418,4989.358887,4680,4991.025879,4578.333496,4901.794922,5362.692383,5062.179688,4973.461426,5047.563965,,,,,,,,,,,,,,,,,,,,,,,,,,,,,,,,,,,,,,,,,,,,,,,,,,,,,,,,,,,,,,,,,,,,,,
1720177997,15,0,4940.512695,4798.846191,4813.589844,4825.769043,4844.102539,4982.820313,4666.025879,4980,4574.487305,4882.436035,5354.871582,5041.025879,4956.153809,5024.487305,,,,,,,,,,,,,,,,,,,,,,,,,,,,,,,,,,,,,,,,,,,,,,,,,,,,,,,,,,,,,,,,,,,,,,
1720177997,16,0,4901.282227,4768.333496,4792.436035,4794.615234,4829.102539,4973.461426,4653.717773,4962.436035,4559.743652,4874.102539,5336.922852,5005.897461,4932.436035,4995.256348,,,,,,,,,,,,,,,,,,,,,,,,,,,,,,,,,,,,,,,,,,,,,,,,,,,,,,,,,,,,,,,,,,,,,,
1720177997,17,0,4868.846191,4745.128418,4751.922852,4768.846191,4810.769043,4971.538574,4642.563965,4951.025879,4550.897461,4862.436035,5320.897461,4970.769043,4908.205078,4958.589844,,,,,,,,,,,,,,,,,,,,,,,,,,,,,,,,,,,,,,,,,,,,,,,,,,,,,,,,,,,,,,,,,,,,,,
1720177997,18,0,4873.461426,4738.717773,4732.436035,4757.820313,4801.410156,4962.179688,4636.538574,4947.307617,4550.256348,4842.820313,5318.461426,4956.410156,4893.717773,4933.846191,,,,,,,,,,,,,,,,,,,,,,,,,,,,,,,,,,,,,,,,,,,,,,,,,,,,,,,,,,,,,,,,,,,,,,
1720177997,19,0,4876.410156,4731.922852,4736.538574,4751.794922,4794.871582,4953.974121,4626.666504,4935.256348,4535.384766,4830.384766,5312.05127,4953.333496,4879.871582,4927.05127,,,,,,,,,,,,,,,,,,,,,,,,,,,,,,,,,,,,,,,,,,,,,,,,,,,,,,,,,,,,,,,,,,,,,,
1720177997,20,0,4854.102539,4716.282227,4723.589844,4741.282227,4780,4954.487305,4604.743652,4911.025879,4506.153809,4817.307617,5295.384766,4934.102539,4860.897461,4907.05127,,,,,,,,,,,,,,,,,,,,,,,,,,,,,,,,,,,,,,,,,,,,,,,,,,,,,,,,,,,,,,,,,,,,,,
1720177997,21,0,4836.922852,4699.487305,4701.922852,4723.461426,4767.05127,4951.922852,4582.563965,4888.205078,4479.358887,4797.94873,5275.384766,4905.384766,4844.743652,4873.461426,,,,,,,,,,,,,,,,,,,,,,,,,,,,,,,,,,,,,,,,,,,,,,,,,,,,,,,,,,,,,,,,,,,,,,
1720177997,22,0,4836.282227,4691.922852,4695.384766,4714.230957,4764.743652,4945.128418,4569.615234,4871.538574,4463.461426,4781.025879,5260.641113,4888.333496,4828.846191,4854.871582,,,,,,,,,,,,,,,,,,,,,,,,,,,,,,,,,,,,,,,,,,,,,,,,,,,,,,,,,,,,,,,,,,,,,,
1720177997,23,0,4827.436035,4696.666504,4684.743652,4721.666504,4754.102539,4939.358887,4558.846191,4857.563965,4458.077148,4773.077148,5255.897461,4873.205078,4810.384766,4842.692383,59.529385,22.970015,6.075218,3.225941,7.351243,38.350285,10.313485,2.03979,3.086002,1.786299,51.164303,22.168316,6.011193,2.367526,3.769387,37.205257,10.245268,3.347413,2.320232,2.556152,34.553375,5.865027,1.44126,1.057073,0.426296,3.359071,1.23543,0.354221,0.252177,0.063275,42.652107,7.858022,2.424202,2.277765,0.257731,32.464436,7.627928,1.792621,2.160379,0.312843,58.206165,7.202038,1.786647,2.009791,0.407271,39.200134,12.30701,7.700448,5.648626,1.194336,21.749914,4.467278,1.276358,1.175119,0.474678,47.771191,8.908746,1.029102,1.30259,0.394829,61.590427,13.225116,2.157351,1.31327,0.660473,59.271126,21.965548,4.176291,2.545042,0.847339
1720177997,24,0,4811.282227,4692.436035,4667.94873,4713.461426,4732.692383,4936.794922,4547.563965,4846.410156,4452.436035,4767.692383,5244.871582,4855.256348,4792.563965,4825.128418,,,,,,,,,,,,,,,,,,,,,,,,,,,,,,,,,,,,,,,,,,,,,,,,,,,,,,,,,,,,,,,,,,,,,,
1720177997,25,0,4807.820313,4664.230957,4662.05127,4674.102539,4723.717773,4935.512695,4539.615234,4832.179688,4440.641113,4756.666504,5233.589844,4838.974121,4779.615234,4806.153809,,,,,,,,,,,,,,,,,,,,,,,,,,,,,,,,,,,,,,,,,,,,,,,,,,,,,,,,,,,,,,,,,,,,,,
1720177997,26,0,4796.410156,4632.05127,4643.077148,4640.512695,4715.897461,4927.563965,4527.307617,4812.179688,4427.94873,4739.230957,5225.256348,4811.410156,4767.307617,4775.641113,,,,,,,,,,,,,,,,,,,,,,,,,,,,,,,,,,,,,,,,,,,,,,,,,,,,,,,,,,,,,,,,,,,,,,
1720177997,27,0,4769.615234,4619.743652,4613.846191,4636.025879,4698.846191,4918.461426,4513.589844,4800.128418,4419.487305,4725.641113,5209.615234,4784.487305,4751.410156,4746.922852,,,,,,,,,,,,,,,,,,,,,,,,,,,,,,,,,,,,,,,,,,,,,,,,,,,,,,,,,,,,,,,,,,,,,,
1720177998,28,0,4762.179688,4617.436035,4600.512695,4626.794922,4688.461426,4919.487305,4505.384766,4796.922852,4413.974121,4720,5197.05127,4779.615234,4734.743652,4742.05127,,,,,,,,,,,,,,,,,,,,,,,,,,,,,,,,,,,,,,,,,,,,,,,,,,,,,,,,,,,,,,,,,,,,,,
1720177998,29,0,4765.128418,4607.179688,4595,4610.897461,4678.717773,4914.102539,4494.871582,4780.641113,4399.230957,4704.871582,5181.538574,4766.153809,4721.922852,4726.794922,,,,,,,,,,,,,,,,,,,,,,,,,,,,,,,,,,,,,,,,,,,,,,,,,,,,,,,,,,,,,,,,,,,,,,
1720177998,30,0,4751.922852,4599.230957,4583.717773,4614.743652,4667.179688,4907.820313,4481.922852,4762.820313,4382.820313,4685.769043,5173.974121,4742.05127,4718.205078,4700,,,,,,,,,,,,,,,,,,,,,,,,,,,,,,,,,,,,,,,,,,,,,,,,,,,,,,,,,,,,,,,,,,,,,,
1720177998,31,0,4735.897461,4590.769043,4572.692383,4603.589844,4663.461426,4907.563965,4476.153809,4761.025879,4379.358887,4677.307617,5182.436035,4733.205078,4711.922852,4689.487305,,,,,,,,,,,,,,,,,,,,,,,,,,,,,,,,,,,,,,,,,,,,,,,,,,,,,,,,,,,,,,,,,,,,,,
1720177998,32,0,4719.230957,4570.384766,4557.820313,4570.384766,4651.538574,4903.461426,4473.461426,4756.153809,4383.461426,4667.436035,5167.563965,4717.179688,4687.563965,4666.666504,,,,,,,,,,,,,,,,,,,,,,,,,,,,,,,,,,,,,,,,,,,,,,,,,,,,,,,,,,,,,,,,,,,,,,
1720177998,33,0,4707.436035,4562.820313,4541.922852,4564.615234,4634.871582,4902.563965,4463.846191,4741.410156,4378.589844,4660.897461,5139.743652,4695,4659.615234,4634.743652,,,,,,,,,,,,,,,,,,,,,,,,,,,,,,,,,,,,,,,,,,,,,,,,,,,,,,,,,,,,,,,,,,,,,,
1720177998,34,0,4706.153809,4562.179688,4536.794922,4573.589844,4629.743652,4897.692383,4447.05127,4727.179688,4362.05127,4654.230957,5129.487305,4681.922852,4653.333496,4624.358887,,,,,,,,,,,,,,,,,,,,,,,,,,,,,,,,,,,,,,,,,,,,,,,,,,,,,,,,,,,,,,,,,,,,,,
1720177998,35,0,4695.769043,4539.102539,4524.358887,4552.436035,4619.871582,4883.717773,4428.333496,4712.436035,4347.94873,4650.641113,5122.94873,4661.282227,4655.384766,4606.282227,,,,,,,,,,,,,,,,,,,,,,,,,,,,,,,,,,,,,,,,,,,,,,,,,,,,,,,,,,,,,,,,,,,,,,
1720177998,36,0,4676.922852,4515.641113,4499.487305,4526.153809,4603.589844,4877.820313,4410.256348,4694.358887,4341.538574,4694.871582,5113.717773,4636.282227,4643.974121,4577.692383,,,,,,,,,,,,,,,,,,,,,,,,,,,,,,,,,,,,,,,,,,,,,,,,,,,,,,,,,,,,,,,,,,,,,,
1720177998,37,0,4662.563965,4513.461426,4476.794922,4517.563965,4593.333496,4877.179688,4390.897461,4674.487305,4333.717773,4754.230957,5099.743652,4615.256348,4625.512695,4565,,,,,,,,,,,,,,,,,,,,,,,,,,,,,,,,,,,,,,,,,,,,,,,,,,,,,,,,,,,,,,,,,,,,,,
1720177998,38,0,4653.205078,4506.025879,4461.282227,4500.256348,4579.487305,4862.179688,4378.205078,4657.692383,4316.282227,4752.436035,5072.94873,4593.974121,4607.307617,4548.846191,,,,,,,,,,,,,,,,,,,,,,,,,,,,,,,,,,,,,,,,,,,,,,,,,,,,,,,,,,,,,,,,,,,,,,
1720177998,39,0,4654.743652,4485.256348,4458.333496,4486.666504,4559.102539,4857.692383,4382.307617,4653.333496,4298.461426,4720,5063.461426,4582.05127,4589.487305,4521.153809,46.054321,18.660118,5.51474,2.8634,6.728872,26.008617,8.521636,1.803031,3.053889,1.784125,33.427948,18.147129,6.069303,2.343471,3.559085,23.906687,8.376376,3.189274,2.285686,2.295624,22.83177,4.930757,1.722066,1.043926,0.40649,2.442914,1.123086,0.366381,0.276909,0.070914,28.084827,7.37066,2.266461,2.223375,0.238337,21.593445,8.337749,1.681337,2.140026,0.297525,45.544552,8.407281,1.727611,2.051806,0.416566,39.888302,12.680609,8.692809,6.191314,1.378101,16.33045,3.811015,1.255936,1.147734,0.462658,26.347092,7.248874,0.930643,1.149046,0.355282,40.897308,10.841326,2.149256,1.342287,0.577877,47.688732,19.489351,4.277003,2.573505,0.851201
1720177998,40,0,4643.589844,4473.589844,4452.307617,4489.102539,4541.666504,4863.846191,4388.589844,4653.974121,4289.230957,4708.461426,5066.410156,4576.410156,4576.922852,4502.563965,,,,,,,,,,,,,,,,,,,,,,,,,,,,,,,,,,,,,,,,,,,,,,,,,,,,,,,,,,,,,,,,,,,,,,
1720177998,41,0,4617.94873,4475.128418,4442.307617,4471.922852,4522.692383,4848.846191,4379.358887,4641.153809,4274.230957,4695.769043,5051.153809,4564.358887,4572.820313,4489.615234,,,,,,,,,,,,,,,,,,,,,,,,,,,,,,,,,,,,,,,,,,,,,,,,,,,,,,,,,,,,,,,,,,,,,,
1720177998,42,0,4619.102539,4465.512695,4447.692383,4442.692383,4509.615234,4842.307617,4361.282227,4620.769043,4249.615234,4679.743652,5038.333496,4557.563965,4562.820313,4480.769043,,,,,,,,,,,,,,,,,,,,,,,,,,,,,,,,,,,,,,,,,,,,,,,,,,,,,,,,,,,,,,,,,,,,,,
1720177998,43,0,4620.769043,4449.230957,4442.436035,4445,4503.974121,4845.769043,4343.461426,4601.922852,4232.692383,4667.820313,5031.153809,4543.589844,4540.512695,4471.538574,,,,,,,,,,,,,,,,,,,,,,,,,,,,,,,,,,,,,,,,,,,,,,,,,,,,,,,,,,,,,,,,,,,,,,
1720177998,44,0,4590.256348,4441.666504,4411.410156,4446.922852,4496.282227,4834.743652,4322.179688,4581.153809,4223.077148,4643.974121,5009.615234,4512.692383,4520.256348,4452.436035,,,,,,,,,,,,,,,,,,,,,,,,,,,,,,,,,,,,,,,,,,,,,,,,,,,,,,,,,,,,,,,,,,,,,,
1720177998,45,0,4565.769043,4424.871582,4393.205078,4416.282227,4488.717773,4828.077148,4298.077148,4558.461426,4205.128418,4624.871582,4983.846191,4482.436035,4498.461426,4428.077148,,,,,,,,,,,,,,,,,,,,,,,,,,,,,,,,,,,,,,,,,,,,,,,,,,,,,,,,,,,,,,,,,,,,,,
1720177998,46,0,4547.436035,4392.820313,4378.205078,4394.743652,4476.153809,4827.05127,4275.128418,4538.205078,4187.692383,4616.410156,4965,4447.179688,4464.743652,4401.410156,,,,,,,,,,,,,,,,,,,,,,,,,,,,,,,,,,,,,,,,,,,,,,,,,,,,,,,,,,,,,,,,,,,,,,
1720177998,47,0,4520,4372.563965,4344.358887,4386.410156,4457.563965,4820.769043,4259.743652,4522.307617,4184.871582,4605.641113,4951.282227,4414.230957,4446.794922,4379.615234,,,,,,,,,,,,,,,,,,,,,,,,,,,,,,,,,,,,,,,,,,,,,,,,,,,,,,,,,,,,,,,,,,,,,,
1720177998,48,0,4508.974121,4364.871582,4330.384766,4358.333496,4448.333496,4814.487305,4254.102539,4512.563965,4184.230957,4595.384766,4940,4400.769043,4459.358887,4370.897461,,,,,,,,,,,,,,,,,,,,,,,,,,,,,,,,,,,,,,,,,,,,,,,,,,,,,,,,,,,,,,,,,,,,,,
1720177998,49,0,4500.769043,4349.615234,4332.94873,4332.692383,4442.05127,4807.692383,4245.384766,4504.743652,4177.179688,4585.512695,4929.487305,4394.102539,4461.794922,4366.538574,,,,,,,,,,,,,,,,,,,,,,,,,,,,,,,,,,,,,,,,,,,,,,,,,,,,,,,,,,,,,,,,,,,,,,
1720177998,50,0,4476.666504,4340.128418,4312.692383,4334.230957,4423.974121,4800.384766,4235,4492.563965,4168.846191,4576.922852,4922.307617,4387.179688,4446.410156,4353.461426,,,,,,,,,,,,,,,,,,,,,,,,,,,,,,,,,,,,,,,,,,,,,,,,,,,,,,,,,,,,,,,,,,,,,,
1720177998,51,0,4467.94873,4342.563965,4289.743652,4338.333496,4412.307617,4798.717773,4230.512695,4480.256348,4161.410156,4563.333496,4916.153809,4379.102539,4439.358887,4341.922852,,,,,,,,,,,,,,,,,,,,,,,,,,,,,,,,,,,,,,,,,,,,,,,,,,,,,,,,,,,,,,,,,,,,,,
1720177998,52,0,4478.717773,4332.05127,4294.487305,4326.410156,4409.871582,4791.153809,4225.769043,4472.05127,4148.589844,4535.512695,4903.717773,4365.128418,4431.153809,4337.05127,,,,,,,,,,,,,,,,,,,,,,,,,,,,,,,,,,,,,,,,,,,,,,,,,,,,,,,,,,,,,,,,,,,,,,
1720177998,53,0,4468.974121,4314.871582,4298.846191,4315.128418,4394.230957,4782.05127,4217.307617,4461.153809,4129.230957,4505.641113,4892.307617,4355.128418,4412.179688,4328.333496,,,,,,,,,,,,,,,,,,,,,,,,,,,,,,,,,,,,,,,,,,,,,,,,,,,,,,,,,,,,,,,,,,,,,,
1720177998,54,0,4441.922852,4312.307617,4286.666504,4309.615234,4376.922852,4782.436035,4212.307617,4449.743652,4113.461426,4492.179688,4886.282227,4351.410156,4397.307617,4320.641113,,,,,,,,,,,,,,,,,,,,,,,,,,,,,,,,,,,,,,,,,,,,,,,,,,,,,,,,,,,,,,,,,,,,,,
1720177998,55,0,4434.743652,4307.94873,4277.307617,4302.692383,4368.461426,4774.615234,4205,4437.692383,4106.538574,4487.820313,4872.94873,4335.641113,4384.743652,4311.282227,33.652897,13.845688,4.708158,2.412012,5.551614,17.486748,6.69737,1.782098,2.926091,1.709095,21.512796,13.703856,5.473969,2.25268,3.167182,15.463123,6.433414,3.15921,2.247152,1.978616,13.995535,4.096406,2.059515,1.077619,0.395234,1.488005,0.975918,0.360093,0.280973,0.083741,17.429405,6.688833,2.008372,2.069033,0.235329,13.412922,8.625463,1.488853,2.026908,0.283441,34.756626,9.320355,1.645084,2.053433,0.417012,41.418736,11.662001,8.654416,5.977493,1.42154,11.965786,3.172715,1.118639,1.101332,0.453468,13.227757,5.834336,0.929749,1.257842,0.368463,24.957916,8.510976,2.046122,1.439821,0.512964,38.622169,16.156599,4.030785,2.554474,0.877507
1720177998,56,0,4434.487305,4290.641113,4270.641113,4282.563965,4356.153809,4765.512695,4186.794922,4417.563965,4097.179688,4478.846191,4857.436035,4311.153809,4371.922852,4296.922852,,,,,,,,,,,,,,,,,,,,,,,,,,,,,,,,,,,,,,,,,,,,,,,,,,,,,,,,,,,,,,,,,,,,,,
1720177998,57,0,4408.205078,4278.717773,4250.384766,4254.230957,4342.05127,4763.717773,4168.461426,4394.102539,4079.743652,4461.538574,4841.025879,4286.538574,4357.436035,4275.384766,,,,,,,,,,,,,,,,,,,,,,,,,,,,,,,,,,,,,,,,,,,,,,,,,,,,,,,,,,,,,,,,,,,,,,
1720177998,58,0,4385.256348,4268.205078,4224.615234,4246.410156,4334.487305,4757.05127,4155.512695,4378.717773,4072.94873,4443.077148,4823.717773,4263.974121,4337.436035,4251.410156,,,,,,,,,,,,,,,,,,,,,,,,,,,,,,,,,,,,,,,,,,,,,,,,,,,,,,,,,,,,,,,,,,,,,,
1720177998,59,0,4389.487305,4253.846191,4209.871582,4253.333496,4326.538574,4745.641113,4143.333496,4369.487305,4075.897461,4435.256348,4817.692383,4248.846191,4324.871582,4236.282227,,,,,,,,,,,,,,,,,,,,,,,,,,,,,,,,,,,,,,,,,,,,,,,,,,,,,,,,,,,,,,,,,,,,,,
1720177998,60,0,4362.94873,4229.230957,4186.794922,4220.641113,4309.102539,4736.666504,4124.871582,4353.461426,4063.974365,4425.769043,4801.410156,4215,4304.358887,4206.025879,,,,,,,,,,,,,,,,,,,,,,,,,,,,,,,,,,,,,,,,,,,,,,,,,,,,,,,,,,,,,,,,,,,,,,
1720177998,61,0,4290.128418,4171.922852,4127.436035,4149.102539,4265,4724.615234,4083.846191,4317.05127,4030,4393.077148,4765.128418,4146.282227,4242.563965,4139.230957,,,,,,,,,,,,,,,,,,,,,,,,,,,,,,,,,,,,,,,,,,,,,,,,,,,,,,,,,,,,,,,,,,,,,,
1720177998,62,0,4250.641113,4118.589844,4075,4107.563965,4216.410156,4704.743652,4045.128174,4283.077148,3997.05127,4360.897461,4737.692383,4097.820313,4193.461426,4084.871826,,,,,,,,,,,,,,,,,,,,,,,,,,,,,,,,,,,,,,,,,,,,,,,,,,,,,,,,,,,,,,,,,,,,,,
1720177998,63,0,4263.461426,4127.436035,4082.05127,4120.512695,4217.820313,4700.128418,4054.102539,4293.205078,4002.179443,4365.128418,4744.743652,4115.384766,4227.94873,4099.615234,,,,,,,,,,,,,,,,,,,,,,,,,,,,,,,,,,,,,,,,,,,,,,,,,,,,,,,,,,,,,,,,,,,,,,
1720177998,64,0,4278.461426,4156.538574,4111.282227,4136.538574,4247.179688,4709.230957,4089.615479,4320.641113,4032.05127,4395.384766,4766.922852,4153.589844,4288.461426,4141.666504,,,,,,,,,,,,,,,,,,,,,,,,,,,,,,,,,,,,,,,,,,,,,,,,,,,,,,,,,,,,,,,,,,,,,,
1720177998,65,0,4291.794922,4156.282227,4126.025879,4137.436035,4251.666504,4710.641113,4096.538574,4315.128418,4036.538574,4410.897461,4762.94873,4161.153809,4296.922852,4150.256348,,,,,,,,,,,,,,,,,,,,,,,,,,,,,,,,,,,,,,,,,,,,,,,,,,,,,,,,,,,,,,,,,,,,,,
1720177998,66,0,4306.153809,4155.641113,4137.179688,4145,4244.871582,4703.461426,4077.179443,4289.487305,4011.281982,4398.205078,4738.461426,4148.589844,4279.743652,4136.410156,,,,,,,,,,,,,,,,,,,,,,,,,,,,,,,,,,,,,,,,,,,,,,,,,,,,,,,,,,,,,,,,,,,,,,
1720177998,67,0,4300.128418,4169.230957,4135.769043,4158.461426,4243.205078,4697.692383,4063.461426,4273.333496,3990.128174,4385.512695,4729.743652,4141.666504,4278.717773,4127.307617,,,,,,,,,,,,,,,,,,,,,,,,,,,,,,,,,,,,,,,,,,,,,,,,,,,,,,,,,,,,,,,,,,,,,,
1720177998,68,0,4288.077148,4174.615234,4127.563965,4160.256348,4238.846191,4692.563965,4061.794922,4264.487305,3982.05127,4389.230957,4729.487305,4143.333496,4277.692383,4122.692383,,,,,,,,,,,,,,,,,,,,,,,,,,,,,,,,,,,,,,,,,,,,,,,,,,,,,,,,,,,,,,,,,,,,,,
1720177998,69,0,4294.102539,4165.512695,4137.05127,4148.717773,4227.94873,4683.461426,4061.025635,4252.820313,3968.333252,4390.897461,4715.512695,4141.410156,4267.05127,4116.410156,,,,,,,,,,,,,,,,,,,,,,,,,,,,,,,,,,,,,,,,,,,,,,,,,,,,,,,,,,,,,,,,,,,,,,
1720177998,70,0,4301.025879,4159.230957,4140.128418,4139.102539,4220.769043,4686.025879,4051.410156,4239.102539,3946.794922,4378.333496,4706.282227,4131.666504,4260.256348,4101.922852,,,,,,,,,,,,,,,,,,,,,,,,,,,,,,,,,,,,,,,,,,,,,,,,,,,,,,,,,,,,,,,,,,,,,,
1720177998,71,0,4284.487305,4155.641113,4116.025879,4135.897461,4224.487305,4690.256348,4044.230713,4230.769043,3936.666748,4363.846191,4700.897461,4112.692383,4250.512695,4069.743652,23.915905,9.761607,3.969944,1.985995,4.132788,12.519102,5.221346,1.97406,2.738221,1.584856,14.859852,9.877584,4.555489,2.123016,2.659602,11.25097,4.835639,3.325278,2.263577,1.699207,8.476068,3.508712,2.374395,1.118007,0.393744,0.855195,0.819949,0.342559,0.262981,0.097709,10.513859,5.913205,1.725713,1.840115,0.243239,8.13107,8.344361,1.2682,1.823334,0.270655,24.9009,9.533353,1.549044,1.965047,0.408664,40.604671,9.741693,7.702942,5.112461,1.319337,8.495093,2.657931,0.947331,1.062262,0.453052,7.719604,4.803033,1.139642,1.55505,0.41664,14.963455,6.519437,1.859401,1.593594,0.47678,31.031298,12.586747,3.591598,2.506727,0.9233
1720177998,72,0,4262.820313,4135.769043,4100.256348,4126.666504,4224.230957,4681.282227,4043.205078,4229.358887,3948.461426,4359.743652,4684.102539,4096.025879,4233.333496,4044.743652,,,,,,,,,,,,,,,,,,,,,,,,,,,,,,,,,,,,,,,,,,,,,,,,,,,,,,,,,,,,,,,,,,,,,,
1720177998,73,0,4249.102539,4113.846191,4091.410156,4106.282227,4207.692383,4673.974121,4032.179443,4225.384766,3961.410156,4357.692383,4673.077148,4085.128174,4221.538574,4040.384521,,,,,,,,,,,,,,,,,,,,,,,,,,,,,,,,,,,,,,,,,,,,,,,,,,,,,,,,,,,,,,,,,,,,,,
1720177998,74,0,4233.205078,4112.179688,4064.871826,4085.512939,4192.179688,4664.102539,4012.820557,4211.922852,3961.025635,4348.589844,4668.717773,4066.794922,4220.512695,4031.923096,,,,,,,,,,,,,,,,,,,,,,,,,,,,,,,,,,,,,,,,,,,,,,,,,,,,,,,,,,,,,,,,,,,,,,
1720177998,75,0,4225.128418,4112.563965,4048.461426,4079.487061,4188.077148,4656.025879,4004.743652,4201.794922,3956.538574,4336.410156,4659.743652,4052.820557,4214.743652,4018.333252,,,,,,,,,,,,,,,,,,,,,,,,,,,,,,,,,,,,,,,,,,,,,,,,,,,,,,,,,,,,,,,,,,,,,,
1720177998,76,0,4230.641113,4095.384521,4055.641113,4074.871826,4182.563965,4658.077148,4006.153809,4198.717773,3945.512939,4327.179688,4649.871582,4047.564209,4198.589844,4001.923096,,,,,,,,,,,,,,,,,,,,,,,,,,,,,,,,,,,,,,,,,,,,,,,,,,,,,,,,,,,,,,,,,,,,,,
1720177998,77,0,4213.974121,4079.230713,4047.435791,4063.718018,4175.384766,4653.589844,4007.435791,4193.333496,3927.94873,4317.94873,4636.025879,4029.871826,4179.487305,3969.615479,,,,,,,,,,,,,,,,,,,,,,,,,,,,,,,,,,,,,,,,,,,,,,,,,,,,,,,,,,,,,,,,,,,,,,
1720177998,78,0,4175.128418,4073.076904,4018.461426,4050,4173.589844,4648.333496,4006.923096,4182.94873,3917.05127,4307.179688,4622.05127,4003.718018,4163.717773,3937.820557,,,,,,,,,,,,,,,,,,,,,,,,,,,,,,,,,,,,,,,,,,,,,,,,,,,,,,,,,,,,,,,,,,,,,,
1720177998,79,0,4161.025879,4066.281982,4009.871826,4044.871826,4175,4652.436035,3996.923096,4170.897461,3912.564209,4299.230957,4621.282227,3991.281982,4155.256348,3932.435791,,,,,,,,,,,,,,,,,,,,,,,,,,,,,,,,,,,,,,,,,,,,,,,,,,,,,,,,,,,,,,,,,,,,,,
1720177998,80,0,4169.615234,4060.641113,4009.487061,4042.307617,4168.205078,4643.205078,3977.307617,4150.128418,3903.333252,4289.358887,4607.692383,3981.666748,4147.307617,3931.923096,,,,,,,,,,,,,,,,,,,,,,,,,,,,,,,,,,,,,,,,,,,,,,,,,,,,,,,,,,,,,,,,,,,,,,
1720177998,81,0,4167.94873,4052.435791,3994.102539,4027.820557,4145.641113,4626.282227,3955.384521,4126.282227,3891.666748,4283.077148,4579.743652,3966.794922,4139.743652,3919.102539,,,,,,,,,,,,,,,,,,,,,,,,,,,,,,,,,,,,,,,,,,,,,,,,,,,,,,,,,,,,,,,,,,,,,,
1720177998,82,0,4155.128418,4040.512939,3987.94873,4018.974365,4126.282227,4624.743652,3942.820557,4117.179688,3886.025635,4280.256348,4580,3961.410156,4135.512695,3912.820557,,,,,,,,,,,,,,,,,,,,,,,,,,,,,,,,,,,,,,,,,,,,,,,,,,,,,,,,,,,,,,,,,,,,,,
1720177998,83,0,4139.871582,4034.102539,3988.589844,4020.897461,4115.769043,4622.563965,3941.794922,4113.717773,3878.718018,4265.512695,4586.794922,3951.794922,4128.589844,3906.410156,,,,,,,,,,,,,,,,,,,,,,,,,,,,,,,,,,,,,,,,,,,,,,,,,,,,,,,,,,,,,,,,,,,,,,
1720177998,84,0,4133.205078,4030.769287,3980.384521,4013.974365,4106.282227,4616.153809,3941.281982,4103.461426,3863.974365,4246.794922,4568.333496,3941.923096,4115.128418,3897.94873,,,,,,,,,,,,,,,,,,,,,,,,,,,,,,,,,,,,,,,,,,,,,,,,,,,,,,,,,,,,,,,,,,,,,,
1720177998,85,0,4131.282227,4019.615479,3972.564209,3994.487061,4105.128418,4613.589844,3939.358887,4100.512695,3856.410156,4233.461426,4553.077148,3943.589844,4101.282227,3895.897461,,,,,,,,,,,,,,,,,,,,,,,,,,,,,,,,,,,,,,,,,,,,,,,,,,,,,,,,,,,,,,,,,,,,,,
1720177998,86,0,4125.128418,4005.512939,3974.487061,3975.897461,4113.461426,4613.974121,3941.281982,4108.589844,3863.718018,4223.846191,4553.333496,3944.615479,4095.641113,3895.512939,,,,,,,,,,,,,,,,,,,,,,,,,,,,,,,,,,,,,,,,,,,,,,,,,,,,,,,,,,,,,,,,,,,,,,
1720177998,87,0,4123.461426,3998.718018,3972.820557,3976.794922,4114.871582,4610.384766,3937.307617,4105.769043,3869.230713,4215.897461,4546.794922,3938.718018,4090,3896.538574,17.326195,7.085806,3.449908,1.66407,2.801363,10.318284,4.278526,2.292147,2.521993,1.439097,12.122124,7.251919,3.703446,1.980074,2.117946,9.820852,3.806813,3.623062,2.338553,1.512298,5.734915,3.163542,2.565702,1.122816,0.396168,0.578524,0.672206,0.3215,0.228168,0.108666,6.778282,5.154089,1.493248,1.583005,0.254138,5.258124,7.524114,1.077013,1.55915,0.259807,16.621861,8.971372,1.501881,1.767446,0.39473,36.474766,7.754661,6.263202,3.927266,1.120749,6.347367,2.276101,0.811666,1.048848,0.463297,6.845543,4.168611,1.593421,1.903232,0.473378,10.299229,4.914234,1.641237,1.767598,0.469115,25.103556,9.265749,3.175154,2.443594,0.969484
1720177998,88,0,4123.205078,3995.384521,3961.794922,3975.512939,4102.179688,4599.871582,3927.564209,4089.487061,3867.179443,4210.384766,4535.384766,3929.102539,4076.538574,3900.512939,,,,,,,,,,,,,,,,,,,,,,,,,,,,,,,,,,,,,,,,,,,,,,,,,,,,,,,,,,,,,,,,,,,,,,
1720177998,89,0,4109.102539,3990.128174,3951.153809,3963.205078,4086.666748,4595.384766,3924.230713,4080.512939,3864.102539,4205.128418,4533.461426,3924.615479,4071.923096,3907.05127,,,,,,,,,,,,,,,,,,,,,,,,,,,,,,,,,,,,,,,,,,,,,,,,,,,,,,,,,,,,,,,,,,,,,,
1720177998,90,0,4103.461426,3984.743652,3952.820557,3960.897461,4077.692383,4593.717773,3920.769287,4078.589844,3855.897461,4187.820313,4531.025879,3923.205078,4076.410156,3909.102539,,,,,,,,,,,,,,,,,,,,,,,,,,,,,,,,,,,,,,,,,,,,,,,,,,,,,,,,,,,,,,,,,,,,,,
1720177998,91,0,4118.974121,3976.281982,3960.641113,3965.128174,4076.153809,4586.666504,3913.076904,4071.666748,3843.205078,4170.512695,4517.436035,3912.179443,4069.615479,3911.923096,,,,,,,,,,,,,,,,,,,,,,,,,,,,,,,,,,,,,,,,,,,,,,,,,,,,,,,,,,,,,,,,,,,,,,
1720177998,92,0,4111.922852,3966.410156,3947.820557,3950.897461,4072.179443,4582.436035,3905.769287,4058.718018,3836.923096,4170.128418,4505.769043,3893.589844,4060.512939,3925.512939,,,,,,,,,,,,,,,,,,,,,,,,,,,,,,,,,,,,,,,,,,,,,,,,,,,,,,,,,,,,,,,,,,,,,,
1720177998,93,0,4074.358887,3956.923096,3921.025635,3927.94873,4055.384521,4583.717773,3894.102539,4042.05127,3830.512939,4169.487305,4502.05127,3882.179443,4058.076904,3932.820557,,,,,,,,,,,,,,,,,,,,,,,,,,,,,,,,,,,,,,,,,,,,,,,,,,,,,,,,,,,,,,,,,,,,,,
1720177998,94,0,4055.769287,3949.102539,3908.461426,3918.461426,4041.025635,4578.077148,3877.307617,4023.076904,3819.615479,4150,4487.179688,3876.153809,4052.564209,3923.205078,,,,,,,,,,,,,,,,,,,,,,,,,,,,,,,,,,,,,,,,,,,,,,,,,,,,,,,,,,,,,,,,,,,,,,
1720177998,95,0,4056.794922,3937.179443,3912.564209,3911.538574,4044.358887,4576.025879,3866.923096,4011.025635,3809.102539,4136.538574,4479.230957,3869.743652,4054.358887,3927.820557,,,,,,,,,,,,,,,,,,,,,,,,,,,,,,,,,,,,,,,,,,,,,,,,,,,,,,,,,,,,,,,,,,,,,,
1720177998,96,0,4042.94873,3922.179443,3915.128174,3908.718018,4045.769287,4577.05127,3860.769287,4004.871826,3800.256348,4137.179688,4485,3869.230713,4059.743652,3943.718018,,,,,,,,,,,,,,,,,,,,,,,,,,,,,,,,,,,,,,,,,,,,,,,,,,,,,,,,,,,,,,,,,,,,,,
1720177998,97,0,4032.179443,3921.666748,3909.743652,3906.538574,4030.512939,4561.922852,3851.666748,3994.615479,3798.205078,4130.641113,4469.743652,3864.102539,4047.435791,3930.384521,,,,,,,,,,,,,,,,,,,,,,,,,,,,,,,,,,,,,,,,,,,,,,,,,,,,,,,,,,,,,,,,,,,,,,
1720177998,98,0,4042.820557,3927.307617,3903.846191,3902.820557,4011.153809,4555.641113,3840.512939,3980.769287,3799.487061,4131.410156,4451.922852,3855.897461,4038.974365,3916.025635,,,,,,,,,,,,,,,,,,,,,,,,,,,,,,,,,,,,,,,,,,,,,,,,,,,,,,,,,,,,,,,,,,,,,,
1720177998,99,0,4028.205078,3912.179443,3890.769287,3893.076904,4004.871826,4557.05127,3830.256348,3972.307617,3796.923096,4137.436035,4457.307617,3849.230713,4037.307617,3911.410156,,,,,,,,,,,,,,,,,,,,,,,,,,,,,,,,,,,,,,,,,,,,,,,,,,,,,,,,,,,,,,,,,,,,,,
1720177998,100,0,3989.230713,3889.230713,3875.769287,3872.307617,4009.615479,4547.692383,3831.923096,3972.307617,3794.871826,4125.897461,4456.025879,3842.179443,4020.897461,3893.205078,,,,,,,,,,,,,,,,,,,,,,,,,,,,,,,,,,,,,,,,,,,,,,,,,,,,,,,,,,,,,,,,,,,,,,
1720177998,101,0,3969.871826,3882.05127,3862.564209,3864.358887,4013.846191,4547.05127,3844.102539,3976.794922,3791.410156,4108.974121,4439.358887,3832.692383,4002.307617,3880.128174,,,,,,,,,,,,,,,,,,,,,,,,,,,,,,,,,,,,,,,,,,,,,,,,,,,,,,,,,,,,,,,,,,,,,,
1720177998,102,0,3964.102539,3876.410156,3851.666748,3859.358887,4006.923096,4549.871582,3850,3973.076904,3781.794922,4097.05127,4429.615234,3817.05127,3989.743652,3874.487061,,,,,,,,,,,,,,,,,,,,,,,,,,,,,,,,,,,,,,,,,,,,,,,,,,,,,,,,,,,,,,,,,,,,,,
1720177998,103,0,3943.718018,3860.641113,3845.256348,3837.94873,3997.05127,4543.333496,3843.076904,3965.128174,3771.538574,4086.025635,4419.615234,3805.256348,3967.307617,3858.461426,12.521496,6.058784,3.213956,1.49668,1.787884,9.537525,4.063204,2.6719,2.323314,1.296369,11.329075,6.214311,3.256783,1.851731,1.627464,9.491708,3.581089,3.960891,2.440535,1.41831,4.528594,3.015159,2.610179,1.100044,0.396314,0.397364,0.549895,0.308973,0.19,0.114318,4.765038,4.59046,1.356752,1.371032,0.266441,3.456946,6.376223,0.946051,1.29815,0.256636,9.8802,7.803819,1.548063,1.508438,0.38443,30.563496,6.517959,4.932271,2.816833,0.904178,4.302495,2.017559,0.762838,1.061845,0.48272,7.294167,4.212958,2.244062,2.20433,0.525721,8.759337,3.896153,1.518149,1.952721,0.4899,20.408436,6.792934,2.973238,2.39047,0.997746
1720177998,104,0,3925,3846.025635,3839.230713,3825.769287,3992.179443,4538.589844,3832.94873,3959.358887,3763.589844,4076.923096,4401.025879,3797.94873,3947.179443,3833.461426,,,,,,,,,,,,,,,,,,,,,,,,,,,,,,,,,,,,,,,,,,,,,,,,,,,,,,,,,,,,,,,,,,,,,,
1720177998,105,0,3923.846191,3835.384521,3829.358887,3828.461426,3982.692383,4530.769043,3823.589844,3946.794922,3756.025635,4069.230713,4391.538574,3782.435791,3941.410156,3817.94873,,,,,,,,,,,,,,,,,,,,,,,,,,,,,,,,,,,,,,,,,,,,,,,,,,,,,,,,,,,,,,,,,,,,,,
1720177998,106,0,3919.487061,3836.153809,3812.564209,3827.94873,3973.333252,4519.615234,3811.794922,3931.923096,3747.692383,4062.94873,4389.487305,3769.358887,3928.076904,3814.487061,,,,,,,,,,,,,,,,,,,,,,,,,,,,,,,,,,,,,,,,,,,,,,,,,,,,,,,,,,,,,,,,,,,,,,
1720177998,107,0,3896.666748,3837.179443,3799.102539,3817.94873,3969.358887,4519.102539,3800.384521,3921.538574,3733.205078,4051.153809,4376.666504,3761.794922,3911.923096,3802.692383,,,,,,,,,,,,,,,,,,,,,,,,,,,,,,,,,,,,,,,,,,,,,,,,,,,,,,,,,,,,,,,,,,,,,,
1720177998,108,0,3873.589844,3827.179443,3794.615479,3803.974365,3964.358887,4513.846191,3789.615479,3906.923096,3714.102539,4027.94873,4358.846191,3742.564209,3910.512939,3784.487061,,,,,,,,,,,,,,,,,,,,,,,,,,,,,,,,,,,,,,,,,,,,,,,,,,,,,,,,,,,,,,,,,,,,,,
1720177998,109,0,3870.897461,3817.307617,3795.128174,3796.281982,3954.871826,4506.410156,3783.076904,3889.743652,3702.435791,4016.025635,4350.512695,3726.025635,3901.410156,3777.307617,,,,,,,,,,,,,,,,,,,,,,,,,,,,,,,,,,,,,,,,,,,,,,,,,,,,,,,,,,,,,,,,,,,,,,
1720177998,110,0,3880.641113,3811.666748,3793.589844,3801.410156,3941.794922,4509.230957,3777.435791,3880.384521,3697.179443,4018.333252,4351.153809,3733.333252,3882.820557,3777.94873,,,,,,,,,,,,,,,,,,,,,,,,,,,,,,,,,,,,,,,,,,,,,,,,,,,,,,,,,,,,,,,,,,,,,,
1720177998,111,0,3882.692383,3807.564209,3789.230713,3798.589844,3931.923096,4499.743652,3763.846191,3867.179443,3687.94873,4009.871826,4349.230957,3732.820557,3879.743652,3765.769287,,,,,,,,,,,,,,,,,,,,,,,,,,,,,,,,,,,,,,,,,,,,,,,,,,,,,,,,,,,,,,,,,,,,,,
1720177998,112,0,3868.333252,3803.461426,3781.153809,3784.487061,3922.94873,4487.436035,3756.410156,3857.435791,3682.692383,3998.589844,4342.563965,3718.461426,3882.435791,3752.307617,,,,,,,,,,,,,,,,,,,,,,,,,,,,,,,,,,,,,,,,,,,,,,,,,,,,,,,,,,,,,,,,,,,,,,
1720177998,113,0,3843.205078,3797.820557,3763.589844,3781.025635,3912.307617,4485.512695,3764.743652,3870,3691.666748,3994.487061,4333.846191,3716.153809,3870.384521,3748.076904,,,,,,,,,,,,,,,,,,,,,,,,,,,,,,,,,,,,,,,,,,,,,,,,,,,,,,,,,,,,,,,,,,,,,,
1720177998,114,0,3825.641113,3784.358887,3755,3769.358887,3906.153809,4484.230957,3774.871826,3879.615479,3702.307617,3983.589844,4321.666504,3711.153809,3850.897461,3738.461426,,,,,,,,,,,,,,,,,,,,,,,,,,,,,,,,,,,,,,,,,,,,,,,,,,,,,,,,,,,,,,,,,,,,,,
1720177998,115,0,3811.923096,3767.564209,3748.718018,3743.589844,3905.641113,4483.846191,3773.718018,3871.025635,3703.333252,3971.923096,4308.974121,3683.333252,3832.179443,3716.666748,,,,,,,,,,,,,,,,,,,,,,,,,,,,,,,,,,,,,,,,,,,,,,,,,,,,,,,,,,,,,,,,,,,,,,
1720177998,116,0,3790.384521,3750.512939,3729.358887,3731.153809,3901.538574,4480.641113,3768.076904,3865.384521,3697.564209,3966.666748,4295.769043,3652.820557,3815.128174,3686.794922,,,,,,,,,,,,,,,,,,,,,,,,,,,,,,,,,,,,,,,,,,,,,,,,,,,,,,,,,,,,,,,,,,,,,,
1720177998,117,0,3780.641113,3737.94873,3716.666748,3731.666748,3891.923096,4475.641113,3765,3865.641113,3693.589844,3955,4283.077148,3643.974365,3802.435791,3671.281982,,,,,,,,,,,,,,,,,,,,,,,,,,,,,,,,,,,,,,,,,,,,,,,,,,,,,,,,,,,,,,,,,,,,,,
1720177998,118,0,3788.846191,3737.307617,3715.897461,3722.05127,3886.153809,4470,3755.769287,3850.641113,3685.897461,3946.153809,4271.794922,3646.025635,3798.076904,3672.179443,,,,,,,,,,,,,,,,,,,,,,,,,,,,,,,,,,,,,,,,,,,,,,,,,,,,,,,,,,,,,,,,,,,,,,
1720177998,119,0,3783.333252,3745.128174,3711.794922,3722.05127,3879.615479,4463.461426,3739.102539,3827.435791,3668.076904,3941.281982,4261.922852,3638.076904,3802.05127,3665.641113,9.827476,6.435498,3.194756,1.50242,1.170094,9.032754,4.69516,3.044454,2.162206,1.16881,10.363701,6.8139,3.311694,1.765999,1.248295,9.114283,4.274943,4.215628,2.511527,1.376485,4.337484,2.990056,2.51424,1.092478,0.389673,0.4434,0.462037,0.307888,0.16506,0.114662,3.906235,4.341468,1.305745,1.273009,0.283156,2.66223,5.181387,0.870191,1.107737,0.26725,5.480399,6.38293,1.684123,1.274172,0.386695,24.273794,6.342882,4.151157,2.058222,0.738278,3.139587,1.8694,0.791961,1.087083,0.505839,7.907389,5.192235,2.947355,2.416312,0.569872,8.569927,3.644932,1.60781,2.164435,0.5369,16.532627,5.665952,3.063998,2.377592,0.996389
1720177998,120,0,3764.743652,3746.025635,3703.076904,3736.153809,3863.718018,4457.05127,3720.512939,3809.230713,3650.128174,3932.94873,4256.410156,3619.230713,3799.358887,3650.641113,,,,,,,,,,,,,,,,,,,,,,,,,,,,,,,,,,,,,,,,,,,,,,,,,,,,,,,,,,,,,,,,,,,,,,
1720177998,121,0,3754.743652,3731.281982,3694.615479,3715,3850.897461,4449.871582,3702.94873,3791.281982,3642.564209,3923.589844,4248.077148,3607.307617,3791.923096,3643.846191,,,,,,,,,,,,,,,,,,,,,,,,,,,,,,,,,,,,,,,,,,,,,,,,,,,,,,,,,,,,,,,,,,,,,,
1720177998,122,0,3747.692383,3722.564209,3684.487061,3683.461426,3848.846191,4438.717773,3686.025635,3773.718018,3634.487061,3916.538574,4230.256348,3599.615479,3787.307617,3632.692383,,,,,,,,,,,,,,,,,,,,,,,,,,,,,,,,,,,,,,,,,,,,,,,,,,,,,,,,,,,,,,,,,,,,,,
1720177998,123,0,3745.512939,3722.94873,3678.846191,3690,3849.743652,4428.717773,3674.487061,3761.538574,3623.076904,3911.410156,4218.205078,3583.974365,3773.718018,3614.487061,,,,,,,,,,,,,,,,,,,,,,,,,,,,,,,,,,,,,,,,,,,,,,,,,,,,,,,,,,,,,,,,,,,,,,
1720177998,124,0,3754.487061,3717.564209,3683.461426,3703.974365,3844.358887,4433.077148,3675.128174,3756.923096,3615.512939,3902.94873,4218.077148,3576.794922,3757.564209,3614.871826,,,,,,,,,,,,,,,,,,,,,,,,,,,,,,,,,,,,,,,,,,,,,,,,,,,,,,,,,,,,,,,,,,,,,,
1720177998,125,0,3742.94873,3708.974365,3680,3687.564209,3833.205078,4431.410156,3683.589844,3756.794922,3611.281982,3886.410156,4203.717773,3574.102539,3745.769287,3610,,,,,,,,,,,,,,,,,,,,,,,,,,,,,,,,,,,,,,,,,,,,,,,,,,,,,,,,,,,,,,,,,,,,,,
1720177998,126,0,3707.179443,3700.256348,3665.641113,3670.256348,3827.94873,4426.153809,3690,3763.333252,3613.076904,3875.769287,4194.871582,3563.333252,3731.153809,3586.794922,,,,,,,,,,,,,,,,,,,,,,,,,,,,,,,,,,,,,,,,,,,,,,,,,,,,,,,,,,,,,,,,,,,,,,
1720177998,127,0,3687.692383,3687.05127,3651.666748,3670.641113,3830.256348,4430.769043,3693.205078,3772.435791,3623.846191,3874.743652,4201.922852,3552.564209,3720.897461,3576.794922,,,,,,,,,,,,,,,,,,,,,,,,,,,,,,,,,,,,,,,,,,,,,,,,,,,,,,,,,,,,,,,,,,,,,,
1720177998,0,0,3682.820557,3672.05127,3641.794922,3661.153809,3831.153809,4424.102539,3697.307617,3769.743652,3625.512939,3871.153809,4191.025879,3548.333252,3718.589844,3581.281982,,,,,,,,,,,,,,,,,,,,,,,,,,,,,,,,,,,,,,,,,,,,,,,,,,,,,,,,,,,,,,,,,,,,,,
1720177998,1,0,3672.435791,3664.871826,3634.743652,3648.076904,3818.461426,4413.205078,3694.487061,3760.256348,3612.05127,3860,4174.230957,3542.179443,3709.743652,3573.718018,,,,,,,,,,,,,,,,,,,,,,,,,,,,,,,,,,,,,,,,,,,,,,,,,,,,,,,,,,,,,,,,,,,,,,
1720177998,2,0,3675.256348,3668.846191,3633.461426,3646.923096,3804.615479,4411.538574,3687.692383,3755.128174,3602.94873,3843.333252,4170.897461,3530.256348,3699.230713,3555.769287,,,,,,,,,,,,,,,,,,,,,,,,,,,,,,,,,,,,,,,,,,,,,,,,,,,,,,,,,,,,,,,,,,,,,,
1720177998,3,0,3689.615479,3668.589844,3633.846191,3648.718018,3801.538574,4407.179688,3682.692383,3747.94873,3603.076904,3830.384521,4164.358887,3519.487061,3694.871826,3553.461426,,,,,,,,,,,,,,,,,,,,,,,,,,,,,,,,,,,,,,,,,,,,,,,,,,,,,,,,,,,,,,,,,,,,,,
