Timestamp,EEG.Counter,EEG.Interpolated,EEG.AF3,EEG.F7,EEG.F3,EEG.FC5,EEG.T7,EEG.P7,EEG.O1,EEG.O2,EEG.P8,EEG.T8,EEG.FC6,EEG.F4,EEG.F8,EEG.AF4,POW.AF3.Theta,POW.AF3.Alpha,POW.AF3.BetaL,POW.AF3.BetaH,POW.AF3.Gamma,POW.F7.Theta,POW.F7.Alpha,POW.F7.BetaL,POW.F7.BetaH,POW.F7.Gamma,POW.F3.Theta,POW.F3.Alpha,POW.F3.BetaL,POW.F3.BetaH,POW.F3.Gamma,POW.FC5.Theta,POW.FC5.Alpha,POW.FC5.BetaL,POW.FC5.BetaH,POW.FC5.Gamma,POW.T7.Theta,POW.T7.Alpha,POW.T7.BetaL,POW.T7.BetaH,POW.T7.Gamma,POW.P7.Theta,POW.P7.Alpha,POW.P7.BetaL,POW.P7.BetaH,POW.P7.Gamma,POW.O1.Theta,POW.O1.Alpha,POW.O1.BetaL,POW.O1.BetaH,POW.O1.Gamma,POW.O2.Theta,POW.O2.Alpha,POW.O2.BetaL,POW.O2.BetaH,POW.O2.Gamma,POW.P8.Theta,POW.P8.Alpha,POW.P8.BetaL,POW.P8.BetaH,POW.P8.Gamma,POW.T8.Theta,POW.T8.Alpha,POW.T8.BetaL,POW.T8.BetaH,POW.T8.Gamma,POW.FC6.Theta,POW.FC6.Alpha,POW.FC6.BetaL,POW.FC6.BetaH,POW.FC6.Gamma,POW.F4.Theta,POW.F4.Alpha,POW.F4.BetaL,POW.F4.BetaH,POW.F4.Gamma,POW.F8.Theta,POW.F8.Alpha,POW.F8.BetaL,POW.F8.BetaH,POW.F8.Gamma,POW.AF4.Theta,POW.AF4.Alpha,POW.AF4.BetaL,POW.AF4.BetaH,POW.AF4.Gamma
1720159289,69,0,4258.461426,4277.436035,4273.974121,4281.282227,4256.025879,4272.436035,4275.512695,4268.333496,4262.94873,4277.436035,4388.461426,4438.461426,4315.897461,4339.487305,,,,,,,,,,,,,,,,,,,,,,,,,,,,,,,,,,,,,,,,,,,,,,,,,,,,,,,,,,,,,,,,,,,,,,
1720159289,70,0,4266.025879,4276.025879,4276.025879,4282.820313,4259.615234,4268.589844,4276.794922,4273.589844,4266.666504,4279.102539,4398.589844,4446.666504,4316.794922,4357.436035,,,,,,,,,,,,,,,,,,,,,,,,,,,,,,,,,,,,,,,,,,,,,,,,,,,,,,,,,,,,,,,,,,,,,,
1720159289,71,0,4257.05127,4277.179688,4267.05127,4278.205078,4251.538574,4270.769043,4277.563965,4266.538574,4271.410156,4281.538574,4397.307617,4439.871582,4322.692383,4322.05127,,,,,,,,,,,,,,,,,,,,,,,,,,,,,,,,,,,,,,,,,,,,,,,,,,,,,,,,,,,,,,,,,,,,,,
1720159289,72,0,4260.128418,4280.897461,4271.025879,4277.692383,4251.153809,4272.307617,4281.282227,4272.436035,4279.743652,4283.333496,4397.179688,4439.743652,4326.025879,4332.307617,,,,,,,,,,,,,,,,,,,,,,,,,,,,,,,,,,,,,,,,,,,,,,,,,,,,,,,,,,,,,,,,,,,,,,
1720159289,73,0,4271.153809,4281.538574,4279.871582,4281.666504,4259.615234,4271.410156,4283.205078,4280.641113,4278.589844,4281.666504,4403.205078,4448.077148,4322.436035,4356.282227,,,,,,,,,,,,,,,,,,,,,,,,,,,,,,,,,,,,,,,,,,,,,,,,,,,,,,,,,,,,,,,,,,,,,,
1720159289,74,0,4266.153809,4283.717773,4279.615234,4279.743652,4257.94873,4273.077148,4283.205078,4271.282227,4266.922852,4278.333496,4402.692383,4443.205078,4322.179688,4332.692383,,,,,,,,,,,,,,,,,,,,,,,,,,,,,,,,,,,,,,,,,,,,,,,,,,,,,,,,,,,,,,,,,,,,,,
1720159289,75,0,4270.641113,4285.256348,4286.153809,4281.025879,4255.256348,4271.794922,4285.128418,4268.077148,4265.384766,4279.358887,4404.871582,4446.538574,4330,4342.94873,,,,,,,,,,,,,,,,,,,,,,,,,,,,,,,,,,,,,,,,,,,,,,,,,,,,,,,,,,,,,,,,,,,,,,
1720159289,76,0,4277.692383,4281.922852,4289.743652,4290,4255.769043,4268.205078,4285.384766,4271.922852,4266.025879,4278.974121,4405.256348,4450.384766,4329.102539,4349.743652,0.629881,0.480043,0.087312,0.327126,0.200937,0.968787,0.510112,0.163142,0.649308,0.134256,0.87596,1.06289,0.254907,0.816754,0.134101,0.526368,0.394969,0.136103,0.481251,0.321586,0.10766,0.095511,0.043376,0.030707,0.053755,0.473904,0.199478,0.086801,0.195003,0.067078,0.826427,1.010831,0.32807,0.345617,0.134355,0.297268,0.62959,0.212661,0.241819,0.089115,0.769523,1.183268,0.842165,0.468973,0.125024,0.3925,0.373231,0.441807,0.247837,0.103541,1.097376,0.599137,0.209613,0.646781,0.188481,2.087815,1.644808,0.46872,1.292929,0.216164,1.708372,1.004519,0.304122,0.625021,0.147614,0.577799,0.337139,0.101921,0.191186,0.929169
1720159289,77,0,4271.410156,4282.05127,4286.794922,4294.102539,4257.179688,4270,4286.794922,4271.282227,4266.153809,4281.922852,4400.384766,4447.05127,4323.717773,4336.025879,,,,,,,,,,,,,,,,,,,,,,,,,,,,,,,,,,,,,,,,,,,,,,,,,,,,,,,,,,,,,,,,,,,,,,
1720159289,78,0,4269.871582,4283.205078,4290,4286.410156,4260,4274.230957,4291.666504,4275.256348,4272.692383,4287.692383,4404.102539,4451.282227,4328.717773,4345.641113,,,,,,,,,,,,,,,,,,,,,,,,,,,,,,,,,,,,,,,,,,,,,,,,,,,,,,,,,,,,,,,,,,,,,,
1720159289,79,0,4272.179688,4280.384766,4288.846191,4279.871582,4259.102539,4274.358887,4290.384766,4277.563965,4271.794922,4284.743652,4407.436035,4448.205078,4331.794922,4346.922852,,,,,,,,,,,,,,,,,,,,,,,,,,,,,,,,,,,,,,,,,,,,,,,,,,,,,,,,,,,,,,,,,,,,,,
1720159289,80,0,4268.333496,4282.307617,4280.256348,4284.871582,4255,4273.205078,4284.487305,4269.230957,4262.820313,4282.05127,4397.05127,4441.410156,4326.794922,4330.384766,,,,,,,,,,,,,,,,,,,,,,,,,,,,,,,,,,,,,,,,,,,,,,,,,,,,,,,,,,,,,,,,,,,,,,
1720159289,81,0,4273.205078,4288.205078,4287.307617,4291.922852,4261.666504,4275.128418,4288.974121,4271.410156,4262.820313,4292.307617,4397.692383,4457.436035,4329.487305,4351.410156,,,,,,,,,,,,,,,,,,,,,,,,,,,,,,,,,,,,,,,,,,,,,,,,,,,,,,,,,,,,,,,,,,,,,,
1720159289,82,0,4276.282227,4289.871582,4295.897461,4290.769043,4264.871582,4279.743652,4292.692383,4278.717773,4267.05127,4297.307617,4407.436035,4466.794922,4335.641113,4360.512695,,,,,,,,,,,,,,,,,,,,,,,,,,,,,,,,,,,,,,,,,,,,,,,,,,,,,,,,,,,,,,,,,,,,,,
1720159289,83,0,4272.179688,4289.743652,4292.94873,4288.333496,4257.692383,4277.436035,4287.820313,4273.846191,4268.333496,4291.153809,4409.102539,4457.94873,4336.282227,4340.128418,,,,,,,,,,,,,,,,,,,,,,,,,,,,,,,,,,,,,,,,,,,,,,,,,,,,,,,,,,,,,,,,,,,,,,
1720159289,84,0,4279.871582,4290,4294.743652,4295.641113,4258.717773,4273.589844,4287.436035,4276.025879,4274.743652,4298.077148,4409.487305,4468.846191,4341.666504,4355.897461,,,,,,,,,,,,,,,,,,,,,,,,,,,,,,,,,,,,,,,,,,,,,,,,,,,,,,,,,,,,,,,,,,,,,,
1720159289,85,0,4283.077148,4290.641113,4298.717773,4300.128418,4262.436035,4277.94873,4288.717773,4281.282227,4279.102539,4308.846191,4412.820313,4476.922852,4347.820313,4357.820313,,,,,,,,,,,,,,,,,,,,,,,,,,,,,,,,,,,,,,,,,,,,,,,,,,,,,,,,,,,,,,,,,,,,,,
1720159289,86,0,4279.743652,4295.256348,4304.358887,4294.358887,4263.205078,4282.307617,4288.589844,4278.589844,4279.102539,4307.179688,4425.641113,4472.307617,4351.410156,4350.128418,,,,,,,,,,,,,,,,,,,,,,,,,,,,,,,,,,,,,,,,,,,,,,,,,,,,,,,,,,,,,,,,,,,,,,
1720159289,87,0,4284.743652,4299.615234,4310.128418,4300.897461,4261.922852,4282.307617,4288.333496,4275.384766,4280,4306.666504,4433.077148,4479.743652,4354.230957,4363.846191,,,,,,,,,,,,,,,,,,,,,,,,,,,,,,,,,,,,,,,,,,,,,,,,,,,,,,,,,,,,,,,,,,,,,,
1720159289,88,0,4289.743652,4301.538574,4311.282227,4307.94873,4258.974121,4283.974121,4290.128418,4277.179688,4279.230957,4309.487305,4421.794922,4481.922852,4351.153809,4360.897461,,,,,,,,,,,,,,,,,,,,,,,,,,,,,,,,,,,,,,,,,,,,,,,,,,,,,,,,,,,,,,,,,,,,,,
1720159289,89,0,4295.256348,4307.307617,4316.666504,4301.794922,4262.436035,4289.743652,4297.563965,4285.512695,4282.307617,4311.922852,4420,4480.512695,4352.820313,4356.922852,,,,,,,,,,,,,,,,,,,,,,,,,,,,,,,,,,,,,,,,,,,,,,,,,,,,,,,,,,,,,,,,,,,,,,
1720159289,90,0,4299.743652,4313.846191,4322.179688,4304.102539,4262.692383,4294.871582,4302.820313,4288.205078,4289.102539,4315.769043,4428.846191,4486.410156,4361.410156,4363.333496,,,,,,,,,,,,,,,,,,,,,,,,,,,,,,,,,,,,,,,,,,,,,,,,,,,,,,,,,,,,,,,,,,,,,,
1720159289,91,0,4298.589844,4314.230957,4323.077148,4313.846191,4259.615234,4300.128418,4309.230957,4289.358887,4293.846191,4318.589844,4428.077148,4491.153809,4364.615234,4366.025879,,,,,,,,,,,,,,,,,,,,,,,,,,,,,,,,,,,,,,,,,,,,,,,,,,,,,,,,,,,,,,,,,,,,,,
1720159289,92,0,4293.461426,4309.487305,4323.974121,4310.641113,4261.410156,4301.153809,4320,4296.025879,4294.230957,4319.102539,4428.205078,4493.846191,4363.461426,4363.846191,0.784976,0.509622,0.081447,0.383865,0.193502,1.372596,0.541775,0.185533,0.74823,0.11568,1.132157,1.151887,0.287209,1.004232,0.137304,0.640301,0.372649,0.179843,0.602939,0.318047,0.100783,0.089569,0.044643,0.031642,0.057897,0.555872,0.1804,0.095167,0.183402,0.067841,1.025927,0.788446,0.333166,0.357883,0.134015,0.370418,0.511841,0.246332,0.2359,0.099858,0.945851,1.465906,0.782138,0.502149,0.130867,0.461069,0.392729,0.421977,0.315256,0.10843,1.186083,0.43318,0.232366,0.713963,0.17326,2.401608,1.652774,0.574277,1.478974,0.225274,1.734975,0.789609,0.315957,0.753436,0.128264,0.667059,0.365502,0.122515,0.183771,0.957274
1720159289,93,0,4293.461426,4309.871582,4328.205078,4313.205078,4262.307617,4301.025879,4323.589844,4297.563965,4294.358887,4322.94873,4436.282227,4501.538574,4368.974121,4367.563965,,,,,,,,,,,,,,,,,,,,,,,,,,,,,,,,,,,,,,,,,,,,,,,,,,,,,,,,,,,,,,,,,,,,,,
1720159289,94,0,4299.358887,4317.692383,4337.05127,4324.102539,4259.615234,4306.922852,4322.307617,4296.410156,4299.615234,4328.974121,4441.538574,4512.94873,4375,4373.077148,,,,,,,,,,,,,,,,,,,,,,,,,,,,,,,,,,,,,,,,,,,,,,,,,,,,,,,,,,,,,,,,,,,,,,
1720159289,95,0,4303.974121,4324.358887,4341.025879,4318.974121,4260.384766,4306.922852,4323.205078,4299.871582,4305.512695,4329.230957,4443.717773,4517.179688,4377.05127,4378.846191,,,,,,,,,,,,,,,,,,,,,,,,,,,,,,,,,,,,,,,,,,,,,,,,,,,,,,,,,,,,,,,,,,,,,,
1720159289,96,0,4298.077148,4322.307617,4331.922852,4308.717773,4261.153809,4300.512695,4318.205078,4296.922852,4302.05127,4326.794922,4439.487305,4505.256348,4377.05127,4360.384766,,,,,,,,,,,,,,,,,,,,,,,,,,,,,,,,,,,,,,,,,,,,,,,,,,,,,,,,,,,,,,,,,,,,,,
1720159289,97,0,4297.179688,4318.205078,4330.897461,4312.563965,4259.743652,4304.487305,4312.692383,4290,4297.563965,4326.410156,4435.256348,4498.333496,4376.025879,4358.717773,,,,,,,,,,,,,,,,,,,,,,,,,,,,,,,,,,,,,,,,,,,,,,,,,,,,,,,,,,,,,,,,,,,,,,
1720159289,98,0,4312.179688,4321.794922,4341.538574,4322.307617,4264.230957,4311.794922,4315.897461,4294.230957,4303.205078,4328.077148,4446.794922,4517.563965,4381.282227,4393.077148,,,,,,,,,,,,,,,,,,,,,,,,,,,,,,,,,,,,,,,,,,,,,,,,,,,,,,,,,,,,,,,,,,,,,,
1720159289,99,0,4307.307617,4326.922852,4333.974121,4326.153809,4265.897461,4310.256348,4317.05127,4297.563965,4305.769043,4322.563965,4444.487305,4517.307617,4382.307617,4362.436035,,,,,,,,,,,,,,,,,,,,,,,,,,,,,,,,,,,,,,,,,,,,,,,,,,,,,,,,,,,,,,,,,,,,,,
1720159289,100,0,4299.871582,4327.307617,4331.922852,4327.307617,4262.94873,4311.153809,4319.230957,4295.512695,4305.384766,4319.487305,4433.974121,4501.666504,4373.846191,4345.512695,,,,,,,,,,,,,,,,,,,,,,,,,,,,,,,,,,,,,,,,,,,,,,,,,,,,,,,,,,,,,,,,,,,,,,
1720159289,101,0,4310,4331.282227,4346.282227,4330.641113,4264.358887,4312.05127,4325.769043,4298.846191,4311.538574,4323.589844,4449.230957,4508.205078,4375.512695,4387.307617,,,,,,,,,,,,,,,,,,,,,,,,,,,,,,,,,,,,,,,,,,,,,,,,,,,,,,,,,,,,,,,,,,,,,,
1720159289,102,0,4306.538574,4332.436035,4338.205078,4322.05127,4266.794922,4308.077148,4322.436035,4299.871582,4313.846191,4318.974121,4455.256348,4505.256348,4383.846191,4374.615234,,,,,,,,,,,,,,,,,,,,,,,,,,,,,,,,,,,,,,,,,,,,,,,,,,,,,,,,,,,,,,,,,,,,,,
1720159289,103,0,4303.846191,4325.769043,4329.358887,4311.025879,4266.410156,4307.05127,4315.641113,4300,4313.589844,4315.256348,4444.615234,4501.794922,4387.436035,4363.077148,,,,,,,,,,,,,,,,,,,,,,,,,,,,,,,,,,,,,,,,,,,,,,,,,,,,,,,,,,,,,,,,,,,,,,
1720159289,104,0,4311.025879,4326.025879,4340.897461,4319.487305,4264.743652,4308.974121,4319.615234,4305.512695,4321.282227,4316.666504,4445,4515.897461,4385.512695,4378.333496,,,,,,,,,,,,,,,,,,,,,,,,,,,,,,,,,,,,,,,,,,,,,,,,,,,,,,,,,,,,,,,,,,,,,,
1720159289,105,0,4310.128418,4329.230957,4343.846191,4330.256348,4265.256348,4310.384766,4328.333496,4306.922852,4326.794922,4310.897461,4443.717773,4520.897461,4373.589844,4370.128418,,,,,,,,,,,,,,,,,,,,,,,,,,,,,,,,,,,,,,,,,,,,,,,,,,,,,,,,,,,,,,,,,,,,,,
1720159289,106,0,4308.205078,4324.487305,4337.820313,4326.410156,4268.461426,4310.641113,4330,4304.487305,4326.410156,4308.461426,4441.282227,4517.563965,4371.153809,4370.641113,,,,,,,,,,,,,,,,,,,,,,,,,,,,,,,,,,,,,,,,,,,,,,,,,,,,,,,,,,,,,,,,,,,,,,
1720159289,107,0,4310,4323.205078,4335.256348,4324.743652,4268.974121,4311.025879,4329.358887,4306.153809,4330.128418,4309.487305,4453.589844,4519.487305,4388.589844,4383.589844,,,,,,,,,,,,,,,,,,,,,,,,,,,,,,,,,,,,,,,,,,,,,,,,,,,,,,,,,,,,,,,,,,,,,,
1720159289,108,0,4302.436035,4326.025879,4328.077148,4323.846191,4265.384766,4308.461426,4326.025879,4302.563965,4325.512695,4301.282227,4452.179688,4511.410156,4393.077148,4368.461426,0.914375,0.561296,0.085603,0.433964,0.186004,1.724803,0.63181,0.233469,0.835561,0.105095,1.351747,1.249196,0.344054,1.165457,0.15057,0.769265,0.373279,0.239859,0.719928,0.310607,0.086745,0.082258,0.047634,0.032244,0.061341,0.626562,0.168669,0.13277,0.172837,0.071585,1.236764,0.599284,0.398197,0.381646,0.134803,0.464737,0.472888,0.326582,0.241838,0.113461,1.10773,1.982182,0.771258,0.537116,0.133826,0.522371,0.457635,0.411546,0.378416,0.11664,1.232109,0.320051,0.299007,0.756911,0.165602,2.595371,1.585051,0.685555,1.66133,0.233642,1.751179,0.685417,0.366777,0.872953,0.117666,0.746392,0.386542,0.15028,0.184699,0.987331
1720159289,109,0,4297.94873,4314.102539,4322.05127,4310.897461,4267.563965,4305,4313.589844,4294.743652,4312.436035,4290.256348,4430.897461,4498.077148,4367.563965,4370.256348,,,,,,,,,,,,,,,,,,,,,,,,,,,,,,,,,,,,,,,,,,,,,,,,,,,,,,,,,,,,,,,,,,,,,,
1720159289,110,0,4300.641113,4298.846191,4316.794922,4304.487305,4269.230957,4301.666504,4299.358887,4289.358887,4306.794922,4287.05127,4429.230957,4492.179688,4349.743652,4384.102539,,,,,,,,,,,,,,,,,,,,,,,,,,,,,,,,,,,,,,,,,,,,,,,,,,,,,,,,,,,,,,,,,,,,,,
1720159289,111,0,4294.358887,4301.666504,4308.717773,4317.179688,4264.230957,4297.563965,4297.179688,4283.846191,4307.563965,4286.666504,4437.94873,4481.153809,4361.410156,4362.179688,,,,,,,,,,,,,,,,,,,,,,,,,,,,,,,,,,,,,,,,,,,,,,,,,,,,,,,,,,,,,,,,,,,,,,
1720159289,112,0,4297.307617,4309.487305,4317.307617,4324.615234,4266.153809,4301.666504,4307.563965,4291.794922,4314.230957,4294.358887,4439.358887,4488.589844,4381.153809,4369.871582,,,,,,,,,,,,,,,,,,,,,,,,,,,,,,,,,,,,,,,,,,,,,,,,,,,,,,,,,,,,,,,,,,,,,,
1720159289,113,0,4309.102539,4318.974121,4332.436035,4322.94873,4267.563965,4313.077148,4313.333496,4303.077148,4324.230957,4305.512695,4438.974121,4503.589844,4388.589844,4385.897461,,,,,,,,,,,,,,,,,,,,,,,,,,,,,,,,,,,,,,,,,,,,,,,,,,,,,,,,,,,,,,,,,,,,,,
1720159289,114,0,4311.794922,4330.897461,4333.461426,4328.077148,4266.153809,4315.512695,4317.692383,4301.794922,4328.461426,4303.461426,4441.666504,4496.538574,4384.615234,4373.077148,,,,,,,,,,,,,,,,,,,,,,,,,,,,,,,,,,,,,,,,,,,,,,,,,,,,,,,,,,,,,,,,,,,,,,
1720159289,115,0,4308.974121,4329.743652,4329.358887,4324.487305,4269.871582,4307.692383,4320.897461,4300.512695,4324.102539,4301.538574,4448.333496,4493.974121,4389.615234,4375.512695,,,,,,,,,,,,,,,,,,,,,,,,,,,,,,,,,,,,,,,,,,,,,,,,,,,,,,,,,,,,,,,,,,,,,,
1720159289,116,0,4307.436035,4320.512695,4328.589844,4318.077148,4268.846191,4305.769043,4311.666504,4299.358887,4322.05127,4306.153809,4447.307617,4502.179688,4393.846191,4379.487305,,,,,,,,,,,,,,,,,,,,,,,,,,,,,,,,,,,,,,,,,,,,,,,,,,,,,,,,,,,,,,,,,,,,,,
1720159289,117,0,4312.692383,4323.846191,4334.230957,4328.974121,4268.974121,4309.871582,4307.692383,4296.666504,4322.820313,4303.077148,4442.436035,4508.077148,4388.846191,4377.307617,,,,,,,,,,,,,,,,,,,,,,,,,,,,,,,,,,,,,,,,,,,,,,,,,,,,,,,,,,,,,,,,,,,,,,
1720159289,118,0,4316.922852,4333.589844,4339.615234,4336.666504,4271.538574,4308.974121,4316.282227,4296.410156,4317.179688,4297.692383,4447.692383,4512.436035,4389.615234,4382.94873,,,,,,,,,,,,,,,,,,,,,,,,,,,,,,,,,,,,,,,,,,,,,,,,,,,,,,,,,,,,,,,,,,,,,,
1720159289,119,0,4316.666504,4333.077148,4341.794922,4328.077148,4268.717773,4308.717773,4325.256348,4300.897461,4313.717773,4301.538574,4456.666504,4520.384766,4396.538574,4389.615234,,,,,,,,,,,,,,,,,,,,,,,,,,,,,,,,,,,,,,,,,,,,,,,,,,,,,,,,,,,,,,,,,,,,,,
1720159289,120,0,4317.820313,4328.974121,4343.333496,4327.563965,4268.333496,4309.102539,4325.897461,4304.615234,4320.128418,4307.307617,4457.94873,4523.717773,4402.820313,4387.94873,,,,,,,,,,,,,,,,,,,,,,,,,,,,,,,,,,,,,,,,,,,,,,,,,,,,,,,,,,,,,,,,,,,,,,
1720159289,121,0,4320,4330,4342.307617,4331.282227,4272.179688,4302.94873,4314.358887,4300.769043,4326.794922,4305.641113,4455.384766,4516.666504,4402.05127,4385.641113,,,,,,,,,,,,,,,,,,,,,,,,,,,,,,,,,,,,,,,,,,,,,,,,,,,,,,,,,,,,,,,,,,,,,,
1720159289,122,0,4318.077148,4331.538574,4337.692383,4325.384766,4272.307617,4301.538574,4306.666504,4299.871582,4328.589844,4308.974121,4451.794922,4508.974121,4397.179688,4382.05127,,,,,,,,,,,,,,,,,,,,,,,,,,,,,,,,,,,,,,,,,,,,,,,,,,,,,,,,,,,,,,,,,,,,,,
1720159289,123,0,4316.922852,4327.307617,4334.358887,4325.769043,4271.538574,4309.615234,4312.692383,4303.077148,4325.897461,4311.922852,4445.384766,4507.307617,4395.769043,4392.179688,,,,,,,,,,,,,,,,,,,,,,,,,,,,,,,,,,,,,,,,,,,,,,,,,,,,,,,,,,,,,,,,,,,,,,
1720159289,124,0,4320.128418,4327.179688,4336.794922,4332.94873,4270.897461,4312.820313,4317.05127,4296.538574,4316.025879,4300.897461,4441.666504,4508.333496,4393.717773,4388.717773,0.98045,0.628256,0.09534,0.454689,0.181521,1.890678,0.736391,0.290744,0.86958,0.101276,1.45493,1.323768,0.403983,1.237444,0.170385,0.847694,0.374171,0.293006,0.786947,0.296714,0.071166,0.070868,0.051043,0.032585,0.063261,0.6658,0.163091,0.180192,0.15595,0.077704,1.426935,0.471462,0.498361,0.397393,0.133616,0.556506,0.483438,0.425041,0.24995,0.126115,1.197682,2.5505,0.824193,0.564995,0.132724,0.580733,0.538542,0.410339,0.415903,0.12834,1.208853,0.276728,0.385614,0.750108,0.168968,2.579893,1.427514,0.756713,1.745893,0.238691,1.714681,0.686237,0.432714,0.932894,0.115344,0.778311,0.395477,0.177523,0.185711,1.014175
1720159289,125,0,4317.94873,4331.153809,4340.256348,4331.025879,4268.205078,4310,4316.025879,4290,4305.512695,4290.128418,4443.333496,4503.846191,4385.512695,4368.717773,,,,,,,,,,,,,,,,,,,,,,,,,,,,,,,,,,,,,,,,,,,,,,,,,,,,,,,,,,,,,,,,,,,,,,
1720159289,126,0,4320.128418,4326.922852,4345.256348,4325.897461,4270.897461,4312.179688,4322.436035,4298.461426,4307.563965,4296.794922,4453.077148,4510.128418,4388.205078,4403.846191,,,,,,,,,,,,,,,,,,,,,,,,,,,,,,,,,,,,,,,,,,,,,,,,,,,,,,,,,,,,,,,,,,,,,,
1720159289,127,0,4320,4324.615234,4342.179688,4328.717773,4270.384766,4313.717773,4321.666504,4302.307617,4310.512695,4302.563965,4448.717773,4510.128418,4393.333496,4401.538574,,,,,,,,,,,,,,,,,,,,,,,,,,,,,,,,,,,,,,,,,,,,,,,,,,,,,,,,,,,,,,,,,,,,,,
1720159289,0,0,4311.282227,4324.871582,4331.153809,4326.282227,4265.256348,4305.256348,4312.179688,4295.512695,4306.666504,4292.179688,4437.179688,4497.563965,4379.358887,4359.230957,,,,,,,,,,,,,,,,,,,,,,,,,,,,,,,,,,,,,,,,,,,,,,,,,,,,,,,,,,,,,,,,,,,,,,
1720159289,1,0,4313.974121,4318.589844,4333.846191,4321.538574,4268.589844,4300.384766,4312.307617,4297.563965,4306.153809,4290,4447.94873,4506.922852,4376.282227,4387.563965,,,,,,,,,,,,,,,,,,,,,,,,,,,,,,,,,,,,,,,,,,,,,,,,,,,,,,,,,,,,,,,,,,,,,,
1720159289,2,0,4321.153809,4320.384766,4341.282227,4331.794922,4271.794922,4303.205078,4314.230957,4300.384766,4307.307617,4296.538574,4455.384766,4517.307617,4386.922852,4397.820313,,,,,,,,,,,,,,,,,,,,,,,,,,,,,,,,,,,,,,,,,,,,,,,,,,,,,,,,,,,,,,,,,,,,,,
1720159289,3,0,4323.205078,4330.769043,4345.384766,4337.94873,4270,4305.384766,4317.820313,4302.692383,4309.230957,4296.282227,4452.820313,4516.282227,4383.717773,4379.487305,,,,,,,,,,,,,,,,,,,,,,,,,,,,,,,,,,,,,,,,,,,,,,,,,,,,,,,,,,,,,,,,,,,,,,
1720159289,4,0,4319.615234,4325.256348,4344.487305,4325.128418,4268.461426,4306.922852,4329.871582,4307.307617,4315.769043,4297.05127,4457.820313,4521.025879,4379.230957,4385.641113,,,,,,,,,,,,,,,,,,,,,,,,,,,,,,,,,,,,,,,,,,,,,,,,,,,,,,,,,,,,,,,,,,,,,,
1720159289,5,0,4316.153809,4315.769043,4335.512695,4322.307617,4269.358887,4307.307617,4329.871582,4304.230957,4317.05127,4293.077148,4454.871582,4518.846191,4380.512695,4384.615234,,,,,,,,,,,,,,,,,,,,,,,,,,,,,,,,,,,,,,,,,,,,,,,,,,,,,,,,,,,,,,,,,,,,,,
1720159289,6,0,4316.922852,4316.025879,4326.538574,4330.769043,4272.179688,4304.230957,4309.871582,4295.512695,4307.179688,4279.871582,4443.333496,4502.820313,4370.512695,4380,,,,,,,,,,,,,,,,,,,,,,,,,,,,,,,,,,,,,,,,,,,,,,,,,,,,,,,,,,,,,,,,,,,,,,
1720159290,7,0,4315.769043,4312.436035,4325.769043,4318.974121,4274.871582,4300.897461,4295.512695,4291.153809,4296.666504,4277.179688,4441.922852,4490.256348,4362.307617,4386.922852,,,,,,,,,,,,,,,,,,,,,,,,,,,,,,,,,,,,,,,,,,,,,,,,,,,,,,,,,,,,,,,,,,,,,,
1720159290,8,0,4313.333496,4315.256348,4325.128418,4310.256348,4269.487305,4298.205078,4297.05127,4284.358887,4292.179688,4281.282227,4440.769043,4484.102539,4369.487305,4375.512695,,,,,,,,,,,,,,,,,,,,,,,,,,,,,,,,,,,,,,,,,,,,,,,,,,,,,,,,,,,,,,,,,,,,,,
1720159290,9,0,4316.153809,4323.205078,4322.692383,4322.436035,4266.282227,4294.743652,4300.769043,4280.769043,4295.384766,4278.461426,4436.282227,4486.666504,4371.282227,4374.358887,,,,,,,,,,,,,,,,,,,,,,,,,,,,,,,,,,,,,,,,,,,,,,,,,,,,,,,,,,,,,,,,,,,,,,
1720159290,10,0,4317.436035,4315.512695,4328.846191,4323.974121,4272.563965,4295.641113,4302.820313,4293.077148,4303.077148,4278.974121,4443.077148,4494.230957,4367.179688,4396.282227,,,,,,,,,,,,,,,,,,,,,,,,,,,,,,,,,,,,,,,,,,,,,,,,,,,,,,,,,,,,,,,,,,,,,,
1720159290,11,0,4310,4305.897461,4323.589844,4311.666504,4271.794922,4297.436035,4303.717773,4296.666504,4303.974121,4280,4441.025879,4480.769043,4370.128418,4380.512695,,,,,,,,,,,,,,,,,,,,,,,,,,,,,,,,,,,,,,,,,,,,,,,,,,,,,,,,,,,,,,,,,,,,,,
1720159290,12,0,4307.94873,4307.820313,4312.05127,4307.307617,4271.410156,4294.487305,4302.563965,4289.487305,4294.743652,4272.307617,4431.794922,4470.641113,4368.461426,4369.230957,0.94818,0.690585,0.106684,0.431276,0.181091,1.838638,0.808138,0.341086,0.822151,0.100956,1.427719,1.345111,0.450877,1.1811,0.190215,0.835614,0.362232,0.319484,0.778066,0.276469,0.05877,0.055218,0.052562,0.032458,0.06359,0.67084,0.160876,0.219548,0.133158,0.084356,1.578185,0.42023,0.594881,0.395322,0.127468,0.629799,0.506206,0.508779,0.250855,0.13381,1.203828,2.941193,0.90744,0.573195,0.126788,0.656053,0.591646,0.404732,0.411275,0.140756,1.118132,0.291011,0.460675,0.683082,0.182509,2.36319,1.206652,0.761822,1.667693,0.239554,1.623787,0.731301,0.486442,0.900981,0.119689,0.745684,0.388721,0.196515,0.179019,1.035529
1720159290,13,0,4314.871582,4314.871582,4319.358887,4312.692383,4271.922852,4295.128418,4301.282227,4283.077148,4281.794922,4263.974121,4431.282227,4480.256348,4356.025879,4374.743652,,,,,,,,,,,,,,,,,,,,,,,,,,,,,,,,,,,,,,,,,,,,,,,,,,,,,,,,,,,,,,,,,,,,,,
1720159290,14,0,4325,4322.05127,4334.230957,4321.538574,4271.153809,4294.358887,4299.615234,4282.692383,4279.743652,4263.974121,4438.333496,4491.538574,4354.230957,4383.717773,,,,,,,,,,,,,,,,,,,,,,,,,,,,,,,,,,,,,,,,,,,,,,,,,,,,,,,,,,,,,,,,,,,,,,
1720159290,15,0,4328.077148,4322.820313,4340.256348,4327.307617,4274.358887,4292.563965,4299.871582,4291.538574,4293.974121,4268.077148,4447.307617,4500.128418,4370.897461,4392.179688,,,,,,,,,,,,,,,,,,,,,,,,,,,,,,,,,,,,,,,,,,,,,,,,,,,,,,,,,,,,,,,,,,,,,,
1720159290,16,0,4315.897461,4312.307617,4329.487305,4315.641113,4271.666504,4293.461426,4299.358887,4291.153809,4308.205078,4267.436035,4445.512695,4492.820313,4376.410156,4374.743652,,,,,,,,,,,,,,,,,,,,,,,,,,,,,,,,,,,,,,,,,,,,,,,,,,,,,,,,,,,,,,,,,,,,,,
1720159290,17,0,4308.077148,4298.717773,4313.461426,4302.692383,4270.384766,4293.333496,4299.615234,4291.794922,4314.358887,4264.487305,4442.563965,4483.077148,4357.692383,4374.487305,,,,,,,,,,,,,,,,,,,,,,,,,,,,,,,,,,,,,,,,,,,,,,,,,,,,,,,,,,,,,,,,,,,,,,
1720159290,18,0,4310.128418,4295.256348,4309.871582,4312.179688,4271.794922,4295.128418,4301.153809,4298.077148,4316.538574,4263.461426,4442.436035,4485.128418,4345.512695,4375.256348,,,,,,,,,,,,,,,,,,,,,,,,,,,,,,,,,,,,,,,,,,,,,,,,,,,,,,,,,,,,,,,,,,,,,,
1720159290,19,0,4316.025879,4304.230957,4325.512695,4317.563965,4271.538574,4296.538574,4299.615234,4295.512695,4316.410156,4265,4443.461426,4493.974121,4361.666504,4375.641113,,,,,,,,,,,,,,,,,,,,,,,,,,,,,,,,,,,,,,,,,,,,,,,,,,,,,,,,,,,,,,,,,,,,,,
1720159290,20,0,4324.615234,4313.333496,4342.820313,4308.846191,4273.077148,4295.256348,4304.102539,4291.794922,4307.94873,4266.538574,4444.871582,4503.974121,4377.563965,4387.436035,,,,,,,,,,,,,,,,,,,,,,,,,,,,,,,,,,,,,,,,,,,,,,,,,,,,,,,,,,,,,,,,,,,,,,
1720159290,21,0,4328.077148,4315.897461,4341.025879,4315,4272.820313,4295.512695,4311.025879,4289.743652,4298.205078,4263.461426,4443.974121,4506.922852,4371.410156,4385.769043,,,,,,,,,,,,,,,,,,,,,,,,,,,,,,,,,,,,,,,,,,,,,,,,,,,,,,,,,,,,,,,,,,,,,,
1720159290,22,0,4321.922852,4311.794922,4330.769043,4326.410156,4270.641113,4297.436035,4308.077148,4286.794922,4294.871582,4261.922852,4442.436035,4497.436035,4359.615234,4378.077148,,,,,,,,,,,,,,,,,,,,,,,,,,,,,,,,,,,,,,,,,,,,,,,,,,,,,,,,,,,,,,,,,,,,,,
1720159290,23,0,4317.563965,4301.666504,4325.512695,4320.769043,4273.205078,4294.102539,4301.794922,4287.05127,4293.974121,4263.333496,4438.205078,4480.256348,4355,4380.256348,,,,,,,,,,,,,,,,,,,,,,,,,,,,,,,,,,,,,,,,,,,,,,,,,,,,,,,,,,,,,,,,,,,,,,
1720159290,24,0,4316.025879,4295.641113,4323.589844,4316.666504,4273.461426,4292.820313,4299.358887,4288.974121,4297.94873,4263.589844,4436.025879,4470.897461,4353.333496,4379.487305,,,,,,,,,,,,,,,,,,,,,,,,,,,,,,,,,,,,,,,,,,,,,,,,,,,,,,,,,,,,,,,,,,,,,,
1720159290,25,0,4313.717773,4303.717773,4321.538574,4324.487305,4266.922852,4295.641113,4298.333496,4287.436035,4306.025879,4263.077148,4438.333496,4474.358887,4353.077148,4357.94873,,,,,,,,,,,,,,,,,,,,,,,,,,,,,,,,,,,,,,,,,,,,,,,,,,,,,,,,,,,,,,,,,,,,,,
1720159290,26,0,4327.820313,4314.102539,4334.743652,4328.077148,4273.589844,4288.589844,4303.846191,4294.743652,4307.05127,4265.384766,4451.282227,4496.666504,4360.128418,4387.820313,,,,,,,,,,,,,,,,,,,,,,,,,,,,,,,,,,,,,,,,,,,,,,,,,,,,,,,,,,,,,,,,,,,,,,
1720159290,27,0,4335.256348,4316.153809,4345.384766,4330.256348,4280.256348,4283.589844,4320.256348,4306.282227,4298.333496,4267.05127,4460.384766,4513.333496,4366.153809,4408.205078,,,,,,,,,,,,,,,,,,,,,,,,,,,,,,,,,,,,,,,,,,,,,,,,,,,,,,,,,,,,,,,,,,,,,,
1720159290,28,0,4319.615234,4314.358887,4332.179688,4331.922852,4269.358887,4291.410156,4327.563965,4300.256348,4292.307617,4262.563965,4449.358887,4497.820313,4363.077148,4364.871582,0.81888,0.724563,0.118104,0.366659,0.182938,1.600728,0.822339,0.375902,0.70129,0.101602,1.269803,1.305792,0.478608,1.006672,0.20412,0.736567,0.334129,0.309997,0.701607,0.253023,0.052112,0.038776,0.050991,0.031477,0.062624,0.633048,0.159147,0.241271,0.111129,0.08905,1.64013,0.449414,0.647948,0.382278,0.115861,0.653285,0.518145,0.548765,0.240324,0.134327,1.114648,2.99634,0.969533,0.555702,0.116565,0.799941,0.586221,0.385699,0.364046,0.149909,0.968039,0.339378,0.498748,0.570575,0.201867,1.97578,1.007872,0.706508,1.429924,0.237253,1.467924,0.755435,0.510256,0.785643,0.131169,0.643373,0.364752,0.202852,0.162689,1.050926
1720159290,29,0,4320.256348,4313.461426,4328.077148,4325.897461,4266.922852,4297.820313,4320.897461,4288.974121,4293.974121,4262.692383,4446.025879,4491.153809,4360.769043,4375.384766,,,,,,,,,,,,,,,,,,,,,,,,,,,,,,,,,,,,,,,,,,,,,,,,,,,,,,,,,,,,,,,,,,,,,,
1720159290,30,0,4322.692383,4310,4329.487305,4322.692383,4274.358887,4296.794922,4311.666504,4285,4294.487305,4264.102539,4445.769043,4494.358887,4353.077148,4385.128418,,,,,,,,,,,,,,,,,,,,,,,,,,,,,,,,,,,,,,,,,,,,,,,,,,,,,,,,,,,,,,,,,,,,,,
1720159290,31,0,4306.410156,4296.922852,4312.436035,4314.871582,4271.410156,4295.641113,4304.230957,4281.282227,4294.743652,4259.871582,4432.05127,4477.179688,4341.666504,4359.358887,,,,,,,,,,,,,,,,,,,,,,,,,,,,,,,,,,,,,,,,,,,,,,,,,,,,,,,,,,,,,,,,,,,,,,
1720159290,32,0,4302.94873,4288.846191,4302.436035,4305.769043,4269.615234,4297.820313,4304.230957,4284.102539,4302.05127,4260.384766,4431.282227,4469.358887,4347.05127,4375.897461,,,,,,,,,,,,,,,,,,,,,,,,,,,,,,,,,,,,,,,,,,,,,,,,,,,,,,,,,,,,,,,,,,,,,,
1720159290,33,0,4310.256348,4294.487305,4309.871582,4317.179688,4273.333496,4295.384766,4308.333496,4293.077148,4309.487305,4261.410156,4443.077148,4480.897461,4356.153809,4383.974121,,,,,,,,,,,,,,,,,,,,,,,,,,,,,,,,,,,,,,,,,,,,,,,,,,,,,,,,,,,,,,,,,,,,,,
1720159290,34,0,4307.692383,4296.025879,4312.692383,4327.179688,4268.846191,4287.307617,4308.461426,4292.179688,4308.846191,4257.94873,4440.512695,4477.820313,4354.743652,4358.974121,,,,,,,,,,,,,,,,,,,,,,,,,,,,,,,,,,,,,,,,,,,,,,,,,,,,,,,,,,,,,,,,,,,,,,
1720159290,35,0,4313.589844,4293.589844,4313.077148,4316.410156,4269.487305,4286.794922,4309.358887,4294.358887,4307.692383,4260.128418,4441.282227,4472.820313,4357.563965,4381.025879,,,,,,,,,,,,,,,,,,,,,,,,,,,,,,,,,,,,,,,,,,,,,,,,,,,,,,,,,,,,,,,,,,,,,,
1720159290,36,0,4316.410156,4295.769043,4316.666504,4309.102539,4273.461426,4296.025879,4309.102539,4301.922852,4305.256348,4262.307617,4448.589844,4478.974121,4360.641113,4397.94873,,,,,,,,,,,,,,,,,,,,,,,,,,,,,,,,,,,,,,,,,,,,,,,,,,,,,,,,,,,,,,,,,,,,,,
1720159290,37,0,4305.384766,4297.94873,4319.487305,4314.102539,4269.743652,4300.897461,4301.153809,4293.205078,4296.538574,4257.179688,4441.666504,4482.307617,4354.615234,4366.666504,,,,,,,,,,,,,,,,,,,,,,,,,,,,,,,,,,,,,,,,,,,,,,,,,,,,,,,,,,,,,,,,,,,,,,
1720159290,38,0,4310.512695,4298.333496,4333.461426,4313.589844,4270.897461,4294.615234,4293.205078,4285,4288.205078,4261.282227,4443.461426,4487.05127,4358.205078,4374.615234,,,,,,,,,,,,,,,,,,,,,,,,,,,,,,,,,,,,,,,,,,,,,,,,,,,,,,,,,,,,,,,,,,,,,,
1720159290,39,0,4316.922852,4300.256348,4343.846191,4309.615234,4270.384766,4287.94873,4284.358887,4282.692383,4284.358887,4267.692383,4447.820313,4482.563965,4367.179688,4381.153809,,,,,,,,,,,,,,,,,,,,,,,,,,,,,,,,,,,,,,,,,,,,,,,,,,,,,,,,,,,,,,,,,,,,,,
1720159290,40,0,4312.94873,4298.205078,4336.025879,4311.025879,4269.743652,4286.666504,4273.333496,4277.692383,4285.128418,4262.692383,4432.820313,4472.692383,4358.717773,4368.461426,,,,,,,,,,,,,,,,,,,,,,,,,,,,,,,,,,,,,,,,,,,,,,,,,,,,,,,,,,,,,,,,,,,,,,
1720159290,41,0,4312.179688,4294.871582,4325.256348,4312.179688,4273.205078,4286.153809,4272.820313,4282.307617,4292.179688,4262.179688,4426.153809,4473.205078,4348.589844,4376.153809,,,,,,,,,,,,,,,,,,,,,,,,,,,,,,,,,,,,,,,,,,,,,,,,,,,,,,,,,,,,,,,,,,,,,,
1720159290,42,0,4311.025879,4294.102539,4321.538574,4310.512695,4271.410156,4286.922852,4284.871582,4291.794922,4298.974121,4263.461426,4433.077148,4472.94873,4349.230957,4377.05127,,,,,,,,,,,,,,,,,,,,,,,,,,,,,,,,,,,,,,,,,,,,,,,,,,,,,,,,,,,,,,,,,,,,,,
1720159290,43,0,4312.820313,4292.179688,4327.436035,4311.666504,4271.025879,4291.025879,4298.589844,4296.666504,4301.410156,4256.153809,4438.589844,4478.461426,4356.282227,4375.512695,,,,,,,,,,,,,,,,,,,,,,,,,,,,,,,,,,,,,,,,,,,,,,,,,,,,,,,,,,,,,,,,,,,,,,
1720159290,44,0,4319.102539,4297.179688,4336.025879,4312.179688,4271.410156,4294.358887,4299.615234,4295,4297.563965,4249.230957,4438.077148,4486.538574,4354.743652,4375.256348,0.663773,0.716788,0.126655,0.28115,0.183049,1.326139,0.78323,0.387214,0.547037,0.102429,1.118181,1.218267,0.480804,0.773155,0.209123,0.610555,0.295029,0.267769,0.594046,0.231867,0.051912,0.025864,0.046138,0.029267,0.060742,0.575991,0.159043,0.244133,0.09598,0.089934,1.623057,0.561866,0.644167,0.378927,0.101606,0.626536,0.518785,0.536976,0.22339,0.128519,0.952134,2.703314,0.979656,0.52321,0.104053,1.045965,0.522312,0.35615,0.291937,0.153175,0.80531,0.411701,0.484518,0.444877,0.221108,1.594595,0.940676,0.614852,1.103143,0.234366,1.352922,0.733105,0.498414,0.631238,0.152906,0.514726,0.326251,0.193094,0.14209,1.061882
1720159290,45,0,4313.846191,4298.461426,4331.025879,4307.820313,4270.256348,4293.077148,4295.256348,4291.153809,4286.538574,4248.205078,4434.487305,4481.794922,4344.358887,4371.666504,,,,,,,,,,,,,,,,,,,,,,,,,,,,,,,,,,,,,,,,,,,,,,,,,,,,,,,,,,,,,,,,,,,,,,
1720159290,46,0,4300.897461,4286.153809,4316.794922,4307.820313,4272.692383,4290.384766,4294.871582,4286.922852,4277.05127,4248.974121,4427.436035,4470,4338.461426,4368.077148,,,,,,,,,,,,,,,,,,,,,,,,,,,,,,,,,,,,,,,,,,,,,,,,,,,,,,,,,,,,,,,,,,,,,,
1720159290,47,0,4296.666504,4275.897461,4304.102539,4306.666504,4272.05127,4289.615234,4287.436035,4280.128418,4279.358887,4249.615234,4425.897461,4456.794922,4340,4370.512695,,,,,,,,,,,,,,,,,,,,,,,,,,,,,,,,,,,,,,,,,,,,,,,,,,,,,,,,,,,,,,,,,,,,,,
1720159290,48,0,4297.563965,4276.282227,4295,4296.025879,4270.128418,4288.717773,4273.077148,4279.230957,4287.820313,4249.102539,4430.256348,4442.179688,4342.820313,4368.461426,,,,,,,,,,,,,,,,,,,,,,,,,,,,,,,,,,,,,,,,,,,,,,,,,,,,,,,,,,,,,,,,,,,,,,
1720159290,49,0,4299.743652,4281.538574,4298.077148,4298.333496,4273.333496,4286.410156,4264.871582,4282.05127,4288.077148,4251.153809,4429.358887,4445.512695,4339.615234,4365.897461,,,,,,,,,,,,,,,,,,,,,,,,,,,,,,,,,,,,,,,,,,,,,,,,,,,,,,,,,,,,,,,,,,,,,,
1720159290,50,0,4303.846191,4288.589844,4313.974121,4315.128418,4273.461426,4279.871582,4269.358887,4279.743652,4283.461426,4256.794922,4424.487305,4465.512695,4339.615234,4365.512695,,,,,,,,,,,,,,,,,,,,,,,,,,,,,,,,,,,,,,,,,,,,,,,,,,,,,,,,,,,,,,,,,,,,,,
1720159290,51,0,4313.589844,4296.153809,4329.487305,4318.589844,4271.025879,4274.615234,4282.436035,4284.358887,4286.922852,4259.487305,4433.077148,4484.871582,4354.487305,4380.256348,,,,,,,,,,,,,,,,,,,,,,,,,,,,,,,,,,,,,,,,,,,,,,,,,,,,,,,,,,,,,,,,,,,,,,
1720159290,52,0,4323.974121,4300.769043,4332.563965,4311.025879,4273.205078,4277.94873,4296.025879,4294.487305,4288.589844,4260,4451.153809,4499.230957,4366.666504,4406.794922,,,,,,,,,,,,,,,,,,,,,,,,,,,,,,,,,,,,,,,,,,,,,,,,,,,,,,,,,,,,,,,,,,,,,,
1720159290,53,0,4310.769043,4294.743652,4313.205078,4308.846191,4272.563965,4289.743652,4300.384766,4290.256348,4280.897461,4253.077148,4439.615234,4484.358887,4352.563965,4373.205078,,,,,,,,,,,,,,,,,,,,,,,,,,,,,,,,,,,,,,,,,,,,,,,,,,,,,,,,,,,,,,,,,,,,,,
1720159290,54,0,4299.487305,4283.461426,4295.769043,4310.256348,4273.717773,4293.205078,4291.538574,4279.102539,4276.922852,4245.897461,4420.769043,4462.307617,4338.717773,4359.743652,,,,,,,,,,,,,,,,,,,,,,,,,,,,,,,,,,,,,,,,,,,,,,,,,,,,,,,,,,,,,,,,,,,,,,
1720159290,55,0,4311.410156,4281.666504,4304.358887,4307.692383,4278.461426,4285.641113,4274.615234,4276.153809,4279.102539,4251.666504,4434.102539,4467.94873,4345.128418,4396.794922,,,,,,,,,,,,,,,,,,,,,,,,,,,,,,,,,,,,,,,,,,,,,,,,,,,,,,,,,,,,,,,,,,,,,,
1720159290,56,0,4313.461426,4287.179688,4312.05127,4303.205078,4272.820313,4282.179688,4263.205078,4277.05127,4278.461426,4255.256348,4439.871582,4468.205078,4341.666504,4376.025879,,,,,,,,,,,,,,,,,,,,,,,,,,,,,,,,,,,,,,,,,,,,,,,,,,,,,,,,,,,,,,,,,,,,,,
1720159290,57,0,4311.538574,4287.94873,4310.897461,4306.794922,4270.769043,4284.230957,4266.666504,4280.641113,4277.692383,4252.820313,4426.282227,4468.077148,4336.666504,4369.743652,,,,,,,,,,,,,,,,,,,,,,,,,,,,,,,,,,,,,,,,,,,,,,,,,,,,,,,,,,,,,,,,,,,,,,
1720159290,58,0,4318.846191,4289.615234,4318.717773,4310.769043,4277.692383,4285.384766,4277.436035,4285.256348,4276.153809,4256.538574,4425.641113,4481.410156,4348.846191,4390.256348,,,,,,,,,,,,,,,,,,,,,,,,,,,,,,,,,,,,,,,,,,,,,,,,,,,,,,,,,,,,,,,,,,,,,,
1720159290,59,0,4319.230957,4296.025879,4324.487305,4311.666504,4276.794922,4288.333496,4287.179688,4288.717773,4275.512695,4260.128418,4432.307617,4483.077148,4347.179688,4377.05127,,,,,,,,,,,,,,,,,,,,,,,,,,,,,,,,,,,,,,,,,,,,,,,,,,,,,,,,,,,,,,,,,,,,,,
1720159290,60,0,4315.128418,4289.358887,4324.358887,4317.307617,4272.692383,4294.871582,4296.922852,4294.102539,4282.436035,4260.897461,4436.025879,4482.94873,4341.025879,4379.743652,0.540123,0.667641,0.132837,0.207068,0.178439,1.157055,0.71393,0.380117,0.417987,0.103144,1.063307,1.103831,0.458015,0.566867,0.20632,0.52195,0.255651,0.207652,0.498604,0.219175,0.054035,0.018147,0.039171,0.025811,0.058669,0.517181,0.162049,0.236509,0.09123,0.086832,1.544951,0.72994,0.604087,0.409269,0.089029,0.555552,0.517337,0.495405,0.211902,0.119572,0.756584,2.193013,0.949282,0.502778,0.091882,1.395522,0.423734,0.329886,0.221929,0.150365,0.68086,0.503799,0.424315,0.340298,0.235019,1.36482,1.073722,0.525395,0.799769,0.233302,1.330117,0.668495,0.46668,0.498098,0.188023,0.390548,0.278063,0.167706,0.130523,1.076057
1720159290,61,0,4317.692383,4284.102539,4330.256348,4319.615234,4274.615234,4293.717773,4297.820313,4296.282227,4293.461426,4271.922852,4448.333496,4497.820313,4362.820313,4392.05127,,,,,,,,,,,,,,,,,,,,,,,,,,,,,,,,,,,,,,,,,,,,,,,,,,,,,,,,,,,,,,,,,,,,,,
1720159290,62,0,4324.743652,4296.794922,4332.307617,4314.358887,4276.410156,4285.128418,4284.102539,4287.05127,4293.846191,4279.487305,4448.205078,4496.922852,4369.230957,4378.077148,,,,,,,,,,,,,,,,,,,,,,,,,,,,,,,,,,,,,,,,,,,,,,,,,,,,,,,,,,,,,,,,,,,,,,
1720159290,63,0,4323.205078,4295,4322.563965,4310.384766,4277.692383,4287.436035,4277.307617,4285.256348,4284.743652,4270,4429.615234,4480.384766,4341.025879,4382.307617,,,,,,,,,,,,,,,,,,,,,,,,,,,,,,,,,,,,,,,,,,,,,,,,,,,,,,,,,,,,,,,,,,,,,,
1720159290,64,0,4309.871582,4275.897461,4308.589844,4303.205078,4278.717773,4291.794922,4287.563965,4291.538574,4282.05127,4261.794922,4424.230957,4471.410156,4330.897461,4388.717773,,,,,,,,,,,,,,,,,,,,,,,,,,,,,,,,,,,,,,,,,,,,,,,,,,,,,,,,,,,,,,,,,,,,,,
1720159290,65,0,4303.333496,4274.230957,4300.512695,4295.897461,4275,4287.820313,4289.743652,4283.333496,4279.358887,4261.538574,4427.692383,4463.589844,4341.538574,4359.230957,,,,,,,,,,,,,,,,,,,,,,,,,,,,,,,,,,,,,,,,,,,,,,,,,,,,,,,,,,,,,,,,,,,,,,
1720159290,66,0,4315.641113,4279.871582,4303.717773,4303.077148,4278.077148,4284.743652,4284.615234,4280.512695,4269.871582,4262.05127,4422.94873,4467.563965,4339.487305,4368.333496,,,,,,,,,,,,,,,,,,,,,,,,,,,,,,,,,,,,,,,,,,,,,,,,,,,,,,,,,,,,,,,,,,,,,,
1720159290,67,0,4319.871582,4278.974121,4308.589844,4310.897461,4277.563965,4285.769043,4283.333496,4284.487305,4264.487305,4260.128418,4419.102539,4476.025879,4338.461426,4385.256348,,,,,,,,,,,,,,,,,,,,,,,,,,,,,,,,,,,,,,,,,,,,,,,,,,,,,,,,,,,,,,,,,,,,,,
1720159290,68,0,4316.666504,4284.102539,4316.410156,4307.692383,4272.692383,4286.666504,4282.179688,4277.692383,4264.615234,4260.641113,4424.871582,4475.512695,4349.230957,4372.692383,,,,,,,,,,,,,,,,,,,,,,,,,,,,,,,,,,,,,,,,,,,,,,,,,,,,,,,,,,,,,,,,,,,,,,
1720159290,69,0,4323.461426,4287.436035,4324.102539,4311.794922,4277.563965,4285.384766,4281.922852,4275.384766,4259.743652,4262.692383,4431.922852,4483.077148,4353.077148,4380.897461,,,,,,,,,,,,,,,,,,,,,,,,,,,,,,,,,,,,,,,,,,,,,,,,,,,,,,,,,,,,,,,,,,,,,,
1720159290,70,0,4322.94873,4285.256348,4319.230957,4316.922852,4277.563965,4284.743652,4281.153809,4277.563965,4258.846191,4261.538574,4429.487305,4485.384766,4345.641113,4384.230957,,,,,,,,,,,,,,,,,,,,,,,,,,,,,,,,,,,,,,,,,,,,,,,,,,,,,,,,,,,,,,,,,,,,,,
1720159290,71,0,4316.922852,4283.333496,4308.974121,4303.333496,4275.769043,4288.461426,4281.794922,4280.512695,4270.641113,4261.410156,4423.717773,4475.256348,4337.05127,4373.205078,,,,,,,,,,,,,,,,,,,,,,,,,,,,,,,,,,,,,,,,,,,,,,,,,,,,,,,,,,,,,,,,,,,,,,
1720159290,72,0,4312.820313,4275.256348,4302.94873,4293.205078,4276.666504,4290.384766,4285.128418,4287.563965,4280.256348,4266.794922,4426.922852,4472.436035,4337.179688,4369.358887,,,,,,,,,,,,,,,,,,,,,,,,,,,,,,,,,,,,,,,,,,,,,,,,,,,,,,,,,,,,,,,,,,,,,,
1720159290,73,0,4310.384766,4274.487305,4301.282227,4305.641113,4273.717773,4287.05127,4288.717773,4292.05127,4279.615234,4270.897461,4426.666504,4474.230957,4339.871582,4373.717773,,,,,,,,,,,,,,,,,,,,,,,,,,,,,,,,,,,,,,,,,,,,,,,,,,,,,,,,,,,,,,,,,,,,,,
1720159290,74,0,4309.871582,4282.820313,4299.871582,4315.384766,4272.94873,4285,4294.615234,4296.153809,4277.820313,4268.461426,4415.384766,4471.153809,4332.179688,4373.589844,,,,,,,,,,,,,,,,,,,,,,,,,,,,,,,,,,,,,,,,,,,,,,,,,,,,,,,,,,,,,,,,,,,,,,
1720159290,75,0,4311.282227,4282.563965,4298.717773,4311.025879,4269.487305,4287.94873,4306.282227,4300.769043,4280.897461,4265.384766,4417.307617,4471.666504,4326.794922,4371.666504,,,,,,,,,,,,,,,,,,,,,,,,,,,,,,,,,,,,,,,,,,,,,,,,,,,,,,,,,,,,,,,,,,,,,,
1720159290,76,0,4311.410156,4273.205078,4302.820313,4304.871582,4262.563965,4288.589844,4314.871582,4299.871582,4278.974121,4266.794922,4428.077148,4476.282227,4332.179688,4371.410156,0.518054,0.592896,0.141163,0.175505,0.169154,1.153127,0.649408,0.367437,0.365393,0.10424,1.202398,1.003969,0.42516,0.469907,0.20057,0.531005,0.227706,0.153812,0.444822,0.219144,0.055983,0.014663,0.031967,0.021627,0.057064,0.474417,0.165907,0.229171,0.097545,0.081047,1.484998,0.90068,0.590755,0.490517,0.081555,0.47328,0.518417,0.47206,0.218002,0.110762,0.574278,1.663544,0.930816,0.523634,0.082106,1.767855,0.325642,0.32191,0.17617,0.143384,0.617511,0.606984,0.351231,0.280345,0.24171,1.408114,1.391985,0.495232,0.632489,0.235023,1.431951,0.584741,0.443172,0.433775,0.235939,0.318291,0.228559,0.136955,0.142891,1.098251
1720159290,77,0,4313.077148,4271.025879,4305.897461,4304.102539,4261.794922,4285.641113,4304.743652,4290.897461,4263.974121,4266.666504,4422.179688,4477.563965,4336.025879,4378.589844,,,,,,,,,,,,,,,,,,,,,,,,,,,,,,,,,,,,,,,,,,,,,,,,,,,,,,,,,,,,,,,,,,,,,,
1720159290,78,0,4314.358887,4278.333496,4297.436035,4310,4258.333496,4271.794922,4278.205078,4269.358887,4246.666504,4258.974121,4408.333496,4463.846191,4333.589844,4375.384766,,,,,,,,,,,,,,,,,,,,,,,,,,,,,,,,,,,,,,,,,,,,,,,,,,,,,,,,,,,,,,,,,,,,,,
1720159290,79,0,4309.358887,4281.025879,4288.205078,4311.922852,4249.615234,4258.974121,4258.846191,4252.563965,4242.436035,4247.05127,4402.692383,4441.794922,4324.102539,4354.102539,,,,,,,,,,,,,,,,,,,,,,,,,,,,,,,,,,,,,,,,,,,,,,,,,,,,,,,,,,,,,,,,,,,,,,
1720159290,80,0,4312.307617,4275.128418,4292.94873,4302.692383,4251.666504,4262.436035,4261.922852,4263.333496,4252.179688,4246.666504,4406.538574,4447.692383,4313.333496,4377.436035,,,,,,,,,,,,,,,,,,,,,,,,,,,,,,,,,,,,,,,,,,,,,,,,,,,,,,,,,,,,,,,,,,,,,,
1720159290,81,0,4311.794922,4268.974121,4292.563965,4297.179688,4250.384766,4265.128418,4271.282227,4276.153809,4263.717773,4247.563965,4411.410156,4460.769043,4318.846191,4383.077148,,,,,,,,,,,,,,,,,,,,,,,,,,,,,,,,,,,,,,,,,,,,,,,,,,,,,,,,,,,,,,,,,,,,,,
1720159290,82,0,4306.538574,4268.205078,4287.692383,4299.615234,4243.077148,4261.025879,4271.794922,4274.871582,4273.589844,4238.461426,4414.230957,4452.05127,4337.05127,4355.641113,,,,,,,,,,,,,,,,,,,,,,,,,,,,,,,,,,,,,,,,,,,,,,,,,,,,,,,,,,,,,,,,,,,,,,
1720159290,83,0,4315.384766,4275,4294.102539,4296.666504,4253.333496,4259.487305,4272.94873,4281.410156,4284.230957,4235.897461,4420.384766,4457.179688,4343.333496,4375.128418,,,,,,,,,,,,,,,,,,,,,,,,,,,,,,,,,,,,,,,,,,,,,,,,,,,,,,,,,,,,,,,,,,,,,,
1720159290,84,0,4314.102539,4277.563965,4294.102539,4298.846191,4258.846191,4261.025879,4287.692383,4293.589844,4292.563965,4238.717773,4425.256348,4470.256348,4337.563965,4373.333496,,,,,,,,,,,,,,,,,,,,,,,,,,,,,,,,,,,,,,,,,,,,,,,,,,,,,,,,,,,,,,,,,,,,,,
1720159290,85,0,4303.589844,4269.743652,4288.589844,4311.153809,4243.205078,4265,4302.179688,4296.410156,4295.769043,4235.128418,4426.922852,4467.563965,4336.666504,4359.358887,,,,,,,,,,,,,,,,,,,,,,,,,,,,,,,,,,,,,,,,,,,,,,,,,,,,,,,,,,,,,,,,,,,,,,
1720159290,86,0,4303.589844,4265.384766,4286.922852,4309.487305,4236.794922,4272.820313,4300.769043,4294.230957,4293.205078,4230.641113,4421.410156,4458.461426,4337.94873,4370.641113,,,,,,,,,,,,,,,,,,,,,,,,,,,,,,,,,,,,,,,,,,,,,,,,,,,,,,,,,,,,,,,,,,,,,,
1720159290,87,0,4309.230957,4273.205078,4285.128418,4297.563965,4243.974121,4277.436035,4296.538574,4291.538574,4283.333496,4226.410156,4410.512695,4450.384766,4331.025879,4362.94873,,,,,,,,,,,,,,,,,,,,,,,,,,,,,,,,,,,,,,,,,,,,,,,,,,,,,,,,,,,,,,,,,,,,,,
1720159290,88,0,4314.487305,4274.871582,4285.641113,4294.871582,4245.128418,4271.025879,4292.05127,4284.615234,4272.692383,4225.256348,4411.922852,4451.922852,4323.333496,4360.128418,,,,,,,,,,,,,,,,,,,,,,,,,,,,,,,,,,,,,,,,,,,,,,,,,,,,,,,,,,,,,,,,,,,,,,
1720159290,89,0,4311.410156,4264.102539,4284.358887,4295.256348,4243.589844,4261.666504,4269.102539,4271.153809,4264.743652,4223.589844,4416.153809,4452.307617,4322.179688,4367.307617,,,,,,,,,,,,,,,,,,,,,,,,,,,,,,,,,,,,,,,,,,,,,,,,,,,,,,,,,,,,,,,,,,,,,,
1720159290,90,0,4301.922852,4255.384766,4277.563965,4290.384766,4244.743652,4253.077148,4237.307617,4249.615234,4253.461426,4220.769043,4403.077148,4436.666504,4317.05127,4357.05127,,,,,,,,,,,,,,,,,,,,,,,,,,,,,,,,,,,,,,,,,,,,,,,,,,,,,,,,,,,,,,,,,,,,,,
1720159290,91,0,4302.563965,4252.563965,4273.589844,4289.230957,4243.717773,4248.205078,4229.743652,4239.743652,4246.538574,4222.436035,4391.153809,4426.794922,4311.538574,4356.282227,,,,,,,,,,,,,,,,,,,,,,,,,,,,,,,,,,,,,,,,,,,,,,,,,,,,,,,,,,,,,,,,,,,,,,
1720159290,92,0,4308.077148,4251.922852,4273.846191,4293.333496,4243.205078,4253.589844,4246.922852,4255.256348,4247.94873,4223.205078,4393.974121,4433.974121,4311.538574,4367.436035,0.597621,0.517017,0.161214,0.201766,0.158697,1.299532,0.61766,0.367956,0.408111,0.10611,1.564185,0.960756,0.426326,0.530399,0.196572,0.657325,0.21846,0.13339,0.43514,0.23123,0.054165,0.013718,0.025704,0.017674,0.05639,0.458352,0.169722,0.230748,0.115068,0.075024,1.493861,1.027454,0.696006,0.63482,0.080401,0.403368,0.522539,0.518167,0.249062,0.104356,0.441451,1.287675,0.986316,0.596518,0.076155,2.08314,0.263129,0.340416,0.161539,0.134556,0.651878,0.706274,0.310469,0.268801,0.244532,1.738951,1.793207,0.598247,0.668881,0.238818,1.625075,0.513227,0.461395,0.450815,0.292174,0.310245,0.187138,0.120475,0.186825,1.132173
1720159290,93,0,4300.769043,4255,4272.94873,4295.128418,4242.05127,4262.692383,4259.871582,4263.333496,4248.589844,4215,4392.179688,4429.230957,4308.589844,4346.794922,,,,,,,,,,,,,,,,,,,,,,,,,,,,,,,,,,,,,,,,,,,,,,,,,,,,,,,,,,,,,,,,,,,,,,
1720159290,94,0,4299.743652,4261.538574,4274.358887,4295.128418,4248.333496,4262.307617,4263.974121,4266.922852,4251.794922,4218.717773,4394.871582,4423.589844,4308.333496,4350.769043,,,,,,,,,,,,,,,,,,,,,,,,,,,,,,,,,,,,,,,,,,,,,,,,,,,,,,,,,,,,,,,,,,,,,,
1720159290,95,0,4305.641113,4264.871582,4272.94873,4292.692383,4251.666504,4258.205078,4263.717773,4278.205078,4255,4231.153809,4401.666504,4429.358887,4315.256348,4372.307617,,,,,,,,,,,,,,,,,,,,,,,,,,,,,,,,,,,,,,,,,,,,,,,,,,,,,,,,,,,,,,,,,,,,,,
1720159290,96,0,4300.641113,4265.512695,4266.922852,4293.461426,4242.307617,4260.512695,4261.025879,4274.743652,4253.846191,4232.563965,4395.512695,4427.94873,4315.128418,4353.846191,,,,,,,,,,,,,,,,,,,,,,,,,,,,,,,,,,,,,,,,,,,,,,,,,,,,,,,,,,,,,,,,,,,,,,
1720159290,97,0,4301.538574,4267.179688,4271.538574,4297.563965,4241.025879,4266.025879,4266.666504,4272.820313,4258.461426,4237.436035,4395,4435.128418,4309.615234,4350.512695,,,,,,,,,,,,,,,,,,,,,,,,,,,,,,,,,,,,,,,,,,,,,,,,,,,,,,,,,,,,,,,,,,,,,,
1720159290,98,0,4304.743652,4262.94873,4277.05127,4294.487305,4243.205078,4266.666504,4272.692383,4279.743652,4265.769043,4248.589844,4406.922852,4446.666504,4318.717773,4361.410156,,,,,,,,,,,,,,,,,,,,,,,,,,,,,,,,,,,,,,,,,,,,,,,,,,,,,,,,,,,,,,,,,,,,,,
1720159290,99,0,4303.333496,4258.205078,4276.666504,4292.179688,4243.077148,4262.563965,4266.282227,4275.641113,4263.077148,4257.179688,4417.179688,4448.846191,4334.871582,4364.743652,,,,,,,,,,,,,,,,,,,,,,,,,,,,,,,,,,,,,,,,,,,,,,,,,,,,,,,,,,,,,,,,,,,,,,
1720159290,100,0,4306.794922,4266.025879,4277.436035,4295.641113,4241.282227,4260.769043,4256.538574,4266.025879,4256.794922,4265.128418,4415.641113,4446.794922,4338.717773,4365.897461,,,,,,,,,,,,,,,,,,,,,,,,,,,,,,,,,,,,,,,,,,,,,,,,,,,,,,,,,,,,,,,,,,,,,,
1720159290,101,0,4309.487305,4273.974121,4281.282227,4295,4235.897461,4261.922852,4252.820313,4259.102539,4249.358887,4264.615234,4403.974121,4442.94873,4329.487305,4363.461426,,,,,,,,,,,,,,,,,,,,,,,,,,,,,,,,,,,,,,,,,,,,,,,,,,,,,,,,,,,,,,,,,,,,,,
1720159290,102,0,4307.692383,4271.025879,4287.563965,4296.538574,4236.025879,4262.563965,4253.717773,4255.384766,4239.743652,4261.538574,4400.769043,4447.05127,4326.282227,4364.743652,,,,,,,,,,,,,,,,,,,,,,,,,,,,,,,,,,,,,,,,,,,,,,,,,,,,,,,,,,,,,,,,,,,,,,
1720159290,103,0,4309.743652,4273.333496,4285.512695,4302.436035,4237.563965,4261.282227,4250,4251.922852,4236.666504,4268.589844,4406.153809,4450,4333.589844,4364.743652,,,,,,,,,,,,,,,,,,,,,,,,,,,,,,,,,,,,,,,,,,,,,,,,,,,,,,,,,,,,,,,,,,,,,,
1720159290,104,0,4311.153809,4275.641113,4277.307617,4299.743652,4236.025879,4257.307617,4242.436035,4253.205078,4235.641113,4274.871582,4399.102539,4438.205078,4328.461426,4361.410156,,,,,,,,,,,,,,,,,,,,,,,,,,,,,,,,,,,,,,,,,,,,,,,,,,,,,,,,,,,,,,,,,,,,,,
1720159290,105,0,4306.794922,4267.94873,4275.641113,4294.230957,4239.230957,4249.358887,4243.974121,4262.563965,4231.666504,4273.461426,4386.410156,4426.922852,4311.794922,4360.641113,,,,,,,,,,,,,,,,,,,,,,,,,,,,,,,,,,,,,,,,,,,,,,,,,,,,,,,,,,,,,,,,,,,,,,
1720159290,106,0,4307.820313,4267.179688,4279.102539,4295.512695,4240.256348,4251.794922,4257.94873,4275.512695,4231.410156,4279.358887,4393.589844,4436.538574,4315.512695,4364.102539,,,,,,,,,,,,,,,,,,,,,,,,,,,,,,,,,,,,,,,,,,,,,,,,,,,,,,,,,,,,,,,,,,,,,,
1720159290,107,0,4307.820313,4270.641113,4280.769043,4293.461426,4235.256348,4265.128418,4272.436035,4283.077148,4233.461426,4288.717773,4405.384766,4445.897461,4328.205078,4352.820313,,,,,,,,,,,,,,,,,,,,,,,,,,,,,,,,,,,,,,,,,,,,,,,,,,,,,,,,,,,,,,,,,,,,,,
1720159290,108,0,4305.256348,4264.871582,4279.871582,4293.461426,4238.589844,4265.897461,4274.358887,4281.282227,4229.102539,4293.717773,4402.05127,4440.128418,4317.820313,4365.897461,0.72145,0.460603,0.204091,0.277967,0.151704,1.436096,0.626158,0.396966,0.521703,0.109189,1.998998,0.995924,0.515848,0.73911,0.196128,0.823326,0.227449,0.166588,0.449414,0.250305,0.052571,0.014593,0.021042,0.01528,0.056887,0.448691,0.179248,0.243429,0.143036,0.071178,1.55678,1.11101,1.007021,0.836213,0.085022,0.3569,0.549773,0.664084,0.300498,0.101614,0.386525,1.168581,1.15087,0.698364,0.07471,2.200813,0.259562,0.376417,0.168755,0.125418,0.715517,0.790765,0.335211,0.292476,0.248681,2.138085,2.155067,0.878483,0.899707,0.243004,1.774065,0.486887,0.542603,0.526039,0.349045,0.338463,0.159182,0.135729,0.257012,1.171902
1720159290,109,0,4300,4257.436035,4272.692383,4292.94873,4240.641113,4258.846191,4264.230957,4274.102539,4219.358887,4294.615234,4393.974121,4430.641113,4301.410156,4370.384766,,,,,,,,,,,,,,,,,,,,,,,,,,,,,,,,,,,,,,,,,,,,,,,,,,,,,,,,,,,,,,,,,,,,,,
1720159290,110,0,4288.333496,4250.384766,4262.94873,4281.410156,4235.384766,4258.974121,4253.974121,4267.05127,4216.794922,4293.461426,4395.128418,4423.974121,4310.384766,4338.333496,,,,,,,,,,,,,,,,,,,,,,,,,,,,,,,,,,,,,,,,,,,,,,,,,,,,,,,,,,,,,,,,,,,,,,
1720159290,111,0,4295.897461,4248.077148,4262.692383,4282.94873,4237.436035,4256.794922,4242.05127,4261.282227,4226.025879,4303.717773,4408.717773,4434.743652,4333.589844,4360,,,,,,,,,,,,,,,,,,,,,,,,,,,,,,,,,,,,,,,,,,,,,,,,,,,,,,,,,,,,,,,,,,,,,,
1720159290,112,0,4303.717773,4253.974121,4261.922852,4291.153809,4240.256348,4249.487305,4231.282227,4253.974121,4232.692383,4313.717773,4410.897461,4443.077148,4334.102539,4373.461426,,,,,,,,,,,,,,,,,,,,,,,,,,,,,,,,,,,,,,,,,,,,,,,,,,,,,,,,,,,,,,,,,,,,,,
1720159290,113,0,4293.333496,4251.025879,4265.128418,4281.282227,4238.461426,4250,4239.487305,4255.641113,4230.256348,4305.897461,4402.94873,4438.333496,4319.615234,4351.666504,,,,,,,,,,,,,,,,,,,,,,,,,,,,,,,,,,,,,,,,,,,,,,,,,,,,,,,,,,,,,,,,,,,,,,
1720159290,114,0,4294.230957,4247.436035,4274.871582,4280.641113,4240.641113,4259.102539,4258.589844,4264.871582,4228.205078,4294.743652,4406.666504,4439.615234,4323.077148,4363.461426,,,,,,,,,,,,,,,,,,,,,,,,,,,,,,,,,,,,,,,,,,,,,,,,,,,,,,,,,,,,,,,,,,,,,,
1720159290,115,0,4299.487305,4254.358887,4265.641113,4291.282227,4243.461426,4261.538574,4263.333496,4267.05127,4225.512695,4288.461426,4403.589844,4430.128418,4322.307617,4360,,,,,,,,,,,,,,,,,,,,,,,,,,,,,,,,,,,,,,,,,,,,,,,,,,,,,,,,,,,,,,,,,,,,,,
1720159290,116,0,4289.358887,4250.512695,4253.717773,4282.179688,4241.282227,4253.846191,4257.307617,4266.025879,4218.846191,4279.743652,4390,4417.05127,4303.333496,4345.769043,,,,,,,,,,,,,,,,,,,,,,,,,,,,,,,,,,,,,,,,,,,,,,,,,,,,,,,,,,,,,,,,,,,,,,
1720159290,117,0,4283.077148,4240.641113,4260,4271.538574,4241.153809,4248.589844,4252.94873,4267.94873,4215.641113,4273.205078,4386.538574,4419.487305,4294.615234,4357.820313,,,,,,,,,,,,,,,,,,,,,,,,,,,,,,,,,,,,,,,,,,,,,,,,,,,,,,,,,,,,,,,,,,,,,,
1720159290,118,0,4290.769043,4248.974121,4265.256348,4282.179688,4243.333496,4250,4247.692383,4264.230957,4215,4266.666504,4390.769043,4420.641113,4300.641113,4355,,,,,,,,,,,,,,,,,,,,,,,,,,,,,,,,,,,,,,,,,,,,,,,,,,,,,,,,,,,,,,,,,,,,,,
1720159290,119,0,4296.410156,4258.333496,4265.641113,4284.743652,4239.871582,4253.333496,4244.358887,4256.794922,4213.589844,4252.94873,4392.307617,4414.230957,4304.487305,4344.743652,,,,,,,,,,,,,,,,,,,,,,,,,,,,,,,,,,,,,,,,,,,,,,,,,,,,,,,,,,,,,,,,,,,,,,
1720159290,120,0,4296.410156,4253.846191,4272.692383,4282.436035,4238.461426,4254.102539,4250,4261.794922,4220.769043,4246.794922,4395.256348,4423.077148,4303.974121,4367.307617,,,,,,,,,,,,,,,,,,,,,,,,,,,,,,,,,,,,,,,,,,,,,,,,,,,,,,,,,,,,,,,,,,,,,,
1720159290,121,0,4291.153809,4253.717773,4267.820313,4290.128418,4237.692383,4251.282227,4253.333496,4263.077148,4232.820313,4248.974121,4392.820313,4428.589844,4300.256348,4362.05127,,,,,,,,,,,,,,,,,,,,,,,,,,,,,,,,,,,,,,,,,,,,,,,,,,,,,,,,,,,,,,,,,,,,,,
1720159290,122,0,4292.05127,4257.307617,4258.974121,4288.461426,4240,4253.717773,4247.179688,4252.692383,4240.897461,4244.358887,4389.743652,4423.205078,4300.769043,4345.769043,,,,,,,,,,,,,,,,,,,,,,,,,,,,,,,,,,,,,,,,,,,,,,,,,,,,,,,,,,,,,,,,,,,,,,
1720159290,123,0,4302.307617,4258.589844,4270.897461,4281.794922,4244.871582,4258.205078,4236.666504,4247.94873,4245.256348,4236.666504,4398.205078,4435.128418,4309.871582,4362.179688,,,,,,,,,,,,,,,,,,,,,,,,,,,,,,,,,,,,,,,,,,,,,,,,,,,,,,,,,,,,,,,,,,,,,,
1720159290,124,0,4306.282227,4265.769043,4282.692383,4289.871582,4240.512695,4252.94873,4232.05127,4246.538574,4250,4232.692383,4401.666504,4445.128418,4315.384766,4363.077148,0.823165,0.434546,0.272462,0.374854,0.151302,1.451678,0.666286,0.455985,0.649526,0.114241,2.384901,1.102376,0.722083,1.025171,0.197293,0.970236,0.246517,0.254146,0.459654,0.268387,0.0648,0.017686,0.018974,0.015953,0.059051,0.451756,0.215289,0.268687,0.18019,0.070336,1.620118,1.254989,1.585549,1.070422,0.093864,0.327649,0.685567,0.920356,0.361893,0.102989,0.436956,1.368263,1.412778,0.785783,0.077599,2.038206,0.318541,0.40692,0.180754,0.116846,0.794426,0.870861,0.426723,0.328803,0.258379,2.440784,2.398148,1.310222,1.236104,0.247532,1.811181,0.534066,0.679573,0.614607,0.397496,0.375799,0.147648,0.188831,0.334538,1.204954
1720159290,125,0,4308.461426,4273.461426,4284.487305,4299.358887,4240.128418,4250.512695,4244.487305,4253.461426,4256.410156,4232.692383,4401.282227,4447.436035,4316.282227,4361.153809,,,,,,,,,,,,,,,,,,,,,,,,,,,,,,,,,,,,,,,,,,,,,,,,,,,,,,,,,,,,,,,,,,,,,,
1720159290,126,0,4303.077148,4268.205078,4278.077148,4293.333496,4242.179688,4259.743652,4260.128418,4264.615234,4260.641113,4227.692383,4399.102539,4444.743652,4310.769043,4360,,,,,,,,,,,,,,,,,,,,,,,,,,,,,,,,,,,,,,,,,,,,,,,,,,,,,,,,,,,,,,,,,,,,,,
1720159290,127,0,4291.153809,4256.282227,4266.922852,4287.05127,4239.743652,4266.666504,4267.436035,4269.871582,4266.025879,4220.256348,4389.615234,4430.641113,4294.871582,4348.077148,,,,,,,,,,,,,,,,,,,,,,,,,,,,,,,,,,,,,,,,,,,,,,,,,,,,,,,,,,,,,,,,,,,,,,
1720159290,0,0,4284.358887,4247.94873,4260.512695,4282.94873,4241.538574,4263.589844,4268.461426,4272.94873,4264.871582,4218.846191,4388.717773,4423.974121,4287.820313,4347.692383,,,,,,,,,,,,,,,,,,,,,,,,,,,,,,,,,,,,,,,,,,,,,,,,,,,,,,,,,,,,,,,,,,,,,,
1720159290,1,0,4285.897461,4249.230957,4256.922852,4278.461426,4240,4254.230957,4255,4265.769043,4255,4217.820313,4394.871582,4425.769043,4299.743652,4356.794922,,,,,,,,,,,,,,,,,,,,,,,,,,,,,,,,,,,,,,,,,,,,,,,,,,,,,,,,,,,,,,,,,,,,,,
1720159290,2,0,4294.871582,4260.897461,4258.846191,4288.717773,4234.487305,4249.487305,4239.743652,4255.384766,4252.05127,4216.922852,4395.641113,4427.563965,4310.641113,4357.820313,,,,,,,,,,,,,,,,,,,,,,,,,,,,,,,,,,,,,,,,,,,,,,,,,,,,,,,,,,,,,,,,,,,,,,
1720159290,3,0,4297.820313,4267.94873,4265.769043,4292.05127,4233.333496,4253.846191,4236.410156,4254.102539,4255.641113,4220.128418,4394.615234,4424.358887,4311.282227,4352.820313,,,,,,,,,,,,,,,,,,,,,,,,,,,,,,,,,,,,,,,,,,,,,,,,,,,,,,,,,,,,,,,,,,,,,,
1720159290,4,0,4288.717773,4259.230957,4264.102539,4279.358887,4235.512695,4252.436035,4231.922852,4251.538574,4250.769043,4221.153809,4393.205078,4419.102539,4308.205078,4352.563965,,,,,,,,,,,,,,,,,,,,,,,,,,,,,,,,,,,,,,,,,,,,,,,,,,,,,,,,,,,,,,,,,,,,,,
1720159290,5,0,4278.974121,4243.333496,4249.230957,4274.358887,4236.794922,4245.641113,4224.358887,4249.102539,4247.307617,4214.487305,4389.358887,4416.282227,4304.102539,4355.128418,,,,,,,,,,,,,,,,,,,,,,,,,,,,,,,,,,,,,,,,,,,,,,,,,,,,,,,,,,,,,,,,,,,,,,
1720159290,6,0,4278.205078,4238.077148,4241.410156,4278.333496,4235.641113,4248.077148,4224.102539,4247.563965,4248.589844,4206.666504,4387.179688,4416.666504,4299.743652,4358.077148,,,,,,,,,,,,,,,,,,,,,,,,,,,,,,,,,,,,,,,,,,,,,,,,,,,,,,,,,,,,,,,,,,,,,,
1720159291,7,0,4277.179688,4244.615234,4242.94873,4274.743652,4233.974121,4254.487305,4229.615234,4245.256348,4246.025879,4196.922852,4383.717773,4413.717773,4294.102539,4338.846191,,,,,,,,,,,,,,,,,,,,,,,,,,,,,,,,,,,,,,,,,,,,,,,,,,,,,,,,,,,,,,,,,,,,,,
1720159291,8,0,4282.692383,4248.333496,4252.820313,4275.897461,4236.025879,4257.307617,4243.589844,4257.692383,4255.641113,4188.205078,4387.307617,4421.282227,4294.358887,4349.230957,,,,,,,,,,,,,,,,,,,,,,,,,,,,,,,,,,,,,,,,,,,,,,,,,,,,,,,,,,,,,,,,,,,,,,
1720159291,9,0,4289.743652,4247.179688,4261.410156,4284.230957,4240,4253.333496,4255.641113,4271.794922,4268.333496,4185.384766,4403.077148,4439.102539,4302.307617,4377.05127,,,,,,,,,,,,,,,,,,,,,,,,,,,,,,,,,,,,,,,,,,,,,,,,,,,,,,,,,,,,,,,,,,,,,,
1720159291,10,0,4279.487305,4247.94873,4251.922852,4274.615234,4235.769043,4246.666504,4252.692383,4266.922852,4263.974121,4175.897461,4397.94873,4428.974121,4296.538574,4340.512695,,,,,,,,,,,,,,,,,,,,,,,,,,,,,,,,,,,,,,,,,,,,,,,,,,,,,,,,,,,,,,,,,,,,,,
1720159291,11,0,4280.641113,4253.333496,4248.846191,4269.871582,4228.461426,4248.589844,4248.974121,4261.153809,4260.897461,4167.05127,4386.538574,4416.153809,4287.05127,4334.102539,,,,,,,,,,,,,,,,,,,,,,,,,,,,,,,,,,,,,,,,,,,,,,,,,,,,,,,,,,,,,,,,,,,,,,
1720159291,12,0,4282.692383,4251.794922,4250.512695,4279.230957,4222.692383,4251.538574,4248.717773,4261.666504,4268.077148,4164.743652,4391.538574,4419.487305,4290.641113,4358.717773,0.833334,0.430803,0.356177,0.456716,0.15682,1.327466,0.710017,0.534681,0.734784,0.121572,2.583223,1.232376,1.01686,1.289592,0.194836,1.008824,0.26271,0.379861,0.44681,0.277437,0.107683,0.024108,0.021183,0.020612,0.063344,0.459352,0.298277,0.304864,0.225502,0.072039,1.590028,1.614876,2.427769,1.306907,0.105889,0.295968,1.053226,1.281341,0.421981,0.108159,0.568915,1.893394,1.708044,0.818948,0.083982,1.647982,0.423354,0.408871,0.184119,0.109514,0.817999,0.974473,0.550151,0.35954,0.274769,2.47509,2.495098,1.792998,1.556527,0.253348,1.676703,0.668898,0.842454,0.677211,0.431558,0.384533,0.148454,0.267644,0.395303,1.215406
1720159291,13,0,4266.922852,4241.666504,4236.666504,4273.846191,4217.94873,4246.794922,4241.794922,4255.256348,4263.077148,4161.666504,4385.512695,4407.563965,4286.410156,4339.871582,,,,,,,,,,,,,,,,,,,,,,,,,,,,,,,,,,,,,,,,,,,,,,,,,,,,,,,,,,,,,,,,,,,,,,
1720159291,14,0,4266.794922,4239.102539,4231.922852,4268.077148,4220.256348,4244.358887,4236.666504,4249.358887,4250.769043,4165.769043,4375.384766,4399.615234,4277.692383,4339.743652,,,,,,,,,,,,,,,,,,,,,,,,,,,,,,,,,,,,,,,,,,,,,,,,,,,,,,,,,,,,,,,,,,,,,,
1720159291,15,0,4273.461426,4244.230957,4239.358887,4276.282227,4223.846191,4248.077148,4241.025879,4253.205078,4253.205078,4169.615234,4379.102539,4405.512695,4282.307617,4345.897461,,,,,,,,,,,,,,,,,,,,,,,,,,,,,,,,,,,,,,,,,,,,,,,,,,,,,,,,,,,,,,,,,,,,,,
1720159291,16,0,4268.974121,4246.025879,4244.487305,4277.94873,4219.487305,4249.743652,4247.94873,4257.820313,4260.256348,4162.563965,4381.922852,4408.589844,4280.897461,4335.897461,,,,,,,,,,,,,,,,,,,,,,,,,,,,,,,,,,,,,,,,,,,,,,,,,,,,,,,,,,,,,,,,,,,,,,
1720159291,17,0,4268.974121,4243.205078,4249.358887,4275.512695,4216.666504,4250.769043,4252.307617,4261.666504,4263.205078,4160.641113,4380.641113,4412.436035,4271.025879,4345.128418,,,,,,,,,,,,,,,,,,,,,,,,,,,,,,,,,,,,,,,,,,,,,,,,,,,,,,,,,,,,,,,,,,,,,,
1720159291,18,0,4270.384766,4241.025879,4245.256348,4282.563965,4217.94873,4252.307617,4245.769043,4264.743652,4269.358887,4168.333496,4386.153809,4416.153809,4280.769043,4346.794922,,,,,,,,,,,,,,,,,,,,,,,,,,,,,,,,,,,,,,,,,,,,,,,,,,,,,,,,,,,,,,,,,,,,,,
1720159291,19,0,4266.794922,4246.282227,4234.615234,4279.871582,4215.384766,4251.025879,4228.846191,4255.512695,4278.461426,4172.820313,4392.436035,4410.897461,4300.512695,4332.563965,,,,,,,,,,,,,,,,,,,,,,,,,,,,,,,,,,,,,,,,,,,,,,,,,,,,,,,,,,,,,,,,,,,,,,
1720159291,20,0,4277.05127,4255.897461,4248.077148,4276.666504,4215.384766,4251.794922,4228.589844,4255.128418,4280,4180.769043,4396.538574,4421.922852,4304.743652,4356.025879,,,,,,,,,,,,,,,,,,,,,,,,,,,,,,,,,,,,,,,,,,,,,,,,,,,,,,,,,,,,,,,,,,,,,,
1720159291,21,0,4281.922852,4259.615234,4267.94873,4286.410156,4212.820313,4251.153809,4241.410156,4266.025879,4266.794922,4188.589844,4393.717773,4436.410156,4294.871582,4362.307617,,,,,,,,,,,,,,,,,,,,,,,,,,,,,,,,,,,,,,,,,,,,,,,,,,,,,,,,,,,,,,,,,,,,,,
1720159291,22,0,4269.487305,4254.487305,4260.256348,4283.846191,4206.282227,4247.436035,4247.307617,4262.94873,4251.666504,4185.128418,4383.717773,4421.666504,4282.307617,4334.102539,,,,,,,,,,,,,,,,,,,,,,,,,,,,,,,,,,,,,,,,,,,,,,,,,,,,,,,,,,,,,,,,,,,,,,
1720159291,23,0,4269.358887,4251.922852,4252.05127,4282.563965,4209.102539,4249.102539,4253.974121,4261.794922,4247.563965,4180.897461,4383.077148,4417.307617,4281.410156,4343.333496,,,,,,,,,,,,,,,,,,,,,,,,,,,,,,,,,,,,,,,,,,,,,,,,,,,,,,,,,,,,,,,,,,,,,,
1720159291,24,0,4271.538574,4253.461426,4257.179688,4293.589844,4209.358887,4251.410156,4256.922852,4265.769043,4249.487305,4178.205078,4385.128418,4425.512695,4285.641113,4351.282227,,,,,,,,,,,,,,,,,,,,,,,,,,,,,,,,,,,,,,,,,,,,,,,,,,,,,,,,,,,,,,,,,,,,,,
1720159291,25,0,4265.897461,4248.205078,4259.487305,4296.538574,4210.384766,4246.153809,4250.641113,4260.641113,4247.563965,4176.538574,4383.461426,4419.615234,4282.436035,4344.358887,,,,,,,,,,,,,,,,,,,,,,,,,,,,,,,,,,,,,,,,,,,,,,,,,,,,,,,,,,,,,,,,,,,,,,
1720159291,26,0,4262.563965,4243.974121,4251.666504,4300,4217.94873,4244.102539,4243.333496,4248.589844,4240.641113,4177.05127,4381.922852,4408.333496,4279.871582,4345,,,,,,,,,,,,,,,,,,,,,,,,,,,,,,,,,,,,,,,,,,,,,,,,,,,,,,,,,,,,,,,,,,,,,,
1720159291,27,0,4259.358887,4250.256348,4243.974121,4309.871582,4217.563965,4251.922852,4231.794922,4238.846191,4236.410156,4168.461426,4378.589844,4403.333496,4283.333496,4342.307617,,,,,,,,,,,,,,,,,,,,,,,,,,,,,,,,,,,,,,,,,,,,,,,,,,,,,,,,,,,,,,,,,,,,,,
1720159291,28,0,4256.538574,4251.922852,4247.307617,4306.410156,4215.384766,4253.717773,4218.205078,4238.717773,4243.333496,4155.384766,4374.743652,4405.512695,4282.436035,4340.128418,0.771877,0.426245,0.436719,0.500762,0.164401,1.126854,0.71881,0.614398,0.752958,0.131129,2.546104,1.309518,1.319841,1.455671,0.184969,0.945396,0.262454,0.515068,0.41372,0.273827,0.186736,0.034725,0.029402,0.02887,0.069478,0.447305,0.429307,0.349772,0.275191,0.075649,1.400279,2.285084,3.439485,1.511519,0.120934,0.252685,1.724369,1.723469,0.474303,0.115864,0.74918,2.679265,1.956814,0.783497,0.092016,1.354343,0.561632,0.376121,0.176093,0.104437,0.780535,1.130447,0.652774,0.380736,0.295326,2.227775,2.485111,2.195685,1.766674,0.26132,1.444055,0.894798,0.999006,0.706249,0.450707,0.374614,0.15366,0.347152,0.42135,1.190954
1720159291,29,0,4257.820313,4244.102539,4248.333496,4305.769043,4214.358887,4245.384766,4213.589844,4239.230957,4256.794922,4151.794922,4375.384766,4405.897461,4277.94873,4341.922852,,,,,,,,,,,,,,,,,,,,,,,,,,,,,,,,,,,,,,,,,,,,,,,,,,,,,,,,,,,,,,,,,,,,,,
1720159291,30,0,4263.333496,4246.410156,4245.769043,4323.205078,4211.153809,4243.205078,4221.410156,4245,4269.615234,4154.102539,4381.794922,4408.589844,4282.692383,4345.128418,,,,,,,,,,,,,,,,,,,,,,,,,,,,,,,,,,,,,,,,,,,,,,,,,,,,,,,,,,,,,,,,,,,,,,
1720159291,31,0,4265.769043,4252.563965,4249.102539,4327.05127,4211.153809,4246.538574,4234.743652,4260,4278.333496,4147.05127,4385.384766,4414.102539,4284.230957,4342.05127,,,,,,,,,,,,,,,,,,,,,,,,,,,,,,,,,,,,,,,,,,,,,,,,,,,,,,,,,,,,,,,,,,,,,,
1720159291,32,0,4265.128418,4249.102539,4257.436035,4328.205078,4211.666504,4251.794922,4247.94873,4267.179688,4285,4134.615234,4381.794922,4420.512695,4277.307617,4341.538574,,,,,,,,,,,,,,,,,,,,,,,,,,,,,,,,,,,,,,,,,,,,,,,,,,,,,,,,,,,,,,,,,,,,,,
1720159291,33,0,4261.794922,4249.358887,4260.641113,4342.307617,4214.102539,4258.846191,4256.794922,4264.487305,4289.743652,4125.384766,4382.692383,4423.589844,4274.615234,4343.717773,,,,,,,,,,,,,,,,,,,,,,,,,,,,,,,,,,,,,,,,,,,,,,,,,,,,,,,,,,,,,,,,,,,,,,
1720159291,34,0,4258.077148,4254.615234,4252.94873,4342.307617,4212.307617,4257.563965,4256.153809,4262.820313,4290.384766,4112.179688,4386.282227,4418.846191,4275.384766,4345.641113,,,,,,,,,,,,,,,,,,,,,,,,,,,,,,,,,,,,,,,,,,,,,,,,,,,,,,,,,,,,,,,,,,,,,,
1720159291,35,0,4256.025879,4254.358887,4246.666504,4338.461426,4201.666504,4250,4251.153809,4259.871582,4289.358887,4096.666504,4378.589844,4410.384766,4272.436035,4333.333496,,,,,,,,,,,,,,,,,,,,,,,,,,,,,,,,,,,,,,,,,,,,,,,,,,,,,,,,,,,,,,,,,,,,,,
1720159291,36,0,4258.077148,4253.333496,4249.743652,4354.615234,4198.974121,4250,4248.333496,4257.179688,4292.94873,4088.718018,4376.538574,4409.358887,4266.922852,4339.102539,,,,,,,,,,,,,,,,,,,,,,,,,,,,,,,,,,,,,,,,,,,,,,,,,,,,,,,,,,,,,,,,,,,,,,
1720159291,37,0,4261.153809,4254.615234,4250.641113,4365.512695,4204.358887,4250.897461,4240.641113,4254.743652,4296.538574,4082.94873,4384.358887,4414.230957,4263.974121,4365.897461,,,,,,,,,,,,,,,,,,,,,,,,,,,,,,,,,,,,,,,,,,,,,,,,,,,,,,,,,,,,,,,,,,,,,,
1720159291,38,0,4253.589844,4255.128418,4242.179688,4360.641113,4200.384766,4246.025879,4227.436035,4246.153809,4290.897461,4071.025635,4376.153809,4404.487305,4261.410156,4334.487305,,,,,,,,,,,,,,,,,,,,,,,,,,,,,,,,,,,,,,,,,,,,,,,,,,,,,,,,,,,,,,,,,,,,,,
1720159291,39,0,4260.256348,4261.025879,4251.794922,4373.333496,4198.974121,4245.384766,4224.871582,4241.666504,4288.717773,4068.974365,4375.256348,4407.94873,4270.128418,4329.358887,,,,,,,,,,,,,,,,,,,,,,,,,,,,,,,,,,,,,,,,,,,,,,,,,,,,,,,,,,,,,,,,,,,,,,
1720159291,40,0,4275.128418,4269.102539,4273.717773,4387.563965,4206.153809,4251.922852,4230.641113,4247.05127,4298.974121,4078.461426,4393.461426,4431.922852,4284.743652,4370.384766,,,,,,,,,,,,,,,,,,,,,,,,,,,,,,,,,,,,,,,,,,,,,,,,,,,,,,,,,,,,,,,,,,,,,,
1720159291,41,0,4260.897461,4258.717773,4267.436035,4377.436035,4204.743652,4254.358887,4230,4252.820313,4309.358887,4079.871826,4389.871582,4431.538574,4277.94873,4349.230957,,,,,,,,,,,,,,,,,,,,,,,,,,,,,,,,,,,,,,,,,,,,,,,,,,,,,,,,,,,,,,,,,,,,,,
1720159291,42,0,4248.974121,4243.205078,4249.871582,4378.333496,4200.897461,4252.94873,4227.179688,4254.358887,4313.846191,4075.256348,4374.102539,4417.179688,4262.05127,4334.871582,,,,,,,,,,,,,,,,,,,,,,,,,,,,,,,,,,,,,,,,,,,,,,,,,,,,,,,,,,,,,,,,,,,,,,
1720159291,43,0,4256.025879,4246.410156,4246.538574,4393.717773,4204.358887,4254.230957,4232.307617,4256.922852,4310.512695,4075,4373.333496,4409.487305,4258.333496,4349.871582,,,,,,,,,,,,,,,,,,,,,,,,,,,,,,,,,,,,,,,,,,,,,,,,,,,,,,,,,,,,,,,,,,,,,,
1720159291,44,0,4252.820313,4251.922852,4247.563965,4394.230957,4206.025879,4255.256348,4242.05127,4263.589844,4302.436035,4078.589844,4375.641113,4406.410156,4260.256348,4339.358887,0.706895,0.40958,0.488623,0.502281,0.169703,1.047036,0.678038,0.671941,0.711139,0.142347,2.393919,1.292047,1.516711,1.48664,0.168327,0.860412,0.241238,0.620608,0.372052,0.26004,0.300771,0.048945,0.045803,0.039331,0.076077,0.446378,0.582471,0.397867,0.321488,0.081237,1.110631,3.237077,4.440083,1.653928,0.138582,0.211844,2.64964,2.205546,0.513166,0.124113,0.974167,3.619293,2.120489,0.691422,0.10014,1.469848,0.718279,0.325596,0.160731,0.102826,0.709166,1.344106,0.689986,0.393981,0.314516,1.891922,2.463719,2.380506,1.810902,0.271765,1.261516,1.196005,1.118767,0.713508,0.45865,0.365169,0.159992,0.398409,0.408115,1.130045
1720159291,45,0,4249.230957,4248.974121,4250.128418,4392.436035,4203.205078,4251.410156,4245.256348,4262.692383,4294.230957,4077.179443,4373.589844,4407.436035,4262.692383,4335.128418,,,,,,,,,,,,,,,,,,,,,,,,,,,,,,,,,,,,,,,,,,,,,,,,,,,,,,,,,,,,,,,,,,,,,,
1720159291,46,0,4256.153809,4249.743652,4257.563965,4400.512695,4207.692383,4246.410156,4243.461426,4258.589844,4287.692383,4065.897461,4371.794922,4412.307617,4263.846191,4343.077148,,,,,,,,,,,,,,,,,,,,,,,,,,,,,,,,,,,,,,,,,,,,,,,,,,,,,,,,,,,,,,,,,,,,,,
1720159291,47,0,4258.589844,4259.358887,4264.743652,4408.205078,4213.717773,4245.897461,4243.077148,4256.282227,4288.974121,4054.358887,4373.077148,4418.461426,4262.94873,4333.589844,,,,,,,,,,,,,,,,,,,,,,,,,,,,,,,,,,,,,,,,,,,,,,,,,,,,,,,,,,,,,,,,,,,,,,
1720159291,48,0,4263.717773,4265.897461,4271.666504,4417.05127,4212.820313,4255.641113,4248.717773,4258.846191,4303.333496,4050.512939,4379.871582,4425.769043,4266.922852,4347.05127,,,,,,,,,,,,,,,,,,,,,,,,,,,,,,,,,,,,,,,,,,,,,,,,,,,,,,,,,,,,,,,,,,,,,,
1720159291,49,0,4262.94873,4260.641113,4265.128418,4416.153809,4209.487305,4261.922852,4250.384766,4263.589844,4316.153809,4047.820557,4380.641113,4418.589844,4267.563965,4357.820313,,,,,,,,,,,,,,,,,,,,,,,,,,,,,,,,,,,,,,,,,,,,,,,,,,,,,,,,,,,,,,,,,,,,,,
1720159291,50,0,4246.410156,4247.94873,4248.205078,4407.05127,4206.922852,4251.666504,4240.256348,4257.436035,4319.871582,4042.692383,4375.384766,4403.461426,4258.589844,4332.94873,,,,,,,,,,,,,,,,,,,,,,,,,,,,,,,,,,,,,,,,,,,,,,,,,,,,,,,,,,,,,,,,,,,,,,
1720159291,51,0,4250.897461,4246.282227,4251.922852,4410.769043,4209.230957,4244.358887,4235.128418,4252.307617,4320.256348,4042.564209,4381.666504,4415.641113,4263.333496,4340.128418,,,,,,,,,,,,,,,,,,,,,,,,,,,,,,,,,,,,,,,,,,,,,,,,,,,,,,,,,,,,,,,,,,,,,,
1720159291,52,0,4268.846191,4266.922852,4272.05127,4414.102539,4207.436035,4249.487305,4237.179688,4250.769043,4313.717773,4040.641113,4387.94873,4431.666504,4277.179688,4355.384766,,,,,,,,,,,,,,,,,,,,,,,,,,,,,,,,,,,,,,,,,,,,,,,,,,,,,,,,,,,,,,,,,,,,,,
1720159291,53,0,4265.512695,4276.922852,4279.487305,4411.282227,4205.769043,4252.05127,4240.769043,4246.410156,4312.05127,4031.281982,4387.563965,4432.179688,4275,4347.05127,,,,,,,,,,,,,,,,,,,,,,,,,,,,,,,,,,,,,,,,,,,,,,,,,,,,,,,,,,,,,,,,,,,,,,
1720159291,54,0,4255.384766,4262.563965,4271.025879,4410.897461,4210.769043,4250.512695,4247.179688,4251.025879,4325.512695,4026.153809,4387.820313,4432.563965,4266.922852,4344.102539,,,,,,,,,,,,,,,,,,,,,,,,,,,,,,,,,,,,,,,,,,,,,,,,,,,,,,,,,,,,,,,,,,,,,,
1720159291,55,0,4257.436035,4252.436035,4262.563965,4401.922852,4210.256348,4254.743652,4252.05127,4260,4338.974121,4021.923096,4381.025879,4425,4265.128418,4346.025879,,,,,,,,,,,,,,,,,,,,,,,,,,,,,,,,,,,,,,,,,,,,,,,,,,,,,,,,,,,,,,,,,,,,,,
1720159291,56,0,4261.025879,4257.307617,4261.410156,4390.641113,4209.615234,4264.871582,4254.230957,4267.94873,4345.512695,4012.179443,4369.871582,4416.025879,4257.307617,4340.769043,,,,,,,,,,,,,,,,,,,,,,,,,,,,,,,,,,,,,,,,,,,,,,,,,,,,,,,,,,,,,,,,,,,,,,
1720159291,57,0,4252.563965,4255.512695,4254.743652,4389.102539,4211.025879,4267.692383,4251.025879,4265.897461,4345.897461,4005.769287,4369.743652,4410.128418,4248.461426,4332.94873,,,,,,,,,,,,,,,,,,,,,,,,,,,,,,,,,,,,,,,,,,,,,,,,,,,,,,,,,,,,,,,,,,,,,,
1720159291,58,0,4244.615234,4242.307617,4243.717773,4379.871582,4211.025879,4257.436035,4240.384766,4254.230957,4336.282227,4002.435791,4374.615234,4401.538574,4252.307617,4337.307617,,,,,,,,,,,,,,,,,,,,,,,,,,,,,,,,,,,,,,,,,,,,,,,,,,,,,,,,,,,,,,,,,,,,,,
1720159291,59,0,4245.769043,4237.94873,4242.05127,4374.102539,4212.179688,4242.563965,4229.743652,4247.692383,4320.256348,3993.718018,4370.897461,4394.230957,4253.974121,4338.077148,,,,,,,,,,,,,,,,,,,,,,,,,,,,,,,,,,,,,,,,,,,,,,,,,,,,,,,,,,,,,,,,,,,,,,
1720159291,60,0,4250.769043,4247.692383,4251.025879,4383.205078,4212.436035,4237.179688,4229.230957,4244.871582,4309.743652,3984.487061,4367.692383,4401.025879,4250.128418,4336.282227,0.688985,0.385718,0.494967,0.471908,0.170204,1.149138,0.597403,0.690939,0.636125,0.153905,2.213443,1.189159,1.523355,1.391664,0.151419,0.811905,0.203947,0.663679,0.331826,0.243026,0.413422,0.064765,0.07117,0.050576,0.081009,0.449661,0.71462,0.439141,0.353285,0.089067,0.793646,4.335509,5.215168,1.717906,0.15646,0.190586,3.660743,2.66367,0.535332,0.130511,1.234224,4.555063,2.185903,0.573882,0.107448,1.984299,0.862727,0.28003,0.145334,0.104504,0.631845,1.584605,0.647782,0.399855,0.324732,1.604919,2.516569,2.265052,1.680641,0.282954,1.19219,1.526982,1.176801,0.710136,0.457908,0.367944,0.170034,0.401425,0.364003,1.044027
1720159291,61,0,4258.589844,4259.358887,4266.025879,4383.589844,4214.230957,4242.820313,4237.307617,4244.102539,4310.897461,3986.410156,4376.153809,4426.025879,4256.538574,4343.077148,,,,,,,,,,,,,,,,,,,,,,,,,,,,,,,,,,,,,,,,,,,,,,,,,,,,,,,,,,,,,,,,,,,,,,
1720159291,62,0,4268.205078,4265,4281.153809,4380.897461,4215.512695,4250.128418,4243.846191,4249.743652,4330.897461,3998.461426,4394.358887,4446.153809,4271.282227,4358.077148,,,,,,,,,,,,,,,,,,,,,,,,,,,,,,,,,,,,,,,,,,,,,,,,,,,,,,,,,,,,,,,,,,,,,,
1720159291,63,0,4268.461426,4264.743652,4278.333496,4378.077148,4211.153809,4255.641113,4237.307617,4250.384766,4355.769043,4007.307617,4398.974121,4438.717773,4275.384766,4351.153809,,,,,,,,,,,,,,,,,,,,,,,,,,,,,,,,,,,,,,,,,,,,,,,,,,,,,,,,,,,,,,,,,,,,,,
1720159291,64,0,4259.230957,4259.487305,4264.743652,4366.538574,4211.153809,4257.307617,4227.05127,4247.436035,4361.922852,4003.461426,4382.820313,4421.922852,4263.846191,4331.922852,,,,,,,,,,,,,,,,,,,,,,,,,,,,,,,,,,,,,,,,,,,,,,,,,,,,,,,,,,,,,,,,,,,,,,
1720159291,65,0,4260.512695,4258.205078,4266.410156,4365.897461,4217.436035,4262.692383,4235.769043,4254.102539,4358.717773,3997.435791,4377.94873,4429.871582,4258.333496,4355.128418,,,,,,,,,,,,,,,,,,,,,,,,,,,,,,,,,,,,,,,,,,,,,,,,,,,,,,,,,,,,,,,,,,,,,,
1720159291,66,0,4259.487305,4261.666504,4271.153809,4375.897461,4214.871582,4271.282227,4254.615234,4261.538574,4355.512695,3992.94873,4385.769043,4438.461426,4261.282227,4349.871582,,,,,,,,,,,,,,,,,,,,,,,,,,,,,,,,,,,,,,,,,,,,,,,,,,,,,,,,,,,,,,,,,,,,,,
1720159291,67,0,4255.384766,4258.333496,4269.743652,4370.128418,4210.769043,4271.666504,4264.615234,4265.384766,4349.487305,3982.564209,4382.820313,4431.794922,4258.589844,4329.487305,,,,,,,,,,,,,,,,,,,,,,,,,,,,,,,,,,,,,,,,,,,,,,,,,,,,,,,,,,,,,,,,,,,,,,
1720159291,68,0,4260.897461,4256.025879,4272.307617,4359.230957,4215.641113,4263.077148,4262.307617,4265.769043,4341.025879,3977.05127,4377.307617,4431.794922,4248.589844,4352.307617,,,,,,,,,,,,,,,,,,,,,,,,,,,,,,,,,,,,,,,,,,,,,,,,,,,,,,,,,,,,,,,,,,,,,,
1720159291,69,0,4256.922852,4261.794922,4271.794922,4360,4217.563965,4260.769043,4256.922852,4262.179688,4338.077148,3982.435791,4382.436035,4430.641113,4247.307617,4340.512695,,,,,,,,,,,,,,,,,,,,,,,,,,,,,,,,,,,,,,,,,,,,,,,,,,,,,,,,,,,,,,,,,,,,,,
1720159291,70,0,4255.128418,4262.307617,4268.461426,4354.487305,4215.128418,4266.025879,4253.461426,4260.769043,4341.794922,3990.512939,4387.94873,4429.615234,4258.205078,4332.94873,,,,,,,,,,,,,,,,,,,,,,,,,,,,,,,,,,,,,,,,,,,,,,,,,,,,,,,,,,,,,,,,,,,,,,
1720159291,71,0,4257.94873,4251.538574,4266.538574,4341.794922,4215.512695,4264.102539,4242.692383,4256.153809,4342.436035,3998.718018,4386.794922,4429.743652,4263.333496,4356.282227,,,,,,,,,,,,,,,,,,,,,,,,,,,,,,,,,,,,,,,,,,,,,,,,,,,,,,,,,,,,,,,,,,,,,,
1720159291,72,0,4252.692383,4248.974121,4264.230957,4341.666504,4214.358887,4256.666504,4231.025879,4250,4339.871582,4004.102539,4387.94873,4427.563965,4267.436035,4344.230957,,,,,,,,,,,,,,,,,,,,,,,,,,,,,,,,,,,,,,,,,,,,,,,,,,,,,,,,,,,,,,,,,,,,,,
1720159291,73,0,4255.897461,4262.436035,4269.358887,4352.307617,4211.153809,4254.871582,4232.820313,4252.94873,4340.897461,4005.128174,4396.153809,4441.666504,4280,4339.358887,,,,,,,,,,,,,,,,,,,,,,,,,,,,,,,,,,,,,,,,,,,,,,,,,,,,,,,,,,,,,,,,,,,,,,
1720159291,74,0,4269.102539,4271.794922,4282.307617,4353.205078,4216.538574,4256.794922,4247.563965,4265.128418,4347.820313,4006.538574,4404.743652,4459.615234,4282.94873,4364.871582,,,,,,,,,,,,,,,,,,,,,,,,,,,,,,,,,,,,,,,,,,,,,,,,,,,,,,,,,,,,,,,,,,,,,,
1720159291,75,0,4264.358887,4267.05127,4281.282227,4341.922852,4216.794922,4255.256348,4252.94873,4266.025879,4349.487305,4003.974365,4399.358887,4452.05127,4273.974121,4347.436035,,,,,,,,,,,,,,,,,,,,,,,,,,,,,,,,,,,,,,,,,,,,,,,,,,,,,,,,,,,,,,,,,,,,,,
1720159291,76,0,4255.128418,4261.794922,4274.358887,4342.179688,4208.846191,4254.871582,4250.128418,4260.256348,4345,3996.025635,4390.384766,4440.256348,4271.666504,4332.692383,0.715072,0.365954,0.45658,0.430559,0.167327,1.408341,0.502629,0.672745,0.561024,0.165006,2.082129,1.042482,1.335671,1.227018,0.143787,0.742287,0.157739,0.630856,0.298534,0.23039,0.516478,0.080044,0.10342,0.061753,0.082445,0.462604,0.784715,0.460783,0.362896,0.098825,0.57888,5.355086,5.606786,1.707484,0.170796,0.205097,4.513555,3.007271,0.543196,0.133101,1.595725,5.276828,2.154405,0.473957,0.11296,2.998537,0.969043,0.26057,0.135834,0.107722,0.57242,1.789774,0.549336,0.399001,0.320389,1.470134,2.670821,1.890226,1.43052,0.292023,1.256963,1.820486,1.167032,0.705741,0.448262,0.368507,0.189118,0.355302,0.306296,0.956952
1720159291,77,0,4263.461426,4263.333496,4280.512695,4340.512695,4212.307617,4259.743652,4257.179688,4268.461426,4346.153809,3994.743652,4395.897461,4447.820313,4273.077148,4357.436035,,,,,,,,,,,,,,,,,,,,,,,,,,,,,,,,,,,,,,,,,,,,,,,,,,,,,,,,,,,,,,,,,,,,,,
1720159291,78,0,4264.230957,4264.358887,4281.794922,4331.666504,4214.487305,4262.692383,4261.922852,4272.94873,4353.077148,4000.512939,4402.563965,4447.307617,4271.282227,4350.641113,,,,,,,,,,,,,,,,,,,,,,,,,,,,,,,,,,,,,,,,,,,,,,,,,,,,,,,,,,,,,,,,,,,,,,
1720159291,79,0,4258.717773,4263.205078,4276.538574,4334.615234,4211.922852,4265.769043,4262.563965,4275.512695,4363.589844,4007.692383,4404.358887,4444.871582,4274.743652,4342.692383,,,,,,,,,,,,,,,,,,,,,,,,,,,,,,,,,,,,,,,,,,,,,,,,,,,,,,,,,,,,,,,,,,,,,,
1720159291,80,0,4257.820313,4261.794922,4272.94873,4335.641113,4210.384766,4270.512695,4265.769043,4279.230957,4363.077148,4005.641113,4400.641113,4448.077148,4272.820313,4349.487305,,,,,,,,,,,,,,,,,,,,,,,,,,,,,,,,,,,,,,,,,,,,,,,,,,,,,,,,,,,,,,,,,,,,,,
1720159291,81,0,4258.333496,4259.615234,4268.846191,4327.05127,4208.333496,4267.820313,4259.230957,4267.307617,4347.94873,3996.410156,4392.436035,4435.256348,4265,4344.230957,,,,,,,,,,,,,,,,,,,,,,,,,,,,,,,,,,,,,,,,,,,,,,,,,,,,,,,,,,,,,,,,,,,,,,
1720159291,82,0,4256.922852,4255.128418,4261.282227,4320.384766,4209.358887,4262.692383,4247.692383,4257.307617,4339.743652,3995.769287,4389.230957,4424.615234,4264.487305,4341.153809,,,,,,,,,,,,,,,,,,,,,,,,,,,,,,,,,,,,,,,,,,,,,,,,,,,,,,,,,,,,,,,,,,,,,,
1720159291,83,0,4251.666504,4250.641113,4258.205078,4314.615234,4207.94873,4263.974121,4245.512695,4258.205078,4339.615234,3998.076904,4390.256348,4427.307617,4262.94873,4341.153809,,,,,,,,,,,,,,,,,,,,,,,,,,,,,,,,,,,,,,,,,,,,,,,,,,,,,,,,,,,,,,,,,,,,,,
1720159291,84,0,4252.05127,4249.871582,4258.846191,4312.436035,4207.820313,4260.641113,4243.846191,4255.512695,4331.025879,3993.974365,4393.077148,4428.974121,4261.538574,4341.153809,,,,,,,,,,,,,,,,,,,,,,,,,,,,,,,,,,,,,,,,,,,,,,,,,,,,,,,,,,,,,,,,,,,,,,
1720159291,85,0,4255,4254.487305,4255.256348,4321.025879,4209.871582,4251.025879,4230.512695,4248.077148,4321.666504,3994.487061,4396.153809,4427.307617,4265.384766,4339.871582,,,,,,,,,,,,,,,,,,,,,,,,,,,,,,,,,,,,,,,,,,,,,,,,,,,,,,,,,,,,,,,,,,,,,,
1720159291,86,0,4258.077148,4258.589844,4253.717773,4322.563965,4208.846191,4247.94873,4220,4244.615234,4326.153809,4002.05127,4394.615234,4427.820313,4266.153809,4343.974121,,,,,,,,,,,,,,,,,,,,,,,,,,,,,,,,,,,,,,,,,,,,,,,,,,,,,,,,,,,,,,,,,,,,,,
1720159291,87,0,4258.717773,4250.512695,4255.641113,4314.615234,4208.205078,4253.974121,4227.94873,4252.179688,4336.410156,4006.794922,4391.538574,4431.794922,4263.846191,4343.205078,,,,,,,,,,,,,,,,,,,,,,,,,,,,,,,,,,,,,,,,,,,,,,,,,,,,,,,,,,,,,,,,,,,,,,
1720159291,88,0,4252.94873,4243.205078,4252.179688,4311.794922,4207.307617,4254.487305,4238.589844,4260.256348,4340.128418,4007.692383,4395,4430.769043,4265,4341.025879,,,,,,,,,,,,,,,,,,,,,,,,,,,,,,,,,,,,,,,,,,,,,,,,,,,,,,,,,,,,,,,,,,,,,,
1720159291,89,0,4244.487305,4245.769043,4244.487305,4302.307617,4207.563965,4247.692383,4237.692383,4259.487305,4335.769043,4006.153809,4391.025879,4419.358887,4261.410156,4338.333496,,,,,,,,,,,,,,,,,,,,,,,,,,,,,,,,,,,,,,,,,,,,,,,,,,,,,,,,,,,,,,,,,,,,,,
1720159291,90,0,4243.974121,4247.05127,4246.153809,4293.589844,4212.179688,4244.615234,4238.333496,4260.256348,4324.487305,4004.102539,4377.179688,4411.794922,4252.692383,4340.897461,,,,,,,,,,,,,,,,,,,,,,,,,,,,,,,,,,,,,,,,,,,,,,,,,,,,,,,,,,,,,,,,,,,,,,
1720159291,91,0,4249.871582,4248.846191,4249.230957,4298.846191,4211.666504,4250.128418,4246.153809,4262.94873,4316.282227,4003.718018,4378.717773,4419.230957,4256.282227,4345,,,,,,,,,,,,,,,,,,,,,,,,,,,,,,,,,,,,,,,,,,,,,,,,,,,,,,,,,,,,,,,,,,,,,,
1720159291,92,0,4243.846191,4253.846191,4241.282227,4297.94873,4206.410156,4257.307617,4246.666504,4257.692383,4314.230957,4003.589844,4384.743652,4418.461426,4260,4325.897461,0.758677,0.364902,0.393349,0.399047,0.165416,1.679245,0.431743,0.63068,0.511546,0.17705,1.986986,0.91316,1.026824,1.07199,0.15357,0.736669,0.120328,0.532263,0.273245,0.226873,0.575597,0.093024,0.136803,0.072245,0.079839,0.455526,0.775912,0.456761,0.352502,0.109788,0.492787,6.072844,5.545241,1.638077,0.178131,0.253494,4.991682,3.142631,0.542039,0.130849,2.136238,5.622352,2.027757,0.440136,0.115923,4.457727,1.025533,0.284039,0.134486,0.110127,0.514755,1.896711,0.440692,0.390551,0.301222,1.431222,2.883595,1.399318,1.155678,0.297155,1.336145,2.004158,1.099109,0.702158,0.427718,0.3618,0.222528,0.277997,0.253479,0.892134
1720159291,93,0,4247.179688,4253.077148,4242.05127,4293.717773,4211.282227,4258.205078,4240.641113,4254.230957,4312.307617,4008.205078,4386.410156,4413.333496,4257.692383,4341.282227,,,,,,,,,,,,,,,,,,,,,,,,,,,,,,,,,,,,,,,,,,,,,,,,,,,,,,,,,,,,,,,,,,,,,,
1720159291,94,0,4254.615234,4250.769043,4246.153809,4299.230957,4214.615234,4256.410156,4237.436035,4256.025879,4312.692383,4013.974365,4389.102539,4416.922852,4257.820313,4355.128418,,,,,,,,,,,,,,,,,,,,,,,,,,,,,,,,,,,,,,,,,,,,,,,,,,,,,,,,,,,,,,,,,,,,,,
1720159291,95,0,4244.358887,4252.94873,4237.820313,4292.563965,4209.102539,4252.820313,4233.846191,4255.384766,4314.230957,4012.692383,4381.153809,4408.205078,4250.769043,4324.615234,,,,,,,,,,,,,,,,,,,,,,,,,,,,,,,,,,,,,,,,,,,,,,,,,,,,,,,,,,,,,,,,,,,,,,
1720159291,96,0,4245.641113,4252.05127,4236.410156,4281.282227,4212.307617,4250.512695,4231.153809,4252.692383,4313.333496,4015.384521,4374.487305,4402.307617,4248.717773,4333.205078,,,,,,,,,,,,,,,,,,,,,,,,,,,,,,,,,,,,,,,,,,,,,,,,,,,,,,,,,,,,,,,,,,,,,,
1720159291,97,0,4255.256348,4251.282227,4245.769043,4287.692383,4218.717773,4251.538574,4233.846191,4250.512695,4308.974121,4021.025635,4378.974121,4410.384766,4257.692383,4343.333496,,,,,,,,,,,,,,,,,,,,,,,,,,,,,,,,,,,,,,,,,,,,,,,,,,,,,,,,,,,,,,,,,,,,,,
1720159291,98,0,4253.077148,4255.641113,4250,4293.974121,4215.256348,4250.512695,4234.358887,4250.641113,4303.974121,4022.435791,4381.666504,4420,4260,4332.436035,,,,,,,,,,,,,,,,,,,,,,,,,,,,,,,,,,,,,,,,,,,,,,,,,,,,,,,,,,,,,,,,,,,,,,
1720159291,99,0,4254.358887,4257.05127,4252.563965,4289.358887,4213.333496,4253.077148,4234.615234,4252.179688,4301.922852,4024.615479,4383.846191,4427.307617,4259.743652,4345,,,,,,,,,,,,,,,,,,,,,,,,,,,,,,,,,,,,,,,,,,,,,,,,,,,,,,,,,,,,,,,,,,,,,,
1720159291,100,0,4259.871582,4255.512695,4256.666504,4288.461426,4217.307617,4258.333496,4246.794922,4259.871582,4304.487305,4028.333252,4388.461426,4431.538574,4268.333496,4347.179688,,,,,,,,,,,,,,,,,,,,,,,,,,,,,,,,,,,,,,,,,,,,,,,,,,,,,,,,,,,,,,,,,,,,,,
1720159291,101,0,4260,4256.794922,4261.538574,4287.94873,4216.922852,4257.436035,4259.230957,4268.461426,4310.769043,4034.487061,4390.897461,4436.794922,4271.025879,4338.974121,,,,,,,,,,,,,,,,,,,,,,,,,,,,,,,,,,,,,,,,,,,,,,,,,,,,,,,,,,,,,,,,,,,,,,
1720159291,102,0,4263.333496,4258.205078,4264.102539,4289.230957,4217.94873,4253.461426,4257.563965,4272.692383,4312.820313,4045.128174,4392.436035,4441.282227,4273.589844,4357.436035,,,,,,,,,,,,,,,,,,,,,,,,,,,,,,,,,,,,,,,,,,,,,,,,,,,,,,,,,,,,,,,,,,,,,,
1720159291,103,0,4263.717773,4262.179688,4256.025879,4294.615234,4220.897461,4251.666504,4250.384766,4270.128418,4306.794922,4047.94873,4394.230957,4436.025879,4281.666504,4353.589844,,,,,,,,,,,,,,,,,,,,,,,,,,,,,,,,,,,,,,,,,,,,,,,,,,,,,,,,,,,,,,,,,,,,,,
1720159291,104,0,4256.794922,4265.256348,4249.743652,4287.307617,4218.589844,4251.410156,4247.436035,4260.128418,4303.205078,4039.358887,4386.153809,4423.717773,4266.410156,4322.94873,,,,,,,,,,,,,,,,,,,,,,,,,,,,,,,,,,,,,,,,,,,,,,,,,,,,,,,,,,,,,,,,,,,,,,
1720159291,105,0,4258.461426,4257.436035,4258.077148,4277.307617,4218.974121,4254.230957,4252.94873,4260.512695,4307.563965,4037.94873,4384.358887,4427.05127,4252.692383,4336.410156,,,,,,,,,,,,,,,,,,,,,,,,,,,,,,,,,,,,,,,,,,,,,,,,,,,,,,,,,,,,,,,,,,,,,,
1720159291,106,0,4260.512695,4253.205078,4256.153809,4277.94873,4219.102539,4255.256348,4250.512695,4261.410156,4305.897461,4046.538574,4392.05127,4430.384766,4272.179688,4350.641113,,,,,,,,,,,,,,,,,,,,,,,,,,,,,,,,,,,,,,,,,,,,,,,,,,,,,,,,,,,,,,,,,,,,,,
1720159291,107,0,4262.05127,4264.743652,4245.512695,4278.589844,4220.641113,4251.794922,4240.769043,4257.179688,4295.897461,4055.256348,4391.282227,4425.512695,4284.102539,4341.538574,,,,,,,,,,,,,,,,,,,,,,,,,,,,,,,,,,,,,,,,,,,,,,,,,,,,,,,,,,,,,,,,,,,,,,
1720159291,108,0,4266.025879,4268.589844,4249.102539,4275.512695,4223.589844,4251.153809,4245.384766,4261.666504,4293.717773,4062.05127,4388.589844,4425.641113,4274.358887,4339.615234,0.780139,0.393633,0.333286,0.388002,0.169231,1.833875,0.420696,0.58404,0.496237,0.192451,1.89553,0.859315,0.708918,0.98815,0.182072,0.755075,0.110387,0.394942,0.25709,0.23238,0.606251,0.103138,0.163304,0.081213,0.074162,0.431699,0.715531,0.432788,0.332456,0.121174,0.532499,6.377948,5.059969,1.520801,0.177627,0.325887,5.001786,3.009321,0.533086,0.124298,2.744794,5.551699,1.83004,0.510485,0.116588,5.869641,1.038089,0.370133,0.143464,0.11006,0.457723,1.877296,0.36981,0.375121,0.273551,1.428283,3.085713,0.962155,0.949621,0.299726,1.373107,2.049544,1.00554,0.694964,0.395089,0.34071,0.272981,0.198596,0.216516,0.865749
1720159291,109,0,4263.333496,4255.384766,4251.666504,4274.871582,4220.897461,4252.563965,4248.461426,4261.922852,4294.230957,4065.384521,4389.230957,4423.333496,4273.205078,4342.94873,,,,,,,,,,,,,,,,,,,,,,,,,,,,,,,,,,,,,,,,,,,,,,,,,,,,,,,,,,,,,,,,,,,,,,
1720159291,110,0,4260.512695,4252.692383,4246.922852,4279.358887,4223.717773,4251.922852,4240,4259.743652,4288.077148,4065.512939,4390.128418,4423.589844,4276.410156,4344.230957,,,,,,,,,,,,,,,,,,,,,,,,,,,,,,,,,,,,,,,,,,,,,,,,,,,,,,,,,,,,,,,,,,,,,,
1720159291,111,0,4261.153809,4261.666504,4248.974121,4277.563965,4226.025879,4251.025879,4239.487305,4259.615234,4282.563965,4061.025635,4383.077148,4422.94873,4267.436035,4335.128418,,,,,,,,,,,,,,,,,,,,,,,,,,,,,,,,,,,,,,,,,,,,,,,,,,,,,,,,,,,,,,,,,,,,,,
1720159291,112,0,4263.974121,4261.794922,4255.384766,4273.077148,4221.153809,4251.666504,4251.282227,4256.025879,4280.128418,4059.487061,4380.256348,4418.974121,4265,4336.922852,,,,,,,,,,,,,,,,,,,,,,,,,,,,,,,,,,,,,,,,,,,,,,,,,,,,,,,,,,,,,,,,,,,,,,
1720159291,113,0,4263.077148,4256.282227,4253.333496,4268.333496,4223.589844,4254.230957,4256.025879,4255.897461,4279.615234,4063.461426,4384.871582,4418.333496,4268.333496,4342.563965,,,,,,,,,,,,,,,,,,,,,,,,,,,,,,,,,,,,,,,,,,,,,,,,,,,,,,,,,,,,,,,,,,,,,,
1720159291,114,0,4255.128418,4252.94873,4248.461426,4261.794922,4226.410156,4251.666504,4243.077148,4256.794922,4280.256348,4064.358887,4379.487305,4414.871582,4264.743652,4338.333496,,,,,,,,,,,,,,,,,,,,,,,,,,,,,,,,,,,,,,,,,,,,,,,,,,,,,,,,,,,,,,,,,,,,,,
1720159291,115,0,4251.538574,4246.794922,4243.717773,4260,4225.384766,4244.102539,4231.666504,4254.487305,4279.743652,4062.435791,4373.333496,4409.358887,4266.025879,4336.666504,,,,,,,,,,,,,,,,,,,,,,,,,,,,,,,,,,,,,,,,,,,,,,,,,,,,,,,,,,,,,,,,,,,,,,
1720159291,116,0,4257.94873,4243.077148,4236.538574,4262.307617,4225.769043,4242.94873,4234.102539,4253.974121,4281.025879,4062.179443,4376.410156,4411.410156,4267.692383,4344.871582,,,,,,,,,,,,,,,,,,,,,,,,,,,,,,,,,,,,,,,,,,,,,,,,,,,,,,,,,,,,,,,,,,,,,,
1720159291,117,0,4261.025879,4246.538574,4238.589844,4261.922852,4223.077148,4245.897461,4242.179688,4255.897461,4282.94873,4062.307617,4375.769043,4414.230957,4256.922852,4336.794922,,,,,,,,,,,,,,,,,,,,,,,,,,,,,,,,,,,,,,,,,,,,,,,,,,,,,,,,,,,,,,,,,,,,,,
1720159291,118,0,4257.436035,4242.94873,4247.692383,4260.256348,4224.487305,4246.153809,4245.512695,4257.563965,4281.794922,4068.076904,4371.153809,4411.666504,4250.769043,4328.717773,,,,,,,,,,,,,,,,,,,,,,,,,,,,,,,,,,,,,,,,,,,,,,,,,,,,,,,,,,,,,,,,,,,,,,
1720159291,119,0,4261.794922,4242.563965,4251.153809,4262.820313,4228.717773,4246.025879,4243.077148,4255.769043,4280.641113,4074.487061,4377.692383,4416.282227,4260.256348,4351.666504,,,,,,,,,,,,,,,,,,,,,,,,,,,,,,,,,,,,,,,,,,,,,,,,,,,,,,,,,,,,,,,,,,,,,,
1720159291,120,0,4261.666504,4254.871582,4244.230957,4262.563965,4221.922852,4245.769043,4236.282227,4250,4279.358887,4065.128174,4378.205078,4412.05127,4262.05127,4332.563965,,,,,,,,,,,,,,,,,,,,,,,,,,,,,,,,,,,,,,,,,,,,,,,,,,,,,,,,,,,,,,,,,,,,,,
1720159291,121,0,4257.692383,4254.230957,4238.333496,4261.666504,4219.102539,4240,4226.410156,4248.717773,4271.922852,4051.281982,4370.641113,4402.436035,4254.871582,4314.743652,,,,,,,,,,,,,,,,,,,,,,,,,,,,,,,,,,,,,,,,,,,,,,,,,,,,,,,,,,,,,,,,,,,,,,
1720159291,122,0,4261.922852,4245.384766,4242.05127,4260.512695,4226.410156,4234.102539,4224.102539,4247.820313,4267.820313,4049.743652,4375.128418,4410.897461,4258.846191,4342.692383,,,,,,,,,,,,,,,,,,,,,,,,,,,,,,,,,,,,,,,,,,,,,,,,,,,,,,,,,,,,,,,,,,,,,,
1720159291,123,0,4260.769043,4248.077148,4246.922852,4253.846191,4228.846191,4237.436035,4232.307617,4245.641113,4274.615234,4049.358887,4378.846191,4417.05127,4263.589844,4335.641113,,,,,,,,,,,,,,,,,,,,,,,,,,,,,,,,,,,,,,,,,,,,,,,,,,,,,,,,,,,,,,,,,,,,,,
1720159291,124,0,4263.205078,4253.846191,4248.974121,4254.871582,4228.589844,4241.666504,4236.282227,4248.589844,4278.333496,4043.718018,4377.179688,4413.205078,4259.230957,4332.436035,0.725143,0.452687,0.296014,0.393605,0.180489,1.761795,0.484414,0.544356,0.505297,0.212183,1.750447,0.912162,0.472713,0.990635,0.222192,0.797467,0.139305,0.256106,0.253652,0.242114,0.587071,0.108833,0.174814,0.08734,0.067246,0.374744,0.665919,0.399985,0.314668,0.131911,0.666879,6.313091,4.267844,1.371062,0.172171,0.422908,4.617121,2.614228,0.517081,0.115409,3.316037,5.163091,1.6116,0.690966,0.115969,7.367952,1.025127,0.520404,0.165614,0.107257,0.401612,1.744652,0.358096,0.357261,0.247237,1.375067,3.220284,0.688306,0.865584,0.303324,1.312849,1.977797,0.922577,0.678236,0.353274,0.300116,0.337923,0.142887,0.196703,0.877063
1720159291,125,0,4265.641113,4254.487305,4248.974121,4261.410156,4228.974121,4239.871582,4233.717773,4250.512695,4275,4041.666748,4374.743652,4414.358887,4256.794922,4340.512695,,,,,,,,,,,,,,,,,,,,,,,,,,,,,,,,,,,,,,,,,,,,,,,,,,,,,,,,,,,,,,,,,,,,,,
1720159291,126,0,4261.538574,4252.563965,4247.820313,4255.128418,4226.410156,4236.666504,4231.794922,4249.102539,4270.897461,4045,4371.538574,4418.205078,4260.128418,4329.358887,,,,,,,,,,,,,,,,,,,,,,,,,,,,,,,,,,,,,,,,,,,,,,,,,,,,,,,,,,,,,,,,,,,,,,
1720159291,127,0,4261.025879,4247.436035,4246.794922,4243.846191,4226.153809,4230.641113,4225.897461,4242.94873,4268.461426,4047.05127,4371.666504,4417.692383,4262.05127,4336.153809,,,,,,,,,,,,,,,,,,,,,,,,,,,,,,,,,,,,,,,,,,,,,,,,,,,,,,,,,,,,,,,,,,,,,,
1720159291,0,0,4255.512695,4244.230957,4243.205078,4245.641113,4230.769043,4227.820313,4224.102539,4241.282227,4266.794922,4042.307617,4368.205078,4410.897461,4257.563965,4337.05127,,,,,,,,,,,,,,,,,,,,,,,,,,,,,,,,,,,,,,,,,,,,,,,,,,,,,,,,,,,,,,,,,,,,,,
1720159291,1,0,4249.358887,4245.769043,4240.512695,4249.487305,4229.487305,4233.589844,4231.153809,4249.102539,4267.436035,4037.820557,4360.897461,4401.666504,4247.820313,4323.717773,,,,,,,,,,,,,,,,,,,,,,,,,,,,,,,,,,,,,,,,,,,,,,,,,,,,,,,,,,,,,,,,,,,,,,
1720159291,2,0,4253.461426,4242.563965,4242.05127,4245.897461,4228.589844,4235.128418,4228.077148,4248.846191,4272.307617,4039.358887,4361.282227,4396.282227,4242.94873,4336.153809,,,,,,,,,,,,,,,,,,,,,,,,,,,,,,,,,,,,,,,,,,,,,,,,,,,,,,,,,,,,,,,,,,,,,,
1720159291,3,0,4254.358887,4239.615234,4246.153809,4246.666504,4231.666504,4231.282227,4220.128418,4243.077148,4274.871582,4040.641113,4365.897461,4398.589844,4247.436035,4337.179688,,,,,,,,,,,,,,,,,,,,,,,,,,,,,,,,,,,,,,,,,,,,,,,,,,,,,,,,,,,,,,,,,,,,,,
1720159291,4,0,4251.922852,4247.692383,4253.846191,4250.256348,4228.205078,4234.102539,4225.384766,4243.333496,4271.794922,4041.538574,4372.179688,4411.282227,4256.410156,4321.025879,,,,,,,,,,,,,,,,,,,,,,,,,,,,,,,,,,,,,,,,,,,,,,,,,,,,,,,,,,,,,,,,,,,,,,
1720159291,5,0,4261.025879,4249.871582,4261.538574,4245.128418,4229.358887,4241.025879,4237.94873,4251.794922,4270.512695,4047.05127,4378.717773,4428.589844,4259.615234,4342.94873,,,,,,,,,,,,,,,,,,,,,,,,,,,,,,,,,,,,,,,,,,,,,,,,,,,,,,,,,,,,,,,,,,,,,,
1720159291,6,0,4261.025879,4240.384766,4254.743652,4241.282227,4228.333496,4240.384766,4241.922852,4252.179688,4269.743652,4048.718018,4372.179688,4422.820313,4250.897461,4344.230957,,,,,,,,,,,,,,,,,,,,,,,,,,,,,,,,,,,,,,,,,,,,,,,,,,,,,,,,,,,,,,,,,,,,,,
1720159292,7,0,4250.128418,4236.153809,4244.230957,4243.077148,4223.461426,4233.974121,4236.282227,4244.615234,4266.538574,4045.769287,4365.769043,4404.102539,4243.974121,4321.794922,,,,,,,,,,,,,,,,,,,,,,,,,,,,,,,,,,,,,,,,,,,,,,,,,,,,,,,,,,,,,,,,,,,,,,
1720159292,8,0,4250.256348,4238.333496,4244.358887,4241.410156,4229.615234,4232.179688,4230.641113,4246.538574,4259.871582,4046.923096,4366.794922,4402.563965,4247.307617,4328.974121,,,,,,,,,,,,,,,,,,,,,,,,,,,,,,,,,,,,,,,,,,,,,,,,,,,,,,,,,,,,,,,,,,,,,,
1720159292,9,0,4251.025879,4238.974121,4239.358887,4238.077148,4231.282227,4227.820313,4220.769043,4244.615234,4254.230957,4050.641113,4361.282227,4400.512695,4249.487305,4330.512695,,,,,,,,,,,,,,,,,,,,,,,,,,,,,,,,,,,,,,,,,,,,,,,,,,,,,,,,,,,,,,,,,,,,,,
1720159292,10,0,4248.333496,4234.358887,4230.256348,4236.666504,4226.410156,4216.794922,4208.205078,4237.94873,4254.871582,4052.94873,4362.820313,4397.05127,4244.102539,4325,,,,,,,,,,,,,,,,,,,,,,,,,,,,,,,,,,,,,,,,,,,,,,,,,,,,,,,,,,,,,,,,,,,,,,
1720159292,11,0,4247.179688,4228.589844,4231.410156,4230.641113,4224.871582,4210.256348,4206.153809,4236.538574,4254.102539,4052.94873,4369.487305,4401.922852,4243.205078,4325.769043,,,,,,,,,,,,,,,,,,,,,,,,,,,,,,,,,,,,,,,,,,,,,,,,,,,,,,,,,,,,,,,,,,,,,,
1720159292,12,0,4249.487305,4228.205078,4237.692383,4229.358887,4224.230957,4216.538574,4213.974121,4237.436035,4253.589844,4052.179443,4365.256348,4403.077148,4252.179688,4329.871582,0.626646,0.523582,0.283477,0.401231,0.195965,1.51862,0.598387,0.511666,0.51841,0.23385,1.602303,1.047377,0.353674,1.043054,0.260571,0.865178,0.203935,0.148791,0.265078,0.249352,0.54587,0.109562,0.16771,0.089086,0.061062,0.327209,0.684434,0.367429,0.306146,0.140318,0.847721,6.035143,3.345193,1.201881,0.167253,0.524948,4.037374,2.050298,0.492175,0.106483,3.694527,4.631152,1.423071,0.942342,0.115108,8.161767,1.007112,0.713998,0.203031,0.10275,0.379594,1.541032,0.391018,0.342943,0.229246,1.334872,3.254204,0.593258,0.889725,0.309429,1.208285,1.833617,0.868524,0.646235,0.309329,0.256609,0.404226,0.121036,0.188068,0.909275
1720159292,13,0,4249.487305,4230.256348,4238.846191,4236.922852,4225.256348,4223.461426,4220.769043,4242.436035,4259.743652,4050.769287,4360.512695,4401.410156,4256.282227,4331.410156,,,,,,,,,,,,,,,,,,,,,,,,,,,,,,,,,,,,,,,,,,,,,,,,,,,,,,,,,,,,,,,,,,,,,,
1720159292,14,0,4242.94873,4225.769043,4231.922852,4232.692383,4226.153809,4221.282227,4215.128418,4240.897461,4259.358887,4045.769287,4355,4396.153809,4246.282227,4326.666504,,,,,,,,,,,,,,,,,,,,,,,,,,,,,,,,,,,,,,,,,,,,,,,,,,,,,,,,,,,,,,,,,,,,,,
1720159292,15,0,4243.717773,4218.205078,4226.922852,4221.153809,4228.333496,4214.615234,4205.769043,4235.641113,4249.230957,4041.794922,4346.410156,4388.846191,4235,4322.436035,,,,,,,,,,,,,,,,,,,,,,,,,,,,,,,,,,,,,,,,,,,,,,,,,,,,,,,,,,,,,,,,,,,,,,
1720159292,16,0,4253.589844,4221.922852,4231.282227,4229.358887,4230,4211.282227,4202.179688,4237.563965,4247.692383,4043.333252,4350.897461,4392.179688,4235.769043,4326.922852,,,,,,,,,,,,,,,,,,,,,,,,,,,,,,,,,,,,,,,,,,,,,,,,,,,,,,,,,,,,,,,,,,,,,,
1720159292,17,0,4255.769043,4232.563965,4241.025879,4240.512695,4225,4214.487305,4203.205078,4235.128418,4251.922852,4045.256348,4360.769043,4401.538574,4248.205078,4327.94873,,,,,,,,,,,,,,,,,,,,,,,,,,,,,,,,,,,,,,,,,,,,,,,,,,,,,,,,,,,,,,,,,,,,,,
1720159292,18,0,4247.692383,4232.820313,4244.102539,4231.410156,4222.94873,4219.102539,4208.717773,4231.410156,4252.436035,4045.128174,4360.128418,4401.282227,4251.410156,4315,,,,,,,,,,,,,,,,,,,,,,,,,,,,,,,,,,,,,,,,,,,,,,,,,,,,,,,,,,,,,,,,,,,,,,
1720159292,19,0,4250.256348,4227.307617,4238.717773,4226.025879,4229.871582,4217.436035,4215.512695,4237.179688,4254.358887,4047.94873,4361.666504,4401.666504,4244.615234,4338.717773,,,,,,,,,,,,,,,,,,,,,,,,,,,,,,,,,,,,,,,,,,,,,,,,,,,,,,,,,,,,,,,,,,,,,,
1720159292,20,0,4250.897461,4225.256348,4227.94873,4230.769043,4229.358887,4210.384766,4217.179688,4239.102539,4250.897461,4046.794922,4361.153809,4395,4238.461426,4338.846191,,,,,,,,,,,,,,,,,,,,,,,,,,,,,,,,,,,,,,,,,,,,,,,,,,,,,,,,,,,,,,,,,,,,,,
1720159292,21,0,4240.769043,4219.102539,4226.666504,4220.512695,4222.563965,4205.256348,4217.820313,4237.179688,4247.94873,4041.410156,4349.487305,4385.512695,4233.461426,4306.666504,,,,,,,,,,,,,,,,,,,,,,,,,,,,,,,,,,,,,,,,,,,,,,,,,,,,,,,,,,,,,,,,,,,,,,
1720159292,22,0,4245.769043,4217.179688,4235.512695,4216.025879,4222.692383,4201.153809,4215.512695,4236.922852,4251.538574,4048.718018,4353.846191,4402.05127,4241.794922,4333.846191,,,,,,,,,,,,,,,,,,,,,,,,,,,,,,,,,,,,,,,,,,,,,,,,,,,,,,,,,,,,,,,,,,,,,,
1720159292,23,0,4252.307617,4228.077148,4236.794922,4226.922852,4225.897461,4197.563965,4205.897461,4232.820313,4250.256348,4057.564209,4364.358887,4413.461426,4253.717773,4343.461426,,,,,,,,,,,,,,,,,,,,,,,,,,,,,,,,,,,,,,,,,,,,,,,,,,,,,,,,,,,,,,,,,,,,,,
1720159292,24,0,4247.820313,4227.436035,4232.820313,4225.641113,4227.820313,4195.641113,4200.128418,4232.436035,4242.563965,4054.871826,4352.94873,4399.358887,4236.666504,4319.615234,,,,,,,,,,,,,,,,,,,,,,,,,,,,,,,,,,,,,,,,,,,,,,,,,,,,,,,,,,,,,,,,,,,,,,
1720159292,25,0,4238.461426,4204.743652,4220.256348,4210.897461,4226.794922,4194.358887,4198.461426,4233.717773,4236.282227,4048.076904,4337.307617,4379.358887,4209.615234,4319.358887,,,,,,,,,,,,,,,,,,,,,,,,,,,,,,,,,,,,,,,,,,,,,,,,,,,,,,,,,,,,,,,,,,,,,,
1720159292,26,0,4225.128418,4189.615234,4195.769043,4201.666504,4227.692383,4193.205078,4192.307617,4228.205078,4233.461426,4046.025635,4329.743652,4354.743652,4204.102539,4308.205078,,,,,,,,,,,,,,,,,,,,,,,,,,,,,,,,,,,,,,,,,,,,,,,,,,,,,,,,,,,,,,,,,,,,,,
1720159292,27,0,4222.436035,4193.717773,4187.05127,4197.820313,4233.333496,4196.025879,4188.589844,4222.692383,4235.384766,4052.94873,4322.94873,4339.230957,4201.410156,4301.153809,,,,,,,,,,,,,,,,,,,,,,,,,,,,,,,,,,,,,,,,,,,,,,,,,,,,,,,,,,,,,,,,,,,,,,
1720159292,28,0,4226.666504,4193.974121,4192.563965,4196.025879,4235.384766,4200,4189.487305,4222.563965,4235.641113,4062.435791,4322.94873,4348.077148,4197.436035,4316.922852,0.502129,0.577176,0.282533,0.396764,0.208927,1.187021,0.713583,0.4789,0.517098,0.252429,1.479419,1.197949,0.325502,1.084347,0.283875,0.935839,0.284399,0.090654,0.286898,0.2487,0.473435,0.103991,0.1436,0.085371,0.057075,0.298774,0.783192,0.337298,0.305554,0.144211,1.053595,5.683124,2.459219,1.025229,0.167498,0.638295,3.460269,1.451924,0.456444,0.098905,3.741725,4.105592,1.288085,1.192435,0.114337,8.449281,0.988792,0.903188,0.254824,0.098204,0.413166,1.319269,0.431912,0.335748,0.220041,1.364034,3.176904,0.613272,0.961889,0.315798,1.138128,1.669659,0.833926,0.598004,0.271724,0.21542,0.454335,0.125095,0.184308,0.938676
1720159292,29,0,4221.282227,4189.487305,4188.333496,4197.05127,4228.333496,4197.05127,4186.025879,4219.871582,4222.94873,4061.794922,4330,4353.974121,4212.179688,4308.333496,,,,,,,,,,,,,,,,,,,,,,,,,,,,,,,,,,,,,,,,,,,,,,,,,,,,,,,,,,,,,,,,,,,,,,
1720159292,30,0,4226.794922,4200.256348,4190.384766,4197.94873,4227.179688,4196.153809,4185.128418,4217.94873,4208.717773,4061.153809,4330.512695,4352.307617,4224.487305,4304.487305,,,,,,,,,,,,,,,,,,,,,,,,,,,,,,,,,,,,,,,,,,,,,,,,,,,,,,,,,,,,,,,,,,,,,,
1720159292,31,0,4242.05127,4208.461426,4206.922852,4199.743652,4238.333496,4198.589844,4195.384766,4227.692383,4210.128418,4069.871826,4328.077148,4365.128418,4215.641113,4328.589844,,,,,,,,,,,,,,,,,,,,,,,,,,,,,,,,,,,,,,,,,,,,,,,,,,,,,,,,,,,,,,,,,,,,,,
1720159292,32,0,4236.922852,4203.333496,4212.179688,4207.563965,4237.94873,4194.615234,4196.922852,4230.769043,4216.410156,4072.94873,4330.384766,4371.410156,4208.205078,4319.230957,,,,,,,,,,,,,,,,,,,,,,,,,,,,,,,,,,,,,,,,,,,,,,,,,,,,,,,,,,,,,,,,,,,,,,
1720159292,33,0,4231.153809,4206.922852,4209.871582,4216.282227,4234.230957,4194.487305,4191.922852,4229.743652,4215.897461,4071.666748,4332.05127,4369.102539,4213.589844,4309.358887,,,,,,,,,,,,,,,,,,,,,,,,,,,,,,,,,,,,,,,,,,,,,,,,,,,,,,,,,,,,,,,,,,,,,,
1720159292,34,0,4236.153809,4212.436035,4212.05127,4211.282227,4238.077148,4202.94873,4194.871582,4234.230957,4215.769043,4079.230713,4330.641113,4370,4219.358887,4314.358887,,,,,,,,,,,,,,,,,,,,,,,,,,,,,,,,,,,,,,,,,,,,,,,,,,,,,,,,,,,,,,,,,,,,,,
1720159292,35,0,4235.128418,4204.358887,4208.461426,4201.666504,4237.05127,4206.538574,4198.589844,4228.717773,4217.692383,4086.538574,4327.692383,4367.563965,4219.871582,4309.615234,,,,,,,,,,,,,,,,,,,,,,,,,,,,,,,,,,,,,,,,,,,,,,,,,,,,,,,,,,,,,,,,,,,,,,
1720159292,36,0,4233.974121,4201.282227,4203.974121,4200.256348,4236.666504,4204.743652,4200.769043,4224.230957,4217.307617,4089.358887,4330.769043,4366.538574,4214.102539,4312.05127,,,,,,,,,,,,,,,,,,,,,,,,,,,,,,,,,,,,,,,,,,,,,,,,,,,,,,,,,,,,,,,,,,,,,,
1720159292,37,0,4236.922852,4209.487305,4209.358887,4203.205078,4236.153809,4206.538574,4204.358887,4227.05127,4216.025879,4090.641113,4338.974121,4368.333496,4216.282227,4311.282227,,,,,,,,,,,,,,,,,,,,,,,,,,,,,,,,,,,,,,,,,,,,,,,,,,,,,,,,,,,,,,,,,,,,,,
1720159292,38,0,4238.333496,4209.487305,4217.692383,4209.615234,4236.410156,4208.974121,4210.128418,4229.743652,4216.153809,4090.769287,4338.974121,4374.358887,4225.897461,4312.179688,,,,,,,,,,,,,,,,,,,,,,,,,,,,,,,,,,,,,,,,,,,,,,,,,,,,,,,,,,,,,,,,,,,,,,
1720159292,39,0,4235.769043,4203.077148,4215.256348,4210.256348,4239.615234,4206.410156,4216.666504,4236.410156,4213.205078,4090.897461,4334.358887,4376.538574,4223.205078,4314.743652,,,,,,,,,,,,,,,,,,,,,,,,,,,,,,,,,,,,,,,,,,,,,,,,,,,,,,,,,,,,,,,,,,,,,,
1720159292,40,0,4233.974121,4205.641113,4211.922852,4201.538574,4237.692383,4205.384766,4218.589844,4239.358887,4209.615234,4090.641113,4335.641113,4372.05127,4221.025879,4313.846191,,,,,,,,,,,,,,,,,,,,,,,,,,,,,,,,,,,,,,,,,,,,,,,,,,,,,,,,,,,,,,,,,,,,,,
1720159292,41,0,4233.333496,4207.179688,4215,4200,4236.794922,4208.077148,4217.436035,4238.461426,4213.333496,4090.384521,4337.692383,4375.512695,4228.461426,4311.794922,,,,,,,,,,,,,,,,,,,,,,,,,,,,,,,,,,,,,,,,,,,,,,,,,,,,,,,,,,,,,,,,,,,,,,
1720159292,42,0,4229.487305,4198.717773,4207.820313,4203.974121,4237.820313,4205.641113,4211.666504,4235.384766,4213.589844,4095.384521,4327.692383,4374.615234,4226.282227,4308.333496,,,,,,,,,,,,,,,,,,,,,,,,,,,,,,,,,,,,,,,,,,,,,,,,,,,,,,,,,,,,,,,,,,,,,,
1720159292,43,0,4227.179688,4194.487305,4202.307617,4196.666504,4236.025879,4201.794922,4202.94873,4229.615234,4203.077148,4102.94873,4321.025879,4362.563965,4218.974121,4307.307617,,,,,,,,,,,,,,,,,,,,,,,,,,,,,,,,,,,,,,,,,,,,,,,,,,,,,,,,,,,,,,,,,,,,,,
1720159292,44,0,4232.05127,4201.025879,4215.512695,4196.794922,4238.846191,4205.384766,4204.615234,4231.025879,4196.025879,4107.179688,4333.589844,4367.307617,4225,4309.743652,0.416797,0.591701,0.277772,0.374236,0.21235,0.919556,0.785617,0.437247,0.493401,0.262269,1.469342,1.297842,0.338663,1.064459,0.28415,0.991935,0.357873,0.079575,0.309927,0.238303,0.397859,0.092875,0.109372,0.076592,0.05568,0.314514,0.928511,0.306241,0.305947,0.141847,1.23158,5.31277,1.742085,0.859145,0.173434,0.726333,2.991019,0.954936,0.410706,0.093,3.43793,3.637355,1.186976,1.359115,0.113302,7.745693,0.958546,1.036477,0.313262,0.094379,0.506112,1.126821,0.448293,0.336596,0.214116,1.535682,2.995965,0.672266,1.017605,0.315706,1.138154,1.515041,0.796128,0.539631,0.247048,0.19081,0.473457,0.141563,0.182649,0.946026
1720159292,45,0,4236.282227,4204.743652,4221.410156,4210,4241.025879,4207.820313,4209.487305,4229.615234,4197.436035,4112.94873,4339.487305,4378.205078,4226.666504,4310.641113,,,,,,,,,,,,,,,,,,,,,,,,,,,,,,,,,,,,,,,,,,,,,,,,,,,,,,,,,,,,,,,,,,,,,,
1720159292,46,0,4233.333496,4202.307617,4210.769043,4204.743652,4237.436035,4205.256348,4206.025879,4224.487305,4197.94873,4119.487305,4329.358887,4367.436035,4218.589844,4296.410156,,,,,,,,,,,,,,,,,,,,,,,,,,,,,,,,,,,,,,,,,,,,,,,,,,,,,,,,,,,,,,,,,,,,,,
1720159292,47,0,4236.153809,4199.743652,4205,4192.820313,4239.102539,4206.153809,4203.077148,4227.94873,4199.743652,4125.769043,4330.769043,4363.205078,4217.436035,4309.871582,,,,,,,,,,,,,,,,,,,,,,,,,,,,,,,,,,,,,,,,,,,,,,,,,,,,,,,,,,,,,,,,,,,,,,
1720159292,48,0,4235.641113,4197.94873,4203.205078,4195.256348,4238.717773,4203.333496,4198.974121,4228.077148,4202.94873,4136.025879,4338.461426,4367.692383,4221.666504,4318.205078,,,,,,,,,,,,,,,,,,,,,,,,,,,,,,,,,,,,,,,,,,,,,,,,,,,,,,,,,,,,,,,,,,,,,,
1720159292,49,0,4223.974121,4196.153809,4199.487305,4194.358887,4233.846191,4198.717773,4192.05127,4222.820313,4199.230957,4139.102539,4330.641113,4358.077148,4221.282227,4287.179688,,,,,,,,,,,,,,,,,,,,,,,,,,,,,,,,,,,,,,,,,,,,,,,,,,,,,,,,,,,,,,,,,,,,,,
1720159292,50,0,4223.974121,4192.436035,4203.589844,4190.769043,4236.282227,4201.410156,4193.077148,4225.256348,4193.589844,4130.769043,4328.717773,4356.666504,4217.436035,4300.384766,,,,,,,,,,,,,,,,,,,,,,,,,,,,,,,,,,,,,,,,,,,,,,,,,,,,,,,,,,,,,,,,,,,,,,
1720159292,51,0,4223.974121,4188.717773,4200.256348,4195.897461,4236.922852,4203.846191,4199.230957,4227.179688,4185.384766,4123.846191,4332.692383,4356.922852,4213.974121,4310.512695,,,,,,,,,,,,,,,,,,,,,,,,,,,,,,,,,,,,,,,,,,,,,,,,,,,,,,,,,,,,,,,,,,,,,,
1720159292,52,0,4218.974121,4192.820313,4190.512695,4195.128418,4237.436035,4202.563965,4199.102539,4221.538574,4170,4123.461426,4320,4342.05127,4211.025879,4289.358887,,,,,,,,,,,,,,,,,,,,,,,,,,,,,,,,,,,,,,,,,,,,,,,,,,,,,,,,,,,,,,,,,,,,,,
1720159292,53,0,4225,4197.05127,4190.384766,4187.05127,4239.487305,4199.358887,4196.538574,4221.666504,4162.94873,4129.358887,4315.384766,4340.384766,4211.410156,4298.205078,,,,,,,,,,,,,,,,,,,,,,,,,,,,,,,,,,,,,,,,,,,,,,,,,,,,,,,,,,,,,,,,,,,,,,
1720159292,54,0,4226.153809,4194.487305,4189.358887,4189.102539,4236.666504,4197.692383,4198.974121,4226.666504,4169.487305,4138.333496,4326.794922,4347.820313,4216.153809,4300.128418,,,,,,,,,,,,,,,,,,,,,,,,,,,,,,,,,,,,,,,,,,,,,,,,,,,,,,,,,,,,,,,,,,,,,,
1720159292,55,0,4223.717773,4199.230957,4189.487305,4189.487305,4236.410156,4200,4196.666504,4222.05127,4166.153809,4141.025879,4326.794922,4344.230957,4220.769043,4291.538574,,,,,,,,,,,,,,,,,,,,,,,,,,,,,,,,,,,,,,,,,,,,,,,,,,,,,,,,,,,,,,,,,,,,,,
1720159292,56,0,4230.512695,4205.897461,4197.94873,4185.769043,4242.05127,4201.538574,4189.487305,4213.717773,4158.461426,4141.794922,4319.230957,4341.025879,4218.717773,4298.846191,,,,,,,,,,,,,,,,,,,,,,,,,,,,,,,,,,,,,,,,,,,,,,,,,,,,,,,,,,,,,,,,,,,,,,
1720159292,57,0,4226.922852,4197.692383,4187.436035,4188.333496,4240.769043,4201.666504,4185,4210.897461,4163.333496,4146.025879,4314.871582,4330.384766,4209.230957,4286.025879,,,,,,,,,,,,,,,,,,,,,,,,,,,,,,,,,,,,,,,,,,,,,,,,,,,,,,,,,,,,,,,,,,,,,,
1720159292,58,0,4211.922852,4187.563965,4163.717773,4188.846191,4234.743652,4203.461426,4185.128418,4208.846191,4170,4150,4306.410156,4311.538574,4202.563965,4272.436035,,,,,,,,,,,,,,,,,,,,,,,,,,,,,,,,,,,,,,,,,,,,,,,,,,,,,,,,,,,,,,,,,,,,,,
1720159292,59,0,4213.461426,4188.717773,4170.641113,4187.179688,4241.153809,4205.128418,4188.846191,4212.692383,4173.205078,4158.717773,4307.05127,4323.717773,4208.205078,4299.102539,,,,,,,,,,,,,,,,,,,,,,,,,,,,,,,,,,,,,,,,,,,,,,,,,,,,,,,,,,,,,,,,,,,,,,
1720159292,60,0,4224.615234,4195.641113,4190.769043,4191.666504,4241.538574,4199.615234,4188.589844,4215.641113,4174.743652,4168.589844,4323.077148,4349.743652,4225.384766,4303.717773,0.394479,0.56733,0.262358,0.33855,0.203416,0.786387,0.798402,0.382312,0.451206,0.260135,1.584622,1.329169,0.360683,0.973549,0.262879,1.054229,0.409476,0.102245,0.324419,0.2203,0.314786,0.077093,0.073467,0.064735,0.056351,0.364868,1.055072,0.273852,0.301123,0.132938,1.409896,4.867141,1.229974,0.728367,0.181465,0.800185,2.603798,0.620729,0.358816,0.088213,2.833878,3.177708,1.073959,1.383752,0.111676,6.549308,0.898667,1.069281,0.365066,0.091566,0.660914,0.98417,0.42985,0.344195,0.20536,1.85882,2.749104,0.736523,1.025262,0.304754,1.257089,1.371518,0.744672,0.486936,0.238721,0.185261,0.458986,0.166152,0.182233,0.928719
1720159292,61,0,4237.05127,4204.743652,4197.307617,4199.102539,4235.256348,4193.205078,4183.974121,4215.128418,4173.333496,4178.077148,4335.256348,4361.025879,4239.871582,4298.589844,,,,,,,,,,,,,,,,,,,,,,,,,,,,,,,,,,,,,,,,,,,,,,,,,,,,,,,,,,,,,,,,,,,,,,
1720159292,62,0,4244.230957,4208.974121,4202.05127,4196.282227,4238.589844,4192.436035,4183.333496,4222.05127,4168.333496,4184.743652,4332.692383,4367.563965,4240.897461,4312.307617,,,,,,,,,,,,,,,,,,,,,,,,,,,,,,,,,,,,,,,,,,,,,,,,,,,,,,,,,,,,,,,,,,,,,,
1720159292,63,0,4236.538574,4206.153809,4198.461426,4190.256348,4237.94873,4195.641113,4185.897461,4222.307617,4161.538574,4180.897461,4327.820313,4361.153809,4234.615234,4304.743652,,,,,,,,,,,,,,,,,,,,,,,,,,,,,,,,,,,,,,,,,,,,,,,,,,,,,,,,,,,,,,,,,,,,,,
1720159292,64,0,4232.436035,4205.512695,4188.461426,4197.307617,4236.666504,4200.769043,4187.179688,4217.820313,4155,4173.589844,4325.512695,4343.333496,4226.666504,4295.897461,,,,,,,,,,,,,,,,,,,,,,,,,,,,,,,,,,,,,,,,,,,,,,,,,,,,,,,,,,,,,,,,,,,,,,
1720159292,65,0,4231.282227,4206.538574,4184.871582,4202.563965,4237.307617,4203.205078,4187.436035,4217.05127,4149.615234,4173.205078,4314.743652,4330.128418,4218.461426,4294.102539,,,,,,,,,,,,,,,,,,,,,,,,,,,,,,,,,,,,,,,,,,,,,,,,,,,,,,,,,,,,,,,,,,,,,,
1720159292,66,0,4229.743652,4202.179688,4184.102539,4191.153809,4236.410156,4202.436035,4189.230957,4209.615234,4147.05127,4175,4305.128418,4326.922852,4215.897461,4291.794922,,,,,,,,,,,,,,,,,,,,,,,,,,,,,,,,,,,,,,,,,,,,,,,,,,,,,,,,,,,,,,,,,,,,,,
1720159292,67,0,4235,4199.487305,4184.487305,4183.717773,4239.230957,4199.487305,4192.179688,4205.769043,4142.05127,4174.230957,4309.615234,4331.666504,4222.05127,4292.563965,,,,,,,,,,,,,,,,,,,,,,,,,,,,,,,,,,,,,,,,,,,,,,,,,,,,,,,,,,,,,,,,,,,,,,
1720159292,68,0,4239.358887,4204.743652,4193.333496,4194.615234,4239.358887,4196.922852,4193.846191,4211.025879,4141.666504,4172.563965,4318.461426,4340.897461,4229.358887,4297.692383,,,,,,,,,,,,,,,,,,,,,,,,,,,,,,,,,,,,,,,,,,,,,,,,,,,,,,,,,,,,,,,,,,,,,,
1720159292,69,0,4237.563965,4207.436035,4199.743652,4193.461426,4236.794922,4195.128418,4194.102539,4216.282227,4148.589844,4171.282227,4319.743652,4347.820313,4227.179688,4298.461426,,,,,,,,,,,,,,,,,,,,,,,,,,,,,,,,,,,,,,,,,,,,,,,,,,,,,,,,,,,,,,,,,,,,,,
1720159292,70,0,4233.717773,4199.358887,4192.307617,4177.94873,4237.179688,4192.563965,4187.436035,4215.256348,4155.897461,4170.769043,4313.717773,4342.05127,4221.666504,4289.871582,,,,,,,,,,,,,,,,,,,,,,,,,,,,,,,,,,,,,,,,,,,,,,,,,,,,,,,,,,,,,,,,,,,,,,
1720159292,71,0,4230.769043,4193.974121,4183.077148,4179.487305,4237.05127,4193.333496,4171.666504,4201.153809,4156.282227,4169.487305,4309.487305,4329.230957,4221.025879,4290.897461,,,,,,,,,,,,,,,,,,,,,,,,,,,,,,,,,,,,,,,,,,,,,,,,,,,,,,,,,,,,,,,,,,,,,,
1720159292,72,0,4233.589844,4200.897461,4185,4191.153809,4238.589844,4193.974121,4164.102539,4195,4153.846191,4165.897461,4312.692383,4326.794922,4223.589844,4299.743652,,,,,,,,,,,,,,,,,,,,,,,,,,,,,,,,,,,,,,,,,,,,,,,,,,,,,,,,,,,,,,,,,,,,,,
1720159292,73,0,4241.666504,4210.769043,4193.974121,4194.230957,4239.358887,4190.128418,4166.410156,4202.563965,4155.256348,4165,4316.025879,4333.717773,4226.666504,4302.692383,,,,,,,,,,,,,,,,,,,,,,,,,,,,,,,,,,,,,,,,,,,,,,,,,,,,,,,,,,,,,,,,,,,,,,
1720159292,74,0,4237.94873,4211.922852,4198.077148,4195.512695,4235,4190.128418,4170.256348,4203.333496,4152.563965,4164.102539,4316.794922,4335.641113,4225.384766,4283.974121,,,,,,,,,,,,,,,,,,,,,,,,,,,,,,,,,,,,,,,,,,,,,,,,,,,,,,,,,,,,,,,,,,,,,,
1720159292,75,0,4236.794922,4207.179688,4200.256348,4194.743652,4235.512695,4192.820313,4184.102539,4206.153809,4150.641113,4161.410156,4322.563965,4343.846191,4225.897461,4295.897461,,,,,,,,,,,,,,,,,,,,,,,,,,,,,,,,,,,,,,,,,,,,,,,,,,,,,,,,,,,,,,,,,,,,,,
1720159292,76,0,4246.538574,4205,4203.461426,4184.871582,4236.666504,4193.974121,4199.102539,4212.179688,4151.538574,4158.333496,4322.820313,4353.333496,4229.743652,4323.589844,0.44732,0.522658,0.247326,0.302018,0.184189,0.818634,0.767678,0.323016,0.403739,0.247929,1.858727,1.318195,0.400858,0.843691,0.228756,1.051254,0.437848,0.144363,0.325854,0.200254,0.245697,0.059636,0.043603,0.052813,0.057966,0.448629,1.102444,0.241401,0.288554,0.11887,1.584804,4.273021,0.903183,0.650317,0.185676,0.828797,2.208022,0.437402,0.305074,0.083471,2.151406,2.659389,0.918228,1.258206,0.109542,5.006927,0.80245,0.992098,0.397395,0.089404,0.820674,0.889251,0.392107,0.357079,0.191084,2.304,2.48608,0.830949,0.994019,0.282384,1.43676,1.222647,0.696012,0.459577,0.245797,0.202242,0.419493,0.205232,0.183236,0.893111
1720159292,77,0,4236.282227,4205.512695,4196.282227,4186.153809,4234.230957,4193.974121,4200,4207.563965,4150.256348,4154.487305,4309.102539,4339.871582,4222.436035,4291.666504,,,,,,,,,,,,,,,,,,,,,,,,,,,,,,,,,,,,,,,,,,,,,,,,,,,,,,,,,,,,,,,,,,,,,,
1720159292,78,0,4224.743652,4200.512695,4188.333496,4194.230957,4236.922852,4193.077148,4193.461426,4204.230957,4150.384766,4152.692383,4302.692383,4328.205078,4212.820313,4283.461426,,,,,,,,,,,,,,,,,,,,,,,,,,,,,,,,,,,,,,,,,,,,,,,,,,,,,,,,,,,,,,,,,,,,,,
1720159292,79,0,4225.641113,4194.230957,4179.230957,4185.128418,4238.333496,4194.230957,4185.256348,4203.717773,4157.179688,4153.077148,4307.820313,4324.102539,4218.589844,4301.410156,,,,,,,,,,,,,,,,,,,,,,,,,,,,,,,,,,,,,,,,,,,,,,,,,,,,,,,,,,,,,,,,,,,,,,
1720159292,80,0,4223.974121,4196.794922,4166.794922,4181.282227,4238.077148,4194.358887,4178.589844,4200.641113,4167.179688,4155,4309.615234,4315.897461,4225.256348,4287.563965,,,,,,,,,,,,,,,,,,,,,,,,,,,,,,,,,,,,,,,,,,,,,,,,,,,,,,,,,,,,,,,,,,,,,,
1720159292,81,0,4230.384766,4205,4177.179688,4193.717773,4239.102539,4186.794922,4172.820313,4200.256348,4170.256348,4157.820313,4316.922852,4328.205078,4224.230957,4293.974121,,,,,,,,,,,,,,,,,,,,,,,,,,,,,,,,,,,,,,,,,,,,,,,,,,,,,,,,,,,,,,,,,,,,,,
1720159292,82,0,4239.871582,4210.769043,4198.077148,4192.563965,4237.436035,4181.282227,4166.410156,4201.794922,4169.230957,4157.692383,4326.153809,4345.641113,4231.666504,4300.256348,,,,,,,,,,,,,,,,,,,,,,,,,,,,,,,,,,,,,,,,,,,,,,,,,,,,,,,,,,,,,,,,,,,,,,
1720159292,83,0,4237.179688,4213.717773,4200,4187.307617,4236.282227,4190,4167.563965,4202.05127,4169.487305,4157.692383,4326.666504,4346.410156,4241.794922,4293.205078,,,,,,,,,,,,,,,,,,,,,,,,,,,,,,,,,,,,,,,,,,,,,,,,,,,,,,,,,,,,,,,,,,,,,,
1720159292,84,0,4235.384766,4212.563965,4196.538574,4196.666504,4238.077148,4197.820313,4178.974121,4205,4172.179688,4160,4324.871582,4350,4240.897461,4308.846191,,,,,,,,,,,,,,,,,,,,,,,,,,,,,,,,,,,,,,,,,,,,,,,,,,,,,,,,,,,,,,,,,,,,,,
1720159292,85,0,4236.666504,4208.205078,4196.153809,4195.512695,4238.589844,4199.487305,4187.179688,4208.717773,4168.461426,4157.820313,4318.077148,4351.153809,4227.820313,4303.846191,,,,,,,,,,,,,,,,,,,,,,,,,,,,,,,,,,,,,,,,,,,,,,,,,,,,,,,,,,,,,,,,,,,,,,
1720159292,86,0,4232.94873,4207.307617,4190,4186.794922,4237.563965,4202.820313,4184.871582,4202.820313,4158.333496,4151.666504,4304.743652,4336.025879,4215.897461,4277.692383,,,,,,,,,,,,,,,,,,,,,,,,,,,,,,,,,,,,,,,,,,,,,,,,,,,,,,,,,,,,,,,,,,,,,,
1720159292,87,0,4238.974121,4210.769043,4191.794922,4195.897461,4242.307617,4204.358887,4189.871582,4204.487305,4155.769043,4153.717773,4306.025879,4336.922852,4223.974121,4297.05127,,,,,,,,,,,,,,,,,,,,,,,,,,,,,,,,,,,,,,,,,,,,,,,,,,,,,,,,,,,,,,,,,,,,,,
1720159292,88,0,4246.410156,4215.897461,4206.282227,4206.153809,4243.077148,4200.641113,4198.717773,4212.05127,4153.974121,4156.025879,4321.538574,4351.025879,4235.897461,4308.333496,,,,,,,,,,,,,,,,,,,,,,,,,,,,,,,,,,,,,,,,,,,,,,,,,,,,,,,,,,,,,,,,,,,,,,
1720159292,89,0,4243.077148,4218.717773,4213.974121,4202.820313,4238.717773,4195.769043,4194.743652,4204.743652,4147.94873,4151.282227,4324.615234,4348.205078,4232.692383,4292.692383,,,,,,,,,,,,,,,,,,,,,,,,,,,,,,,,,,,,,,,,,,,,,,,,,,,,,,,,,,,,,,,,,,,,,,
1720159292,90,0,4238.077148,4211.666504,4207.692383,4196.922852,4244.230957,4199.102539,4194.358887,4205.128418,4154.743652,4152.692383,4316.794922,4345.384766,4228.717773,4297.820313,,,,,,,,,,,,,,,,,,,,,,,,,,,,,,,,,,,,,,,,,,,,,,,,,,,,,,,,,,,,,,,,,,,,,,
1720159292,91,0,4230.256348,4200,4192.436035,4189.743652,4245,4204.743652,4201.025879,4213.974121,4172.179688,4157.307617,4310.384766,4342.820313,4222.307617,4295.641113,,,,,,,,,,,,,,,,,,,,,,,,,,,,,,,,,,,,,,,,,,,,,,,,,,,,,,,,,,,,,,,,,,,,,,
1720159292,92,0,4225.897461,4192.94873,4185.769043,4185.384766,4241.922852,4201.794922,4199.615234,4214.615234,4181.410156,4156.794922,4309.358887,4334.487305,4208.846191,4288.205078,0.560415,0.483732,0.246644,0.277876,0.160621,0.960787,0.729692,0.275462,0.364344,0.231298,2.259204,1.305449,0.476194,0.726087,0.194297,1.044671,0.452863,0.192491,0.315958,0.184905,0.187579,0.045114,0.024237,0.043699,0.059655,0.549289,1.045625,0.216442,0.269361,0.102177,1.800626,3.55128,0.717954,0.623098,0.181236,0.839921,1.758906,0.356091,0.254725,0.078385,1.588043,2.099718,0.71805,1.023669,0.107306,3.63163,0.698745,0.829463,0.403229,0.087385,0.998116,0.841432,0.357422,0.377541,0.173477,2.843816,2.272401,0.988054,0.966002,0.253597,1.716025,1.062946,0.67476,0.474589,0.261543,0.245739,0.374756,0.263727,0.187625,0.850314
1720159292,93,0,4226.666504,4189.487305,4187.307617,4183.461426,4242.820313,4194.743652,4187.692383,4210.384766,4178.974121,4155.512695,4310.384766,4328.461426,4210.641113,4288.589844,,,,,,,,,,,,,,,,,,,,,,,,,,,,,,,,,,,,,,,,,,,,,,,,,,,,,,,,,,,,,,,,,,,,,,
1720159292,94,0,4227.820313,4193.589844,4184.102539,4183.589844,4241.282227,4188.205078,4165,4198.333496,4174.358887,4156.282227,4309.615234,4327.179688,4222.563965,4291.025879,,,,,,,,,,,,,,,,,,,,,,,,,,,,,,,,,,,,,,,,,,,,,,,,,,,,,,,,,,,,,,,,,,,,,,
1720159292,95,0,4227.94873,4201.922852,4185.897461,4186.794922,4243.077148,4182.820313,4143.461426,4186.282227,4165.641113,4155.384766,4308.717773,4332.307617,4223.077148,4293.461426,,,,,,,,,,,,,,,,,,,,,,,,,,,,,,,,,,,,,,,,,,,,,,,,,,,,,,,,,,,,,,,,,,,,,,
1720159292,96,0,4231.282227,4205.256348,4196.153809,4188.205078,4244.230957,4181.025879,4142.179688,4180,4153.974121,4154.358887,4309.487305,4335.641113,4222.94873,4293.205078,,,,,,,,,,,,,,,,,,,,,,,,,,,,,,,,,,,,,,,,,,,,,,,,,,,,,,,,,,,,,,,,,,,,,,
1720159292,97,0,4236.153809,4202.94873,4199.743652,4191.410156,4242.436035,4188.205078,4155.256348,4179.102539,4147.94873,4155.897461,4309.102539,4335,4227.05127,4292.563965,,,,,,,,,,,,,,,,,,,,,,,,,,,,,,,,,,,,,,,,,,,,,,,,,,,,,,,,,,,,,,,,,,,,,,
1720159292,98,0,4229.615234,4195.128418,4188.461426,4189.358887,4246.025879,4196.538574,4170.641113,4188.717773,4146.025879,4153.846191,4302.05127,4330.384766,4221.666504,4290.256348,,,,,,,,,,,,,,,,,,,,,,,,,,,,,,,,,,,,,,,,,,,,,,,,,,,,,,,,,,,,,,,,,,,,,,
1720159292,99,0,4218.589844,4182.563965,4175,4176.153809,4247.05127,4193.205078,4185.512695,4197.94873,4147.05127,4150.897461,4293.077148,4319.358887,4212.436035,4290.256348,,,,,,,,,,,,,,,,,,,,,,,,,,,,,,,,,,,,,,,,,,,,,,,,,,,,,,,,,,,,,,,,,,,,,,
1720159292,100,0,4215.641113,4173.333496,4171.538574,4169.615234,4242.307617,4186.666504,4191.025879,4200.256348,4152.05127,4152.94873,4291.922852,4312.692383,4206.538574,4286.282227,,,,,,,,,,,,,,,,,,,,,,,,,,,,,,,,,,,,,,,,,,,,,,,,,,,,,,,,,,,,,,,,,,,,,,
