Timestamp,EEG.Counter,EEG.Interpolated,EEG.AF3,EEG.F7,EEG.F3,EEG.FC5,EEG.T7,EEG.P7,EEG.O1,EEG.O2,EEG.P8,EEG.T8,EEG.FC6,EEG.F4,EEG.F8,EEG.AF4,POW.AF3.Theta,POW.AF3.Alpha,POW.AF3.BetaL,POW.AF3.BetaH,POW.AF3.Gamma,POW.F7.Theta,POW.F7.Alpha,POW.F7.BetaL,POW.F7.BetaH,POW.F7.Gamma,POW.F3.Theta,POW.F3.Alpha,POW.F3.BetaL,POW.F3.BetaH,POW.F3.Gamma,POW.FC5.Theta,POW.FC5.Alpha,POW.FC5.BetaL,POW.FC5.BetaH,POW.FC5.Gamma,POW.T7.Theta,POW.T7.Alpha,POW.T7.BetaL,POW.T7.BetaH,POW.T7.Gamma,POW.P7.Theta,POW.P7.Alpha,POW.P7.BetaL,POW.P7.BetaH,POW.P7.Gamma,POW.O1.Theta,POW.O1.Alpha,POW.O1.BetaL,POW.O1.BetaH,POW.O1.Gamma,POW.O2.Theta,POW.O2.Alpha,POW.O2.BetaL,POW.O2.BetaH,POW.O2.Gamma,POW.P8.Theta,POW.P8.Alpha,POW.P8.BetaL,POW.P8.BetaH,POW.P8.Gamma,POW.T8.Theta,POW.T8.Alpha,POW.T8.BetaL,POW.T8.BetaH,POW.T8.Gamma,POW.FC6.Theta,POW.FC6.Alpha,POW.FC6.BetaL,POW.FC6.BetaH,POW.FC6.Gamma,POW.F4.Theta,POW.F4.Alpha,POW.F4.BetaL,POW.F4.BetaH,POW.F4.Gamma,POW.F8.Theta,POW.F8.Alpha,POW.F8.BetaL,POW.F8.BetaH,POW.F8.Gamma,POW.AF4.Theta,POW.AF4.Alpha,POW.AF4.BetaL,POW.AF4.BetaH,POW.AF4.Gamma
1720086807,47,0,4186.410156,4313.717773,4331.282227,4369.871582,4327.563965,4293.077148,4320.128418,4318.717773,4232.436035,4183.077148,4490.641113,4582.05127,4377.179688,4495.897461,,,,,,,,,,,,,,,,,,,,,,,,,,,,,,,,,,,,,,,,,,,,,,,,,,,,,,,,,,,,,,,,,,,,,,
1720086807,48,0,4187.179688,4315,4325.512695,4345,4335.512695,4321.538574,4322.820313,4313.974121,4228.589844,4183.589844,4483.077148,4574.358887,4365.128418,4508.077148,,,,,,,,,,,,,,,,,,,,,,,,,,,,,,,,,,,,,,,,,,,,,,,,,,,,,,,,,,,,,,,,,,,,,,
1720086807,49,0,4201.410156,4331.922852,4340,4372.436035,4298.846191,4305.512695,4322.05127,4318.077148,4231.282227,4184.615234,4517.563965,4588.205078,4392.692383,4528.205078,,,,,,,,,,,,,,,,,,,,,,,,,,,,,,,,,,,,,,,,,,,,,,,,,,,,,,,,,,,,,,,,,,,,,,
1720086807,50,0,4198.974121,4333.589844,4347.563965,4392.820313,4296.922852,4291.922852,4325.512695,4323.846191,4237.179688,4193.974121,4522.820313,4598.974121,4412.179688,4549.230957,,,,,,,,,,,,,,,,,,,,,,,,,,,,,,,,,,,,,,,,,,,,,,,,,,,,,,,,,,,,,,,,,,,,,,
1720086807,51,0,4187.563965,4331.153809,4338.461426,4379.102539,4338.717773,4320.128418,4326.153809,4318.589844,4231.794922,4196.153809,4491.153809,4581.794922,4389.230957,4531.153809,,,,,,,,,,,,,,,,,,,,,,,,,,,,,,,,,,,,,,,,,,,,,,,,,,,,,,,,,,,,,,,,,,,,,,
1720086807,52,0,4184.102539,4326.153809,4329.102539,4365,4342.179688,4321.666504,4314.487305,4315.256348,4221.410156,4194.230957,4474.615234,4570.384766,4370.384766,4502.563965,,,,,,,,,,,,,,,,,,,,,,,,,,,,,,,,,,,,,,,,,,,,,,,,,,,,,,,,,,,,,,,,,,,,,,
1720086807,53,0,4193.205078,4325.512695,4335.769043,4378.589844,4307.179688,4284.871582,4312.05127,4321.410156,4226.153809,4198.717773,4498.589844,4584.615234,4388.974121,4506.538574,,,,,,,,,,,,,,,,,,,,,,,,,,,,,,,,,,,,,,,,,,,,,,,,,,,,,,,,,,,,,,,,,,,,,,
1720086807,54,0,4200.384766,4331.538574,4343.846191,4391.282227,4304.615234,4288.717773,4325.769043,4322.307617,4237.05127,4205.897461,4517.563965,4591.410156,4396.794922,4516.410156,17.153793,3.518396,2.721136,1.68612,1.234886,1.383595,2.225134,0.927626,1.246969,1.801625,1.447088,1.074919,0.99653,1.084487,1.123696,1.811053,2.141049,0.801736,1.804839,3.6348,0.874078,3.742857,2.225074,1.635252,2.088192,0.768698,1.706115,2.803713,2.532232,3.058028,0.732184,1.012303,0.878004,0.453987,0.236859,2.394985,1.025496,1.388917,0.517726,0.4719,5.11871,1.771704,0.797888,1.241538,1.239035,2.106789,0.520102,0.230544,0.253257,0.209579,3.1753,2.452908,1.210361,1.696811,3.1601,3.261149,1.537438,1.721565,1.168853,1.43777,3.000949,2.117075,1.281972,1.294918,2.116113,226.965683,109.87896,9.196804,8.796908,4.259211
1720086807,55,0,4187.820313,4318.333496,4334.871582,4361.666504,4331.538574,4327.563965,4328.846191,4313.717773,4229.358887,4206.922852,4503.846191,4580.256348,4382.94873,4512.179688,,,,,,,,,,,,,,,,,,,,,,,,,,,,,,,,,,,,,,,,,,,,,,,,,,,,,,,,,,,,,,,,,,,,,,
1720086807,56,0,4176.794922,4304.615234,4328.846191,4342.563965,4332.436035,4322.820313,4324.615234,4308.717773,4226.538574,4205.256348,4493.333496,4577.94873,4387.563965,4513.717773,,,,,,,,,,,,,,,,,,,,,,,,,,,,,,,,,,,,,,,,,,,,,,,,,,,,,,,,,,,,,,,,,,,,,,
1720086807,57,0,4184.615234,4313.974121,4334.102539,4366.410156,4310,4291.410156,4323.974121,4307.692383,4231.666504,4208.205078,4496.282227,4581.410156,4392.436035,4512.563965,,,,,,,,,,,,,,,,,,,,,,,,,,,,,,,,,,,,,,,,,,,,,,,,,,,,,,,,,,,,,,,,,,,,,,
1720086807,58,0,4188.333496,4320,4332.179688,4378.846191,4301.282227,4294.358887,4316.538574,4301.666504,4224.230957,4213.846191,4489.615234,4575.384766,4377.436035,4513.077148,,,,,,,,,,,,,,,,,,,,,,,,,,,,,,,,,,,,,,,,,,,,,,,,,,,,,,,,,,,,,,,,,,,,,,
1720086807,59,0,4178.461426,4307.436035,4325.641113,4360,4311.025879,4317.820313,4310.256348,4297.820313,4220.641113,4213.717773,4479.358887,4569.358887,4375,4528.333496,,,,,,,,,,,,,,,,,,,,,,,,,,,,,,,,,,,,,,,,,,,,,,,,,,,,,,,,,,,,,,,,,,,,,,
1720086807,60,0,4183.077148,4317.179688,4339.487305,4368.974121,4329.358887,4318.974121,4321.410156,4308.205078,4226.282227,4211.538574,4497.436035,4583.717773,4396.538574,4549.615234,,,,,,,,,,,,,,,,,,,,,,,,,,,,,,,,,,,,,,,,,,,,,,,,,,,,,,,,,,,,,,,,,,,,,,
1720086807,61,0,4194.615234,4340.384766,4354.102539,4393.205078,4337.94873,4308.333496,4333.461426,4321.410156,4224.358887,4223.205078,4512.820313,4601.922852,4400.897461,4558.205078,,,,,,,,,,,,,,,,,,,,,,,,,,,,,,,,,,,,,,,,,,,,,,,,,,,,,,,,,,,,,,,,,,,,,,
1720086807,62,0,4193.205078,4340.512695,4353.974121,4398.077148,4322.563965,4302.820313,4333.461426,4324.230957,4220.769043,4231.794922,4508.974121,4600.897461,4400.769043,4563.717773,,,,,,,,,,,,,,,,,,,,,,,,,,,,,,,,,,,,,,,,,,,,,,,,,,,,,,,,,,,,,,,,,,,,,,
1720086807,63,0,4182.179688,4316.922852,4346.922852,4380.897461,4311.025879,4316.282227,4328.974121,4320.769043,4226.025879,4227.307617,4500.128418,4590.256348,4403.333496,4569.358887,,,,,,,,,,,,,,,,,,,,,,,,,,,,,,,,,,,,,,,,,,,,,,,,,,,,,,,,,,,,,,,,,,,,,,
1720086807,64,0,4189.615234,4320.897461,4352.307617,4374.358887,4328.205078,4326.282227,4329.358887,4319.102539,4233.333496,4231.025879,4505.256348,4598.077148,4405.897461,4580.512695,,,,,,,,,,,,,,,,,,,,,,,,,,,,,,,,,,,,,,,,,,,,,,,,,,,,,,,,,,,,,,,,,,,,,,
1720086807,65,0,4213.974121,4357.94873,4372.94873,4403.974121,4340,4311.025879,4335.256348,4317.436035,4238.717773,4238.077148,4532.692383,4615.384766,4422.179688,4600.769043,,,,,,,,,,,,,,,,,,,,,,,,,,,,,,,,,,,,,,,,,,,,,,,,,,,,,,,,,,,,,,,,,,,,,,
1720086807,66,0,4213.461426,4355.641113,4370.769043,4412.820313,4324.358887,4309.358887,4336.794922,4317.820313,4229.615234,4236.153809,4530,4608.205078,4419.743652,4603.333496,,,,,,,,,,,,,,,,,,,,,,,,,,,,,,,,,,,,,,,,,,,,,,,,,,,,,,,,,,,,,,,,,,,,,,
1720086807,67,0,4197.05127,4324.615234,4354.871582,4387.563965,4318.974121,4327.94873,4334.487305,4320.384766,4216.410156,4234.615234,4502.94873,4596.410156,4403.974121,4591.538574,,,,,,,,,,,,,,,,,,,,,,,,,,,,,,,,,,,,,,,,,,,,,,,,,,,,,,,,,,,,,,,,,,,,,,
1720086807,68,0,4194.102539,4323.974121,4355.512695,4376.153809,4331.410156,4329.871582,4336.666504,4317.692383,4231.794922,4240.256348,4504.871582,4599.871582,4408.974121,4588.461426,,,,,,,,,,,,,,,,,,,,,,,,,,,,,,,,,,,,,,,,,,,,,,,,,,,,,,,,,,,,,,,,,,,,,,
1720086807,69,0,4192.692383,4335.641113,4355.384766,4385.256348,4334.102539,4322.563965,4336.025879,4312.05127,4250,4247.307617,4511.538574,4597.179688,4407.436035,4579.743652,,,,,,,,,,,,,,,,,,,,,,,,,,,,,,,,,,,,,,,,,,,,,,,,,,,,,,,,,,,,,,,,,,,,,,
1720086807,70,0,4187.436035,4337.179688,4346.794922,4392.563965,4327.820313,4322.179688,4331.794922,4311.666504,4243.846191,4248.333496,4499.230957,4585.769043,4394.487305,4565.769043,14.667826,3.812307,2.416531,1.595664,0.996022,1.349565,2.48274,1.128883,1.187763,1.524596,1.579501,1.292396,1.034695,1.070509,0.987343,1.429456,2.33409,0.877592,1.648274,3.30424,0.727239,3.509697,2.243151,1.450903,1.740111,0.695915,1.619201,2.757333,2.050615,2.25592,0.644567,0.909037,0.864799,0.420443,0.205534,1.79164,0.983971,1.218764,0.47225,0.38407,2.71654,1.123318,0.574228,1.257493,1.16747,1.320761,0.43441,0.227233,0.243117,0.186234,2.397894,2.408574,1.247582,1.587292,2.866801,4.301631,1.560725,1.942418,1.158603,1.247242,2.592238,1.903778,1.300411,1.193751,1.884731,193.255585,75.846985,7.930786,8.432412,4.089894
1720086807,71,0,4196.025879,4345.897461,4355.641113,4402.179688,4321.666504,4312.563965,4337.307617,4317.94873,4243.974121,4247.563965,4510.769043,4593.461426,4413.333496,4576.410156,,,,,,,,,,,,,,,,,,,,,,,,,,,,,,,,,,,,,,,,,,,,,,,,,,,,,,,,,,,,,,,,,,,,,,
1720086807,72,0,4210.384766,4355,4371.538574,4415.384766,4322.692383,4305.512695,4343.077148,4323.077148,4247.94873,4253.077148,4528.717773,4614.743652,4432.05127,4604.358887,,,,,,,,,,,,,,,,,,,,,,,,,,,,,,,,,,,,,,,,,,,,,,,,,,,,,,,,,,,,,,,,,,,,,,
1720086807,73,0,4193.717773,4330.641113,4353.589844,4394.615234,4322.307617,4304.358887,4330.256348,4313.974121,4223.077148,4251.794922,4501.153809,4602.307617,4403.717773,4598.974121,,,,,,,,,,,,,,,,,,,,,,,,,,,,,,,,,,,,,,,,,,,,,,,,,,,,,,,,,,,,,,,,,,,,,,
1720086807,74,0,4159.487305,4295.641113,4324.615234,4357.820313,4314.871582,4308.077148,4319.487305,4299.487305,4218.974121,4243.846191,4465.128418,4568.205078,4374.615234,4568.846191,,,,,,,,,,,,,,,,,,,,,,,,,,,,,,,,,,,,,,,,,,,,,,,,,,,,,,,,,,,,,,,,,,,,,,
1720086807,75,0,4161.538574,4293.974121,4328.077148,4350.384766,4306.922852,4323.846191,4328.077148,4309.743652,4252.692383,4255.769043,4469.230957,4576.153809,4379.743652,4572.820313,,,,,,,,,,,,,,,,,,,,,,,,,,,,,,,,,,,,,,,,,,,,,,,,,,,,,,,,,,,,,,,,,,,,,,
1720086807,76,0,4211.410156,4335.897461,4362.820313,4390.512695,4318.461426,4318.717773,4339.743652,4325.384766,4264.871582,4268.846191,4505.128418,4615.128418,4402.692383,4605.384766,,,,,,,,,,,,,,,,,,,,,,,,,,,,,,,,,,,,,,,,,,,,,,,,,,,,,,,,,,,,,,,,,,,,,,
1720086807,77,0,4247.05127,4373.717773,4392.563965,4435.512695,4345.769043,4310.512695,4354.487305,4303.205078,4257.820313,4267.563965,4531.922852,4629.871582,4427.307617,4620.128418,,,,,,,,,,,,,,,,,,,,,,,,,,,,,,,,,,,,,,,,,,,,,,,,,,,,,,,,,,,,,,,,,,,,,,
1720086807,78,0,4229.487305,4356.282227,4380.641113,4418.846191,4351.538574,4339.615234,4359.871582,4260.641113,4268.846191,4273.205078,4512.94873,4609.102539,4423.974121,4606.282227,,,,,,,,,,,,,,,,,,,,,,,,,,,,,,,,,,,,,,,,,,,,,,,,,,,,,,,,,,,,,,,,,,,,,,
1720086807,79,0,4206.153809,4333.077148,4355.512695,4378.846191,4341.153809,4352.05127,4345.641113,4237.820313,4269.615234,4268.717773,4479.743652,4580.769043,4394.743652,4589.358887,,,,,,,,,,,,,,,,,,,,,,,,,,,,,,,,,,,,,,,,,,,,,,,,,,,,,,,,,,,,,,,,,,,,,,
1720086807,80,0,4219.743652,4358.846191,4371.538574,4408.333496,4337.179688,4304.615234,4345.512695,4246.025879,4248.589844,4257.820313,4500.769043,4594.230957,4406.666504,4603.589844,,,,,,,,,,,,,,,,,,,,,,,,,,,,,,,,,,,,,,,,,,,,,,,,,,,,,,,,,,,,,,,,,,,,,,
1720086807,81,0,4224.487305,4367.436035,4383.461426,4432.94873,4337.563965,4285.256348,4356.025879,4250.384766,4247.692383,4265.256348,4517.179688,4609.871582,4427.307617,4610.256348,,,,,,,,,,,,,,,,,,,,,,,,,,,,,,,,,,,,,,,,,,,,,,,,,,,,,,,,,,,,,,,,,,,,,,
1720086807,82,0,4200.897461,4336.538574,4353.974121,4386.282227,4345,4319.102539,4349.102539,4245.384766,4261.282227,4272.94873,4485.769043,4585.128418,4400.897461,4588.589844,,,,,,,,,,,,,,,,,,,,,,,,,,,,,,,,,,,,,,,,,,,,,,,,,,,,,,,,,,,,,,,,,,,,,,
1720086807,83,0,4193.077148,4333.205078,4343.717773,4375.769043,4355,4332.307617,4346.538574,4252.563965,4267.820313,4272.820313,4480.384766,4573.589844,4384.871582,4586.025879,,,,,,,,,,,,,,,,,,,,,,,,,,,,,,,,,,,,,,,,,,,,,,,,,,,,,,,,,,,,,,,,,,,,,,
1720086807,84,0,4204.743652,4348.461426,4361.025879,4414.358887,4345.384766,4322.692383,4356.025879,4255,4262.820313,4270.384766,4500.256348,4587.563965,4400.641113,4598.717773,,,,,,,,,,,,,,,,,,,,,,,,,,,,,,,,,,,,,,,,,,,,,,,,,,,,,,,,,,,,,,,,,,,,,,
1720086807,85,0,4209.358887,4341.794922,4363.333496,4413.717773,4333.717773,4320.769043,4357.94873,4252.563965,4260.641113,4273.077148,4497.179688,4592.563965,4402.692383,4594.871582,,,,,,,,,,,,,,,,,,,,,,,,,,,,,,,,,,,,,,,,,,,,,,,,,,,,,,,,,,,,,,,,,,,,,,
1720086807,86,0,4215.641113,4346.538574,4366.538574,4402.692383,4342.94873,4316.410156,4358.333496,4262.820313,4273.333496,4281.282227,4500.769043,4596.538574,4404.743652,4597.94873,19.845829,4.947776,2.229367,1.53718,0.869402,1.53899,2.54032,1.302863,1.184321,1.338473,1.766032,1.516903,1.029522,1.102251,0.918935,1.271748,2.331562,0.981216,1.61666,3.060848,0.691624,3.068748,2.148815,1.340534,1.480068,0.633658,1.452216,2.669496,1.6293,1.743212,0.770632,0.796981,0.777701,0.400326,0.1852,1.748834,0.979439,0.960352,0.42636,0.326926,1.908826,0.948918,0.511141,1.31065,1.088041,1.134074,0.428091,0.231021,0.245984,0.16925,1.800448,2.379429,1.197328,1.536379,2.738878,5.604459,1.619233,2.110238,1.185647,1.137608,2.301691,1.734904,1.215568,1.147446,1.766965,158.155426,53.434807,6.6541,7.611527,3.740355
1720086807,87,0,4222.179688,4362.307617,4375.512695,4417.307617,4355.512695,4306.153809,4360,4266.153809,4279.358887,4283.589844,4516.794922,4605.256348,4420.128418,4617.820313,,,,,,,,,,,,,,,,,,,,,,,,,,,,,,,,,,,,,,,,,,,,,,,,,,,,,,,,,,,,,,,,,,,,,,
1720086807,88,0,4213.974121,4355.897461,4361.666504,4414.615234,4360.641113,4315.384766,4356.025879,4250.769043,4270.128418,4276.282227,4506.922852,4595,4411.410156,4622.05127,,,,,,,,,,,,,,,,,,,,,,,,,,,,,,,,,,,,,,,,,,,,,,,,,,,,,,,,,,,,,,,,,,,,,,
1720086807,89,0,4208.717773,4345.384766,4352.94873,4400.256348,4357.436035,4323.077148,4357.820313,4249.615234,4264.102539,4281.153809,4510.897461,4591.025879,4404.358887,4620.256348,,,,,,,,,,,,,,,,,,,,,,,,,,,,,,,,,,,,,,,,,,,,,,,,,,,,,,,,,,,,,,,,,,,,,,
1720086807,90,0,4208.717773,4337.563965,4357.94873,4398.589844,4338.077148,4312.692383,4356.666504,4255.384766,4263.461426,4287.179688,4525.897461,4592.692383,4414.230957,4621.794922,,,,,,,,,,,,,,,,,,,,,,,,,,,,,,,,,,,,,,,,,,,,,,,,,,,,,,,,,,,,,,,,,,,,,,
1720086807,91,0,4206.410156,4330.384766,4350.512695,4395.256348,4326.538574,4315,4349.871582,4248.846191,4259.487305,4276.794922,4499.615234,4579.615234,4402.179688,4610,,,,,,,,,,,,,,,,,,,,,,,,,,,,,,,,,,,,,,,,,,,,,,,,,,,,,,,,,,,,,,,,,,,,,,
1720086807,92,0,4204.230957,4333.461426,4341.538574,4389.615234,4337.563965,4321.025879,4352.563965,4250.384766,4260.128418,4277.307617,4466.666504,4570.512695,4374.102539,4592.563965,,,,,,,,,,,,,,,,,,,,,,,,,,,,,,,,,,,,,,,,,,,,,,,,,,,,,,,,,,,,,,,,,,,,,,
1720086807,93,0,4206.153809,4345.512695,4346.666504,4400.897461,4345.769043,4314.230957,4358.846191,4254.743652,4263.333496,4284.743652,4471.922852,4570.897461,4371.922852,4584.487305,,,,,,,,,,,,,,,,,,,,,,,,,,,,,,,,,,,,,,,,,,,,,,,,,,,,,,,,,,,,,,,,,,,,,,
1720086807,94,0,4211.538574,4345.128418,4352.05127,4416.025879,4343.589844,4305.641113,4358.846191,4256.794922,4260.384766,4280.641113,4496.410156,4579.615234,4397.820313,4586.922852,,,,,,,,,,,,,,,,,,,,,,,,,,,,,,,,,,,,,,,,,,,,,,,,,,,,,,,,,,,,,,,,,,,,,,
1720086807,95,0,4211.025879,4333.333496,4346.282227,4400.769043,4341.538574,4306.025879,4356.794922,4258.589844,4261.538574,4281.538574,4496.410156,4583.974121,4402.179688,4577.179688,,,,,,,,,,,,,,,,,,,,,,,,,,,,,,,,,,,,,,,,,,,,,,,,,,,,,,,,,,,,,,,,,,,,,,
1720086807,96,0,4214.102539,4338.205078,4346.282227,4387.179688,4341.538574,4315,4358.205078,4255,4268.974121,4287.307617,4486.666504,4580.384766,4390.897461,4567.94873,,,,,,,,,,,,,,,,,,,,,,,,,,,,,,,,,,,,,,,,,,,,,,,,,,,,,,,,,,,,,,,,,,,,,,
1720086807,97,0,4223.205078,4350,4354.230957,4397.563965,4344.230957,4320.256348,4357.820313,4251.282227,4264.487305,4284.615234,4498.974121,4586.666504,4396.666504,4588.077148,,,,,,,,,,,,,,,,,,,,,,,,,,,,,,,,,,,,,,,,,,,,,,,,,,,,,,,,,,,,,,,,,,,,,,
1720086807,98,0,4232.692383,4351.410156,4358.717773,4408.461426,4341.922852,4312.436035,4355.769043,4253.077148,4251.666504,4280.384766,4508.974121,4595.769043,4402.05127,4611.922852,,,,,,,,,,,,,,,,,,,,,,,,,,,,,,,,,,,,,,,,,,,,,,,,,,,,,,,,,,,,,,,,,,,,,,
1720086807,99,0,4230.384766,4345.769043,4358.077148,4405,4331.922852,4305,4356.666504,4255.256348,4252.692383,4283.974121,4496.538574,4593.589844,4396.922852,4615.128418,,,,,,,,,,,,,,,,,,,,,,,,,,,,,,,,,,,,,,,,,,,,,,,,,,,,,,,,,,,,,,,,,,,,,,
1720086807,100,0,4219.743652,4339.615234,4354.615234,4397.436035,4327.94873,4312.692383,4355.897461,4253.717773,4262.307617,4287.179688,4483.077148,4586.922852,4395.256348,4612.436035,,,,,,,,,,,,,,,,,,,,,,,,,,,,,,,,,,,,,,,,,,,,,,,,,,,,,,,,,,,,,,,,,,,,,,
1720086807,101,0,4221.025879,4345.256348,4358.205078,4405.384766,4335.512695,4315.128418,4354.743652,4255.512695,4260,4288.461426,4489.871582,4590,4394.743652,4613.717773,,,,,,,,,,,,,,,,,,,,,,,,,,,,,,,,,,,,,,,,,,,,,,,,,,,,,,,,,,,,,,,,,,,,,,
1720086807,102,0,4227.436035,4352.05127,4362.436035,4410.897461,4337.05127,4306.794922,4360.897461,4259.743652,4256.025879,4286.922852,4502.692383,4594.230957,4387.436035,4609.230957,27.139322,6.624631,2.02168,1.523958,0.830201,1.827947,2.396024,1.392074,1.242203,1.24034,2.18484,1.673309,0.981141,1.171852,0.903693,1.291422,2.142459,1.08084,1.707365,2.895218,0.566484,2.523187,1.964976,1.271029,1.347258,0.410687,1.233434,2.52477,1.324792,1.581392,0.695001,0.695162,0.649913,0.39861,0.174806,1.989529,1.018292,0.707624,0.393441,0.300407,1.654104,0.925402,0.507067,1.300919,1.000326,0.769871,0.440639,0.23868,0.244434,0.162173,1.708037,2.364927,1.108594,1.547339,2.741133,7.181743,1.662921,2.19049,1.250591,1.106184,2.26624,1.641128,1.05871,1.156578,1.756082,123.8032,39.916241,5.347587,6.407033,3.281524
1720086807,103,0,4232.179688,4345.384766,4359.871582,4392.436035,4333.846191,4307.563965,4365.128418,4258.461426,4262.179688,4288.589844,4497.563965,4592.436035,4386.666504,4609.230957,,,,,,,,,,,,,,,,,,,,,,,,,,,,,,,,,,,,,,,,,,,,,,,,,,,,,,,,,,,,,,,,,,,,,,
1720086807,104,0,4252.563965,4351.282227,4366.410156,4393.461426,4345.384766,4319.871582,4365,4249.487305,4266.282227,4290.897461,4494.102539,4596.153809,4400.128418,4635.512695,,,,,,,,,,,,,,,,,,,,,,,,,,,,,,,,,,,,,,,,,,,,,,,,,,,,,,,,,,,,,,,,,,,,,,
1720086807,105,0,4293.077148,4377.436035,4388.717773,4432.94873,4351.922852,4328.846191,4374.743652,4245.641113,4263.461426,4287.436035,4511.410156,4613.077148,4412.307617,4678.974121,,,,,,,,,,,,,,,,,,,,,,,,,,,,,,,,,,,,,,,,,,,,,,,,,,,,,,,,,,,,,,,,,,,,,,
1720086807,106,0,4328.974121,4387.436035,4403.974121,4443.846191,4345.128418,4324.230957,4383.461426,4243.333496,4268.205078,4292.05127,4521.153809,4625,4416.153809,4721.666504,,,,,,,,,,,,,,,,,,,,,,,,,,,,,,,,,,,,,,,,,,,,,,,,,,,,,,,,,,,,,,,,,,,,,,
1720086807,107,0,4364.743652,4396.153809,4421.794922,4441.922852,4346.153809,4310.641113,4380.641113,4235.256348,4279.615234,4297.820313,4529.102539,4636.922852,4434.615234,4770.128418,,,,,,,,,,,,,,,,,,,,,,,,,,,,,,,,,,,,,,,,,,,,,,,,,,,,,,,,,,,,,,,,,,,,,,
1720086807,108,0,4403.846191,4414.743652,4443.974121,4458.205078,4346.794922,4311.666504,4379.102539,4234.230957,4280,4295.897461,4552.820313,4658.846191,4461.538574,4801.922852,,,,,,,,,,,,,,,,,,,,,,,,,,,,,,,,,,,,,,,,,,,,,,,,,,,,,,,,,,,,,,,,,,,,,,
1720086807,109,0,4421.922852,4417.179688,4445.128418,4454.615234,4346.282227,4327.563965,4382.692383,4239.743652,4277.692383,4297.436035,4561.282227,4666.794922,4464.743652,4785.384766,,,,,,,,,,,,,,,,,,,,,,,,,,,,,,,,,,,,,,,,,,,,,,,,,,,,,,,,,,,,,,,,,,,,,,
1720086807,110,0,4420,4416.410156,4440.128418,4445.897461,4360.384766,4335.128418,4388.717773,4242.563965,4295.256348,4303.717773,4552.05127,4662.820313,4459.487305,4765.897461,,,,,,,,,,,,,,,,,,,,,,,,,,,,,,,,,,,,,,,,,,,,,,,,,,,,,,,,,,,,,,,,,,,,,,
1720086807,111,0,4407.563965,4416.666504,4440.256348,4448.077148,4371.538574,4332.436035,4396.282227,4249.230957,4310.769043,4305.384766,4555.256348,4666.538574,4463.846191,4776.666504,,,,,,,,,,,,,,,,,,,,,,,,,,,,,,,,,,,,,,,,,,,,,,,,,,,,,,,,,,,,,,,,,,,,,,
1720086807,112,0,4393.077148,4403.461426,4427.05127,4440.897461,4359.871582,4329.615234,4397.307617,4248.974121,4298.589844,4300.641113,4556.666504,4658.205078,4458.077148,4767.94873,,,,,,,,,,,,,,,,,,,,,,,,,,,,,,,,,,,,,,,,,,,,,,,,,,,,,,,,,,,,,,,,,,,,,,
1720086807,113,0,4381.025879,4395.512695,4411.922852,4440.128418,4348.461426,4327.05127,4397.436035,4243.077148,4293.077148,4298.974121,4551.410156,4640.512695,4445.641113,4728.333496,,,,,,,,,,,,,,,,,,,,,,,,,,,,,,,,,,,,,,,,,,,,,,,,,,,,,,,,,,,,,,,,,,,,,,
1720086807,114,0,4366.922852,4396.410156,4409.615234,4449.871582,4352.05127,4324.615234,4404.102539,4246.538574,4305.512695,4303.205078,4549.487305,4638.333496,4441.666504,4701.666504,,,,,,,,,,,,,,,,,,,,,,,,,,,,,,,,,,,,,,,,,,,,,,,,,,,,,,,,,,,,,,,,,,,,,,
1720086807,115,0,4343.077148,4383.205078,4401.922852,4433.589844,4354.230957,4322.820313,4400.897461,4247.05127,4302.307617,4306.666504,4534.743652,4629.871582,4432.692383,4685.641113,,,,,,,,,,,,,,,,,,,,,,,,,,,,,,,,,,,,,,,,,,,,,,,,,,,,,,,,,,,,,,,,,,,,,,
1720086807,116,0,4318.717773,4370,4388.589844,4413.717773,4349.615234,4320.897461,4392.563965,4241.794922,4291.025879,4304.743652,4526.794922,4613.077148,4424.358887,4651.794922,,,,,,,,,,,,,,,,,,,,,,,,,,,,,,,,,,,,,,,,,,,,,,,,,,,,,,,,,,,,,,,,,,,,,,
1720086807,117,0,4304.743652,4371.410156,4387.94873,4420.641113,4346.666504,4324.487305,4396.538574,4248.205078,4297.692383,4312.05127,4541.410156,4619.230957,4431.153809,4615.897461,,,,,,,,,,,,,,,,,,,,,,,,,,,,,,,,,,,,,,,,,,,,,,,,,,,,,,,,,,,,,,,,,,,,,,
1720086807,118,0,4296.410156,4373.717773,4387.692383,4421.410156,4350.641113,4329.102539,4398.205078,4250.769043,4303.717773,4320.512695,4545.641113,4625.512695,4433.205078,4596.153809,33.227276,8.2019,1.775972,1.568156,0.838565,2.211202,2.119488,1.388839,1.366862,1.211854,2.415426,1.720561,0.89841,1.271272,0.916995,1.317273,1.838656,1.153594,1.900562,2.795845,0.620134,1.991847,1.721349,1.202941,1.337733,0.387613,1.004728,2.291968,1.155003,1.718202,0.768583,0.613592,0.52038,0.416604,0.171716,2.412272,1.117033,0.541366,0.387257,0.30362,1.297123,0.89699,0.520305,1.198175,0.907332,0.613818,0.443468,0.234719,0.22902,0.165381,1.636096,2.324546,1.042313,1.638364,2.799747,8.161577,1.64879,2.150142,1.34757,1.134153,2.280204,1.596731,0.882886,1.218926,1.808251,94.825394,30.822992,4.184454,5.027075,2.804536
1720086807,119,0,4288.461426,4370.897461,4377.307617,4415.769043,4346.538574,4314.615234,4387.307617,4235.384766,4288.974121,4307.563965,4525.769043,4607.307617,4420,4576.666504,,,,,,,,,,,,,,,,,,,,,,,,,,,,,,,,,,,,,,,,,,,,,,,,,,,,,,,,,,,,,,,,,,,,,,
1720086807,120,0,4277.307617,4363.333496,4367.94873,4415.512695,4346.153809,4302.94873,4385.897461,4226.153809,4285.128418,4302.179688,4505.512695,4591.153809,4407.820313,4559.230957,,,,,,,,,,,,,,,,,,,,,,,,,,,,,,,,,,,,,,,,,,,,,,,,,,,,,,,,,,,,,,,,,,,,,,
1720086808,121,0,4265.128418,4355.128418,4362.820313,4410.512695,4356.794922,4315.641113,4393.846191,4231.538574,4299.615234,4313.589844,4498.974121,4592.692383,4404.230957,4553.205078,,,,,,,,,,,,,,,,,,,,,,,,,,,,,,,,,,,,,,,,,,,,,,,,,,,,,,,,,,,,,,,,,,,,,,
1720086808,122,0,4261.666504,4356.025879,4359.871582,4406.794922,4350.128418,4324.615234,4391.922852,4226.153809,4300.769043,4312.692383,4506.153809,4592.05127,4404.358887,4530.897461,,,,,,,,,,,,,,,,,,,,,,,,,,,,,,,,,,,,,,,,,,,,,,,,,,,,,,,,,,,,,,,,,,,,,,
1720086808,123,0,4262.692383,4359.487305,4358.974121,4406.025879,4345.128418,4319.102539,4389.487305,4193.205078,4298.205078,4307.307617,4509.615234,4580.641113,4404.487305,4496.025879,,,,,,,,,,,,,,,,,,,,,,,,,,,,,,,,,,,,,,,,,,,,,,,,,,,,,,,,,,,,,,,,,,,,,,
1720086808,124,0,4262.820313,4359.230957,4357.94873,4401.153809,4362.692383,4328.205078,4393.589844,4150,4306.922852,4310.384766,4501.025879,4571.153809,4407.820313,4497.179688,,,,,,,,,,,,,,,,,,,,,,,,,,,,,,,,,,,,,,,,,,,,,,,,,,,,,,,,,,,,,,,,,,,,,,
1720086808,125,0,4275.256348,4376.025879,4368.205078,4418.461426,4376.282227,4334.615234,4400.769043,4143.205078,4315.256348,4316.025879,4510.512695,4581.794922,4422.179688,4524.615234,,,,,,,,,,,,,,,,,,,,,,,,,,,,,,,,,,,,,,,,,,,,,,,,,,,,,,,,,,,,,,,,,,,,,,
1720086808,126,0,4284.615234,4390.769043,4380.897461,4438.333496,4363.077148,4314.230957,4409.871582,4165.769043,4310.512695,4318.333496,4527.436035,4596.025879,4429.358887,4523.461426,,,,,,,,,,,,,,,,,,,,,,,,,,,,,,,,,,,,,,,,,,,,,,,,,,,,,,,,,,,,,,,,,,,,,,
1720086808,127,0,4269.102539,4375.128418,4371.025879,4422.436035,4350.769043,4311.922852,4411.538574,4167.179688,4298.333496,4312.436035,4510.128418,4586.538574,4414.743652,4497.05127,,,,,,,,,,,,,,,,,,,,,,,,,,,,,,,,,,,,,,,,,,,,,,,,,,,,,,,,,,,,,,,,,,,,,,
1720086808,0,0,4259.358887,4363.205078,4356.794922,4406.922852,4352.563965,4329.615234,4399.358887,4153.461426,4297.307617,4307.436035,4487.692383,4570.769043,4402.179688,4484.743652,,,,,,,,,,,,,,,,,,,,,,,,,,,,,,,,,,,,,,,,,,,,,,,,,,,,,,,,,,,,,,,,,,,,,,
1720086808,1,0,4267.179688,4366.410156,4355.641113,4407.05127,4357.179688,4328.461426,4393.205078,4158.205078,4306.282227,4316.282227,4489.743652,4567.436035,4399.358887,4486.794922,,,,,,,,,,,,,,,,,,,,,,,,,,,,,,,,,,,,,,,,,,,,,,,,,,,,,,,,,,,,,,,,,,,,,,
1720086808,2,0,4265.769043,4361.153809,4348.205078,4396.666504,4363.846191,4322.563965,4398.461426,4166.538574,4310.384766,4318.589844,4488.205078,4564.743652,4391.282227,4482.563965,,,,,,,,,,,,,,,,,,,,,,,,,,,,,,,,,,,,,,,,,,,,,,,,,,,,,,,,,,,,,,,,,,,,,,
1720086808,3,0,4257.94873,4351.410156,4338.589844,4393.333496,4360.641113,4321.794922,4395.384766,4163.846191,4308.717773,4312.692383,4479.871582,4561.153809,4387.05127,4484.230957,,,,,,,,,,,,,,,,,,,,,,,,,,,,,,,,,,,,,,,,,,,,,,,,,,,,,,,,,,,,,,,,,,,,,,
1720086808,4,0,4257.94873,4352.436035,4341.538574,4401.794922,4352.692383,4313.461426,4389.871582,4164.487305,4308.461426,4319.102539,4489.615234,4561.410156,4395,4498.589844,,,,,,,,,,,,,,,,,,,,,,,,,,,,,,,,,,,,,,,,,,,,,,,,,,,,,,,,,,,,,,,,,,,,,,
1720086808,5,0,4267.563965,4364.230957,4349.615234,4406.794922,4349.871582,4306.666504,4392.436035,4167.820313,4309.230957,4324.102539,4499.358887,4568.589844,4400.641113,4511.666504,,,,,,,,,,,,,,,,,,,,,,,,,,,,,,,,,,,,,,,,,,,,,,,,,,,,,,,,,,,,,,,,,,,,,,
1720086808,6,0,4286.538574,4376.922852,4361.666504,4416.666504,4359.358887,4315.897461,4396.282227,4170,4307.820313,4320.128418,4500.897461,4584.230957,4406.666504,4528.974121,36.802509,9.134686,1.54873,1.659709,0.865916,2.607229,1.82216,1.348911,1.55311,1.229215,2.789971,1.679299,0.823579,1.380184,0.937407,1.579937,1.529942,1.208098,2.161165,2.753273,0.660455,1.558897,1.476171,1.108728,1.408954,0.321623,0.805657,1.972556,1.085472,2.021926,0.754676,0.552529,0.429481,0.447805,0.173524,3.021042,1.283453,0.525352,0.413468,0.330077,1.098945,0.834673,0.543313,1.040731,0.81693,0.50659,0.432378,0.224525,0.201309,0.175387,1.848305,2.234575,1.078792,1.803923,2.83724,8.41871,1.56866,2.005545,1.448535,1.192981,2.410055,1.584202,0.782123,1.314283,1.864666,70.829414,22.648607,3.263907,3.736072,2.372958
1720086808,7,0,4300.128418,4386.282227,4373.846191,4433.589844,4371.153809,4327.563965,4401.538574,4172.692383,4304.871582,4319.615234,4517.563965,4594.871582,4423.077148,4547.563965,,,,,,,,,,,,,,,,,,,,,,,,,,,,,,,,,,,,,,,,,,,,,,,,,,,,,,,,,,,,,,,,,,,,,,
1720086808,8,0,4292.563965,4386.410156,4371.538574,4433.205078,4361.922852,4329.230957,4406.153809,4173.589844,4303.846191,4324.230957,4526.794922,4591.282227,4425.384766,4549.615234,,,,,,,,,,,,,,,,,,,,,,,,,,,,,,,,,,,,,,,,,,,,,,,,,,,,,,,,,,,,,,,,,,,,,,
1720086808,9,0,4285.512695,4380.128418,4362.307617,4414.230957,4350.769043,4326.922852,4402.692383,4173.461426,4309.487305,4329.358887,4507.179688,4586.922852,4407.307617,4545,,,,,,,,,,,,,,,,,,,,,,,,,,,,,,,,,,,,,,,,,,,,,,,,,,,,,,,,,,,,,,,,,,,,,,
1720086808,10,0,4289.358887,4372.94873,4363.717773,4407.307617,4353.333496,4328.846191,4396.666504,4173.205078,4312.436035,4329.615234,4491.922852,4589.615234,4399.102539,4552.307617,,,,,,,,,,,,,,,,,,,,,,,,,,,,,,,,,,,,,,,,,,,,,,,,,,,,,,,,,,,,,,,,,,,,,,
1720086808,11,0,4296.666504,4381.153809,4377.820313,4426.538574,4359.871582,4324.615234,4400.384766,4181.922852,4317.179688,4333.205078,4511.153809,4608.461426,4415.256348,4573.974121,,,,,,,,,,,,,,,,,,,,,,,,,,,,,,,,,,,,,,,,,,,,,,,,,,,,,,,,,,,,,,,,,,,,,,
1720086808,12,0,4307.179688,4395.128418,4386.922852,4440.769043,4361.282227,4318.333496,4405.641113,4190.897461,4325.641113,4338.717773,4529.871582,4624.871582,4426.538574,4582.436035,,,,,,,,,,,,,,,,,,,,,,,,,,,,,,,,,,,,,,,,,,,,,,,,,,,,,,,,,,,,,,,,,,,,,,
1720086808,13,0,4303.589844,4382.692383,4377.307617,4425.897461,4364.743652,4331.282227,4402.692383,4186.153809,4326.025879,4340,4519.871582,4619.358887,4416.153809,4563.589844,,,,,,,,,,,,,,,,,,,,,,,,,,,,,,,,,,,,,,,,,,,,,,,,,,,,,,,,,,,,,,,,,,,,,,
1720086808,14,0,4298.717773,4375.641113,4371.922852,4418.846191,4365.384766,4345.769043,4398.717773,4184.871582,4325.512695,4343.846191,4512.563965,4622.94873,4412.436035,4540.641113,,,,,,,,,,,,,,,,,,,,,,,,,,,,,,,,,,,,,,,,,,,,,,,,,,,,,,,,,,,,,,,,,,,,,,
1720086808,15,0,4310.384766,4393.461426,4379.230957,4431.666504,4363.717773,4346.410156,4395.641113,4195.128418,4327.307617,4346.794922,4507.94873,4637.563965,4411.282227,4530.641113,,,,,,,,,,,,,,,,,,,,,,,,,,,,,,,,,,,,,,,,,,,,,,,,,,,,,,,,,,,,,,,,,,,,,,
1720086808,16,0,4318.974121,4400.512695,4379.358887,4430.641113,4372.436035,4337.05127,4390.897461,4195.512695,4322.436035,4341.282227,4502.179688,4635.512695,4406.538574,4526.666504,,,,,,,,,,,,,,,,,,,,,,,,,,,,,,,,,,,,,,,,,,,,,,,,,,,,,,,,,,,,,,,,,,,,,,
1720086808,17,0,4317.05127,4396.025879,4380.256348,4426.666504,4373.077148,4322.820313,4390.256348,4191.922852,4321.410156,4342.820313,4516.153809,4635.384766,4419.871582,4497.563965,,,,,,,,,,,,,,,,,,,,,,,,,,,,,,,,,,,,,,,,,,,,,,,,,,,,,,,,,,,,,,,,,,,,,,
1720086808,18,0,4316.025879,4395.897461,4388.077148,4431.922852,4365.897461,4329.358887,4394.102539,4200.128418,4333.974121,4353.589844,4528.974121,4646.025879,4432.94873,4433.589844,,,,,,,,,,,,,,,,,,,,,,,,,,,,,,,,,,,,,,,,,,,,,,,,,,,,,,,,,,,,,,,,,,,,,,
1720086808,19,0,4306.282227,4386.794922,4381.666504,4426.666504,4368.974121,4346.410156,4394.102539,4199.615234,4336.025879,4350.512695,4514.615234,4637.179688,4417.05127,4378.461426,,,,,,,,,,,,,,,,,,,,,,,,,,,,,,,,,,,,,,,,,,,,,,,,,,,,,,,,,,,,,,,,,,,,,,
1720086808,20,0,4293.461426,4377.563965,4373.974121,4417.692383,4371.410156,4338.589844,4391.794922,4191.794922,4322.563965,4343.333496,4511.025879,4626.794922,4411.666504,4378.717773,,,,,,,,,,,,,,,,,,,,,,,,,,,,,,,,,,,,,,,,,,,,,,,,,,,,,,,,,,,,,,,,,,,,,,
1720086808,21,0,4304.743652,4394.358887,4386.410156,4426.282227,4368.205078,4328.077148,4396.153809,4191.922852,4317.307617,4344.230957,4530.384766,4641.538574,4427.94873,4405.256348,,,,,,,,,,,,,,,,,,,,,,,,,,,,,,,,,,,,,,,,,,,,,,,,,,,,,,,,,,,,,,,,,,,,,,
1720086808,22,0,4313.333496,4402.307617,4393.205078,4434.871582,4362.436035,4336.794922,4399.871582,4193.077148,4317.179688,4342.307617,4518.846191,4643.077148,4419.102539,4402.820313,37.921673,9.376719,1.49121,1.777403,0.894568,2.958926,1.640557,1.369459,1.781281,1.265187,3.280103,1.667368,0.835773,1.475909,0.949917,1.822456,1.312021,1.280657,2.44334,2.743253,0.808914,1.252047,1.276537,0.993864,1.490023,0.311601,0.655141,1.595504,1.065134,2.325551,0.792184,0.509286,0.394214,0.479906,0.178673,3.829484,1.550624,0.648044,0.466536,0.369997,0.962652,0.759856,0.580977,0.889328,0.738206,0.440943,0.401577,0.200674,0.170504,0.186617,2.18762,2.10386,1.277114,2.016376,2.797587,8.083707,1.513747,1.825137,1.518888,1.249469,2.652255,1.627497,0.849576,1.417461,1.872609,57.696949,15.628032,2.735567,2.747761,2.010987
1720086808,23,0,4307.563965,4388.333496,4384.487305,4430.128418,4347.05127,4330.128418,4394.871582,4193.205078,4309.871582,4339.358887,4494.487305,4628.846191,4398.974121,4386.538574,,,,,,,,,,,,,,,,,,,,,,,,,,,,,,,,,,,,,,,,,,,,,,,,,,,,,,,,,,,,,,,,,,,,,,
1720086808,24,0,4309.871582,4387.94873,4381.538574,4420.256348,4339.230957,4314.871582,4387.563965,4187.820313,4306.282227,4339.743652,4491.794922,4624.102539,4397.94873,4370.897461,,,,,,,,,,,,,,,,,,,,,,,,,,,,,,,,,,,,,,,,,,,,,,,,,,,,,,,,,,,,,,,,,,,,,,
1720086808,25,0,4305.384766,4390.384766,4381.538574,4415.512695,4355.384766,4320.769043,4381.666504,4177.692383,4313.077148,4341.025879,4492.692383,4621.538574,4403.333496,4355.384766,,,,,,,,,,,,,,,,,,,,,,,,,,,,,,,,,,,,,,,,,,,,,,,,,,,,,,,,,,,,,,,,,,,,,,
1720086808,26,0,4294.487305,4381.282227,4383.974121,4421.538574,4363.717773,4329.871582,4377.94873,4178.589844,4313.333496,4343.717773,4496.025879,4623.974121,4407.692383,4347.307617,,,,,,,,,,,,,,,,,,,,,,,,,,,,,,,,,,,,,,,,,,,,,,,,,,,,,,,,,,,,,,,,,,,,,,
1720086808,27,0,4307.692383,4390.641113,4394.615234,4430.256348,4358.205078,4328.974121,4378.974121,4187.307617,4308.717773,4345,4509.102539,4633.974121,4417.436035,4338.333496,,,,,,,,,,,,,,,,,,,,,,,,,,,,,,,,,,,,,,,,,,,,,,,,,,,,,,,,,,,,,,,,,,,,,,
1720086808,28,0,4331.666504,4415,4401.025879,4436.153809,4359.230957,4327.436035,4386.794922,4192.563965,4315.384766,4345.384766,4519.743652,4640.641113,4428.461426,4312.436035,,,,,,,,,,,,,,,,,,,,,,,,,,,,,,,,,,,,,,,,,,,,,,,,,,,,,,,,,,,,,,,,,,,,,,
1720086808,29,0,4332.692383,4418.846191,4399.358887,4436.922852,4358.589844,4328.077148,4395.897461,4200.256348,4326.922852,4352.563965,4523.333496,4647.307617,4429.615234,4290,,,,,,,,,,,,,,,,,,,,,,,,,,,,,,,,,,,,,,,,,,,,,,,,,,,,,,,,,,,,,,,,,,,,,,
1720086808,30,0,4323.717773,4411.153809,4398.461426,4436.025879,4357.563965,4326.410156,4398.589844,4206.025879,4329.230957,4357.05127,4521.794922,4648.461426,4417.94873,4282.94873,,,,,,,,,,,,,,,,,,,,,,,,,,,,,,,,,,,,,,,,,,,,,,,,,,,,,,,,,,,,,,,,,,,,,,
1720086808,31,0,4319.615234,4412.307617,4398.974121,4437.692383,4360.128418,4326.794922,4396.153809,4204.743652,4314.230957,4351.025879,4516.666504,4644.102539,4418.461426,4275.897461,,,,,,,,,,,,,,,,,,,,,,,,,,,,,,,,,,,,,,,,,,,,,,,,,,,,,,,,,,,,,,,,,,,,,,
1720086808,32,0,4315,4413.717773,4399.743652,4436.666504,4356.538574,4331.282227,4392.179688,4206.410156,4296.282227,4349.487305,4516.025879,4646.538574,4429.358887,4271.282227,,,,,,,,,,,,,,,,,,,,,,,,,,,,,,,,,,,,,,,,,,,,,,,,,,,,,,,,,,,,,,,,,,,,,,
1720086808,33,0,4310.128418,4412.563965,4397.436035,4430.384766,4355.128418,4329.102539,4389.230957,4203.717773,4289.743652,4352.563965,4514.743652,4641.538574,4416.538574,4257.307617,,,,,,,,,,,,,,,,,,,,,,,,,,,,,,,,,,,,,,,,,,,,,,,,,,,,,,,,,,,,,,,,,,,,,,
1720086808,34,0,4306.666504,4410.256348,4391.025879,4429.487305,4360,4327.307617,4388.205078,4201.922852,4296.282227,4355.512695,4501.794922,4629.487305,4403.333496,4240.769043,,,,,,,,,,,,,,,,,,,,,,,,,,,,,,,,,,,,,,,,,,,,,,,,,,,,,,,,,,,,,,,,,,,,,,
1720086808,35,0,4293.846191,4395,4383.717773,4418.077148,4347.94873,4330.641113,4382.05127,4203.077148,4299.743652,4356.025879,4493.974121,4627.179688,4409.871582,4245.128418,,,,,,,,,,,,,,,,,,,,,,,,,,,,,,,,,,,,,,,,,,,,,,,,,,,,,,,,,,,,,,,,,,,,,,
1720086808,36,0,4277.05127,4377.307617,4376.666504,4400.897461,4329.102539,4318.461426,4371.794922,4197.94873,4280.641113,4348.461426,4491.282227,4617.94873,4398.974121,4219.871582,,,,,,,,,,,,,,,,,,,,,,,,,,,,,,,,,,,,,,,,,,,,,,,,,,,,,,,,,,,,,,,,,,,,,,
1720086808,37,0,4274.871582,4378.205078,4374.102539,4407.563965,4326.410156,4306.282227,4371.282227,4194.358887,4266.922852,4343.205078,4479.102539,4606.538574,4370.769043,4146.153809,,,,,,,,,,,,,,,,,,,,,,,,,,,,,,,,,,,,,,,,,,,,,,,,,,,,,,,,,,,,,,,,,,,,,,
1720086808,38,0,4279.102539,4378.205078,4375.769043,4409.615234,4326.538574,4314.487305,4378.205078,4200,4274.358887,4347.307617,4470.128418,4613.077148,4367.820313,4104.358887,39.188969,9.357898,1.725553,1.880505,0.90846,3.696265,1.672878,1.528428,2.003402,1.289691,4.560523,1.821999,1.003268,1.529833,0.943201,2.366759,1.240052,1.410057,2.680344,2.719255,0.996061,1.048163,1.145359,0.890776,1.510729,0.331543,0.554903,1.213217,1.061989,2.484564,0.847287,0.487557,0.407107,0.50178,0.184981,4.757951,1.940129,0.867821,0.534592,0.414016,0.978236,0.692172,0.623459,0.791398,0.674473,0.451553,0.356038,0.17628,0.148257,0.194171,2.958583,1.973895,1.625847,2.217012,2.65751,7.833098,1.589414,1.696592,1.526762,1.271948,3.320441,1.77782,1.118347,1.492646,1.801432,59.198536,11.647396,2.846947,2.128668,1.71589
1720086808,39,0,4280.769043,4371.282227,4378.846191,4396.025879,4327.436035,4325.641113,4382.05127,4209.743652,4285.128418,4354.871582,4481.025879,4624.615234,4389.102539,4113.974121,,,,,,,,,,,,,,,,,,,,,,,,,,,,,,,,,,,,,,,,,,,,,,,,,,,,,,,,,,,,,,,,,,,,,,
1720086808,40,0,4282.820313,4384.230957,4387.692383,4410.512695,4338.589844,4330.384766,4387.820313,4221.410156,4290.128418,4361.538574,4506.666504,4635.512695,4408.461426,4116.282227,,,,,,,,,,,,,,,,,,,,,,,,,,,,,,,,,,,,,,,,,,,,,,,,,,,,,,,,,,,,,,,,,,,,,,
1720086808,41,0,4284.102539,4403.333496,4396.922852,4442.692383,4338.461426,4326.153809,4394.358887,4227.563965,4294.358887,4364.102539,4522.94873,4648.077148,4413.077148,4109.871582,,,,,,,,,,,,,,,,,,,,,,,,,,,,,,,,,,,,,,,,,,,,,,,,,,,,,,,,,,,,,,,,,,,,,,
1720086808,42,0,4278.461426,4393.461426,4391.025879,4431.025879,4329.102539,4318.846191,4387.820313,4221.666504,4292.820313,4361.538574,4508.077148,4643.333496,4404.230957,4106.666504,,,,,,,,,,,,,,,,,,,,,,,,,,,,,,,,,,,,,,,,,,,,,,,,,,,,,,,,,,,,,,,,,,,,,,
1720086808,43,0,4275.769043,4379.743652,4382.307617,4402.820313,4328.205078,4319.871582,4379.871582,4220.512695,4275,4359.230957,4500.512695,4639.871582,4407.307617,4101.282227,,,,,,,,,,,,,,,,,,,,,,,,,,,,,,,,,,,,,,,,,,,,,,,,,,,,,,,,,,,,,,,,,,,,,,
1720086808,44,0,4282.692383,4393.589844,4391.538574,4411.282227,4330.256348,4323.333496,4385,4230.641113,4257.436035,4359.230957,4517.436035,4653.333496,4415.128418,4102.820313,,,,,,,,,,,,,,,,,,,,,,,,,,,,,,,,,,,,,,,,,,,,,,,,,,,,,,,,,,,,,,,,,,,,,,
1720086808,45,0,4283.974121,4400,4398.846191,4423.846191,4341.666504,4325.897461,4384.615234,4233.717773,4261.538574,4358.333496,4509.487305,4653.589844,4400.512695,4101.025879,,,,,,,,,,,,,,,,,,,,,,,,,,,,,,,,,,,,,,,,,,,,,,,,,,,,,,,,,,,,,,,,,,,,,,
1720086808,46,0,4278.589844,4383.333496,4392.179688,4414.358887,4357.179688,4335.256348,4378.589844,4231.282227,4277.05127,4363.077148,4486.666504,4647.307617,4387.05127,4095.641113,,,,,,,,,,,,,,,,,,,,,,,,,,,,,,,,,,,,,,,,,,,,,,,,,,,,,,,,,,,,,,,,,,,,,,
1720086808,47,0,4277.820313,4379.743652,4390,4409.615234,4351.153809,4335,4377.692383,4230,4272.307617,4364.102539,4499.230957,4655.256348,4401.666504,4101.922852,,,,,,,,,,,,,,,,,,,,,,,,,,,,,,,,,,,,,,,,,,,,,,,,,,,,,,,,,,,,,,,,,,,,,,
1720086808,48,0,4285.512695,4394.102539,4397.692383,4419.743652,4337.05127,4319.487305,4375.769043,4233.717773,4256.153809,4359.871582,4524.230957,4660.897461,4410.512695,4105.256348,,,,,,,,,,,,,,,,,,,,,,,,,,,,,,,,,,,,,,,,,,,,,,,,,,,,,,,,,,,,,,,,,,,,,,
1720086808,49,0,4283.205078,4393.589844,4393.077148,4416.153809,4342.820313,4324.615234,4373.461426,4239.358887,4261.153809,4363.974121,4514.743652,4647.436035,4392.307617,4091.923096,,,,,,,,,,,,,,,,,,,,,,,,,,,,,,,,,,,,,,,,,,,,,,,,,,,,,,,,,,,,,,,,,,,,,,
1720086808,50,0,4265.128418,4376.282227,4373.589844,4406.282227,4344.487305,4328.974121,4374.615234,4239.102539,4268.461426,4363.717773,4491.410156,4630.769043,4381.282227,4076.153809,,,,,,,,,,,,,,,,,,,,,,,,,,,,,,,,,,,,,,,,,,,,,,,,,,,,,,,,,,,,,,,,,,,,,,
1720086808,51,0,4255,4367.563965,4367.692383,4405.897461,4327.692383,4314.358887,4376.282227,4241.922852,4261.025879,4360.384766,4496.666504,4634.487305,4392.94873,4079.230713,,,,,,,,,,,,,,,,,,,,,,,,,,,,,,,,,,,,,,,,,,,,,,,,,,,,,,,,,,,,,,,,,,,,,,
1720086808,52,0,4259.743652,4372.436035,4381.153809,4410.384766,4318.205078,4314.871582,4378.205078,4252.179688,4257.05127,4366.538574,4520.128418,4652.307617,4405.128418,4099.230957,,,,,,,,,,,,,,,,,,,,,,,,,,,,,,,,,,,,,,,,,,,,,,,,,,,,,,,,,,,,,,,,,,,,,,
1720086808,53,0,4272.563965,4378.461426,4392.307617,4413.846191,4318.974121,4330.769043,4381.794922,4256.922852,4265.769043,4371.666504,4518.205078,4657.692383,4396.538574,4107.94873,,,,,,,,,,,,,,,,,,,,,,,,,,,,,,,,,,,,,,,,,,,,,,,,,,,,,,,,,,,,,,,,,,,,,,
1720086808,54,0,4279.358887,4378.333496,4391.922852,4407.820313,4324.743652,4330,4381.794922,4258.333496,4264.102539,4367.436035,4501.922852,4651.410156,4388.333496,4107.05127,41.668415,9.636529,2.254772,1.922537,0.892879,4.747736,1.929932,1.829085,2.14747,1.274353,6.491928,2.201643,1.336116,1.513932,0.909165,3.054166,1.308368,1.603935,2.793602,2.629156,1.233481,0.915007,1.071185,0.820681,1.429333,0.384067,0.497912,0.893759,1.066648,2.419477,0.946855,0.498712,0.450873,0.502597,0.189363,5.802626,2.422599,1.132093,0.598605,0.454836,1.1618,0.664666,0.667927,0.751759,0.619722,0.371854,0.299925,0.155928,0.139822,0.195155,4.086362,1.891248,2.046979,2.330708,2.425843,8.07743,1.852018,1.680836,1.454666,1.240212,4.344878,2.058508,1.539159,1.508139,1.651899,71.805313,11.144212,3.617393,1.830613,1.485862
1720086808,55,0,4271.410156,4375,4385.512695,4398.077148,4333.333496,4314.102539,4375.769043,4261.538574,4246.282227,4364.230957,4503.717773,4646.666504,4390.384766,4108.589844,,,,,,,,,,,,,,,,,,,,,,,,,,,,,,,,,,,,,,,,,,,,,,,,,,,,,,,,,,,,,,,,,,,,,,
1720086808,56,0,4261.025879,4377.307617,4375.641113,4400.128418,4340.384766,4313.717773,4368.333496,4262.436035,4245.384766,4363.205078,4489.615234,4632.179688,4376.538574,4095.641113,,,,,,,,,,,,,,,,,,,,,,,,,,,,,,,,,,,,,,,,,,,,,,,,,,,,,,,,,,,,,,,,,,,,,,
1720086808,57,0,4263.846191,4387.436035,4372.692383,4420,4334.102539,4304.871582,4366.153809,4260.769043,4254.487305,4363.589844,4479.358887,4624.487305,4365.384766,4083.846191,,,,,,,,,,,,,,,,,,,,,,,,,,,,,,,,,,,,,,,,,,,,,,,,,,,,,,,,,,,,,,,,,,,,,,
1720086808,58,0,4262.05127,4388.205078,4371.282227,4426.025879,4325.128418,4290.384766,4364.230957,4254.615234,4236.794922,4361.794922,4489.871582,4625.769043,4368.846191,4082.435791,,,,,,,,,,,,,,,,,,,,,,,,,,,,,,,,,,,,,,,,,,,,,,,,,,,,,,,,,,,,,,,,,,,,,,
1720086808,59,0,4257.563965,4384.743652,4365.384766,4413.589844,4340.256348,4308.846191,4360.897461,4252.436035,4225.897461,4355.512695,4477.820313,4616.282227,4361.922852,4070.384521,,,,,,,,,,,,,,,,,,,,,,,,,,,,,,,,,,,,,,,,,,,,,,,,,,,,,,,,,,,,,,,,,,,,,,
1720086808,60,0,4261.666504,4386.025879,4363.846191,4410.128418,4351.666504,4324.487305,4361.922852,4259.743652,4239.358887,4360.256348,4459.615234,4610.769043,4348.974121,4066.794922,,,,,,,,,,,,,,,,,,,,,,,,,,,,,,,,,,,,,,,,,,,,,,,,,,,,,,,,,,,,,,,,,,,,,,
1720086808,61,0,4256.666504,4377.94873,4361.282227,4409.743652,4325.256348,4312.692383,4360,4257.179688,4240.641113,4365.128418,4470.128418,4614.743652,4355.256348,4081.666748,,,,,,,,,,,,,,,,,,,,,,,,,,,,,,,,,,,,,,,,,,,,,,,,,,,,,,,,,,,,,,,,,,,,,,
1720086808,62,0,4246.410156,4367.692383,4360.384766,4402.179688,4303.846191,4301.538574,4355.256348,4253.717773,4235.512695,4360.897461,4487.05127,4618.974121,4364.230957,4096.282227,,,,,,,,,,,,,,,,,,,,,,,,,,,,,,,,,,,,,,,,,,,,,,,,,,,,,,,,,,,,,,,,,,,,,,
1720086808,63,0,4249.743652,4369.871582,4367.563965,4398.461426,4314.487305,4307.307617,4359.230957,4265.897461,4241.153809,4363.077148,4491.666504,4627.179688,4363.461426,4109.487305,,,,,,,,,,,,,,,,,,,,,,,,,,,,,,,,,,,,,,,,,,,,,,,,,,,,,,,,,,,,,,,,,,,,,,
1720086808,64,0,4252.94873,4363.974121,4366.794922,4392.05127,4319.102539,4322.179688,4360.384766,4266.538574,4233.333496,4360.256348,4480.128418,4627.563965,4359.102539,4111.794922,,,,,,,,,,,,,,,,,,,,,,,,,,,,,,,,,,,,,,,,,,,,,,,,,,,,,,,,,,,,,,,,,,,,,,
1720086808,65,0,4243.205078,4354.230957,4361.153809,4381.922852,4311.794922,4328.974121,4354.615234,4255.769043,4221.794922,4353.333496,4455.128418,4616.666504,4344.102539,4098.589844,,,,,,,,,,,,,,,,,,,,,,,,,,,,,,,,,,,,,,,,,,,,,,,,,,,,,,,,,,,,,,,,,,,,,,
1720086808,66,0,4239.871582,4373.846191,4371.666504,4400.769043,4314.871582,4312.94873,4360.897461,4268.205078,4231.538574,4359.230957,4462.436035,4626.922852,4347.820313,4106.538574,,,,,,,,,,,,,,,,,,,,,,,,,,,,,,,,,,,,,,,,,,,,,,,,,,,,,,,,,,,,,,,,,,,,,,
1720086808,67,0,4237.563965,4381.538574,4372.05127,4417.692383,4326.538574,4301.922852,4365.641113,4279.743652,4236.025879,4364.487305,4484.615234,4632.820313,4362.94873,4118.077148,,,,,,,,,,,,,,,,,,,,,,,,,,,,,,,,,,,,,,,,,,,,,,,,,,,,,,,,,,,,,,,,,,,,,,
1720086808,68,0,4227.820313,4358.205078,4353.717773,4396.538574,4340.641113,4312.563965,4356.282227,4268.205078,4226.410156,4358.717773,4472.179688,4609.358887,4352.436035,4103.974121,,,,,,,,,,,,,,,,,,,,,,,,,,,,,,,,,,,,,,,,,,,,,,,,,,,,,,,,,,,,,,,,,,,,,,
1720086808,69,0,4225.128418,4352.94873,4353.205078,4385.641113,4342.94873,4319.743652,4354.230957,4265.128418,4230.641113,4360.384766,4460.769043,4603.205078,4340.641113,4102.820313,,,,,,,,,,,,,,,,,,,,,,,,,,,,,,,,,,,,,,,,,,,,,,,,,,,,,,,,,,,,,,,,,,,,,,
1720086808,70,0,4229.102539,4363.077148,4363.974121,4398.589844,4330.897461,4323.205078,4360.256348,4274.615234,4242.692383,4363.589844,4471.922852,4620.641113,4348.846191,4120.769043,47.077209,10.517862,2.920867,1.871008,0.836814,6.227162,2.37398,2.183191,2.144976,1.199181,9.001483,2.745381,1.765284,1.412613,0.841924,3.940038,1.489158,1.817112,2.721078,2.433525,1.472353,0.861438,1.004294,0.782203,1.248178,0.49742,0.486338,0.666633,1.069478,2.133584,1.088713,0.558278,0.51145,0.474941,0.188793,6.913636,2.90392,1.380911,0.640383,0.48642,1.418511,0.706016,0.699534,0.743098,0.567063,0.436921,0.247076,0.145511,0.142493,0.189389,5.544867,1.911401,2.432228,2.300078,2.132245,9.176285,2.285092,1.780628,1.306818,1.148752,5.689336,2.463392,1.993826,1.44927,1.447576,91.773148,13.035944,4.897532,1.742659,1.325891
1720086808,71,0,4243.205078,4373.589844,4372.05127,4407.820313,4326.410156,4324.871582,4363.461426,4282.94873,4247.179688,4365.641113,4483.205078,4635.769043,4359.487305,4138.205078,,,,,,,,,,,,,,,,,,,,,,,,,,,,,,,,,,,,,,,,,,,,,,,,,,,,,,,,,,,,,,,,,,,,,,
1720086808,72,0,4251.794922,4379.871582,4380.769043,4412.692383,4320.384766,4311.410156,4364.358887,4289.102539,4250.128418,4375.384766,4489.102539,4643.589844,4364.230957,4148.333496,,,,,,,,,,,,,,,,,,,,,,,,,,,,,,,,,,,,,,,,,,,,,,,,,,,,,,,,,,,,,,,,,,,,,,
1720086808,73,0,4240.897461,4369.102539,4377.94873,4412.94873,4318.846191,4307.820313,4361.794922,4285.769043,4238.205078,4366.410156,4497.307617,4640.897461,4368.589844,4136.153809,,,,,,,,,,,,,,,,,,,,,,,,,,,,,,,,,,,,,,,,,,,,,,,,,,,,,,,,,,,,,,,,,,,,,,
1720086808,74,0,4237.94873,4359.871582,4372.563965,4404.358887,4338.333496,4327.94873,4359.487305,4284.102539,4220.384766,4354.871582,4492.692383,4635,4363.205078,4122.563965,,,,,,,,,,,,,,,,,,,,,,,,,,,,,,,,,,,,,,,,,,,,,,,,,,,,,,,,,,,,,,,,,,,,,,
1720086808,75,0,4247.307617,4360.128418,4374.102539,4395.256348,4333.846191,4335.512695,4359.615234,4290,4233.974121,4365.256348,4471.538574,4633.205078,4349.102539,4128.846191,,,,,,,,,,,,,,,,,,,,,,,,,,,,,,,,,,,,,,,,,,,,,,,,,,,,,,,,,,,,,,,,,,,,,,
1720086808,76,0,4238.205078,4346.153809,4366.282227,4385.512695,4304.615234,4317.436035,4356.666504,4287.94873,4249.615234,4366.025879,4458.589844,4625.641113,4339.871582,4128.974121,,,,,,,,,,,,,,,,,,,,,,,,,,,,,,,,,,,,,,,,,,,,,,,,,,,,,,,,,,,,,,,,,,,,,,
1720086808,77,0,4230.641113,4339.102539,4360,4387.820313,4310.384766,4307.05127,4355.384766,4285.897461,4234.743652,4356.538574,4463.461426,4623.589844,4346.025879,4127.307617,,,,,,,,,,,,,,,,,,,,,,,,,,,,,,,,,,,,,,,,,,,,,,,,,,,,,,,,,,,,,,,,,,,,,,
1720086808,78,0,4250.769043,4362.820313,4374.358887,4414.615234,4332.436035,4313.589844,4361.922852,4297.563965,4227.563965,4360.897461,4488.077148,4642.179688,4370.897461,4149.102539,,,,,,,,,,,,,,,,,,,,,,,,,,,,,,,,,,,,,,,,,,,,,,,,,,,,,,,,,,,,,,,,,,,,,,
1720086808,79,0,4250.384766,4362.820313,4376.153809,4415.128418,4325.512695,4314.102539,4360.769043,4302.307617,4238.717773,4364.743652,4504.358887,4649.615234,4377.307617,4158.846191,,,,,,,,,,,,,,,,,,,,,,,,,,,,,,,,,,,,,,,,,,,,,,,,,,,,,,,,,,,,,,,,,,,,,,
1720086808,80,0,4228.846191,4338.205078,4361.794922,4382.563965,4320.897461,4310.512695,4353.461426,4299.743652,4234.487305,4357.94873,4491.410156,4641.025879,4358.974121,4148.589844,,,,,,,,,,,,,,,,,,,,,,,,,,,,,,,,,,,,,,,,,,,,,,,,,,,,,,,,,,,,,,,,,,,,,,
1720086808,81,0,4237.94873,4350.897461,4372.05127,4393.717773,4325.641113,4309.102539,4361.282227,4309.487305,4231.410156,4359.615234,4486.153809,4648.589844,4361.666504,4158.333496,,,,,,,,,,,,,,,,,,,,,,,,,,,,,,,,,,,,,,,,,,,,,,,,,,,,,,,,,,,,,,,,,,,,,,
1720086808,82,0,4254.358887,4371.153809,4387.94873,4426.794922,4321.538574,4308.333496,4368.717773,4314.487305,4245.128418,4363.205078,4491.025879,4650.641113,4366.025879,4163.846191,,,,,,,,,,,,,,,,,,,,,,,,,,,,,,,,,,,,,,,,,,,,,,,,,,,,,,,,,,,,,,,,,,,,,,
1720086808,83,0,4247.94873,4356.282227,4378.333496,4414.487305,4330.769043,4321.282227,4364.358887,4312.307617,4246.538574,4363.974121,4483.333496,4637.179688,4351.153809,4155.641113,,,,,,,,,,,,,,,,,,,,,,,,,,,,,,,,,,,,,,,,,,,,,,,,,,,,,,,,,,,,,,,,,,,,,,
1720086808,84,0,4238.589844,4336.666504,4362.94873,4379.230957,4348.205078,4331.794922,4357.94873,4311.922852,4237.563965,4363.333496,4475.128418,4630.384766,4349.358887,4158.589844,,,,,,,,,,,,,,,,,,,,,,,,,,,,,,,,,,,,,,,,,,,,,,,,,,,,,,,,,,,,,,,,,,,,,,
1720086808,85,0,4237.05127,4341.538574,4366.666504,4383.589844,4336.410156,4317.179688,4356.922852,4312.179688,4238.717773,4361.153809,4478.333496,4634.871582,4358.846191,4169.230957,,,,,,,,,,,,,,,,,,,,,,,,,,,,,,,,,,,,,,,,,,,,,,,,,,,,,,,,,,,,,,,,,,,,,,
1720086808,86,0,4236.025879,4347.692383,4375,4411.538574,4308.974121,4305.128418,4356.794922,4314.615234,4241.666504,4362.563965,4480.384766,4639.102539,4358.461426,4175.128418,53.353775,11.745909,3.470389,1.724536,0.740014,7.649501,2.91876,2.449121,1.970929,1.066994,11.327356,3.283882,2.156185,1.236801,0.742338,4.749037,1.735534,1.972397,2.453198,2.13007,1.674882,0.912957,0.904942,0.759122,1.010104,0.674699,0.508848,0.508332,1.062809,1.704423,1.214517,0.6766,0.579442,0.421318,0.181445,7.906526,3.264747,1.552138,0.647645,0.501046,1.708627,0.829631,0.704228,0.736821,0.513057,0.409508,0.208441,0.138752,0.149691,0.178468,7.014575,2.084621,2.694339,2.120456,1.818067,10.864244,2.786337,1.937925,1.112754,1.008047,7.015347,2.953923,2.354505,1.328902,1.225912,113.112679,15.298491,6.46451,1.781095,1.247285
1720086808,87,0,4234.487305,4338.589844,4365.641113,4401.410156,4308.205078,4309.871582,4352.05127,4312.179688,4233.333496,4358.077148,4481.794922,4631.538574,4353.974121,4171.282227,,,,,,,,,,,,,,,,,,,,,,,,,,,,,,,,,,,,,,,,,,,,,,,,,,,,,,,,,,,,,,,,,,,,,,
1720086808,88,0,4226.794922,4333.333496,4359.743652,4380.128418,4326.410156,4311.153809,4350,4308.717773,4229.871582,4354.615234,4486.025879,4625.128418,4347.94873,4162.94873,,,,,,,,,,,,,,,,,,,,,,,,,,,,,,,,,,,,,,,,,,,,,,,,,,,,,,,,,,,,,,,,,,,,,,
1720086808,89,0,4213.846191,4339.871582,4369.743652,4392.436035,4342.307617,4308.846191,4353.205078,4311.538574,4234.615234,4358.846191,4486.153809,4631.666504,4347.307617,4164.358887,,,,,,,,,,,,,,,,,,,,,,,,,,,,,,,,,,,,,,,,,,,,,,,,,,,,,,,,,,,,,,,,,,,,,,
1720086808,90,0,4211.025879,4343.333496,4371.794922,4402.820313,4333.589844,4314.358887,4353.589844,4315.897461,4231.666504,4358.333496,4486.282227,4636.666504,4357.436035,4177.94873,,,,,,,,,,,,,,,,,,,,,,,,,,,,,,,,,,,,,,,,,,,,,,,,,,,,,,,,,,,,,,,,,,,,,,
1720086808,91,0,4215.256348,4338.333496,4359.743652,4389.743652,4306.794922,4310,4346.666504,4314.358887,4231.410156,4357.179688,4476.922852,4624.487305,4354.615234,4177.05127,,,,,,,,,,,,,,,,,,,,,,,,,,,,,,,,,,,,,,,,,,,,,,,,,,,,,,,,,,,,,,,,,,,,,,
1720086808,92,0,4213.717773,4337.692383,4355.512695,4388.589844,4312.563965,4296.153809,4341.794922,4313.589844,4240.512695,4360,4474.358887,4615.897461,4350.256348,4166.794922,,,,,,,,,,,,,,,,,,,,,,,,,,,,,,,,,,,,,,,,,,,,,,,,,,,,,,,,,,,,,,,,,,,,,,
1720086808,93,0,4216.794922,4345.256348,4367.436035,4406.794922,4340.384766,4307.05127,4352.307617,4323.333496,4248.205078,4362.820313,4497.179688,4631.153809,4368.717773,4182.692383,,,,,,,,,,,,,,,,,,,,,,,,,,,,,,,,,,,,,,,,,,,,,,,,,,,,,,,,,,,,,,,,,,,,,,
1720086808,94,0,4219.102539,4341.282227,4368.974121,4406.282227,4332.563965,4323.333496,4360.384766,4326.538574,4248.461426,4363.461426,4499.230957,4634.743652,4368.974121,4190.256348,,,,,,,,,,,,,,,,,,,,,,,,,,,,,,,,,,,,,,,,,,,,,,,,,,,,,,,,,,,,,,,,,,,,,,
1720086808,95,0,4207.563965,4326.922852,4351.538574,4384.230957,4308.974121,4310.512695,4349.743652,4313.846191,4236.153809,4356.794922,4475.897461,4614.743652,4346.794922,4170.384766,,,,,,,,,,,,,,,,,,,,,,,,,,,,,,,,,,,,,,,,,,,,,,,,,,,,,,,,,,,,,,,,,,,,,,
1720086808,96,0,4197.179688,4320.384766,4337.05127,4367.94873,4312.692383,4303.846191,4342.05127,4307.436035,4222.692383,4349.102539,4469.358887,4604.615234,4340.897461,4164.743652,,,,,,,,,,,,,,,,,,,,,,,,,,,,,,,,,,,,,,,,,,,,,,,,,,,,,,,,,,,,,,,,,,,,,,
1720086808,97,0,4199.487305,4320,4339.743652,4367.94873,4322.05127,4317.692383,4349.743652,4319.230957,4227.307617,4355.128418,4474.358887,4612.94873,4343.589844,4174.102539,,,,,,,,,,,,,,,,,,,,,,,,,,,,,,,,,,,,,,,,,,,,,,,,,,,,,,,,,,,,,,,,,,,,,,
1720086808,98,0,4210.128418,4331.666504,4353.717773,4385.769043,4321.922852,4307.307617,4354.743652,4326.794922,4234.230957,4360.256348,4478.461426,4619.230957,4344.743652,4172.820313,,,,,,,,,,,,,,,,,,,,,,,,,,,,,,,,,,,,,,,,,,,,,,,,,,,,,,,,,,,,,,,,,,,,,,
1720086808,99,0,4213.333496,4339.487305,4353.077148,4392.692383,4325.512695,4297.436035,4348.461426,4320.641113,4227.436035,4353.589844,4478.205078,4606.153809,4341.025879,4164.102539,,,,,,,,,,,,,,,,,,,,,,,,,,,,,,,,,,,,,,,,,,,,,,,,,,,,,,,,,,,,,,,,,,,,,,
1720086808,100,0,4215.769043,4334.102539,4346.410156,4383.333496,4328.077148,4324.102539,4350,4322.692383,4233.333496,4355.897461,4474.358887,4600.384766,4336.025879,4170.256348,,,,,,,,,,,,,,,,,,,,,,,,,,,,,,,,,,,,,,,,,,,,,,,,,,,,,,,,,,,,,,,,,,,,,,
1720086808,101,0,4220.897461,4334.230957,4350.512695,4386.025879,4327.436035,4336.538574,4355.641113,4331.153809,4249.743652,4362.179688,4475.128418,4609.102539,4342.179688,4180.769043,,,,,,,,,,,,,,,,,,,,,,,,,,,,,,,,,,,,,,,,,,,,,,,,,,,,,,,,,,,,,,,,,,,,,,
1720086808,102,0,4220,4339.743652,4354.615234,4394.615234,4324.743652,4314.230957,4349.230957,4332.436035,4251.794922,4361.153809,4477.94873,4610.512695,4348.205078,4182.436035,57.460583,12.613541,3.660778,1.511798,0.615791,8.544502,3.425965,2.514797,1.66353,0.904998,12.768936,3.611302,2.365941,1.021313,0.62128,5.221134,1.977663,2.016633,2.048963,1.762962,1.781406,1.090012,0.78648,0.731957,0.779694,0.893956,0.538814,0.382705,1.048629,1.252081,1.278779,0.838083,0.653079,0.353913,0.167291,8.564858,3.393636,1.598329,0.618774,0.49199,1.923514,1.027359,0.6826,0.724629,0.461908,0.537242,0.19335,0.133896,0.155808,0.165019,8.12725,2.396014,2.794367,1.848641,1.52891,12.653861,3.219266,2.06029,0.915941,0.842338,7.958527,3.440959,2.521241,1.183479,1.024471,128.262344,16.461399,7.924756,1.886557,1.245039
1720086808,103,0,4218.461426,4340.641113,4353.077148,4390.384766,4327.05127,4302.692383,4341.282227,4325.256348,4243.461426,4359.102539,4482.05127,4605.897461,4344.102539,4178.461426,,,,,,,,,,,,,,,,,,,,,,,,,,,,,,,,,,,,,,,,,,,,,,,,,,,,,,,,,,,,,,,,,,,,,,
1720086808,104,0,4215.769043,4334.615234,4351.282227,4379.871582,4330,4312.436035,4339.230957,4316.025879,4235.641113,4356.282227,4483.333496,4602.307617,4338.461426,4174.743652,,,,,,,,,,,,,,,,,,,,,,,,,,,,,,,,,,,,,,,,,,,,,,,,,,,,,,,,,,,,,,,,,,,,,,
1720086808,105,0,4224.102539,4336.153809,4356.282227,4384.743652,4314.871582,4310.512695,4338.461426,4313.333496,4231.410156,4355.769043,4479.230957,4600.384766,4343.333496,4180.128418,,,,,,,,,,,,,,,,,,,,,,,,,,,,,,,,,,,,,,,,,,,,,,,,,,,,,,,,,,,,,,,,,,,,,,
1720086808,106,0,4241.153809,4336.153809,4355.769043,4385.512695,4309.487305,4311.025879,4336.282227,4311.410156,4227.820313,4354.102539,4478.205078,4594.743652,4348.846191,4179.230957,,,,,,,,,,,,,,,,,,,,,,,,,,,,,,,,,,,,,,,,,,,,,,,,,,,,,,,,,,,,,,,,,,,,,,
1720086808,107,0,4243.333496,4325.897461,4350.897461,4372.692383,4330.256348,4330.256348,4339.615234,4310.384766,4233.589844,4352.692383,4478.333496,4591.410156,4342.05127,4174.358887,,,,,,,,,,,,,,,,,,,,,,,,,,,,,,,,,,,,,,,,,,,,,,,,,,,,,,,,,,,,,,,,,,,,,,
1720086808,108,0,4239.358887,4324.102539,4355.256348,4374.102539,4336.666504,4327.436035,4342.94873,4316.538574,4242.563965,4358.205078,4478.333496,4593.205078,4336.538574,4180.256348,,,,,,,,,,,,,,,,,,,,,,,,,,,,,,,,,,,,,,,,,,,,,,,,,,,,,,,,,,,,,,,,,,,,,,
1720086808,109,0,4246.922852,4335.512695,4364.487305,4386.025879,4322.563965,4299.230957,4342.692383,4324.358887,4238.589844,4361.282227,4486.794922,4595.641113,4341.666504,4183.974121,,,,,,,,,,,,,,,,,,,,,,,,,,,,,,,,,,,,,,,,,,,,,,,,,,,,,,,,,,,,,,,,,,,,,,
1720086808,110,0,4247.179688,4338.846191,4364.743652,4391.794922,4311.794922,4298.205078,4344.230957,4325.512695,4240.384766,4356.922852,4494.743652,4599.102539,4346.794922,4183.205078,,,,,,,,,,,,,,,,,,,,,,,,,,,,,,,,,,,,,,,,,,,,,,,,,,,,,,,,,,,,,,,,,,,,,,
1720086808,111,0,4228.205078,4316.538574,4353.846191,4372.05127,4315.769043,4321.538574,4344.358887,4325.512695,4256.538574,4361.282227,4487.563965,4597.94873,4348.589844,4191.153809,,,,,,,,,,,,,,,,,,,,,,,,,,,,,,,,,,,,,,,,,,,,,,,,,,,,,,,,,,,,,,,,,,,,,,
1720086808,112,0,4222.94873,4311.538574,4353.333496,4361.025879,4326.538574,4323.974121,4342.563965,4326.153809,4256.282227,4365.641113,4487.94873,4592.94873,4351.538574,4194.230957,,,,,,,,,,,,,,,,,,,,,,,,,,,,,,,,,,,,,,,,,,,,,,,,,,,,,,,,,,,,,,,,,,,,,,
1720086808,113,0,4228.205078,4328.974121,4360,4382.436035,4332.563965,4317.307617,4341.666504,4324.871582,4242.820313,4359.230957,4501.153809,4590.897461,4353.461426,4187.94873,,,,,,,,,,,,,,,,,,,,,,,,,,,,,,,,,,,,,,,,,,,,,,,,,,,,,,,,,,,,,,,,,,,,,,
1720086808,114,0,4232.692383,4336.025879,4369.102539,4402.820313,4325.897461,4309.871582,4345,4333.717773,4244.230957,4362.820313,4508.589844,4604.871582,4365.256348,4207.05127,,,,,,,,,,,,,,,,,,,,,,,,,,,,,,,,,,,,,,,,,,,,,,,,,,,,,,,,,,,,,,,,,,,,,,
1720086808,115,0,4236.922852,4332.436035,4374.615234,4400.384766,4310.769043,4295.641113,4344.871582,4339.487305,4240.512695,4366.410156,4508.205078,4611.153809,4374.487305,4219.871582,,,,,,,,,,,,,,,,,,,,,,,,,,,,,,,,,,,,,,,,,,,,,,,,,,,,,,,,,,,,,,,,,,,,,,
1720086808,116,0,4221.282227,4316.794922,4357.179688,4373.717773,4305.769043,4304.358887,4339.615234,4331.410156,4225.897461,4361.666504,4496.922852,4592.820313,4353.461426,4190.256348,,,,,,,,,,,,,,,,,,,,,,,,,,,,,,,,,,,,,,,,,,,,,,,,,,,,,,,,,,,,,,,,,,,,,,
1720086808,117,0,4205.384766,4303.333496,4340.256348,4357.563965,4311.922852,4326.794922,4338.077148,4328.974121,4229.871582,4364.615234,4487.563965,4582.94873,4338.461426,4177.692383,,,,,,,,,,,,,,,,,,,,,,,,,,,,,,,,,,,,,,,,,,,,,,,,,,,,,,,,,,,,,,,,,,,,,,
1720086808,118,0,4215.641113,4307.436035,4351.794922,4368.846191,4312.307617,4322.563965,4341.666504,4337.179688,4243.717773,4372.692383,4496.153809,4594.230957,4354.358887,4205,56.126022,12.398569,3.400887,1.283419,0.489718,8.487288,3.76418,2.355298,1.307812,0.754418,12.747346,3.593768,2.331273,0.813927,0.499963,5.133238,2.152063,1.943095,1.613848,1.41296,1.767849,1.383555,0.685154,0.693579,0.620463,1.114902,0.549638,0.278742,1.030493,0.887167,1.232595,1.005086,0.723948,0.289392,0.14888,8.650389,3.245069,1.512632,0.562155,0.457486,2.013681,1.257402,0.663704,0.721768,0.423651,0.596447,0.201921,0.131207,0.159539,0.151307,8.591243,2.762319,2.773735,1.577693,1.30436,13.834259,3.464519,2.094021,0.759474,0.683191,8.215092,3.799799,2.475357,1.059254,0.869996,130.989349,15.873816,8.969844,2.000732,1.282336
1720086808,119,0,4231.410156,4314.358887,4363.589844,4374.102539,4311.538574,4307.307617,4342.179688,4343.205078,4246.282227,4376.922852,4505.512695,4602.820313,4361.538574,4218.461426,,,,,,,,,,,,,,,,,,,,,,,,,,,,,,,,,,,,,,,,,,,,,,,,,,,,,,,,,,,,,,,,,,,,,,
1720086808,120,0,4232.179688,4312.563965,4355.512695,4363.077148,4322.563965,4309.871582,4343.205078,4346.794922,4242.692383,4376.666504,4506.922852,4603.589844,4355.769043,4213.461426,,,,,,,,,,,,,,,,,,,,,,,,,,,,,,,,,,,,,,,,,,,,,,,,,,,,,,,,,,,,,,,,,,,,,,
1720086809,121,0,4227.692383,4315.897461,4352.820313,4360.256348,4319.743652,4313.846191,4348.333496,4352.436035,4244.615234,4376.538574,4506.025879,4605.128418,4355.641113,4217.436035,,,,,,,,,,,,,,,,,,,,,,,,,,,,,,,,,,,,,,,,,,,,,,,,,,,,,,,,,,,,,,,,,,,,,,
1720086809,122,0,4236.922852,4324.615234,4364.615234,4372.94873,4307.692383,4306.666504,4347.05127,4354.743652,4247.179688,4380.128418,4501.666504,4610.256348,4358.077148,4221.282227,,,,,,,,,,,,,,,,,,,,,,,,,,,,,,,,,,,,,,,,,,,,,,,,,,,,,,,,,,,,,,,,,,,,,,
1720086809,123,0,4249.358887,4320.128418,4369.743652,4380.641113,4310,4307.05127,4342.692383,4353.589844,4243.846191,4383.846191,4500.641113,4615.128418,4360.256348,4219.230957,,,,,,,,,,,,,,,,,,,,,,,,,,,,,,,,,,,,,,,,,,,,,,,,,,,,,,,,,,,,,,,,,,,,,,
1720086809,124,0,4241.794922,4313.333496,4362.05127,4374.487305,4301.794922,4314.615234,4342.307617,4349.102539,4241.025879,4380.128418,4490.641113,4602.692383,4349.487305,4212.179688,,,,,,,,,,,,,,,,,,,,,,,,,,,,,,,,,,,,,,,,,,,,,,,,,,,,,,,,,,,,,,,,,,,,,,
1720086809,125,0,4219.102539,4305,4344.743652,4352.179688,4295.769043,4317.436035,4340.769043,4343.974121,4243.846191,4379.871582,4463.205078,4576.282227,4322.692383,4197.179688,,,,,,,,,,,,,,,,,,,,,,,,,,,,,,,,,,,,,,,,,,,,,,,,,,,,,,,,,,,,,,,,,,,,,,
1720086809,126,0,4215,4299.615234,4337.692383,4341.794922,4318.974121,4318.589844,4343.077148,4349.871582,4252.563965,4387.436035,4466.666504,4578.717773,4327.179688,4198.333496,,,,,,,,,,,,,,,,,,,,,,,,,,,,,,,,,,,,,,,,,,,,,,,,,,,,,,,,,,,,,,,,,,,,,,
1720086809,127,0,4239.358887,4316.538574,4356.922852,4371.410156,4327.179688,4318.461426,4351.666504,4362.563965,4263.974121,4392.05127,4510.512695,4611.666504,4365.256348,4230.384766,,,,,,,,,,,,,,,,,,,,,,,,,,,,,,,,,,,,,,,,,,,,,,,,,,,,,,,,,,,,,,,,,,,,,,
1720086809,0,0,4252.820313,4326.153809,4368.974121,4390.641113,4307.563965,4316.794922,4353.974121,4362.436035,4259.871582,4389.743652,4515.769043,4620.128418,4366.025879,4246.282227,,,,,,,,,,,,,,,,,,,,,,,,,,,,,,,,,,,,,,,,,,,,,,,,,,,,,,,,,,,,,,,,,,,,,,
1720086809,1,0,4230.256348,4303.846191,4342.436035,4363.589844,4303.205078,4305.897461,4341.410156,4345.512695,4237.436035,4376.410156,4472.05127,4584.358887,4325.769043,4214.102539,,,,,,,,,,,,,,,,,,,,,,,,,,,,,,,,,,,,,,,,,,,,,,,,,,,,,,,,,,,,,,,,,,,,,,
1720086809,2,0,4204.615234,4283.589844,4311.922852,4330.512695,4306.282227,4297.820313,4328.717773,4327.94873,4230.769043,4367.307617,4457.307617,4552.692383,4310.641113,4188.077148,,,,,,,,,,,,,,,,,,,,,,,,,,,,,,,,,,,,,,,,,,,,,,,,,,,,,,,,,,,,,,,,,,,,,,
1720086809,3,0,4207.563965,4287.94873,4313.846191,4329.487305,4303.974121,4305.384766,4327.307617,4323.077148,4244.743652,4373.461426,4471.410156,4551.153809,4322.179688,4197.94873,,,,,,,,,,,,,,,,,,,,,,,,,,,,,,,,,,,,,,,,,,,,,,,,,,,,,,,,,,,,,,,,,,,,,,
1720086809,4,0,4233.205078,4306.410156,4337.307617,4361.025879,4312.179688,4310.512695,4333.846191,4335.769043,4253.846191,4380.641113,4485.512695,4573.333496,4338.333496,4217.94873,,,,,,,,,,,,,,,,,,,,,,,,,,,,,,,,,,,,,,,,,,,,,,,,,,,,,,,,,,,,,,,,,,,,,,
1720086809,5,0,4257.307617,4328.717773,4356.282227,4384.102539,4319.487305,4312.436035,4342.692383,4350,4248.589844,4378.205078,4501.794922,4595.897461,4358.333496,4234.871582,,,,,,,,,,,,,,,,,,,,,,,,,,,,,,,,,,,,,,,,,,,,,,,,,,,,,,,,,,,,,,,,,,,,,,
1720086809,6,0,4259.487305,4327.692383,4355.256348,4371.666504,4314.358887,4313.461426,4341.153809,4342.436035,4237.436035,4373.589844,4503.846191,4592.563965,4361.666504,4239.615234,48.647625,10.85893,2.795247,1.090333,0.390923,7.39163,3.857565,2.041972,0.997806,0.651707,11.269528,3.232831,2.094534,0.656153,0.404481,4.485123,2.221776,1.788578,1.254404,1.16186,1.643447,1.744715,0.642211,0.649455,0.572099,1.298025,0.53318,0.21376,1.012638,0.66947,1.082114,1.1276,0.772855,0.240692,0.130895,8.077417,2.861552,1.326401,0.489223,0.40309,1.952474,1.447421,0.692576,0.742556,0.405925,0.687729,0.2246,0.136239,0.161867,0.139023,8.314869,3.04329,2.702421,1.390906,1.161136,13.881301,3.452177,2.053712,0.669844,0.558646,7.728269,3.912334,2.269849,0.988895,0.771097,119.734764,13.801338,9.416208,2.084566,1.308556
1720086809,7,0,4245,4298.589844,4338.333496,4349.102539,4311.538574,4306.538574,4331.666504,4327.820313,4229.871582,4371.153809,4483.333496,4572.307617,4341.666504,4225.769043,,,,,,,,,,,,,,,,,,,,,,,,,,,,,,,,,,,,,,,,,,,,,,,,,,,,,,,,,,,,,,,,,,,,,,
1720086809,8,0,4240.128418,4293.717773,4333.974121,4353.205078,4313.333496,4304.743652,4332.179688,4332.436035,4237.820313,4368.461426,4470.512695,4565.256348,4333.077148,4209.358887,,,,,,,,,,,,,,,,,,,,,,,,,,,,,,,,,,,,,,,,,,,,,,,,,,,,,,,,,,,,,,,,,,,,,,
1720086809,9,0,4243.717773,4308.205078,4342.820313,4363.077148,4312.563965,4313.846191,4337.436035,4340.897461,4250,4370.641113,4478.589844,4573.717773,4343.717773,4206.538574,,,,,,,,,,,,,,,,,,,,,,,,,,,,,,,,,,,,,,,,,,,,,,,,,,,,,,,,,,,,,,,,,,,,,,
1720086809,10,0,4242.307617,4306.025879,4341.153809,4356.025879,4310,4315.256348,4333.974121,4334.743652,4237.436035,4367.05127,4486.153809,4575.897461,4346.025879,4201.666504,,,,,,,,,,,,,,,,,,,,,,,,,,,,,,,,,,,,,,,,,,,,,,,,,,,,,,,,,,,,,,,,,,,,,,
1720086809,11,0,4246.282227,4303.974121,4339.615234,4354.487305,4299.230957,4305.256348,4331.410156,4328.205078,4226.153809,4359.487305,4487.179688,4577.563965,4339.358887,4199.487305,,,,,,,,,,,,,,,,,,,,,,,,,,,,,,,,,,,,,,,,,,,,,,,,,,,,,,,,,,,,,,,,,,,,,,
1720086809,12,0,4252.563965,4312.436035,4349.871582,4359.230957,4295,4299.487305,4336.025879,4331.794922,4241.666504,4361.153809,4490.128418,4588.717773,4347.179688,4215.641113,,,,,,,,,,,,,,,,,,,,,,,,,,,,,,,,,,,,,,,,,,,,,,,,,,,,,,,,,,,,,,,,,,,,,,
1720086809,13,0,4250.897461,4311.282227,4350.384766,4357.179688,4307.179688,4296.538574,4336.794922,4332.307617,4252.307617,4363.077148,4494.102539,4586.025879,4354.487305,4216.282227,,,,,,,,,,,,,,,,,,,,,,,,,,,,,,,,,,,,,,,,,,,,,,,,,,,,,,,,,,,,,,,,,,,,,,
1720086809,14,0,4245.897461,4303.974121,4340.384766,4355.512695,4312.307617,4309.487305,4338.461426,4333.974121,4245.512695,4362.05127,4487.692383,4571.025879,4344.358887,4197.307617,,,,,,,,,,,,,,,,,,,,,,,,,,,,,,,,,,,,,,,,,,,,,,,,,,,,,,,,,,,,,,,,,,,,,,
1720086809,15,0,4246.410156,4310.512695,4339.102539,4362.692383,4312.179688,4329.615234,4341.410156,4340.384766,4245.384766,4362.692383,4486.538574,4567.563965,4345.512695,4192.820313,,,,,,,,,,,,,,,,,,,,,,,,,,,,,,,,,,,,,,,,,,,,,,,,,,,,,,,,,,,,,,,,,,,,,,
1720086809,16,0,4248.077148,4316.153809,4343.077148,4367.94873,4315.641113,4323.717773,4338.717773,4336.282227,4249.102539,4361.538574,4499.871582,4574.358887,4359.743652,4200.897461,,,,,,,,,,,,,,,,,,,,,,,,,,,,,,,,,,,,,,,,,,,,,,,,,,,,,,,,,,,,,,,,,,,,,,
1720086809,17,0,4245.256348,4309.487305,4341.794922,4366.410156,4317.692383,4306.538574,4336.922852,4326.538574,4244.358887,4357.94873,4492.05127,4572.563965,4352.05127,4197.179688,,,,,,,,,,,,,,,,,,,,,,,,,,,,,,,,,,,,,,,,,,,,,,,,,,,,,,,,,,,,,,,,,,,,,,
1720086809,18,0,4247.94873,4311.025879,4342.563965,4368.333496,4317.436035,4307.820313,4340.512695,4331.794922,4247.692383,4358.589844,4476.153809,4570.641113,4341.025879,4194.871582,,,,,,,,,,,,,,,,,,,,,,,,,,,,,,,,,,,,,,,,,,,,,,,,,,,,,,,,,,,,,,,,,,,,,,
1720086809,19,0,4248.461426,4315.897461,4343.974121,4365.641113,4317.692383,4317.820313,4342.692383,4341.538574,4249.102539,4357.820313,4483.077148,4575.641113,4343.589844,4196.282227,,,,,,,,,,,,,,,,,,,,,,,,,,,,,,,,,,,,,,,,,,,,,,,,,,,,,,,,,,,,,,,,,,,,,,
1720086809,20,0,4235.641113,4305.641113,4335.512695,4355,4318.974121,4315.384766,4340.384766,4336.922852,4241.666504,4353.846191,4486.794922,4570,4336.794922,4191.282227,,,,,,,,,,,,,,,,,,,,,,,,,,,,,,,,,,,,,,,,,,,,,,,,,,,,,,,,,,,,,,,,,,,,,,
1720086809,21,0,4231.922852,4303.846191,4335.128418,4355.769043,4327.94873,4312.94873,4342.820313,4339.487305,4253.589844,4358.717773,4480.512695,4566.410156,4333.077148,4215.128418,,,,,,,,,,,,,,,,,,,,,,,,,,,,,,,,,,,,,,,,,,,,,,,,,,,,,,,,,,,,,,,,,,,,,,
1720086809,22,0,4238.974121,4312.692383,4344.743652,4365,4327.563965,4320,4346.922852,4352.94873,4268.974121,4362.94873,4490.256348,4571.794922,4343.077148,4251.922852,36.854443,8.401079,2.061171,0.956041,0.339004,5.602638,3.698406,1.687043,0.793238,0.612524,8.85879,2.640388,1.76025,0.564153,0.357097,3.475808,2.18423,1.609848,1.036778,1.05994,1.444082,2.077715,0.6675,0.612892,0.633067,1.403824,0.493057,0.205758,1.003677,0.595905,0.871151,1.161228,0.78035,0.211908,0.117704,6.849342,2.337677,1.09728,0.413206,0.341404,1.734655,1.527602,0.80613,0.778008,0.410436,0.677732,0.244346,0.152173,0.162302,0.129536,7.45173,3.085313,2.622099,1.312704,1.088632,12.675118,3.195304,1.984772,0.649203,0.485976,6.700826,3.710093,1.991832,0.970431,0.721869,97.289253,10.770759,9.170325,2.098155,1.284111
1720086809,23,0,4231.410156,4301.922852,4339.230957,4358.846191,4306.922852,4315.897461,4341.922852,4346.153809,4254.871582,4352.563965,4495.256348,4566.410156,4335.641113,4251.666504,,,,,,,,,,,,,,,,,,,,,,,,,,,,,,,,,,,,,,,,,,,,,,,,,,,,,,,,,,,,,,,,,,,,,,
1720086809,24,0,4222.436035,4289.615234,4323.589844,4345.512695,4303.077148,4304.487305,4332.94873,4327.436035,4238.974121,4341.794922,4472.436035,4548.333496,4314.487305,4230.128418,,,,,,,,,,,,,,,,,,,,,,,,,,,,,,,,,,,,,,,,,,,,,,,,,,,,,,,,,,,,,,,,,,,,,,
1720086809,25,0,4225.512695,4293.461426,4319.102539,4340.769043,4314.615234,4309.615234,4335.128418,4326.922852,4246.922852,4345.641113,4459.871582,4541.538574,4309.615234,4224.102539,,,,,,,,,,,,,,,,,,,,,,,,,,,,,,,,,,,,,,,,,,,,,,,,,,,,,,,,,,,,,,,,,,,,,,
1720086809,26,0,4227.94873,4294.871582,4322.05127,4342.307617,4315.641113,4322.563965,4338.717773,4334.230957,4253.333496,4350.897461,4465.384766,4544.615234,4310.512695,4227.563965,,,,,,,,,,,,,,,,,,,,,,,,,,,,,,,,,,,,,,,,,,,,,,,,,,,,,,,,,,,,,,,,,,,,,,
1720086809,27,0,4230.128418,4296.538574,4323.589844,4352.307617,4314.102539,4316.410156,4329.615234,4328.461426,4244.615234,4345.769043,4457.307617,4538.846191,4303.974121,4223.333496,,,,,,,,,,,,,,,,,,,,,,,,,,,,,,,,,,,,,,,,,,,,,,,,,,,,,,,,,,,,,,,,,,,,,,
1720086809,28,0,4236.666504,4307.692383,4333.205078,4364.358887,4314.615234,4295,4327.307617,4329.615234,4235.128418,4342.692383,4465.512695,4546.538574,4316.410156,4233.717773,,,,,,,,,,,,,,,,,,,,,,,,,,,,,,,,,,,,,,,,,,,,,,,,,,,,,,,,,,,,,,,,,,,,,,
1720086809,29,0,4235.512695,4306.794922,4339.230957,4363.717773,4311.282227,4288.846191,4338.589844,4340.384766,4237.563965,4346.282227,4492.94873,4564.743652,4330.256348,4241.794922,,,,,,,,,,,,,,,,,,,,,,,,,,,,,,,,,,,,,,,,,,,,,,,,,,,,,,,,,,,,,,,,,,,,,,
1720086809,30,0,4230.512695,4293.205078,4332.563965,4354.230957,4307.692383,4306.282227,4339.102539,4339.743652,4250.641113,4347.179688,4484.743652,4561.282227,4315.897461,4222.05127,,,,,,,,,,,,,,,,,,,,,,,,,,,,,,,,,,,,,,,,,,,,,,,,,,,,,,,,,,,,,,,,,,,,,,
1720086809,31,0,4238.717773,4293.461426,4333.077148,4353.717773,4311.794922,4314.102539,4329.487305,4335.256348,4252.436035,4346.666504,4464.487305,4552.692383,4312.179688,4224.102539,,,,,,,,,,,,,,,,,,,,,,,,,,,,,,,,,,,,,,,,,,,,,,,,,,,,,,,,,,,,,,,,,,,,,,
1720086809,32,0,4254.358887,4303.717773,4340.897461,4361.410156,4319.743652,4310.512695,4333.974121,4338.205078,4244.743652,4346.282227,4473.974121,4557.179688,4328.461426,4233.974121,,,,,,,,,,,,,,,,,,,,,,,,,,,,,,,,,,,,,,,,,,,,,,,,,,,,,,,,,,,,,,,,,,,,,,
1720086809,33,0,4262.179688,4307.307617,4343.589844,4371.282227,4326.794922,4318.461426,4347.692383,4344.487305,4256.025879,4346.538574,4477.820313,4562.05127,4326.153809,4184.743652,,,,,,,,,,,,,,,,,,,,,,,,,,,,,,,,,,,,,,,,,,,,,,,,,,,,,,,,,,,,,,,,,,,,,,
1720086809,34,0,4262.563965,4304.230957,4340.769043,4372.94873,4328.589844,4321.153809,4348.717773,4346.538574,4264.487305,4346.282227,4477.820313,4562.563965,4320.256348,4123.461426,,,,,,,,,,,,,,,,,,,,,,,,,,,,,,,,,,,,,,,,,,,,,,,,,,,,,,,,,,,,,,,,,,,,,,
1720086809,35,0,4263.717773,4305.384766,4342.820313,4365.512695,4324.487305,4309.615234,4341.666504,4342.436035,4252.436035,4343.461426,4493.205078,4568.205078,4332.563965,4116.538574,,,,,,,,,,,,,,,,,,,,,,,,,,,,,,,,,,,,,,,,,,,,,,,,,,,,,,,,,,,,,,,,,,,,,,
1720086809,36,0,4266.794922,4310.128418,4348.974121,4367.94873,4326.922852,4308.717773,4339.487305,4342.563965,4255.384766,4346.666504,4497.94873,4575.128418,4340.256348,4119.230957,,,,,,,,,,,,,,,,,,,,,,,,,,,,,,,,,,,,,,,,,,,,,,,,,,,,,,,,,,,,,,,,,,,,,,
1720086809,37,0,4266.025879,4309.487305,4352.436035,4375.641113,4333.974121,4312.94873,4341.794922,4348.846191,4270.769043,4353.205078,4497.692383,4578.589844,4344.615234,4113.846191,,,,,,,,,,,,,,,,,,,,,,,,,,,,,,,,,,,,,,,,,,,,,,,,,,,,,,,,,,,,,,,,,,,,,,
1720086809,38,0,4263.589844,4304.358887,4350,4370.769043,4331.025879,4306.794922,4340.897461,4344.358887,4264.871582,4350.128418,4501.153809,4574.102539,4348.205078,4119.871582,24.20252,5.76278,1.406726,0.888515,0.339785,3.673376,3.333684,1.383144,0.706033,0.625918,6.233744,1.982166,1.437589,0.537675,0.366728,2.392513,2.061266,1.454509,0.97712,1.104248,1.214378,2.282433,0.73291,0.59752,0.762809,1.39223,0.439014,0.253074,1.015643,0.613452,0.650792,1.092222,0.734222,0.199063,0.111717,5.2284,1.790123,0.885105,0.34835,0.286515,1.418447,1.457293,1.007649,0.804184,0.43203,0.585732,0.246155,0.181161,0.159715,0.123998,6.21076,2.819715,2.530297,1.332801,1.057779,10.479351,2.741173,1.903191,0.694049,0.469378,5.394031,3.219218,1.722342,0.994452,0.709489,67.744438,7.462708,8.270561,2.039776,1.201203
1720086809,39,0,4268.205078,4305.128418,4352.563965,4368.974121,4317.94873,4309.102539,4339.487305,4339.615234,4261.666504,4346.922852,4498.205078,4572.94873,4344.230957,4121.282227,,,,,,,,,,,,,,,,,,,,,,,,,,,,,,,,,,,,,,,,,,,,,,,,,,,,,,,,,,,,,,,,,,,,,,
1720086809,40,0,4279.615234,4312.692383,4366.153809,4381.794922,4317.692383,4326.666504,4346.538574,4351.538574,4275.384766,4354.487305,4504.230957,4587.436035,4348.846191,4122.307617,,,,,,,,,,,,,,,,,,,,,,,,,,,,,,,,,,,,,,,,,,,,,,,,,,,,,,,,,,,,,,,,,,,,,,
1720086809,41,0,4286.538574,4314.615234,4371.666504,4384.358887,4326.666504,4329.743652,4354.230957,4360,4272.692383,4353.589844,4511.666504,4594.487305,4353.717773,4121.922852,,,,,,,,,,,,,,,,,,,,,,,,,,,,,,,,,,,,,,,,,,,,,,,,,,,,,,,,,,,,,,,,,,,,,,
1720086809,42,0,4286.153809,4309.615234,4369.358887,4374.871582,4324.743652,4311.666504,4354.871582,4357.436035,4265.128418,4346.922852,4505.897461,4589.871582,4351.025879,4115.384766,,,,,,,,,,,,,,,,,,,,,,,,,,,,,,,,,,,,,,,,,,,,,,,,,,,,,,,,,,,,,,,,,,,,,,
1720086809,43,0,4286.794922,4309.487305,4371.538574,4378.205078,4323.461426,4309.230957,4353.974121,4358.461426,4271.666504,4349.743652,4505.769043,4590.256348,4350.384766,4116.410156,,,,,,,,,,,,,,,,,,,,,,,,,,,,,,,,,,,,,,,,,,,,,,,,,,,,,,,,,,,,,,,,,,,,,,
1720086809,44,0,4284.487305,4310.128418,4370,4382.94873,4324.743652,4323.205078,4350.512695,4357.820313,4267.436035,4348.461426,4504.230957,4585.897461,4346.025879,4112.179688,,,,,,,,,,,,,,,,,,,,,,,,,,,,,,,,,,,,,,,,,,,,,,,,,,,,,,,,,,,,,,,,,,,,,,
1720086809,45,0,4273.589844,4300.769043,4355.512695,4367.436035,4320.769043,4318.461426,4341.922852,4348.589844,4257.179688,4341.794922,4492.307617,4569.615234,4337.563965,4097.563965,,,,,,,,,,,,,,,,,,,,,,,,,,,,,,,,,,,,,,,,,,,,,,,,,,,,,,,,,,,,,,,,,,,,,,
1720086809,46,0,4261.922852,4291.922852,4343.333496,4353.846191,4317.05127,4307.563965,4336.666504,4339.102539,4261.153809,4339.743652,4492.307617,4558.717773,4341.666504,4091.281982,,,,,,,,,,,,,,,,,,,,,,,,,,,,,,,,,,,,,,,,,,,,,,,,,,,,,,,,,,,,,,,,,,,,,,
1720086809,47,0,4261.794922,4297.692383,4343.974121,4361.282227,4314.230957,4307.692383,4340.769043,4339.487305,4265,4341.410156,4495.897461,4558.717773,4340.384766,4092.564209,,,,,,,,,,,,,,,,,,,,,,,,,,,,,,,,,,,,,,,,,,,,,,,,,,,,,,,,,,,,,,,,,,,,,,
1720086809,48,0,4272.94873,4305.769043,4346.538574,4363.974121,4310.769043,4312.307617,4341.922852,4342.820313,4265.769043,4344.743652,4490.256348,4558.461426,4329.358887,4090.897461,,,,,,,,,,,,,,,,,,,,,,,,,,,,,,,,,,,,,,,,,,,,,,,,,,,,,,,,,,,,,,,,,,,,,,
1720086809,49,0,4275.769043,4302.563965,4341.153809,4351.282227,4318.589844,4324.230957,4338.461426,4339.230957,4267.307617,4342.692383,4483.846191,4552.692383,4328.333496,4094.743652,,,,,,,,,,,,,,,,,,,,,,,,,,,,,,,,,,,,,,,,,,,,,,,,,,,,,,,,,,,,,,,,,,,,,,
1720086809,50,0,4285.769043,4311.410156,4350.641113,4359.230957,4336.538574,4334.743652,4347.820313,4345.256348,4275.384766,4345,4494.487305,4563.974121,4342.94873,4122.692383,,,,,,,,,,,,,,,,,,,,,,,,,,,,,,,,,,,,,,,,,,,,,,,,,,,,,,,,,,,,,,,,,,,,,,
1720086809,51,0,4307.05127,4333.974121,4375.641113,4385,4337.563965,4329.615234,4363.077148,4360.897461,4289.358887,4355.384766,4521.153809,4589.230957,4362.436035,4152.179688,,,,,,,,,,,,,,,,,,,,,,,,,,,,,,,,,,,,,,,,,,,,,,,,,,,,,,,,,,,,,,,,,,,,,,
1720086809,52,0,4305.128418,4332.436035,4375.256348,4382.94873,4324.487305,4320.512695,4356.922852,4352.94873,4279.871582,4344.102539,4525.128418,4582.179688,4361.538574,4145.641113,,,,,,,,,,,,,,,,,,,,,,,,,,,,,,,,,,,,,,,,,,,,,,,,,,,,,,,,,,,,,,,,,,,,,,
1720086809,53,0,4294.487305,4318.717773,4363.589844,4370.512695,4329.358887,4318.461426,4345.128418,4340.256348,4262.692383,4321.794922,4508.589844,4562.179688,4350.128418,4127.94873,,,,,,,,,,,,,,,,,,,,,,,,,,,,,,,,,,,,,,,,,,,,,,,,,,,,,,,,,,,,,,,,,,,,,,
1720086809,54,0,4311.538574,4330.512695,4375.384766,4385.512695,4345.897461,4312.820313,4354.743652,4356.410156,4279.615234,4331.922852,4513.461426,4577.436035,4357.436035,4132.179688,13.993113,3.612028,0.938323,0.885825,0.383263,2.081603,2.826043,1.166416,0.718869,0.663513,4.036115,1.402439,1.185656,0.571227,0.42471,1.483757,1.885904,1.329276,1.052457,1.244076,0.97486,2.284618,0.788137,0.604599,0.902413,1.263151,0.378205,0.338298,1.060019,0.663022,0.478268,0.943334,0.638742,0.197027,0.113377,3.593053,1.314773,0.72663,0.31307,0.250514,1.064636,1.244139,1.253545,0.797537,0.462564,0.485261,0.224938,0.217012,0.154555,0.122912,4.916159,2.295515,2.384523,1.431956,1.039965,7.878458,2.180451,1.789048,0.815551,0.500962,4.220177,2.55517,1.50003,1.061177,0.720607,40.172371,4.528066,6.887584,1.969137,1.087173
1720086809,55,0,4331.922852,4346.025879,4388.205078,4402.563965,4345.641113,4314.102539,4365,4372.563965,4300.512695,4344.102539,4527.94873,4596.922852,4371.153809,4140.512695,,,,,,,,,,,,,,,,,,,,,,,,,,,,,,,,,,,,,,,,,,,,,,,,,,,,,,,,,,,,,,,,,,,,,,
1720086809,56,0,4322.692383,4336.538574,4379.871582,4394.871582,4332.820313,4328.205078,4358.589844,4368.589844,4292.179688,4330,4522.307617,4589.615234,4368.589844,4142.179688,,,,,,,,,,,,,,,,,,,,,,,,,,,,,,,,,,,,,,,,,,,,,,,,,,,,,,,,,,,,,,,,,,,,,,
1720086809,57,0,4317.05127,4330.256348,4373.717773,4391.922852,4338.205078,4340.512695,4357.179688,4368.077148,4287.563965,4327.563965,4523.205078,4585.512695,4369.358887,4150,,,,,,,,,,,,,,,,,,,,,,,,,,,,,,,,,,,,,,,,,,,,,,,,,,,,,,,,,,,,,,,,,,,,,,
1720086809,58,0,4348.974121,4353.974121,4398.846191,4421.410156,4369.102539,4365.769043,4387.436035,4383.333496,4317.307617,4347.05127,4552.820313,4613.974121,4396.025879,4166.410156,,,,,,,,,,,,,,,,,,,,,,,,,,,,,,,,,,,,,,,,,,,,,,,,,,,,,,,,,,,,,,,,,,,,,,
1720086809,59,0,4404.358887,4391.922852,4450.384766,4462.820313,4415.769043,4403.077148,4435.641113,4403.461426,4366.282227,4367.05127,4603.461426,4664.871582,4441.282227,4202.94873,,,,,,,,,,,,,,,,,,,,,,,,,,,,,,,,,,,,,,,,,,,,,,,,,,,,,,,,,,,,,,,,,,,,,,
1720086809,60,0,4445.641113,4422.436035,4489.615234,4489.743652,4443.333496,4427.05127,4455.641113,4415.641113,4397.05127,4379.102539,4646.410156,4703.077148,4486.153809,4248.717773,,,,,,,,,,,,,,,,,,,,,,,,,,,,,,,,,,,,,,,,,,,,,,,,,,,,,,,,,,,,,,,,,,,,,,
1720086809,61,0,4461.538574,4441.153809,4496.794922,4498.717773,4445.512695,4436.153809,4452.563965,4421.410156,4392.563965,4380.641113,4651.153809,4710.512695,4498.717773,4261.410156,,,,,,,,,,,,,,,,,,,,,,,,,,,,,,,,,,,,,,,,,,,,,,,,,,,,,,,,,,,,,,,,,,,,,,
1720086809,62,0,4486.538574,4461.410156,4505.256348,4514.230957,4451.153809,4446.538574,4462.563965,4427.692383,4394.102539,4383.846191,4643.846191,4714.743652,4489.615234,4254.358887,,,,,,,,,,,,,,,,,,,,,,,,,,,,,,,,,,,,,,,,,,,,,,,,,,,,,,,,,,,,,,,,,,,,,,
1720086809,63,0,4518.589844,4484.487305,4524.358887,4536.410156,4463.974121,4461.538574,4480.641113,4430.128418,4417.563965,4400.769043,4655.384766,4731.410156,4495.256348,4260.641113,,,,,,,,,,,,,,,,,,,,,,,,,,,,,,,,,,,,,,,,,,,,,,,,,,,,,,,,,,,,,,,,,,,,,,
1720086809,64,0,4538.846191,4502.692383,4540.384766,4547.692383,4479.358887,4476.666504,4486.410156,4431.666504,4424.871582,4410.641113,4684.102539,4756.922852,4526.025879,4280.769043,,,,,,,,,,,,,,,,,,,,,,,,,,,,,,,,,,,,,,,,,,,,,,,,,,,,,,,,,,,,,,,,,,,,,,
1720086809,65,0,4557.563965,4525.384766,4557.05127,4559.615234,4492.94873,4487.436035,4489.487305,4442.563965,4421.282227,4410.641113,4717.05127,4793.846191,4555.512695,4312.436035,,,,,,,,,,,,,,,,,,,,,,,,,,,,,,,,,,,,,,,,,,,,,,,,,,,,,,,,,,,,,,,,,,,,,,
1720086809,66,0,4571.538574,4551.794922,4564.487305,4572.94873,4502.820313,4497.179688,4501.153809,4451.410156,4429.871582,4415.769043,4721.282227,4809.487305,4554.102539,4332.05127,,,,,,,,,,,,,,,,,,,,,,,,,,,,,,,,,,,,,,,,,,,,,,,,,,,,,,,,,,,,,,,,,,,,,,
1720086809,67,0,4564.358887,4554.102539,4553.974121,4561.153809,4508.461426,4505.641113,4509.358887,4451.410156,4434.102539,4413.717773,4693.717773,4793.846191,4533.974121,4312.179688,,,,,,,,,,,,,,,,,,,,,,,,,,,,,,,,,,,,,,,,,,,,,,,,,,,,,,,,,,,,,,,,,,,,,,
1720086809,68,0,4545.512695,4542.563965,4550.641113,4537.563965,4505.641113,4495.384766,4503.461426,4458.333496,4427.436035,4412.05127,4693.077148,4792.94873,4532.820313,4289.871582,,,,,,,,,,,,,,,,,,,,,,,,,,,,,,,,,,,,,,,,,,,,,,,,,,,,,,,,,,,,,,,,,,,,,,
1720086809,69,0,4537.94873,4560,4563.974121,4548.974121,4505.897461,4479.615234,4492.307617,4470.897461,4424.230957,4418.974121,4725.256348,4808.974121,4552.436035,4296.025879,,,,,,,,,,,,,,,,,,,,,,,,,,,,,,,,,,,,,,,,,,,,,,,,,,,,,,,,,,,,,,,,,,,,,,
1720086809,70,0,4538.846191,4585.897461,4573.461426,4570.769043,4510.128418,4486.922852,4494.743652,4482.436035,4427.436035,4428.077148,4729.871582,4818.077148,4556.153809,4303.077148,8.032338,2.254399,0.66736,0.938547,0.448362,1.079767,2.262578,1.022758,0.799785,0.695224,2.655348,1.002114,1.009233,0.654151,0.507441,0.916238,1.699792,1.211838,1.211121,1.40595,0.770118,2.079674,0.789733,0.628113,0.997553,1.057534,0.316616,0.444678,1.128592,0.704751,0.385073,0.759827,0.518456,0.202235,0.121551,2.282504,0.960712,0.624369,0.321445,0.23886,0.823855,0.958806,1.478037,0.750324,0.495192,0.375555,0.191122,0.250797,0.149011,0.125804,3.881719,1.648419,2.144681,1.588754,1.01456,5.506472,1.617206,1.615452,1.018086,0.561747,3.482607,1.868656,1.316023,1.172345,0.742666,20.696714,2.405203,5.391081,1.959326,0.984193
1720086809,71,0,4538.461426,4580.512695,4572.179688,4559.743652,4501.025879,4501.538574,4498.077148,4484.230957,4427.94873,4430.384766,4708.846191,4813.717773,4540,4313.717773,,,,,,,,,,,,,,,,,,,,,,,,,,,,,,,,,,,,,,,,,,,,,,,,,,,,,,,,,,,,,,,,,,,,,,
1720086809,72,0,4528.717773,4570.897461,4568.077148,4548.717773,4485.897461,4502.307617,4492.436035,4475.384766,4425.384766,4427.820313,4702.563965,4800.769043,4532.563965,4346.922852,,,,,,,,,,,,,,,,,,,,,,,,,,,,,,,,,,,,,,,,,,,,,,,,,,,,,,,,,,,,,,,,,,,,,,
1720086809,73,0,4511.794922,4571.538574,4566.410156,4556.282227,4498.846191,4500,4488.333496,4473.077148,4424.615234,4427.692383,4713.589844,4798.846191,4536.025879,4375.128418,,,,,,,,,,,,,,,,,,,,,,,,,,,,,,,,,,,,,,,,,,,,,,,,,,,,,,,,,,,,,,,,,,,,,,
1720086809,74,0,4507.05127,4556.794922,4565.641113,4551.153809,4512.820313,4494.102539,4480.641113,4477.563965,4419.615234,4424.230957,4714.871582,4803.846191,4532.94873,4374.358887,,,,,,,,,,,,,,,,,,,,,,,,,,,,,,,,,,,,,,,,,,,,,,,,,,,,,,,,,,,,,,,,,,,,,,
1720086809,75,0,4507.05127,4545.897461,4555.641113,4537.307617,4497.94873,4483.205078,4475.512695,4474.743652,4413.461426,4420.512695,4694.615234,4791.666504,4517.94873,4349.358887,,,,,,,,,,,,,,,,,,,,,,,,,,,,,,,,,,,,,,,,,,,,,,,,,,,,,,,,,,,,,,,,,,,,,,
1720086809,76,0,4496.666504,4551.025879,4536.282227,4534.358887,4491.025879,4479.871582,4473.589844,4465,4412.436035,4422.179688,4683.846191,4775.769043,4508.717773,4314.871582,,,,,,,,,,,,,,,,,,,,,,,,,,,,,,,,,,,,,,,,,,,,,,,,,,,,,,,,,,,,,,,,,,,,,,
1720086809,77,0,4480.897461,4546.794922,4526.794922,4534.615234,4497.179688,4481.153809,4463.461426,4459.230957,4412.05127,4423.846191,4691.538574,4771.666504,4511.282227,4290.641113,,,,,,,,,,,,,,,,,,,,,,,,,,,,,,,,,,,,,,,,,,,,,,,,,,,,,,,,,,,,,,,,,,,,,,
1720086809,78,0,4475.128418,4530.128418,4529.871582,4538.205078,4485.128418,4477.563965,4457.436035,4458.333496,4406.153809,4418.205078,4681.794922,4756.922852,4504.358887,4283.205078,,,,,,,,,,,,,,,,,,,,,,,,,,,,,,,,,,,,,,,,,,,,,,,,,,,,,,,,,,,,,,,,,,,,,,
1720086809,79,0,4481.922852,4516.794922,4532.94873,4537.692383,4473.717773,4471.922852,4462.94873,4460.769043,4399.230957,4415.641113,4662.692383,4740,4488.205078,4286.666504,,,,,,,,,,,,,,,,,,,,,,,,,,,,,,,,,,,,,,,,,,,,,,,,,,,,,,,,,,,,,,,,,,,,,,
1720086809,80,0,4486.794922,4516.153809,4532.563965,4528.846191,4484.102539,4471.410156,4466.025879,4462.563965,4396.922852,4417.94873,4671.025879,4740.384766,4491.922852,4293.333496,,,,,,,,,,,,,,,,,,,,,,,,,,,,,,,,,,,,,,,,,,,,,,,,,,,,,,,,,,,,,,,,,,,,,,
1720086809,81,0,4480.769043,4512.692383,4525.256348,4520.256348,4478.846191,4465.769043,4460,4455.128418,4398.333496,4413.333496,4671.153809,4727.179688,4492.05127,4290.512695,,,,,,,,,,,,,,,,,,,,,,,,,,,,,,,,,,,,,,,,,,,,,,,,,,,,,,,,,,,,,,,,,,,,,,
1720086809,82,0,4471.282227,4489.871582,4509.487305,4513.077148,4450,4454.102539,4449.743652,4443.717773,4392.563965,4408.974121,4636.025879,4697.94873,4464.230957,4274.615234,,,,,,,,,,,,,,,,,,,,,,,,,,,,,,,,,,,,,,,,,,,,,,,,,,,,,,,,,,,,,,,,,,,,,,
1720086809,83,0,4472.307617,4469.871582,4493.333496,4501.282227,4439.871582,4454.230957,4441.410156,4434.102539,4376.410156,4403.974121,4625.641113,4692.05127,4449.358887,4263.333496,,,,,,,,,,,,,,,,,,,,,,,,,,,,,,,,,,,,,,,,,,,,,,,,,,,,,,,,,,,,,,,,,,,,,,
1720086809,84,0,4477.563965,4472.94873,4491.282227,4493.461426,4448.717773,4463.333496,4442.05127,4428.846191,4366.794922,4401.282227,4649.358887,4708.205078,4462.05127,4269.358887,,,,,,,,,,,,,,,,,,,,,,,,,,,,,,,,,,,,,,,,,,,,,,,,,,,,,,,,,,,,,,,,,,,,,,
1720086809,85,0,4478.846191,4478.589844,4498.461426,4498.974121,4451.153809,4457.05127,4443.461426,4426.025879,4370.128418,4407.05127,4649.487305,4710.512695,4467.94873,4281.794922,,,,,,,,,,,,,,,,,,,,,,,,,,,,,,,,,,,,,,,,,,,,,,,,,,,,,,,,,,,,,,,,,,,,,,
1720086809,86,0,4482.179688,4472.436035,4499.358887,4503.846191,4453.333496,4441.794922,4440,4422.563965,4370.641113,4414.358887,4639.743652,4698.077148,4470,4289.487305,5.915613,1.643845,0.564297,1.032306,0.51536,0.774269,1.746849,0.92222,0.911321,0.704309,2.122483,0.818872,0.90322,0.770543,0.587982,0.850899,1.549879,1.087182,1.381096,1.518618,0.721475,1.762028,0.732475,0.66307,1.013438,0.923185,0.295785,0.579859,1.19039,0.715559,0.439684,0.600335,0.420672,0.215935,0.135927,1.498348,0.724953,0.568086,0.372459,0.24918,0.811879,0.712752,1.619526,0.67621,0.52812,0.374846,0.167256,0.276157,0.14608,0.132585,3.236778,1.065793,1.808266,1.778408,0.975121,3.855285,1.167305,1.385123,1.280471,0.631126,3.337916,1.322498,1.146423,1.31629,0.766905,10.917795,1.302736,4.193231,2.052281,0.928052
1720086809,87,0,4490.769043,4475,4499.230957,4505.769043,4462.179688,4447.692383,4443.974121,4423.205078,4370.512695,4420.128418,4651.922852,4696.922852,4479.615234,4298.205078,,,,,,,,,,,,,,,,,,,,,,,,,,,,,,,,,,,,,,,,,,,,,,,,,,,,,,,,,,,,,,,,,,,,,,
1720086809,88,0,4492.94873,4483.846191,4500.769043,4506.025879,4460.897461,4458.974121,4446.666504,4424.358887,4374.230957,4423.333496,4657.563965,4703.461426,4481.282227,4307.563965,,,,,,,,,,,,,,,,,,,,,,,,,,,,,,,,,,,,,,,,,,,,,,,,,,,,,,,,,,,,,,,,,,,,,,
1720086809,89,0,4482.820313,4481.410156,4494.358887,4499.743652,4450,4449.230957,4440.256348,4417.05127,4371.666504,4418.589844,4642.692383,4700.128418,4477.436035,4306.153809,,,,,,,,,,,,,,,,,,,,,,,,,,,,,,,,,,,,,,,,,,,,,,,,,,,,,,,,,,,,,,,,,,,,,,
1720086809,90,0,4476.025879,4465.641113,4484.230957,4490.769043,4443.589844,4438.974121,4437.05127,4408.461426,4367.307617,4415.128418,4634.487305,4695.897461,4475.256348,4302.05127,,,,,,,,,,,,,,,,,,,,,,,,,,,,,,,,,,,,,,,,,,,,,,,,,,,,,,,,,,,,,,,,,,,,,,
1720086809,91,0,4475.641113,4454.615234,4480.769043,4486.666504,4434.615234,4445.384766,4438.205078,4410.769043,4366.538574,4415.512695,4639.871582,4701.282227,4472.307617,4311.153809,,,,,,,,,,,,,,,,,,,,,,,,,,,,,,,,,,,,,,,,,,,,,,,,,,,,,,,,,,,,,,,,,,,,,,
1720086809,92,0,4477.436035,4467.179688,4486.025879,4493.461426,4432.692383,4449.615234,4441.282227,4414.871582,4366.922852,4411.666504,4646.538574,4715.128418,4473.846191,4333.205078,,,,,,,,,,,,,,,,,,,,,,,,,,,,,,,,,,,,,,,,,,,,,,,,,,,,,,,,,,,,,,,,,,,,,,
1720086809,93,0,4477.94873,4477.563965,4489.615234,4495.897461,4439.615234,4439.743652,4441.538574,4414.230957,4368.461426,4409.487305,4642.179688,4722.436035,4473.717773,4346.025879,,,,,,,,,,,,,,,,,,,,,,,,,,,,,,,,,,,,,,,,,,,,,,,,,,,,,,,,,,,,,,,,,,,,,,
1720086809,94,0,4468.205078,4460.512695,4478.077148,4481.666504,4433.333496,4429.230957,4430.641113,4409.871582,4368.846191,4408.589844,4626.153809,4711.410156,4460.897461,4337.692383,,,,,,,,,,,,,,,,,,,,,,,,,,,,,,,,,,,,,,,,,,,,,,,,,,,,,,,,,,,,,,,,,,,,,,
1720086809,95,0,4454.487305,4441.922852,4457.05127,4464.358887,4417.692383,4422.692383,4417.692383,4402.94873,4361.025879,4403.077148,4611.025879,4693.461426,4441.794922,4327.307617,,,,,,,,,,,,,,,,,,,,,,,,,,,,,,,,,,,,,,,,,,,,,,,,,,,,,,,,,,,,,,,,,,,,,,
1720086809,96,0,4447.563965,4439.230957,4448.589844,4461.794922,4410.256348,4412.820313,4416.538574,4397.05127,4346.282227,4399.871582,4601.410156,4686.922852,4429.871582,4326.410156,,,,,,,,,,,,,,,,,,,,,,,,,,,,,,,,,,,,,,,,,,,,,,,,,,,,,,,,,,,,,,,,,,,,,,
1720086809,97,0,4436.922852,4430.641113,4438.974121,4455.256348,4405.641113,4401.794922,4413.846191,4389.358887,4337.692383,4396.794922,4592.692383,4682.94873,4421.410156,4322.820313,,,,,,,,,,,,,,,,,,,,,,,,,,,,,,,,,,,,,,,,,,,,,,,,,,,,,,,,,,,,,,,,,,,,,,
1720086809,98,0,4428.077148,4418.974121,4426.666504,4442.436035,4402.820313,4404.230957,4405.641113,4388.205078,4341.025879,4398.589844,4588.717773,4681.153809,4420.256348,4321.410156,,,,,,,,,,,,,,,,,,,,,,,,,,,,,,,,,,,,,,,,,,,,,,,,,,,,,,,,,,,,,,,,,,,,,,
1720086809,99,0,4442.820313,4432.692383,4441.666504,4456.922852,4415.512695,4413.589844,4416.922852,4397.179688,4344.871582,4409.487305,4601.922852,4699.615234,4438.717773,4338.205078,,,,,,,,,,,,,,,,,,,,,,,,,,,,,,,,,,,,,,,,,,,,,,,,,,,,,,,,,,,,,,,,,,,,,,
1720086809,100,0,4460.641113,4452.05127,4462.436035,4479.615234,4424.743652,4412.307617,4429.358887,4399.487305,4342.05127,4409.230957,4614.871582,4717.563965,4455.641113,4357.05127,,,,,,,,,,,,,,,,,,,,,,,,,,,,,,,,,,,,,,,,,,,,,,,,,,,,,,,,,,,,,,,,,,,,,,
1720086809,101,0,4461.025879,4451.538574,4462.307617,4477.94873,4422.436035,4410.641113,4420.384766,4390.897461,4342.94873,4397.307617,4611.410156,4717.307617,4450.256348,4364.615234,,,,,,,,,,,,,,,,,,,,,,,,,,,,,,,,,,,,,,,,,,,,,,,,,,,,,,,,,,,,,,,,,,,,,,
1720086809,102,0,4458.589844,4440.384766,4458.717773,4469.743652,4424.102539,4413.077148,4416.538574,4396.666504,4351.538574,4397.820313,4607.307617,4720.256348,4442.179688,4367.692383,7.516889,1.522868,0.596247,1.145949,0.570688,1.715435,1.372985,0.847319,1.021179,0.69062,2.865459,0.837016,0.893371,0.901356,0.647771,1.812546,1.470538,0.9619,1.503366,1.540715,1.216619,1.457467,0.658272,0.707603,0.944466,1.39709,0.375531,0.763855,1.216988,0.692489,0.996207,0.506922,0.406345,0.242339,0.158919,1.23255,0.588259,0.555822,0.446068,0.273759,1.330958,0.604835,1.650525,0.597858,0.565104,0.559983,0.183854,0.29528,0.148087,0.144704,3.646688,0.690021,1.444447,1.975102,0.938793,4.100864,0.89758,1.15169,1.557418,0.697554,4.43829,0.995382,0.990932,1.469968,0.793748,9.246181,1.21186,3.63308,2.256821,0.930818
1720086809,103,0,4463.717773,4435.512695,4460.256348,4473.846191,4424.743652,4413.846191,4428.461426,4410,4359.615234,4404.487305,4609.230957,4729.743652,4444.230957,4370.384766,,,,,,,,,,,,,,,,,,,,,,,,,,,,,,,,,,,,,,,,,,,,,,,,,,,,,,,,,,,,,,,,,,,,,,
1720086809,104,0,4464.743652,4430.897461,4451.666504,4468.077148,4415.897461,4414.487305,4426.153809,4409.102539,4360.128418,4398.333496,4605.897461,4727.179688,4437.94873,4369.487305,,,,,,,,,,,,,,,,,,,,,,,,,,,,,,,,,,,,,,,,,,,,,,,,,,,,,,,,,,,,,,,,,,,,,,
1720086809,105,0,4453.846191,4416.922852,4434.230957,4448.461426,4407.820313,4410.641113,4410.769043,4413.077148,4347.692383,4391.025879,4599.358887,4720.128418,4425.384766,4365,,,,,,,,,,,,,,,,,,,,,,,,,,,,,,,,,,,,,,,,,,,,,,,,,,,,,,,,,,,,,,,,,,,,,,
1720086809,106,0,4443.974121,4405.641113,4426.282227,4438.717773,4410.641113,4406.922852,4408.077148,4427.179688,4338.077148,4391.282227,4598.846191,4720.512695,4426.025879,4363.205078,,,,,,,,,,,,,,,,,,,,,,,,,,,,,,,,,,,,,,,,,,,,,,,,,,,,,,,,,,,,,,,,,,,,,,
1720086809,107,0,4442.692383,4404.487305,4429.487305,4444.743652,4408.205078,4407.820313,4410.641113,4434.358887,4346.282227,4393.205078,4600.512695,4720,4431.282227,4363.333496,,,,,,,,,,,,,,,,,,,,,,,,,,,,,,,,,,,,,,,,,,,,,,,,,,,,,,,,,,,,,,,,,,,,,,
1720086809,108,0,4444.230957,4403.461426,4426.538574,4446.922852,4398.846191,4401.666504,4403.717773,4428.333496,4353.461426,4393.846191,4600.897461,4714.230957,4430.128418,4360.769043,,,,,,,,,,,,,,,,,,,,,,,,,,,,,,,,,,,,,,,,,,,,,,,,,,,,,,,,,,,,,,,,,,,,,,
1720086809,109,0,4442.820313,4397.563965,4411.794922,4437.436035,4395.128418,4389.358887,4395.769043,4416.410156,4345.128418,4385.384766,4591.025879,4702.563965,4426.410156,4348.589844,,,,,,,,,,,,,,,,,,,,,,,,,,,,,,,,,,,,,,,,,,,,,,,,,,,,,,,,,,,,,,,,,,,,,,
1720086809,110,0,4442.436035,4396.794922,4412.820313,4437.179688,4395.769043,4389.230957,4399.743652,4419.743652,4339.871582,4381.282227,4582.692383,4701.922852,4428.846191,4338.717773,,,,,,,,,,,,,,,,,,,,,,,,,,,,,,,,,,,,,,,,,,,,,,,,,,,,,,,,,,,,,,,,,,,,,,
1720086809,111,0,4443.717773,4403.461426,4427.05127,4445.256348,4402.05127,4395.641113,4407.436035,4421.666504,4339.230957,4388.205078,4587.307617,4706.410156,4428.974121,4341.025879,,,,,,,,,,,,,,,,,,,,,,,,,,,,,,,,,,,,,,,,,,,,,,,,,,,,,,,,,,,,,,,,,,,,,,
1720086809,112,0,4433.717773,4398.589844,4414.487305,4436.410156,4399.615234,4386.025879,4398.589844,4386.538574,4324.743652,4385.897461,4573.461426,4680.897461,4411.025879,4333.333496,,,,,,,,,,,,,,,,,,,,,,,,,,,,,,,,,,,,,,,,,,,,,,,,,,,,,,,,,,,,,,,,,,,,,,
1720086809,113,0,4420.128418,4384.871582,4396.538574,4421.025879,4389.615234,4375.384766,4385.384766,4352.94873,4309.743652,4378.846191,4555.769043,4657.05127,4402.307617,4326.025879,,,,,,,,,,,,,,,,,,,,,,,,,,,,,,,,,,,,,,,,,,,,,,,,,,,,,,,,,,,,,,,,,,,,,,
1720086809,114,0,4417.94873,4383.077148,4404.230957,4425.769043,4387.179688,4379.615234,4391.794922,4362.692383,4310.384766,4382.307617,4563.461426,4667.820313,4412.563965,4339.230957,,,,,,,,,,,,,,,,,,,,,,,,,,,,,,,,,,,,,,,,,,,,,,,,,,,,,,,,,,,,,,,,,,,,,,
1720086809,115,0,4414.615234,4381.410156,4405.256348,4423.974121,4376.410156,4376.666504,4396.538574,4370.769043,4308.205078,4386.153809,4564.358887,4668.333496,4405.512695,4319.230957,,,,,,,,,,,,,,,,,,,,,,,,,,,,,,,,,,,,,,,,,,,,,,,,,,,,,,,,,,,,,,,,,,,,,,
1720086809,116,0,4394.743652,4363.333496,4389.102539,4397.436035,4356.025879,4363.077148,4384.358887,4353.846191,4292.05127,4385.128418,4549.615234,4641.025879,4391.410156,4260.897461,,,,,,,,,,,,,,,,,,,,,,,,,,,,,,,,,,,,,,,,,,,,,,,,,,,,,,,,,,,,,,,,,,,,,,
1720086809,117,0,4369.487305,4346.922852,4380.128418,4381.922852,4345.128418,4356.153809,4373.589844,4345.256348,4282.94873,4386.025879,4552.307617,4623.589844,4396.025879,4233.974121,,,,,,,,,,,,,,,,,,,,,,,,,,,,,,,,,,,,,,,,,,,,,,,,,,,,,,,,,,,,,,,,,,,,,,
1720086809,118,0,4352.307617,4340.641113,4373.589844,4379.871582,4333.974121,4350.384766,4365.512695,4344.358887,4280.641113,4388.717773,4550.897461,4616.282227,4391.025879,4236.794922,12.933202,1.772715,0.7441,1.242146,0.603633,4.492982,1.226869,0.813481,1.094019,0.662385,5.36712,1.021616,1.038245,1.021687,0.676381,4.292645,1.50779,0.875623,1.538897,1.464532,2.724929,1.311987,0.639638,0.763444,0.817082,3.025541,0.614997,1.000548,1.193473,0.643441,2.543061,0.501222,0.516076,0.28363,0.192604,1.591802,0.5201,0.583028,0.508553,0.301687,2.828083,0.703296,1.590223,0.536201,0.607727,1.126022,0.262521,0.314341,0.156113,0.163095,5.926499,0.605361,1.162454,2.143473,0.930866,7.611359,0.849526,1.00688,1.783974,0.755524,7.484857,0.94003,0.891837,1.601236,0.825034,10.777008,2.002582,3.881633,2.574915,0.973757
1720086809,119,0,4348.205078,4340.641113,4366.282227,4374.102539,4322.692383,4338.461426,4354.358887,4337.05127,4268.846191,4390.769043,4525.384766,4604.487305,4369.743652,4228.589844,,,,,,,,,,,,,,,,,,,,,,,,,,,,,,,,,,,,,,,,,,,,,,,,,,,,,,,,,,,,,,,,,,,,,,
1720086809,120,0,4353.974121,4349.871582,4372.820313,4376.922852,4338.333496,4335,4355.256348,4337.94873,4262.179688,4397.436035,4517.05127,4601.666504,4366.410156,4226.025879,,,,,,,,,,,,,,,,,,,,,,,,,,,,,,,,,,,,,,,,,,,,,,,,,,,,,,,,,,,,,,,,,,,,,,
1720086810,121,0,4351.025879,4351.794922,4378.205078,4387.307617,4351.538574,4336.922852,4361.538574,4342.05127,4267.692383,4403.461426,4527.179688,4603.461426,4369.487305,4237.563965,,,,,,,,,,,,,,,,,,,,,,,,,,,,,,,,,,,,,,,,,,,,,,,,,,,,,,,,,,,,,,,,,,,,,,
1720086810,122,0,4330.256348,4330.384766,4357.94873,4367.94873,4323.205078,4327.692383,4347.820313,4326.538574,4263.333496,4400.641113,4509.487305,4586.025879,4350,4235.256348,,,,,,,,,,,,,,,,,,,,,,,,,,,,,,,,,,,,,,,,,,,,,,,,,,,,,,,,,,,,,,,,,,,,,,
1720086810,123,0,4319.358887,4315.641113,4340.128418,4339.487305,4304.230957,4324.743652,4336.922852,4310.769043,4258.974121,4392.94873,4481.538574,4569.743652,4332.179688,4228.846191,,,,,,,,,,,,,,,,,,,,,,,,,,,,,,,,,,,,,,,,,,,,,,,,,,,,,,,,,,,,,,,,,,,,,,
1720086810,124,0,4330.256348,4326.538574,4351.666504,4346.282227,4325.256348,4331.538574,4347.94873,4319.871582,4277.692383,4396.538574,4495.384766,4587.436035,4344.230957,4237.94873,,,,,,,,,,,,,,,,,,,,,,,,,,,,,,,,,,,,,,,,,,,,,,,,,,,,,,,,,,,,,,,,,,,,,,
1720086810,125,0,4330.256348,4328.077148,4355.512695,4353.333496,4330.256348,4330.769043,4350,4325.256348,4292.820313,4401.410156,4503.589844,4597.563965,4348.846191,4234.487305,,,,,,,,,,,,,,,,,,,,,,,,,,,,,,,,,,,,,,,,,,,,,,,,,,,,,,,,,,,,,,,,,,,,,,
1720086810,126,0,4319.743652,4309.102539,4340.769043,4342.307617,4311.410156,4323.846191,4341.794922,4321.282227,4287.94873,4395,4495.384766,4581.282227,4340.256348,4224.615234,,,,,,,,,,,,,,,,,,,,,,,,,,,,,,,,,,,,,,,,,,,,,,,,,,,,,,,,,,,,,,,,,,,,,,
1720086810,127,0,4328.589844,4306.025879,4351.410156,4348.077148,4313.333496,4321.410156,4349.615234,4336.025879,4289.230957,4396.538574,4522.179688,4590,4354.871582,4245.769043,,,,,,,,,,,,,,,,,,,,,,,,,,,,,,,,,,,,,,,,,,,,,,,,,,,,,,,,,,,,,,,,,,,,,,
1720086810,0,0,4336.666504,4311.410156,4363.717773,4350.769043,4316.794922,4326.922852,4359.230957,4344.743652,4297.05127,4398.589844,4527.05127,4599.871582,4360.256348,4255.512695,,,,,,,,,,,,,,,,,,,,,,,,,,,,,,,,,,,,,,,,,,,,,,,,,,,,,,,,,,,,,,,,,,,,,,
1720086810,1,0,4331.282227,4304.358887,4346.153809,4334.102539,4308.333496,4327.436035,4348.846191,4328.589844,4301.538574,4387.692383,4490,4577.563965,4340.897461,4229.358887,,,,,,,,,,,,,,,,,,,,,,,,,,,,,,,,,,,,,,,,,,,,,,,,,,,,,,,,,,,,,,,,,,,,,,
1720086810,2,0,4341.282227,4308.589844,4345.641113,4340.256348,4322.05127,4325.512695,4341.538574,4325.897461,4302.563965,4382.692383,4498.333496,4577.179688,4345.641113,4233.333496,,,,,,,,,,,,,,,,,,,,,,,,,,,,,,,,,,,,,,,,,,,,,,,,,,,,,,,,,,,,,,,,,,,,,,
1720086810,3,0,4360.256348,4323.589844,4366.282227,4360.897461,4339.871582,4328.974121,4342.820313,4338.077148,4298.461426,4388.333496,4531.666504,4597.307617,4361.025879,4261.922852,,,,,,,,,,,,,,,,,,,,,,,,,,,,,,,,,,,,,,,,,,,,,,,,,,,,,,,,,,,,,,,,,,,,,,
1720086810,4,0,4368.077148,4327.436035,4368.205078,4361.666504,4333.846191,4331.922852,4341.025879,4338.333496,4296.922852,4388.846191,4524.102539,4594.102539,4359.871582,4265.512695,,,,,,,,,,,,,,,,,,,,,,,,,,,,,,,,,,,,,,,,,,,,,,,,,,,,,,,,,,,,,,,,,,,,,,
1720086810,5,0,4377.563965,4330.897461,4369.487305,4364.358887,4329.487305,4326.666504,4346.410156,4339.230957,4307.692383,4387.94873,4518.461426,4594.487305,4367.692383,4271.410156,,,,,,,,,,,,,,,,,,,,,,,,,,,,,,,,,,,,,,,,,,,,,,,,,,,,,,,,,,,,,,,,,,,,,,
1720086810,6,0,4384.102539,4333.461426,4377.179688,4376.025879,4336.410156,4322.436035,4350.897461,4346.666504,4314.358887,4388.974121,4526.922852,4603.205078,4370.769043,4288.461426,21.944254,2.296676,1.001988,1.280795,0.608946,9.426957,1.315439,0.861988,1.108962,0.630135,9.554787,1.317346,1.398397,1.111357,0.672056,8.223331,1.676432,0.883698,1.480764,1.310635,5.26625,1.405319,0.720929,0.830252,0.676302,5.883598,1.034604,1.265044,1.121581,0.580957,5.189075,0.584247,0.745541,0.336715,0.236092,2.124277,0.498185,0.639689,0.532695,0.323726,5.272015,1.013544,1.484552,0.500965,0.649372,2.071489,0.406556,0.340822,0.169112,0.186154,10.052919,0.800243,1.063773,2.243836,0.96425,14.504626,1.009624,1.041955,1.900401,0.802661,12.494897,1.155133,0.920669,1.67766,0.855738,13.831868,3.44615,4.821364,2.978609,1.017923
1720086810,7,0,4374.871582,4327.179688,4370.769043,4375.512695,4334.230957,4331.025879,4346.922852,4345.512695,4310,4385.128418,4523.077148,4592.307617,4358.589844,4289.871582,,,,,,,,,,,,,,,,,,,,,,,,,,,,,,,,,,,,,,,,,,,,,,,,,,,,,,,,,,,,,,,,,,,,,,
1720086810,8,0,4368.846191,4323.717773,4363.333496,4362.94873,4327.307617,4333.974121,4343.717773,4340.641113,4309.615234,4386.922852,4524.487305,4580.897461,4363.333496,4296.538574,,,,,,,,,,,,,,,,,,,,,,,,,,,,,,,,,,,,,,,,,,,,,,,,,,,,,,,,,,,,,,,,,,,,,,
1720086810,9,0,4375,4324.871582,4365.769043,4353.205078,4330,4331.538574,4343.077148,4339.743652,4310.897461,4386.666504,4524.615234,4583.077148,4373.461426,4318.077148,,,,,,,,,,,,,,,,,,,,,,,,,,,,,,,,,,,,,,,,,,,,,,,,,,,,,,,,,,,,,,,,,,,,,,
1720086810,10,0,4381.410156,4324.615234,4371.410156,4360.512695,4337.307617,4335.256348,4344.358887,4341.922852,4308.589844,4380.512695,4528.333496,4592.179688,4374.871582,4338.846191,,,,,,,,,,,,,,,,,,,,,,,,,,,,,,,,,,,,,,,,,,,,,,,,,,,,,,,,,,,,,,,,,,,,,,
1720086810,11,0,4380.384766,4321.282227,4375.641113,4368.205078,4336.282227,4333.846191,4352.563965,4345.128418,4302.563965,4378.205078,4538.333496,4598.717773,4379.102539,4357.179688,,,,,,,,,,,,,,,,,,,,,,,,,,,,,,,,,,,,,,,,,,,,,,,,,,,,,,,,,,,,,,,,,,,,,,
1720086810,12,0,4378.589844,4317.820313,4376.025879,4363.077148,4330.641113,4327.179688,4357.692383,4345.512695,4302.179688,4375,4534.615234,4596.153809,4379.743652,4366.153809,,,,,,,,,,,,,,,,,,,,,,,,,,,,,,,,,,,,,,,,,,,,,,,,,,,,,,,,,,,,,,,,,,,,,,
1720086810,13,0,4380.769043,4318.333496,4376.282227,4363.589844,4325.256348,4325.769043,4352.179688,4343.974121,4307.820313,4367.94873,4521.410156,4590.769043,4369.230957,4367.563965,,,,,,,,,,,,,,,,,,,,,,,,,,,,,,,,,,,,,,,,,,,,,,,,,,,,,,,,,,,,,,,,,,,,,,
1720086810,14,0,4381.666504,4320.641113,4376.922852,4366.666504,4325.512695,4327.820313,4348.461426,4345.128418,4302.179688,4363.077148,4521.794922,4590.384766,4363.717773,4374.871582,,,,,,,,,,,,,,,,,,,,,,,,,,,,,,,,,,,,,,,,,,,,,,,,,,,,,,,,,,,,,,,,,,,,,,
1720086810,15,0,4382.436035,4319.615234,4376.025879,4362.179688,4339.743652,4330.512695,4352.820313,4347.563965,4294.230957,4362.179688,4532.94873,4592.94873,4370.128418,4390,,,,,,,,,,,,,,,,,,,,,,,,,,,,,,,,,,,,,,,,,,,,,,,,,,,,,,,,,,,,,,,,,,,,,,
1720086810,16,0,4379.743652,4315.384766,4370.769043,4356.666504,4341.410156,4334.102539,4352.05127,4341.282227,4303.846191,4361.025879,4521.666504,4582.692383,4366.666504,4394.487305,,,,,,,,,,,,,,,,,,,,,,,,,,,,,,,,,,,,,,,,,,,,,,,,,,,,,,,,,,,,,,,,,,,,,,
1720086810,17,0,4374.102539,4306.666504,4360.256348,4353.077148,4322.94873,4325.897461,4343.717773,4330.256348,4310.256348,4355.256348,4497.563965,4561.794922,4351.282227,4382.692383,,,,,,,,,,,,,,,,,,,,,,,,,,,,,,,,,,,,,,,,,,,,,,,,,,,,,,,,,,,,,,,,,,,,,,
1720086810,18,0,4378.589844,4307.307617,4356.153809,4356.410156,4321.410156,4317.436035,4344.871582,4330,4299.358887,4347.436035,4498.974121,4556.410156,4346.922852,4378.846191,,,,,,,,,,,,,,,,,,,,,,,,,,,,,,,,,,,,,,,,,,,,,,,,,,,,,,,,,,,,,,,,,,,,,,
1720086810,19,0,4381.153809,4313.333496,4358.974121,4360.769043,4329.230957,4322.94873,4350.512695,4334.743652,4294.358887,4346.153809,4506.794922,4557.820313,4348.333496,4383.589844,,,,,,,,,,,,,,,,,,,,,,,,,,,,,,,,,,,,,,,,,,,,,,,,,,,,,,,,,,,,,,,,,,,,,,
1720086810,20,0,4368.205078,4301.666504,4351.666504,4349.358887,4322.94873,4326.922852,4344.615234,4331.025879,4301.794922,4347.563965,4491.410156,4544.871582,4338.846191,4381.282227,,,,,,,,,,,,,,,,,,,,,,,,,,,,,,,,,,,,,,,,,,,,,,,,,,,,,,,,,,,,,,,,,,,,,,
1720086810,21,0,4359.358887,4289.102539,4338.461426,4341.282227,4320.769043,4322.94873,4340,4328.333496,4305.769043,4345.384766,4484.615234,4534.743652,4334.743652,4381.538574,,,,,,,,,,,,,,,,,,,,,,,,,,,,,,,,,,,,,,,,,,,,,,,,,,,,,,,,,,,,,,,,,,,,,,
1720086810,22,0,4364.743652,4292.820313,4340.256348,4353.717773,4322.436035,4314.871582,4343.589844,4331.538574,4306.794922,4347.05127,4495.641113,4538.589844,4338.974121,4393.846191,33.136257,2.952839,1.317655,1.244537,0.589294,15.83183,1.562846,1.005424,1.071138,0.602682,14.670805,1.650913,1.928941,1.16339,0.643162,12.786327,1.935525,0.99757,1.359093,1.118493,8.359932,1.712511,0.887385,0.901006,0.564854,9.435871,1.568971,1.496014,1.016675,0.516177,8.47701,0.740616,1.028319,0.392835,0.284654,3.058307,0.539674,0.716649,0.514568,0.338852,8.312963,1.463455,1.374116,0.490993,0.6753,3.287869,0.590985,0.374212,0.184089,0.209352,15.304983,1.187996,1.151219,2.250437,1.02995,23.675325,1.297803,1.258985,1.880011,0.83874,18.523806,1.56576,1.085084,1.682971,0.875263,16.081339,5.18842,6.022058,3.394079,1.025639
1720086810,23,0,4367.692383,4295.512695,4348.077148,4358.589844,4319.871582,4310.256348,4340,4328.077148,4308.846191,4344.487305,4491.922852,4540.769043,4337.820313,4407.307617,,,,,,,,,,,,,,,,,,,,,,,,,,,,,,,,,,,,,,,,,,,,,,,,,,,,,,,,,,,,,,,,,,,,,,
1720086810,24,0,4370.641113,4295.384766,4353.846191,4355.769043,4323.717773,4309.230957,4337.05127,4323.846191,4310.641113,4341.025879,4489.871582,4544.358887,4341.282227,4422.563965,,,,,,,,,,,,,,,,,,,,,,,,,,,,,,,,,,,,,,,,,,,,,,,,,,,,,,,,,,,,,,,,,,,,,,
1720086810,25,0,4372.436035,4297.05127,4356.794922,4359.102539,4322.563965,4302.179688,4341.410156,4322.307617,4306.794922,4345.512695,4496.794922,4549.102539,4345.769043,4434.487305,,,,,,,,,,,,,,,,,,,,,,,,,,,,,,,,,,,,,,,,,,,,,,,,,,,,,,,,,,,,,,,,,,,,,,
1720086810,26,0,4364.102539,4289.871582,4350,4350.512695,4312.05127,4304.871582,4340.641113,4316.282227,4303.589844,4341.410156,4492.692383,4541.922852,4340.512695,4427.307617,,,,,,,,,,,,,,,,,,,,,,,,,,,,,,,,,,,,,,,,,,,,,,,,,,,,,,,,,,,,,,,,,,,,,,
1720086810,27,0,4362.692383,4284.358887,4352.820313,4341.025879,4311.666504,4313.077148,4341.153809,4321.282227,4314.102539,4339.487305,4500.769043,4552.05127,4347.179688,4428.589844,,,,,,,,,,,,,,,,,,,,,,,,,,,,,,,,,,,,,,,,,,,,,,,,,,,,,,,,,,,,,,,,,,,,,,
1720086810,28,0,4366.794922,4290.128418,4362.307617,4349.743652,4322.563965,4303.205078,4345.769043,4331.922852,4320.641113,4346.538574,4514.871582,4572.692383,4357.307617,4437.436035,,,,,,,,,,,,,,,,,,,,,,,,,,,,,,,,,,,,,,,,,,,,,,,,,,,,,,,,,,,,,,,,,,,,,,
1720086810,29,0,4359.102539,4290.897461,4350,4354.102539,4327.563965,4297.436035,4342.820313,4326.282227,4304.487305,4342.563965,4493.205078,4557.692383,4340.512695,4419.358887,,,,,,,,,,,,,,,,,,,,,,,,,,,,,,,,,,,,,,,,,,,,,,,,,,,,,,,,,,,,,,,,,,,,,,
1720086810,30,0,4353.589844,4289.743652,4338.846191,4355.128418,4326.025879,4315,4338.717773,4320.384766,4290.128418,4338.205078,4471.025879,4537.05127,4322.692383,4402.05127,,,,,,,,,,,,,,,,,,,,,,,,,,,,,,,,,,,,,,,,,,,,,,,,,,,,,,,,,,,,,,,,,,,,,,
1720086810,31,0,4363.846191,4298.974121,4352.436035,4375.897461,4328.717773,4310.384766,4345.769043,4330.128418,4296.922852,4347.307617,4486.282227,4546.282227,4328.333496,4409.230957,,,,,,,,,,,,,,,,,,,,,,,,,,,,,,,,,,,,,,,,,,,,,,,,,,,,,,,,,,,,,,,,,,,,,,
1720086810,32,0,4365.256348,4308.077148,4358.589844,4385.769043,4326.153809,4289.230957,4348.589844,4333.077148,4298.589844,4347.94873,4491.922852,4547.820313,4332.563965,4411.282227,,,,,,,,,,,,,,,,,,,,,,,,,,,,,,,,,,,,,,,,,,,,,,,,,,,,,,,,,,,,,,,,,,,,,,
1720086810,33,0,4346.922852,4299.230957,4341.153809,4363.077148,4313.461426,4301.153809,4336.153809,4320.384766,4280.769043,4341.025879,4475,4525.897461,4325.384766,4401.153809,,,,,,,,,,,,,,,,,,,,,,,,,,,,,,,,,,,,,,,,,,,,,,,,,,,,,,,,,,,,,,,,,,,,,,
1720086810,34,0,4334.102539,4282.94873,4324.871582,4342.05127,4307.307617,4313.333496,4324.358887,4308.461426,4270.897461,4344.487305,4466.794922,4509.230957,4316.153809,4396.025879,,,,,,,,,,,,,,,,,,,,,,,,,,,,,,,,,,,,,,,,,,,,,,,,,,,,,,,,,,,,,,,,,,,,,,
1720086810,35,0,4337.692383,4284.871582,4322.94873,4348.333496,4311.794922,4299.358887,4325.769043,4308.077148,4277.436035,4348.974121,4459.615234,4504.358887,4306.794922,4392.179688,,,,,,,,,,,,,,,,,,,,,,,,,,,,,,,,,,,,,,,,,,,,,,,,,,,,,,,,,,,,,,,,,,,,,,
1720086810,36,0,4347.692383,4300.512695,4336.794922,4366.410156,4311.794922,4290.641113,4333.333496,4317.820313,4281.153809,4352.563965,4458.846191,4510.256348,4310.256348,4394.358887,,,,,,,,,,,,,,,,,,,,,,,,,,,,,,,,,,,,,,,,,,,,,,,,,,,,,,,,,,,,,,,,,,,,,,
1720086810,37,0,4345,4298.461426,4343.589844,4363.589844,4310,4293.846191,4334.358887,4321.922852,4279.615234,4352.05127,4473.846191,4517.692383,4320.384766,4403.205078,,,,,,,,,,,,,,,,,,,,,,,,,,,,,,,,,,,,,,,,,,,,,,,,,,,,,,,,,,,,,,,,,,,,,,
1720086810,38,0,4331.922852,4281.538574,4328.974121,4341.666504,4311.794922,4297.820313,4328.846191,4316.922852,4279.871582,4346.538574,4477.692383,4511.282227,4318.717773,4399.743652,43.548149,3.539255,1.618624,1.150743,0.55304,22.168161,1.852986,1.226019,1.004901,0.58367,19.287098,1.94654,2.491269,1.182839,0.604325,16.697702,2.211079,1.19637,1.221912,0.931002,11.177376,2.110125,1.085441,0.962955,0.505546,12.69222,2.082747,1.621708,0.897169,0.454368,11.49034,0.939826,1.265106,0.440344,0.329786,4.569188,0.672532,0.797802,0.472238,0.351323,11.334999,1.926698,1.278994,0.494151,0.66936,4.541558,0.770623,0.404486,0.197229,0.225898,20.21884,1.654289,1.338235,2.160117,1.103727,32.988884,1.613633,1.562255,1.741826,0.863064,23.886015,2.053802,1.32508,1.621481,0.873169,17.265196,6.740646,6.99429,3.726618,0.9818
1720086810,39,0,4330.512695,4278.717773,4325.384766,4338.205078,4310.769043,4297.436035,4325.384766,4318.974121,4279.743652,4348.974121,4470.897461,4511.538574,4317.307617,4396.025879,,,,,,,,,,,,,,,,,,,,,,,,,,,,,,,,,,,,,,,,,,,,,,,,,,,,,,,,,,,,,,,,,,,,,,
1720086810,40,0,4339.615234,4286.666504,4340.512695,4353.205078,4309.230957,4299.358887,4326.794922,4328.846191,4284.230957,4351.922852,4477.179688,4525.128418,4326.153809,4403.717773,,,,,,,,,,,,,,,,,,,,,,,,,,,,,,,,,,,,,,,,,,,,,,,,,,,,,,,,,,,,,,,,,,,,,,
1720086810,41,0,4336.410156,4281.922852,4340.641113,4352.179688,4308.974121,4304.743652,4328.333496,4334.743652,4292.307617,4347.820313,4481.282227,4529.487305,4327.307617,4407.05127,,,,,,,,,,,,,,,,,,,,,,,,,,,,,,,,,,,,,,,,,,,,,,,,,,,,,,,,,,,,,,,,,,,,,,
1720086810,42,0,4326.666504,4277.563965,4331.025879,4348.077148,4310.256348,4305.641113,4329.102539,4334.871582,4287.436035,4345.256348,4472.436035,4525.512695,4318.077148,4399.487305,,,,,,,,,,,,,,,,,,,,,,,,,,,,,,,,,,,,,,,,,,,,,,,,,,,,,,,,,,,,,,,,,,,,,,
1720086810,43,0,4320.641113,4278.589844,4322.692383,4350.256348,4309.871582,4302.692383,4326.538574,4329.743652,4276.282227,4344.487305,4455.384766,4510.769043,4303.077148,4386.153809,,,,,,,,,,,,,,,,,,,,,,,,,,,,,,,,,,,,,,,,,,,,,,,,,,,,,,,,,,,,,,,,,,,,,,
1720086810,44,0,4312.563965,4269.743652,4311.282227,4331.538574,4311.538574,4308.333496,4320.256348,4323.077148,4275.769043,4342.692383,4441.153809,4491.538574,4292.05127,4375,,,,,,,,,,,,,,,,,,,,,,,,,,,,,,,,,,,,,,,,,,,,,,,,,,,,,,,,,,,,,,,,,,,,,,
1720086810,45,0,4316.538574,4265.641113,4313.846191,4318.461426,4320.897461,4316.025879,4321.922852,4325,4280.641113,4343.333496,4447.436035,4494.615234,4300.128418,4376.538574,,,,,,,,,,,,,,,,,,,,,,,,,,,,,,,,,,,,,,,,,,,,,,,,,,,,,,,,,,,,,,,,,,,,,,
1720086810,46,0,4329.615234,4278.846191,4327.94873,4335.897461,4327.820313,4310.256348,4326.666504,4329.743652,4281.666504,4343.461426,4463.974121,4504.487305,4313.077148,4389.102539,,,,,,,,,,,,,,,,,,,,,,,,,,,,,,,,,,,,,,,,,,,,,,,,,,,,,,,,,,,,,,,,,,,,,,
1720086810,47,0,4320.512695,4283.205078,4324.743652,4342.307617,4322.436035,4308.077148,4319.871582,4325.641113,4276.666504,4342.563965,4464.615234,4495.384766,4311.282227,4394.230957,,,,,,,,,,,,,,,,,,,,,,,,,,,,,,,,,,,,,,,,,,,,,,,,,,,,,,,,,,,,,,,,,,,,,,
1720086810,48,0,4307.05127,4271.282227,4315.384766,4326.666504,4317.820313,4311.922852,4311.282227,4314.487305,4267.94873,4341.025879,4449.871582,4482.307617,4303.461426,4386.025879,,,,,,,,,,,,,,,,,,,,,,,,,,,,,,,,,,,,,,,,,,,,,,,,,,,,,,,,,,,,,,,,,,,,,,
1720086810,49,0,4320.897461,4272.436035,4323.333496,4330.641113,4321.922852,4297.94873,4312.307617,4306.153809,4260.128418,4336.538574,4449.102539,4483.846191,4306.153809,4381.794922,,,,,,,,,,,,,,,,,,,,,,,,,,,,,,,,,,,,,,,,,,,,,,,,,,,,,,,,,,,,,,,,,,,,,,
1720086810,50,0,4330.769043,4281.794922,4330.128418,4341.666504,4315.384766,4283.461426,4311.794922,4305.384766,4251.025879,4337.820313,4461.794922,4491.666504,4313.846191,4386.538574,,,,,,,,,,,,,,,,,,,,,,,,,,,,,,,,,,,,,,,,,,,,,,,,,,,,,,,,,,,,,,,,,,,,,,
1720086810,51,0,4314.230957,4272.436035,4324.102539,4329.102539,4297.820313,4292.692383,4311.282227,4303.589844,4246.282227,4342.94873,4458.077148,4488.717773,4310.769043,4381.666504,,,,,,,,,,,,,,,,,,,,,,,,,,,,,,,,,,,,,,,,,,,,,,,,,,,,,,,,,,,,,,,,,,,,,,
1720086810,52,0,4305.897461,4258.461426,4323.077148,4317.94873,4288.717773,4305.641113,4318.717773,4302.692383,4256.922852,4343.974121,4447.436035,4483.205078,4301.794922,4364.615234,,,,,,,,,,,,,,,,,,,,,,,,,,,,,,,,,,,,,,,,,,,,,,,,,,,,,,,,,,,,,,,,,,,,,,
1720086810,53,0,4317.05127,4266.153809,4328.205078,4326.410156,4292.820313,4298.717773,4323.077148,4307.05127,4264.743652,4348.205078,4453.589844,4487.820313,4302.307617,4356.025879,,,,,,,,,,,,,,,,,,,,,,,,,,,,,,,,,,,,,,,,,,,,,,,,,,,,,,,,,,,,,,,,,,,,,,
1720086810,54,0,4326.153809,4279.743652,4327.307617,4330.897461,4301.410156,4291.282227,4319.871582,4307.05127,4256.666504,4351.410156,4462.307617,4489.615234,4310,4359.358887,49.890202,3.849823,1.823745,1.032543,0.509359,26.631508,2.083649,1.471913,0.935105,0.569721,21.901718,2.142139,2.909938,1.173829,0.568829,18.821871,2.414861,1.430967,1.108907,0.778948,12.935857,2.442785,1.253331,1.000547,0.494981,14.599051,2.419713,1.589119,0.77556,0.396508,13.236645,1.137758,1.37102,0.467246,0.361442,6.514877,0.900297,0.861741,0.430674,0.365101,13.662542,2.268737,1.195154,0.494743,0.624351,5.462764,0.897417,0.414407,0.204549,0.229273,23.257877,2.092942,1.503769,1.978478,1.157739,39.846474,1.904583,1.816789,1.529699,0.872325,26.881899,2.501965,1.550385,1.504345,0.842612,17.825577,7.728065,7.425408,3.888651,0.898363
1720086810,55,0,4327.05127,4272.179688,4324.871582,4326.153809,4302.692383,4296.025879,4319.615234,4303.974121,4254.743652,4351.666504,4459.487305,4488.461426,4313.333496,4367.436035,,,,,,,,,,,,,,,,,,,,,,,,,,,,,,,,,,,,,,,,,,,,,,,,,,,,,,,,,,,,,,,,,,,,,,
1720086810,56,0,4324.102539,4262.94873,4327.94873,4325.512695,4298.974121,4296.794922,4325,4306.922852,4267.692383,4355.384766,4461.025879,4494.743652,4315.641113,4375.384766,,,,,,,,,,,,,,,,,,,,,,,,,,,,,,,,,,,,,,,,,,,,,,,,,,,,,,,,,,,,,,,,,,,,,,
1720086810,57,0,4319.487305,4269.743652,4327.94873,4328.717773,4295.384766,4295.769043,4324.615234,4307.05127,4270.769043,4356.794922,4463.333496,4496.794922,4316.282227,4375.128418,,,,,,,,,,,,,,,,,,,,,,,,,,,,,,,,,,,,,,,,,,,,,,,,,,,,,,,,,,,,,,,,,,,,,,
1720086810,58,0,4321.538574,4275.128418,4326.666504,4326.666504,4291.410156,4295.384766,4317.820313,4302.05127,4263.974121,4354.230957,4460.384766,4492.307617,4311.153809,4379.743652,,,,,,,,,,,,,,,,,,,,,,,,,,,,,,,,,,,,,,,,,,,,,,,,,,,,,,,,,,,,,,,,,,,,,,
1720086810,59,0,4335.128418,4275.384766,4331.922852,4324.743652,4288.589844,4295.769043,4314.230957,4302.179688,4269.487305,4355.256348,4460.897461,4497.179688,4311.282227,4397.307617,,,,,,,,,,,,,,,,,,,,,,,,,,,,,,,,,,,,,,,,,,,,,,,,,,,,,,,,,,,,,,,,,,,,,,
1720086810,60,0,4343.717773,4273.077148,4329.615234,4326.025879,4291.538574,4293.461426,4312.94873,4298.974121,4276.538574,4352.692383,4451.282227,4493.717773,4309.230957,4393.974121,,,,,,,,,,,,,,,,,,,,,,,,,,,,,,,,,,,,,,,,,,,,,,,,,,,,,,,,,,,,,,,,,,,,,,
1720086810,61,0,4340.512695,4265.769043,4319.102539,4325.641113,4293.589844,4281.538574,4307.692383,4286.922852,4263.461426,4342.436035,4429.871582,4471.410156,4290.512695,4369.102539,,,,,,,,,,,,,,,,,,,,,,,,,,,,,,,,,,,,,,,,,,,,,,,,,,,,,,,,,,,,,,,,,,,,,,
1720086810,62,0,4341.922852,4261.153809,4317.307617,4318.077148,4282.692383,4272.436035,4300.512695,4278.846191,4246.282227,4335.769043,4422.05127,4460.769043,4276.025879,4364.487305,,,,,,,,,,,,,,,,,,,,,,,,,,,,,,,,,,,,,,,,,,,,,,,,,,,,,,,,,,,,,,,,,,,,,,
1720086810,63,0,4353.717773,4258.717773,4320.512695,4308.461426,4277.563965,4277.820313,4298.333496,4277.307617,4245.256348,4332.820313,4429.102539,4467.179688,4280.897461,4382.436035,,,,,,,,,,,,,,,,,,,,,,,,,,,,,,,,,,,,,,,,,,,,,,,,,,,,,,,,,,,,,,,,,,,,,,
1720086810,64,0,4375.512695,4263.846191,4330,4318.461426,4286.025879,4288.461426,4306.538574,4284.358887,4258.205078,4337.05127,4439.615234,4482.820313,4297.05127,4409.871582,,,,,,,,,,,,,,,,,,,,,,,,,,,,,,,,,,,,,,,,,,,,,,,,,,,,,,,,,,,,,,,,,,,,,,
1720086810,65,0,4406.666504,4292.307617,4355.897461,4346.025879,4295.641113,4293.846191,4317.94873,4297.436035,4276.666504,4347.820313,4457.94873,4503.974121,4321.025879,4449.615234,,,,,,,,,,,,,,,,,,,,,,,,,,,,,,,,,,,,,,,,,,,,,,,,,,,,,,,,,,,,,,,,,,,,,,
1720086810,66,0,4428.974121,4312.05127,4370.897461,4355.128418,4298.846191,4295.256348,4317.820313,4301.025879,4282.307617,4347.820313,4469.743652,4511.025879,4331.666504,4479.487305,,,,,,,,,,,,,,,,,,,,,,,,,,,,,,,,,,,,,,,,,,,,,,,,,,,,,,,,,,,,,,,,,,,,,,
1720086810,67,0,4436.025879,4300.384766,4360.641113,4344.230957,4293.717773,4292.436035,4310,4293.461426,4268.077148,4341.922852,4460.641113,4503.077148,4316.922852,4483.205078,,,,,,,,,,,,,,,,,,,,,,,,,,,,,,,,,,,,,,,,,,,,,,,,,,,,,,,,,,,,,,,,,,,,,,
1720086810,68,0,4441.538574,4293.589844,4353.333496,4341.025879,4290.128418,4291.410156,4307.307617,4287.563965,4259.871582,4342.307617,4451.410156,4498.461426,4308.333496,4490.384766,,,,,,,,,,,,,,,,,,,,,,,,,,,,,,,,,,,,,,,,,,,,,,,,,,,,,,,,,,,,,,,,,,,,,,
1720086810,69,0,4451.282227,4304.358887,4359.743652,4342.563965,4290.769043,4292.179688,4308.077148,4290.256348,4269.743652,4344.487305,4457.307617,4500.897461,4321.153809,4520.384766,,,,,,,,,,,,,,,,,,,,,,,,,,,,,,,,,,,,,,,,,,,,,,,,,,,,,,,,,,,,,,,,,,,,,,
1720086810,70,0,4463.461426,4309.487305,4363.461426,4339.487305,4293.461426,4287.692383,4309.743652,4296.410156,4276.025879,4343.846191,4472.692383,4509.615234,4331.666504,4548.461426,50.30545,3.772774,1.885521,0.917783,0.465601,27.685074,2.19392,1.675516,0.872561,0.553055,21.647251,2.217744,3.04886,1.133699,0.544101,18.588308,2.472963,1.644522,1.038258,0.674109,13.179856,2.589891,1.347822,0.997926,0.510448,14.56581,2.471186,1.391009,0.654883,0.344545,13.116687,1.282712,1.303281,0.465601,0.372396,8.857172,1.18939,0.892653,0.407671,0.380969,14.807221,2.398291,1.099668,0.483756,0.549426,5.778726,0.940915,0.390927,0.203376,0.21679,23.559715,2.421802,1.550472,1.728858,1.173803,42.241543,2.188272,1.908961,1.292614,0.863727,26.520065,2.812098,1.671314,1.347378,0.783607,17.652758,8.047803,7.209848,3.82306,0.800008
1720086810,71,0,4473.974121,4309.487305,4365.128418,4342.692383,4292.179688,4290.256348,4311.538574,4301.153809,4268.461426,4343.077148,4480.512695,4522.563965,4333.205078,4561.538574,,,,,,,,,,,,,,,,,,,,,,,,,,,,,,,,,,,,,,,,,,,,,,,,,,,,,,,,,,,,,,,,,,,,,,
1720086810,72,0,4478.846191,4316.025879,4372.692383,4352.820313,4294.102539,4295.256348,4311.666504,4301.538574,4265.897461,4344.230957,4476.153809,4523.846191,4333.589844,4566.666504,,,,,,,,,,,,,,,,,,,,,,,,,,,,,,,,,,,,,,,,,,,,,,,,,,,,,,,,,,,,,,,,,,,,,,
1720086810,73,0,4490.897461,4326.922852,4382.692383,4361.153809,4304.615234,4286.794922,4312.94873,4295.384766,4271.410156,4345.769043,4476.153809,4520.897461,4337.307617,4564.230957,,,,,,,,,,,,,,,,,,,,,,,,,,,,,,,,,,,,,,,,,,,,,,,,,,,,,,,,,,,,,,,,,,,,,,
1720086810,74,0,4504.487305,4332.692383,4387.307617,4362.94873,4303.846191,4281.153809,4313.205078,4285.512695,4269.871582,4345.256348,4484.358887,4526.538574,4345.384766,4557.179688,,,,,,,,,,,,,,,,,,,,,,,,,,,,,,,,,,,,,,,,,,,,,,,,,,,,,,,,,,,,,,,,,,,,,,
1720086810,75,0,4499.871582,4327.820313,4382.307617,4352.307617,4292.94873,4293.205078,4308.589844,4273.333496,4261.538574,4343.717773,4478.717773,4520.256348,4344.102539,4552.179688,,,,,,,,,,,,,,,,,,,,,,,,,,,,,,,,,,,,,,,,,,,,,,,,,,,,,,,,,,,,,,,,,,,,,,
1720086810,76,0,4495.641113,4320.769043,4377.563965,4342.563965,4291.153809,4297.05127,4305.641113,4264.102539,4261.282227,4344.615234,4466.282227,4506.153809,4335.384766,4546.794922,,,,,,,,,,,,,,,,,,,,,,,,,,,,,,,,,,,,,,,,,,,,,,,,,,,,,,,,,,,,,,,,,,,,,,
1720086810,77,0,4508.077148,4326.794922,4387.692383,4353.077148,4296.666504,4287.307617,4308.461426,4265.256348,4265.897461,4343.974121,4479.358887,4511.282227,4342.94873,4554.743652,,,,,,,,,,,,,,,,,,,,,,,,,,,,,,,,,,,,,,,,,,,,,,,,,,,,,,,,,,,,,,,,,,,,,,
