Timestamp,EEG.Counter,EEG.Interpolated,EEG.AF3,EEG.F7,EEG.F3,EEG.FC5,EEG.T7,EEG.P7,EEG.O1,EEG.O2,EEG.P8,EEG.T8,EEG.FC6,EEG.F4,EEG.F8,EEG.AF4,POW.AF3.Theta,POW.AF3.Alpha,POW.AF3.BetaL,POW.AF3.BetaH,POW.AF3.Gamma,POW.F7.Theta,POW.F7.Alpha,POW.F7.BetaL,POW.F7.BetaH,POW.F7.Gamma,POW.F3.Theta,POW.F3.Alpha,POW.F3.BetaL,POW.F3.BetaH,POW.F3.Gamma,POW.FC5.Theta,POW.FC5.Alpha,POW.FC5.BetaL,POW.FC5.BetaH,POW.FC5.Gamma,POW.T7.Theta,POW.T7.Alpha,POW.T7.BetaL,POW.T7.BetaH,POW.T7.Gamma,POW.P7.Theta,POW.P7.Alpha,POW.P7.BetaL,POW.P7.BetaH,POW.P7.Gamma,POW.O1.Theta,POW.O1.Alpha,POW.O1.BetaL,POW.O1.BetaH,POW.O1.Gamma,POW.O2.Theta,POW.O2.Alpha,POW.O2.BetaL,POW.O2.BetaH,POW.O2.Gamma,POW.P8.Theta,POW.P8.Alpha,POW.P8.BetaL,POW.P8.BetaH,POW.P8.Gamma,POW.T8.Theta,POW.T8.Alpha,POW.T8.BetaL,POW.T8.BetaH,POW.T8.Gamma,POW.FC6.Theta,POW.FC6.Alpha,POW.FC6.BetaL,POW.FC6.BetaH,POW.FC6.Gamma,POW.F4.Theta,POW.F4.Alpha,POW.F4.BetaL,POW.F4.BetaH,POW.F4.Gamma,POW.F8.Theta,POW.F8.Alpha,POW.F8.BetaL,POW.F8.BetaH,POW.F8.Gamma,POW.AF4.Theta,POW.AF4.Alpha,POW.AF4.BetaL,POW.AF4.BetaH,POW.AF4.Gamma
1720524465,79,0,4321.538574,4252.307617,4238.589844,4315.641113,4247.692383,4223.717773,4230.897461,4241.538574,4202.179688,4210.769043,4462.436035,4382.692383,4323.717773,4369.487305,,,,,,,,,,,,,,,,,,,,,,,,,,,,,,,,,,,,,,,,,,,,,,,,,,,,,,,,,,,,,,,,,,,,,,
1720524465,80,0,4342.94873,4265.769043,4262.307617,4334.615234,4251.025879,4226.538574,4232.820313,4244.487305,4202.563965,4216.410156,4475.512695,4401.666504,4337.94873,4400.769043,,,,,,,,,,,,,,,,,,,,,,,,,,,,,,,,,,,,,,,,,,,,,,,,,,,,,,,,,,,,,,,,,,,,,,
1720524465,81,0,4352.436035,4267.692383,4271.153809,4337.820313,4255.128418,4224.743652,4230.512695,4240.256348,4203.205078,4221.282227,4478.461426,4408.974121,4343.205078,4420.384766,,,,,,,,,,,,,,,,,,,,,,,,,,,,,,,,,,,,,,,,,,,,,,,,,,,,,,,,,,,,,,,,,,,,,,
1720524465,82,0,4343.589844,4263.846191,4259.487305,4330.256348,4259.230957,4223.589844,4227.692383,4231.922852,4191.666504,4212.307617,4471.538574,4403.205078,4334.615234,4419.743652,,,,,,,,,,,,,,,,,,,,,,,,,,,,,,,,,,,,,,,,,,,,,,,,,,,,,,,,,,,,,,,,,,,,,,
1720524465,83,0,4339.358887,4264.230957,4256.153809,4330.897461,4261.922852,4230.897461,4231.666504,4239.615234,4182.436035,4201.538574,4469.743652,4404.487305,4327.820313,4423.333496,,,,,,,,,,,,,,,,,,,,,,,,,,,,,,,,,,,,,,,,,,,,,,,,,,,,,,,,,,,,,,,,,,,,,,
1720524465,84,0,4334.871582,4258.717773,4248.077148,4326.282227,4262.94873,4238.589844,4232.436035,4240.512695,4185.256348,4199.743652,4467.436035,4399.102539,4329.230957,4430,,,,,,,,,,,,,,,,,,,,,,,,,,,,,,,,,,,,,,,,,,,,,,,,,,,,,,,,,,,,,,,,,,,,,,
1720524465,85,0,4315.769043,4245.512695,4224.230957,4310.384766,4258.205078,4234.102539,4228.589844,4234.358887,4184.615234,4199.871582,4455.256348,4381.666504,4323.333496,4433.077148,,,,,,,,,,,,,,,,,,,,,,,,,,,,,,,,,,,,,,,,,,,,,,,,,,,,,,,,,,,,,,,,,,,,,,
1720524465,86,0,4312.563965,4244.615234,4218.846191,4305.384766,4256.282227,4231.410156,4230.128418,4242.94873,4187.307617,4205,4458.717773,4378.974121,4322.820313,4446.282227,,,,,,,,,,,,,,,,,,,,,,,,,,,,,,,,,,,,,,,,,,,,,,,,,,,,,,,,,,,,,,,,,,,,,,
1720524465,87,0,4327.563965,4251.794922,4234.230957,4315.128418,4258.333496,4233.461426,4232.820313,4248.205078,4200,4218.461426,4475.897461,4386.794922,4337.563965,4459.615234,,,,,,,,,,,,,,,,,,,,,,,,,,,,,,,,,,,,,,,,,,,,,,,,,,,,,,,,,,,,,,,,,,,,,,
1720524465,88,0,4321.538574,4251.282227,4237.692383,4317.179688,4253.846191,4223.846191,4231.538574,4245.128418,4203.846191,4220.128418,4474.615234,4385.897461,4341.282227,4456.153809,,,,,,,,,,,,,,,,,,,,,,,,,,,,,,,,,,,,,,,,,,,,,,,,,,,,,,,,,,,,,,,,,,,,,,
1720524465,89,0,4305.769043,4244.487305,4224.743652,4307.692383,4243.589844,4213.589844,4228.461426,4241.666504,4197.307617,4213.077148,4458.717773,4374.871582,4327.179688,4444.102539,,,,,,,,,,,,,,,,,,,,,,,,,,,,,,,,,,,,,,,,,,,,,,,,,,,,,,,,,,,,,,,,,,,,,,
1720524465,90,0,4313.974121,4242.307617,4224.871582,4305.384766,4240.897461,4220.641113,4227.692383,4244.230957,4202.05127,4217.94873,4456.794922,4375.256348,4322.179688,4443.333496,,,,,,,,,,,,,,,,,,,,,,,,,,,,,,,,,,,,,,,,,,,,,,,,,,,,,,,,,,,,,,,,,,,,,,
1720524465,91,0,4328.846191,4249.615234,4243.205078,4312.436035,4246.025879,4235.256348,4231.410156,4248.717773,4217.436035,4225.512695,4464.487305,4390,4329.487305,4453.974121,2.840937,4.066858,1.371019,0.663999,0.213916,2.77423,1.96401,1.198869,0.486919,0.22093,2.835282,3.570738,1.489992,0.64366,0.25449,0.873168,1.869408,1.001648,0.548111,0.239686,0.79151,0.625837,0.275811,0.315337,0.253715,1.032868,2.220198,1.055433,0.292333,0.109064,2.116933,3.002863,0.70333,0.458735,0.117735,0.91163,1.403061,0.347839,0.276452,0.254911,2.572309,4.412144,0.824197,0.668717,0.20308,1.353536,2.88885,0.894003,1.265867,0.518776,2.941471,4.643722,1.811662,1.134375,0.352062,3.416822,2.640822,1.610656,0.87548,0.3086,3.588514,3.952995,1.359753,0.882796,0.241418,12.199235,4.336055,2.315376,0.759119,0.21885
1720524465,92,0,4328.717773,4258.461426,4254.230957,4313.333496,4249.358887,4237.05127,4236.282227,4247.820313,4218.205078,4214.102539,4464.615234,4398.589844,4329.487305,4460.769043,,,,,,,,,,,,,,,,,,,,,,,,,,,,,,,,,,,,,,,,,,,,,,,,,,,,,,,,,,,,,,,,,,,,,,
1720524465,93,0,4327.05127,4258.846191,4252.820313,4307.820313,4246.538574,4234.358887,4233.846191,4245.769043,4205,4204.743652,4459.102539,4396.794922,4323.461426,4460.256348,,,,,,,,,,,,,,,,,,,,,,,,,,,,,,,,,,,,,,,,,,,,,,,,,,,,,,,,,,,,,,,,,,,,,,
1720524465,94,0,4327.436035,4257.563965,4252.179688,4310.641113,4242.94873,4238.461426,4230.641113,4243.846191,4199.358887,4217.179688,4455.384766,4392.307617,4322.820313,4458.205078,,,,,,,,,,,,,,,,,,,,,,,,,,,,,,,,,,,,,,,,,,,,,,,,,,,,,,,,,,,,,,,,,,,,,,
1720524465,95,0,4326.282227,4264.615234,4255.512695,4325.512695,4252.820313,4245.769043,4240.128418,4242.179688,4204.358887,4219.615234,4457.307617,4390.384766,4324.358887,4460.897461,,,,,,,,,,,,,,,,,,,,,,,,,,,,,,,,,,,,,,,,,,,,,,,,,,,,,,,,,,,,,,,,,,,,,,
1720524465,96,0,4327.05127,4268.974121,4252.820313,4331.025879,4264.743652,4249.358887,4246.410156,4240.641113,4201.794922,4203.077148,4458.461426,4389.743652,4321.922852,4461.282227,,,,,,,,,,,,,,,,,,,,,,,,,,,,,,,,,,,,,,,,,,,,,,,,,,,,,,,,,,,,,,,,,,,,,,
1720524465,97,0,4327.436035,4263.846191,4242.692383,4318.333496,4258.846191,4243.461426,4239.743652,4235.641113,4190.512695,4196.282227,4452.820313,4387.307617,4318.461426,4458.974121,,,,,,,,,,,,,,,,,,,,,,,,,,,,,,,,,,,,,,,,,,,,,,,,,,,,,,,,,,,,,,,,,,,,,,
1720524465,98,0,4323.077148,4259.743652,4235,4309.358887,4248.974121,4234.230957,4229.743652,4226.153809,4184.358887,4200.128418,4445.641113,4378.461426,4318.717773,4461.410156,,,,,,,,,,,,,,,,,,,,,,,,,,,,,,,,,,,,,,,,,,,,,,,,,,,,,,,,,,,,,,,,,,,,,,
1720524465,99,0,4313.846191,4254.487305,4231.666504,4309.102539,4249.615234,4229.871582,4220.769043,4226.922852,4177.692383,4197.436035,4444.487305,4368.333496,4314.743652,4458.077148,,,,,,,,,,,,,,,,,,,,,,,,,,,,,,,,,,,,,,,,,,,,,,,,,,,,,,,,,,,,,,,,,,,,,,
1720524465,100,0,4308.717773,4247.307617,4230.384766,4309.487305,4251.794922,4231.666504,4220.897461,4234.615234,4177.307617,4200.384766,4453.589844,4370.769043,4320.128418,4456.153809,,,,,,,,,,,,,,,,,,,,,,,,,,,,,,,,,,,,,,,,,,,,,,,,,,,,,,,,,,,,,,,,,,,,,,
1720524465,101,0,4313.846191,4244.615234,4236.025879,4311.410156,4247.94873,4233.589844,4229.615234,4235.897461,4192.307617,4203.461426,4464.358887,4387.820313,4334.102539,4467.563965,,,,,,,,,,,,,,,,,,,,,,,,,,,,,,,,,,,,,,,,,,,,,,,,,,,,,,,,,,,,,,,,,,,,,,
1720524465,102,0,4320.384766,4245.256348,4254.615234,4313.846191,4247.179688,4230.897461,4233.846191,4250.641113,4202.563965,4197.820313,4468.717773,4410.512695,4330.769043,4477.436035,,,,,,,,,,,,,,,,,,,,,,,,,,,,,,,,,,,,,,,,,,,,,,,,,,,,,,,,,,,,,,,,,,,,,,
1720524465,103,0,4322.179688,4247.692383,4263.461426,4313.333496,4250.512695,4229.230957,4235.512695,4256.794922,4204.230957,4206.666504,4473.333496,4415.384766,4327.563965,4475.128418,,,,,,,,,,,,,,,,,,,,,,,,,,,,,,,,,,,,,,,,,,,,,,,,,,,,,,,,,,,,,,,,,,,,,,
1720524465,104,0,4317.692383,4241.025879,4250.897461,4308.461426,4250.256348,4229.487305,4245,4246.153809,4212.692383,4219.743652,4478.846191,4405.897461,4340.128418,4474.743652,,,,,,,,,,,,,,,,,,,,,,,,,,,,,,,,,,,,,,,,,,,,,,,,,,,,,,,,,,,,,,,,,,,,,,
1720524465,105,0,4315.769043,4234.615234,4243.974121,4306.666504,4247.307617,4231.794922,4249.743652,4248.205078,4222.179688,4222.436035,4480.128418,4403.846191,4348.461426,4481.282227,,,,,,,,,,,,,,,,,,,,,,,,,,,,,,,,,,,,,,,,,,,,,,,,,,,,,,,,,,,,,,,,,,,,,,
1720524465,106,0,4320.641113,4242.05127,4242.307617,4309.743652,4247.179688,4233.077148,4243.589844,4246.282227,4214.871582,4220.897461,4473.589844,4394.358887,4342.94873,4481.538574,,,,,,,,,,,,,,,,,,,,,,,,,,,,,,,,,,,,,,,,,,,,,,,,,,,,,,,,,,,,,,,,,,,,,,
1720524465,107,0,4320.128418,4245.256348,4233.717773,4309.102539,4248.461426,4233.717773,4236.538574,4236.025879,4198.333496,4214.487305,4462.436035,4377.563965,4331.538574,4477.179688,2.922407,3.522863,1.163433,0.725621,0.242634,2.859795,1.727049,1.175619,0.506741,0.233446,2.456719,3.10597,1.154464,0.693873,0.251389,0.946891,1.555702,0.915938,0.592756,0.241303,0.740019,0.537778,0.299118,0.26644,0.217457,1.144841,2.163441,1.176616,0.280841,0.112766,2.052676,2.982852,0.704503,0.465267,0.115464,0.811373,1.477296,0.291633,0.266879,0.24987,2.336058,4.443361,0.824727,0.669059,0.186062,1.179597,2.704896,0.831654,1.253641,0.504787,2.675719,4.587555,1.779602,1.113403,0.332229,2.87511,2.304965,1.42358,0.892208,0.301356,3.428765,3.927685,1.343383,0.896702,0.245483,10.844446,4.945612,2.028138,0.77385,0.226545
1720524465,108,0,4311.025879,4235.128418,4224.615234,4301.538574,4249.230957,4240.384766,4231.282227,4232.307617,4186.666504,4202.436035,4455,4371.025879,4325.897461,4474.871582,,,,,,,,,,,,,,,,,,,,,,,,,,,,,,,,,,,,,,,,,,,,,,,,,,,,,,,,,,,,,,,,,,,,,,
1720524465,109,0,4307.436035,4234.487305,4222.307617,4295.512695,4250.897461,4247.820313,4232.179688,4232.94873,4183.589844,4197.692383,4460.128418,4370.897461,4333.333496,4477.820313,,,,,,,,,,,,,,,,,,,,,,,,,,,,,,,,,,,,,,,,,,,,,,,,,,,,,,,,,,,,,,,,,,,,,,
1720524465,110,0,4309.487305,4244.358887,4220.897461,4293.974121,4248.974121,4247.563965,4235,4233.974121,4190.769043,4208.589844,4467.692383,4372.05127,4338.333496,4482.05127,,,,,,,,,,,,,,,,,,,,,,,,,,,,,,,,,,,,,,,,,,,,,,,,,,,,,,,,,,,,,,,,,,,,,,
1720524465,111,0,4310.769043,4247.820313,4226.025879,4300.512695,4248.461426,4247.436035,4231.922852,4238.974121,4199.871582,4220.897461,4469.102539,4379.487305,4330.897461,4480,,,,,,,,,,,,,,,,,,,,,,,,,,,,,,,,,,,,,,,,,,,,,,,,,,,,,,,,,,,,,,,,,,,,,,
1720524465,112,0,4315.384766,4246.794922,4233.461426,4308.461426,4248.717773,4246.410156,4221.666504,4234.615234,4197.179688,4216.922852,4465.897461,4383.589844,4327.692383,4476.794922,,,,,,,,,,,,,,,,,,,,,,,,,,,,,,,,,,,,,,,,,,,,,,,,,,,,,,,,,,,,,,,,,,,,,,
1720524465,113,0,4317.563965,4244.358887,4232.05127,4305.512695,4247.94873,4235.769043,4215.512695,4229.230957,4189.487305,4208.461426,4459.615234,4382.94873,4331.538574,4473.461426,,,,,,,,,,,,,,,,,,,,,,,,,,,,,,,,,,,,,,,,,,,,,,,,,,,,,,,,,,,,,,,,,,,,,,
1720524465,114,0,4322.820313,4247.820313,4242.436035,4306.666504,4254.615234,4230.128418,4224.743652,4239.615234,4196.922852,4224.743652,4470.128418,4394.102539,4343.589844,4475.128418,,,,,,,,,,,,,,,,,,,,,,,,,,,,,,,,,,,,,,,,,,,,,,,,,,,,,,,,,,,,,,,,,,,,,,
1720524465,115,0,4330.128418,4254.743652,4255.128418,4313.333496,4257.307617,4234.230957,4230.384766,4240,4205.769043,4239.871582,4486.922852,4400.641113,4353.205078,4478.461426,,,,,,,,,,,,,,,,,,,,,,,,,,,,,,,,,,,,,,,,,,,,,,,,,,,,,,,,,,,,,,,,,,,,,,
1720524465,116,0,4319.871582,4243.461426,4242.05127,4304.743652,4247.692383,4232.820313,4221.282227,4230.897461,4193.846191,4220,4476.282227,4385.512695,4339.230957,4465.256348,,,,,,,,,,,,,,,,,,,,,,,,,,,,,,,,,,,,,,,,,,,,,,,,,,,,,,,,,,,,,,,,,,,,,,
1720524465,117,0,4304.358887,4229.358887,4225.384766,4291.025879,4245.256348,4227.179688,4213.717773,4229.871582,4180.512695,4200.641113,4454.743652,4369.102539,4322.563965,4444.743652,,,,,,,,,,,,,,,,,,,,,,,,,,,,,,,,,,,,,,,,,,,,,,,,,,,,,,,,,,,,,,,,,,,,,,
1720524465,118,0,4304.358887,4232.563965,4226.538574,4294.487305,4252.05127,4231.538574,4218.717773,4237.307617,4188.461426,4210.897461,4456.538574,4368.974121,4327.692383,4441.794922,,,,,,,,,,,,,,,,,,,,,,,,,,,,,,,,,,,,,,,,,,,,,,,,,,,,,,,,,,,,,,,,,,,,,,
1720524465,119,0,4308.461426,4236.025879,4227.179688,4301.922852,4249.615234,4240.769043,4227.307617,4242.05127,4200.897461,4224.358887,4466.153809,4370.256348,4330.512695,4446.922852,,,,,,,,,,,,,,,,,,,,,,,,,,,,,,,,,,,,,,,,,,,,,,,,,,,,,,,,,,,,,,,,,,,,,,
1720524465,120,0,4304.743652,4232.05127,4222.820313,4297.820313,4243.333496,4240.897461,4231.282227,4237.692383,4195.384766,4215.128418,4455.769043,4362.179688,4316.282227,4439.487305,,,,,,,,,,,,,,,,,,,,,,,,,,,,,,,,,,,,,,,,,,,,,,,,,,,,,,,,,,,,,,,,,,,,,,
1720524465,121,0,4304.102539,4230.897461,4227.179688,4293.077148,4246.538574,4240.256348,4233.077148,4236.153809,4187.692383,4205.641113,4447.05127,4362.307617,4311.410156,4433.333496,,,,,,,,,,,,,,,,,,,,,,,,,,,,,,,,,,,,,,,,,,,,,,,,,,,,,,,,,,,,,,,,,,,,,,
1720524465,122,0,4309.871582,4233.846191,4228.717773,4293.205078,4245.769043,4246.153809,4232.820313,4236.153809,4190.256348,4210.512695,4452.436035,4367.692383,4316.538574,4437.692383,,,,,,,,,,,,,,,,,,,,,,,,,,,,,,,,,,,,,,,,,,,,,,,,,,,,,,,,,,,,,,,,,,,,,,
1720524465,123,0,4321.538574,4241.538574,4229.743652,4300.128418,4247.563965,4250,4234.358887,4235.641113,4194.358887,4216.922852,4457.563965,4368.205078,4320.641113,4441.666504,2.962004,3.082272,0.926243,0.78162,0.284317,2.759214,1.627565,1.053761,0.518742,0.253692,2.169612,2.590721,0.855729,0.73185,0.254617,1.125593,1.346746,0.793676,0.630849,0.25493,0.667642,0.499327,0.31833,0.223026,0.178201,1.319383,2.23355,1.210839,0.270651,0.118976,2.01259,3.316192,0.706931,0.4841,0.116636,0.680548,1.577301,0.24355,0.25202,0.244025,2.05254,4.331371,0.814999,0.644263,0.169984,1.137834,2.306733,0.741611,1.197582,0.486285,2.548862,4.130496,1.671826,1.059369,0.320818,2.476005,1.988342,1.215238,0.881134,0.302169,3.34733,3.665679,1.254726,0.901212,0.263093,9.179826,5.730168,1.732442,0.798031,0.254246
1720524465,124,0,4329.487305,4248.974121,4237.563965,4305.641113,4255.512695,4246.538574,4235.512695,4238.974121,4195.897461,4218.205078,4460.128418,4373.333496,4327.692383,4449.358887,,,,,,,,,,,,,,,,,,,,,,,,,,,,,,,,,,,,,,,,,,,,,,,,,,,,,,,,,,,,,,,,,,,,,,
1720524465,125,0,4327.179688,4247.692383,4242.94873,4304.743652,4255,4245.897461,4233.846191,4241.153809,4198.974121,4218.846191,4465.256348,4382.563965,4336.282227,4464.743652,,,,,,,,,,,,,,,,,,,,,,,,,,,,,,,,,,,,,,,,,,,,,,,,,,,,,,,,,,,,,,,,,,,,,,
1720524465,126,0,4328.461426,4248.077148,4241.538574,4309.615234,4249.230957,4252.179688,4234.743652,4235.897461,4204.230957,4219.615234,4466.282227,4381.410156,4335.256348,4473.846191,,,,,,,,,,,,,,,,,,,,,,,,,,,,,,,,,,,,,,,,,,,,,,,,,,,,,,,,,,,,,,,,,,,,,,
1720524465,127,0,4328.974121,4247.436035,4240.897461,4307.05127,4246.025879,4246.025879,4235.128418,4235.769043,4199.102539,4220,4460.128418,4377.05127,4327.05127,4470.512695,,,,,,,,,,,,,,,,,,,,,,,,,,,,,,,,,,,,,,,,,,,,,,,,,,,,,,,,,,,,,,,,,,,,,,
1720524465,0,0,4323.846191,4244.743652,4238.461426,4295.897461,4245.256348,4233.717773,4231.666504,4240.256348,4188.461426,4220.384766,4456.282227,4380.512695,4326.153809,4470.769043,,,,,,,,,,,,,,,,,,,,,,,,,,,,,,,,,,,,,,,,,,,,,,,,,,,,,,,,,,,,,,,,,,,,,,
1720524465,1,0,4332.436035,4251.153809,4238.589844,4300.897461,4249.230957,4237.563965,4230.128418,4231.153809,4192.436035,4217.436035,4458.205078,4386.794922,4338.589844,4483.333496,,,,,,,,,,,,,,,,,,,,,,,,,,,,,,,,,,,,,,,,,,,,,,,,,,,,,,,,,,,,,,,,,,,,,,
1720524465,2,0,4344.871582,4254.230957,4252.820313,4313.461426,4251.538574,4246.153809,4232.94873,4235.128418,4203.589844,4214.102539,4468.461426,4396.282227,4349.102539,4494.358887,,,,,,,,,,,,,,,,,,,,,,,,,,,,,,,,,,,,,,,,,,,,,,,,,,,,,,,,,,,,,,,,,,,,,,
1720524465,3,0,4335.641113,4247.692383,4255.769043,4309.487305,4248.077148,4243.589844,4232.307617,4244.615234,4201.282227,4214.615234,4472.05127,4394.102539,4346.282227,4493.846191,,,,,,,,,,,,,,,,,,,,,,,,,,,,,,,,,,,,,,,,,,,,,,,,,,,,,,,,,,,,,,,,,,,,,,
1720524465,4,0,4326.538574,4251.922852,4243.333496,4305.256348,4249.615234,4242.820313,4230,4234.487305,4198.589844,4223.846191,4464.615234,4381.410156,4345,4489.871582,,,,,,,,,,,,,,,,,,,,,,,,,,,,,,,,,,,,,,,,,,,,,,,,,,,,,,,,,,,,,,,,,,,,,,
1720524465,5,0,4337.820313,4263.461426,4248.589844,4312.563965,4259.871582,4248.717773,4231.666504,4231.538574,4201.025879,4227.307617,4466.538574,4385.256348,4350.256348,4493.846191,,,,,,,,,,,,,,,,,,,,,,,,,,,,,,,,,,,,,,,,,,,,,,,,,,,,,,,,,,,,,,,,,,,,,,
1720524465,6,0,4347.307617,4263.846191,4256.025879,4314.102539,4260.897461,4249.871582,4228.333496,4232.179688,4192.563965,4209.358887,4466.666504,4387.307617,4346.282227,4493.717773,,,,,,,,,,,,,,,,,,,,,,,,,,,,,,,,,,,,,,,,,,,,,,,,,,,,,,,,,,,,,,,,,,,,,,
1720524465,7,0,4338.461426,4256.282227,4245.897461,4308.589844,4252.05127,4247.692383,4223.974121,4229.743652,4183.077148,4193.974121,4454.615234,4376.025879,4340.128418,4487.436035,,,,,,,,,,,,,,,,,,,,,,,,,,,,,,,,,,,,,,,,,,,,,,,,,,,,,,,,,,,,,,,,,,,,,,
1720524465,8,0,4326.410156,4249.615234,4238.333496,4306.410156,4250.641113,4245.641113,4225.769043,4233.461426,4184.871582,4203.461426,4453.205078,4373.077148,4343.333496,4483.717773,,,,,,,,,,,,,,,,,,,,,,,,,,,,,,,,,,,,,,,,,,,,,,,,,,,,,,,,,,,,,,,,,,,,,,
1720524465,9,0,4332.436035,4248.077148,4240.384766,4307.179688,4256.794922,4243.077148,4225.384766,4235.641113,4192.179688,4217.05127,4462.436035,4379.358887,4348.461426,4484.871582,,,,,,,,,,,,,,,,,,,,,,,,,,,,,,,,,,,,,,,,,,,,,,,,,,,,,,,,,,,,,,,,,,,,,,
1720524465,10,0,4341.153809,4250.512695,4238.717773,4301.538574,4254.358887,4237.563965,4223.333496,4235,4198.589844,4219.615234,4460.641113,4382.307617,4349.102539,4488.333496,,,,,,,,,,,,,,,,,,,,,,,,,,,,,,,,,,,,,,,,,,,,,,,,,,,,,,,,,,,,,,,,,,,,,,
1720524465,11,0,4334.487305,4247.94873,4237.05127,4294.102539,4244.615234,4235,4227.179688,4237.307617,4201.666504,4216.666504,4455.384766,4380.641113,4349.102539,4488.205078,2.952211,2.977752,0.722722,0.833113,0.333313,2.485666,1.764228,0.861668,0.522478,0.271596,2.083572,2.254092,0.674988,0.7639,0.265379,1.339022,1.318727,0.659931,0.665776,0.274193,0.571065,0.517345,0.320299,0.190562,0.145242,1.51168,2.434823,1.153867,0.26462,0.124657,1.996134,3.966022,0.694419,0.509736,0.121463,0.543078,1.704262,0.209425,0.235068,0.23695,1.785963,4.158633,0.762234,0.611052,0.161994,1.26146,1.815522,0.639423,1.120912,0.470984,2.581241,3.484901,1.489937,1.010507,0.322945,2.299399,1.870851,1.076421,0.866874,0.311859,3.408605,3.333971,1.10603,0.905914,0.298211,7.745312,6.646601,1.466511,0.844885,0.296707
1720524465,12,0,4330.128418,4244.871582,4238.717773,4298.589844,4246.410156,4239.743652,4232.179688,4234.871582,4199.487305,4216.666504,4458.333496,4375.512695,4352.179688,4485.128418,,,,,,,,,,,,,,,,,,,,,,,,,,,,,,,,,,,,,,,,,,,,,,,,,,,,,,,,,,,,,,,,,,,,,,
1720524465,13,0,4330.384766,4246.025879,4237.563965,4300.384766,4252.05127,4238.717773,4229.230957,4227.820313,4192.436035,4221.410156,4457.94873,4368.974121,4349.871582,4478.205078,,,,,,,,,,,,,,,,,,,,,,,,,,,,,,,,,,,,,,,,,,,,,,,,,,,,,,,,,,,,,,,,,,,,,,
1720524465,14,0,4326.922852,4245,4237.307617,4293.205078,4248.461426,4236.153809,4224.743652,4232.94873,4190.256348,4212.307617,4453.077148,4371.410156,4342.692383,4472.692383,,,,,,,,,,,,,,,,,,,,,,,,,,,,,,,,,,,,,,,,,,,,,,,,,,,,,,,,,,,,,,,,,,,,,,
1720524465,15,0,4332.692383,4248.333496,4244.230957,4296.922852,4251.794922,4242.94873,4230.512695,4236.794922,4195.769043,4203.846191,4456.666504,4381.025879,4347.05127,4475,,,,,,,,,,,,,,,,,,,,,,,,,,,,,,,,,,,,,,,,,,,,,,,,,,,,,,,,,,,,,,,,,,,,,,
1720524465,16,0,4337.05127,4248.589844,4246.410156,4302.820313,4253.846191,4241.794922,4230.769043,4233.589844,4194.615234,4213.077148,4457.692383,4379.615234,4348.333496,4473.077148,,,,,,,,,,,,,,,,,,,,,,,,,,,,,,,,,,,,,,,,,,,,,,,,,,,,,,,,,,,,,,,,,,,,,,
1720524465,17,0,4322.820313,4234.358887,4232.05127,4291.153809,4244.230957,4229.102539,4216.666504,4226.153809,4180.384766,4214.487305,4442.307617,4365.769043,4333.077148,4456.410156,,,,,,,,,,,,,,,,,,,,,,,,,,,,,,,,,,,,,,,,,,,,,,,,,,,,,,,,,,,,,,,,,,,,,,
1720524465,18,0,4319.871582,4233.205078,4232.820313,4290,4250.512695,4236.025879,4217.563965,4224.615234,4182.563965,4210.384766,4442.692383,4369.487305,4332.307617,4450.641113,,,,,,,,,,,,,,,,,,,,,,,,,,,,,,,,,,,,,,,,,,,,,,,,,,,,,,,,,,,,,,,,,,,,,,
1720524465,19,0,4331.025879,4252.307617,4253.461426,4306.282227,4266.025879,4250.641113,4230,4234.487305,4198.205078,4219.743652,4461.538574,4389.487305,4346.153809,4466.538574,,,,,,,,,,,,,,,,,,,,,,,,,,,,,,,,,,,,,,,,,,,,,,,,,,,,,,,,,,,,,,,,,,,,,,
1720524465,20,0,4327.820313,4249.487305,4249.743652,4304.358887,4256.666504,4241.153809,4221.794922,4233.589844,4192.820313,4219.615234,4459.102539,4387.563965,4343.333496,4467.436035,,,,,,,,,,,,,,,,,,,,,,,,,,,,,,,,,,,,,,,,,,,,,,,,,,,,,,,,,,,,,,,,,,,,,,
1720524465,21,0,4326.025879,4234.615234,4235.769043,4295.897461,4242.436035,4232.179688,4218.974121,4231.794922,4185,4217.307617,4453.717773,4381.922852,4343.077148,4459.743652,,,,,,,,,,,,,,,,,,,,,,,,,,,,,,,,,,,,,,,,,,,,,,,,,,,,,,,,,,,,,,,,,,,,,,
1720524465,22,0,4338.589844,4243.589844,4247.436035,4301.538574,4248.717773,4240.128418,4232.563965,4238.205078,4195.128418,4235.897461,4467.05127,4395.384766,4357.436035,4469.615234,,,,,,,,,,,,,,,,,,,,,,,,,,,,,,,,,,,,,,,,,,,,,,,,,,,,,,,,,,,,,,,,,,,,,,
1720524465,23,0,4346.538574,4253.974121,4257.179688,4302.563965,4253.077148,4238.717773,4226.538574,4232.179688,4196.282227,4231.410156,4467.820313,4398.974121,4355.512695,4474.230957,,,,,,,,,,,,,,,,,,,,,,,,,,,,,,,,,,,,,,,,,,,,,,,,,,,,,,,,,,,,,,,,,,,,,,
1720524465,24,0,4342.94873,4246.538574,4245.897461,4293.333496,4248.205078,4228.205078,4212.307617,4222.307617,4182.179688,4206.538574,4455,4388.205078,4344.230957,4462.563965,,,,,,,,,,,,,,,,,,,,,,,,,,,,,,,,,,,,,,,,,,,,,,,,,,,,,,,,,,,,,,,,,,,,,,
1720524465,25,0,4335.128418,4241.025879,4238.205078,4289.358887,4244.743652,4228.333496,4212.94873,4224.230957,4179.230957,4205.256348,4450.384766,4385,4342.820313,4451.282227,,,,,,,,,,,,,,,,,,,,,,,,,,,,,,,,,,,,,,,,,,,,,,,,,,,,,,,,,,,,,,,,,,,,,,
1720524465,26,0,4335,4243.333496,4242.94873,4293.974121,4247.436035,4234.615234,4217.94873,4226.410156,4182.563965,4212.05127,4445.256348,4386.410156,4342.05127,4444.487305,,,,,,,,,,,,,,,,,,,,,,,,,,,,,,,,,,,,,,,,,,,,,,,,,,,,,,,,,,,,,,,,,,,,,,
1720524465,27,0,4349.871582,4249.615234,4254.615234,4306.282227,4256.538574,4240.256348,4224.871582,4230.512695,4184.230957,4216.410156,4453.333496,4396.666504,4345.512695,4450.641113,2.81127,3.266172,0.597405,0.87834,0.379644,2.128338,2.135306,0.64686,0.516607,0.280958,2.15818,2.262632,0.660268,0.797437,0.284018,1.50239,1.471393,0.539207,0.700252,0.29262,0.477463,0.579247,0.301217,0.168886,0.125467,1.648856,2.70503,1.032284,0.263026,0.128269,2.002819,4.680723,0.667961,0.530341,0.129923,0.423319,1.831094,0.201956,0.218494,0.228278,1.648829,4.028933,0.688,0.58402,0.169318,1.571723,1.378075,0.54949,1.040977,0.468205,2.73103,2.910312,1.258706,0.99218,0.340454,2.29593,2.089998,1.090396,0.871315,0.329069,3.644543,3.099682,0.927195,0.91669,0.349157,6.950235,7.515537,1.239423,0.915151,0.343368
1720524465,28,0,4362.179688,4256.666504,4265.897461,4312.563965,4261.410156,4242.94873,4226.794922,4233.974121,4190.641113,4225.128418,4472.563965,4408.205078,4355.897461,4460.641113,,,,,,,,,,,,,,,,,,,,,,,,,,,,,,,,,,,,,,,,,,,,,,,,,,,,,,,,,,,,,,,,,,,,,,
1720524465,29,0,4352.94873,4248.846191,4255.512695,4299.743652,4252.94873,4235.641113,4211.025879,4215.897461,4183.461426,4216.666504,4457.692383,4391.282227,4346.025879,4442.692383,,,,,,,,,,,,,,,,,,,,,,,,,,,,,,,,,,,,,,,,,,,,,,,,,,,,,,,,,,,,,,,,,,,,,,
1720524465,30,0,4337.692383,4224.871582,4238.077148,4287.94873,4237.820313,4224.871582,4199.487305,4209.871582,4163.205078,4195.641113,4427.436035,4368.974121,4317.820313,4416.410156,,,,,,,,,,,,,,,,,,,,,,,,,,,,,,,,,,,,,,,,,,,,,,,,,,,,,,,,,,,,,,,,,,,,,,
1720524465,31,0,4333.333496,4212.436035,4234.743652,4283.333496,4230.384766,4224.230957,4199.615234,4223.333496,4157.820313,4195.769043,4423.077148,4369.230957,4305,4415.256348,,,,,,,,,,,,,,,,,,,,,,,,,,,,,,,,,,,,,,,,,,,,,,,,,,,,,,,,,,,,,,,,,,,,,,
1720524465,32,0,4335,4221.410156,4235.641113,4278.717773,4238.333496,4228.717773,4199.230957,4218.077148,4171.410156,4208.077148,4428.205078,4371.282227,4311.538574,4423.333496,,,,,,,,,,,,,,,,,,,,,,,,,,,,,,,,,,,,,,,,,,,,,,,,,,,,,,,,,,,,,,,,,,,,,,
1720524465,33,0,4340.641113,4233.589844,4245.256348,4284.615234,4249.358887,4231.282227,4207.692383,4220.641113,4183.974121,4213.974121,4434.102539,4377.94873,4322.179688,4434.102539,,,,,,,,,,,,,,,,,,,,,,,,,,,,,,,,,,,,,,,,,,,,,,,,,,,,,,,,,,,,,,,,,,,,,,
1720524466,34,0,4349.102539,4239.358887,4257.307617,4293.974121,4251.025879,4231.922852,4219.743652,4233.333496,4187.94873,4214.743652,4445.769043,4391.410156,4329.743652,4451.922852,,,,,,,,,,,,,,,,,,,,,,,,,,,,,,,,,,,,,,,,,,,,,,,,,,,,,,,,,,,,,,,,,,,,,,
1720524466,35,0,4355.641113,4244.487305,4259.615234,4297.820313,4248.846191,4231.922852,4220.641113,4227.820313,4186.410156,4214.871582,4457.692383,4399.615234,4339.615234,4467.307617,,,,,,,,,,,,,,,,,,,,,,,,,,,,,,,,,,,,,,,,,,,,,,,,,,,,,,,,,,,,,,,,,,,,,,
1720524466,36,0,4360.384766,4250.128418,4265.769043,4305.256348,4253.461426,4232.179688,4218.846191,4226.538574,4188.461426,4221.666504,4469.230957,4408.974121,4350.769043,4472.563965,,,,,,,,,,,,,,,,,,,,,,,,,,,,,,,,,,,,,,,,,,,,,,,,,,,,,,,,,,,,,,,,,,,,,,
1720524466,37,0,4358.461426,4251.538574,4272.179688,4310.897461,4257.692383,4230.769043,4220.897461,4231.153809,4192.436035,4223.589844,4471.666504,4413.461426,4352.05127,4469.102539,,,,,,,,,,,,,,,,,,,,,,,,,,,,,,,,,,,,,,,,,,,,,,,,,,,,,,,,,,,,,,,,,,,,,,
1720524466,38,0,4351.538574,4249.615234,4268.461426,4306.025879,4254.871582,4230.769043,4218.461426,4226.922852,4189.102539,4217.307617,4458.974121,4407.436035,4345,4464.871582,,,,,,,,,,,,,,,,,,,,,,,,,,,,,,,,,,,,,,,,,,,,,,,,,,,,,,,,,,,,,,,,,,,,,,
1720524466,39,0,4350.384766,4249.871582,4270,4304.871582,4248.333496,4231.282227,4215.512695,4230.256348,4190.128418,4222.179688,4455.641113,4410.256348,4342.94873,4467.307617,,,,,,,,,,,,,,,,,,,,,,,,,,,,,,,,,,,,,,,,,,,,,,,,,,,,,,,,,,,,,,,,,,,,,,
1720524466,40,0,4353.846191,4249.871582,4279.102539,4310,4246.666504,4232.94873,4221.922852,4237.436035,4200,4232.820313,4466.538574,4419.102539,4349.102539,4470.512695,,,,,,,,,,,,,,,,,,,,,,,,,,,,,,,,,,,,,,,,,,,,,,,,,,,,,,,,,,,,,,,,,,,,,,
1720524466,41,0,4352.563965,4249.230957,4273.205078,4307.436035,4247.94873,4233.717773,4228.974121,4230.897461,4201.410156,4231.794922,4470.641113,4415.128418,4351.025879,4470.641113,,,,,,,,,,,,,,,,,,,,,,,,,,,,,,,,,,,,,,,,,,,,,,,,,,,,,,,,,,,,,,,,,,,,,,
1720524466,42,0,4352.820313,4256.410156,4269.102539,4305.769043,4252.436035,4237.179688,4231.153809,4233.974121,4201.025879,4226.666504,4473.077148,4417.563965,4355.128418,4475.128418,,,,,,,,,,,,,,,,,,,,,,,,,,,,,,,,,,,,,,,,,,,,,,,,,,,,,,,,,,,,,,,,,,,,,,
1720524466,43,0,4358.077148,4263.589844,4279.615234,4311.666504,4257.05127,4241.282227,4232.05127,4239.743652,4212.307617,4233.205078,4477.179688,4428.846191,4362.820313,4477.563965,2.679432,3.78616,0.5654,0.903222,0.412901,1.836074,2.615027,0.464673,0.498938,0.280843,2.271372,2.604423,0.818498,0.827299,0.30791,1.596903,1.718901,0.450274,0.726645,0.305222,0.39921,0.655381,0.27081,0.155425,0.120818,1.673326,2.93626,0.886707,0.26234,0.130462,1.956695,5.10595,0.638977,0.529696,0.140723,0.327243,1.902032,0.226482,0.202901,0.216745,1.558101,3.961925,0.636705,0.567059,0.19471,1.886643,1.096134,0.492639,0.963078,0.483785,2.891683,2.578099,1.019677,0.998107,0.368598,2.26122,2.629563,1.297116,0.891019,0.347654,3.931768,3.036479,0.756729,0.92198,0.405414,7.208671,8.07553,1.043082,0.985213,0.381155
1720524466,44,0,4356.282227,4258.717773,4285.769043,4312.94873,4251.153809,4238.461426,4233.974121,4235.897461,4220.769043,4241.666504,4475.256348,4434.615234,4362.05127,4474.487305,,,,,,,,,,,,,,,,,,,,,,,,,,,,,,,,,,,,,,,,,,,,,,,,,,,,,,,,,,,,,,,,,,,,,,
1720524466,45,0,4354.358887,4257.307617,4286.538574,4308.333496,4246.794922,4238.077148,4234.358887,4237.692383,4216.666504,4243.846191,4478.589844,4436.282227,4360.256348,4477.436035,,,,,,,,,,,,,,,,,,,,,,,,,,,,,,,,,,,,,,,,,,,,,,,,,,,,,,,,,,,,,,,,,,,,,,
1720524466,46,0,4360.641113,4263.077148,4287.307617,4309.102539,4251.153809,4244.615234,4232.05127,4239.102539,4216.538574,4244.743652,4485.769043,4435.769043,4365.512695,4484.743652,,,,,,,,,,,,,,,,,,,,,,,,,,,,,,,,,,,,,,,,,,,,,,,,,,,,,,,,,,,,,,,,,,,,,,
1720524466,47,0,4366.922852,4265,4290,4316.666504,4249.871582,4247.179688,4232.94873,4241.153809,4225.256348,4252.94873,4492.692383,4445.256348,4375.128418,4497.94873,,,,,,,,,,,,,,,,,,,,,,,,,,,,,,,,,,,,,,,,,,,,,,,,,,,,,,,,,,,,,,,,,,,,,,
1720524466,48,0,4369.871582,4271.153809,4293.077148,4319.487305,4247.436035,4245.256348,4235.512695,4242.820313,4232.820313,4266.666504,4503.205078,4457.179688,4383.077148,4512.05127,,,,,,,,,,,,,,,,,,,,,,,,,,,,,,,,,,,,,,,,,,,,,,,,,,,,,,,,,,,,,,,,,,,,,,
1720524466,49,0,4369.871582,4279.102539,4293.205078,4314.615234,4252.05127,4246.025879,4233.589844,4242.563965,4232.179688,4265,4507.179688,4456.922852,4383.846191,4515,,,,,,,,,,,,,,,,,,,,,,,,,,,,,,,,,,,,,,,,,,,,,,,,,,,,,,,,,,,,,,,,,,,,,,
1720524466,50,0,4362.94873,4277.94873,4290.897461,4309.102539,4254.615234,4243.846191,4231.153809,4242.307617,4224.358887,4254.102539,4498.461426,4451.922852,4377.179688,4508.846191,,,,,,,,,,,,,,,,,,,,,,,,,,,,,,,,,,,,,,,,,,,,,,,,,,,,,,,,,,,,,,,,,,,,,,
1720524466,51,0,4358.461426,4278.974121,4289.102539,4311.538574,4259.743652,4242.94873,4233.974121,4241.666504,4221.282227,4248.077148,4493.717773,4449.743652,4370.641113,4503.205078,,,,,,,,,,,,,,,,,,,,,,,,,,,,,,,,,,,,,,,,,,,,,,,,,,,,,,,,,,,,,,,,,,,,,,
1720524466,52,0,4356.922852,4282.307617,4283.846191,4312.307617,4265.256348,4241.794922,4235.256348,4239.358887,4219.487305,4240,4490.512695,4436.410156,4366.410156,4491.410156,,,,,,,,,,,,,,,,,,,,,,,,,,,,,,,,,,,,,,,,,,,,,,,,,,,,,,,,,,,,,,,,,,,,,,
1720524466,53,0,4347.05127,4276.153809,4277.436035,4302.436035,4257.563965,4236.282227,4229.102539,4232.692383,4206.794922,4230.512695,4477.179688,4415,4356.282227,4475.512695,,,,,,,,,,,,,,,,,,,,,,,,,,,,,,,,,,,,,,,,,,,,,,,,,,,,,,,,,,,,,,,,,,,,,,
1720524466,54,0,4340.128418,4266.666504,4276.282227,4294.743652,4247.436035,4238.717773,4227.436035,4226.794922,4197.179688,4227.94873,4466.153809,4406.922852,4348.846191,4469.615234,,,,,,,,,,,,,,,,,,,,,,,,,,,,,,,,,,,,,,,,,,,,,,,,,,,,,,,,,,,,,,,,,,,,,,
1720524466,55,0,4342.820313,4263.974121,4271.410156,4292.436035,4246.153809,4242.179688,4229.743652,4228.461426,4202.179688,4232.307617,4466.282227,4411.282227,4350.641113,4476.025879,,,,,,,,,,,,,,,,,,,,,,,,,,,,,,,,,,,,,,,,,,,,,,,,,,,,,,,,,,,,,,,,,,,,,,
1720524466,56,0,4346.282227,4268.717773,4269.102539,4292.436035,4248.717773,4242.307617,4234.743652,4243.461426,4215.256348,4237.436035,4475.897461,4425,4360.256348,4494.871582,,,,,,,,,,,,,,,,,,,,,,,,,,,,,,,,,,,,,,,,,,,,,,,,,,,,,,,,,,,,,,,,,,,,,,
1720524466,57,0,4353.461426,4276.410156,4274.743652,4298.461426,4248.717773,4252.179688,4251.794922,4252.692383,4231.538574,4247.94873,4496.538574,4439.743652,4376.410156,4521.794922,,,,,,,,,,,,,,,,,,,,,,,,,,,,,,,,,,,,,,,,,,,,,,,,,,,,,,,,,,,,,,,,,,,,,,
1720524466,58,0,4359.615234,4278.846191,4281.153809,4305.641113,4248.846191,4260.641113,4262.692383,4256.153809,4242.563965,4256.794922,4508.461426,4451.666504,4385.128418,4538.589844,,,,,,,,,,,,,,,,,,,,,,,,,,,,,,,,,,,,,,,,,,,,,,,,,,,,,,,,,,,,,,,,,,,,,,
1720524466,59,0,4354.743652,4277.05127,4286.282227,4307.563965,4254.871582,4254.871582,4255.512695,4259.743652,4238.589844,4257.05127,4498.205078,4454.230957,4376.410156,4535,2.455678,4.225204,0.621013,0.890324,0.42711,1.683438,2.990603,0.363462,0.468129,0.275247,2.383371,3.082297,1.110288,0.838498,0.333059,1.609926,1.913712,0.415957,0.731464,0.309763,0.352888,0.706071,0.248889,0.147198,0.129192,1.563258,3.015117,0.744518,0.257233,0.133788,1.862702,4.986919,0.614144,0.500103,0.152621,0.272635,1.870125,0.277104,0.189651,0.201698,1.59039,3.907571,0.643842,0.556911,0.234946,2.172504,0.995164,0.489272,0.887857,0.515701,3.070812,2.483115,0.825997,1.004086,0.399081,2.344693,3.295883,1.654336,0.901746,0.360885,4.254507,3.075186,0.633667,0.905684,0.451979,7.9667,8.078951,0.870849,1.021825,0.400455
1720524466,60,0,4342.179688,4271.922852,4278.077148,4304.230957,4262.563965,4250,4244.102539,4241.410156,4227.179688,4252.179688,4480.769043,4433.077148,4360.512695,4517.436035,,,,,,,,,,,,,,,,,,,,,,,,,,,,,,,,,,,,,,,,,,,,,,,,,,,,,,,,,,,,,,,,,,,,,,
1720524466,61,0,4328.333496,4263.333496,4260.512695,4298.077148,4261.794922,4250.769043,4236.922852,4231.410156,4218.717773,4238.974121,4471.410156,4413.333496,4349.743652,4502.94873,,,,,,,,,,,,,,,,,,,,,,,,,,,,,,,,,,,,,,,,,,,,,,,,,,,,,,,,,,,,,,,,,,,,,,
1720524466,62,0,4321.538574,4260.512695,4256.666504,4294.743652,4261.282227,4247.94873,4232.179688,4239.615234,4215.384766,4231.410156,4472.05127,4416.666504,4348.205078,4505,,,,,,,,,,,,,,,,,,,,,,,,,,,,,,,,,,,,,,,,,,,,,,,,,,,,,,,,,,,,,,,,,,,,,,
1720524466,63,0,4322.563965,4259.358887,4257.820313,4291.410156,4261.282227,4245.128418,4229.743652,4233.461426,4216.282227,4234.871582,4474.871582,4419.230957,4349.615234,4508.077148,,,,,,,,,,,,,,,,,,,,,,,,,,,,,,,,,,,,,,,,,,,,,,,,,,,,,,,,,,,,,,,,,,,,,,
1720524466,64,0,4319.615234,4253.205078,4251.922852,4281.538574,4252.692383,4245.641113,4230.384766,4233.077148,4215.256348,4237.692383,4472.563965,4415,4349.358887,4503.461426,,,,,,,,,,,,,,,,,,,,,,,,,,,,,,,,,,,,,,,,,,,,,,,,,,,,,,,,,,,,,,,,,,,,,,
1720524466,65,0,4322.94873,4258.717773,4259.871582,4286.025879,4254.487305,4256.794922,4240.256348,4245.641113,4220.384766,4239.871582,4474.230957,4422.94873,4353.333496,4510.769043,,,,,,,,,,,,,,,,,,,,,,,,,,,,,,,,,,,,,,,,,,,,,,,,,,,,,,,,,,,,,,,,,,,,,,
1720524466,66,0,4341.282227,4272.436035,4283.205078,4305,4267.436035,4271.153809,4260,4250.512695,4234.358887,4250.384766,4485.897461,4437.307617,4365,4526.922852,,,,,,,,,,,,,,,,,,,,,,,,,,,,,,,,,,,,,,,,,,,,,,,,,,,,,,,,,,,,,,,,,,,,,,
1720524466,67,0,4351.794922,4276.282227,4289.102539,4309.102539,4269.102539,4271.666504,4265.128418,4250,4237.179688,4252.692383,4488.333496,4436.282227,4367.05127,4525.384766,,,,,,,,,,,,,,,,,,,,,,,,,,,,,,,,,,,,,,,,,,,,,,,,,,,,,,,,,,,,,,,,,,,,,,
1720524466,68,0,4348.846191,4278.589844,4277.692383,4306.538574,4265.512695,4264.615234,4254.871582,4247.436035,4228.461426,4237.820313,4478.589844,4424.358887,4358.974121,4510.512695,,,,,,,,,,,,,,,,,,,,,,,,,,,,,,,,,,,,,,,,,,,,,,,,,,,,,,,,,,,,,,,,,,,,,,
1720524466,69,0,4345,4282.307617,4270.512695,4308.205078,4261.025879,4257.436035,4247.692383,4237.820313,4220.128418,4234.230957,4470.641113,4417.692383,4355.128418,4501.538574,,,,,,,,,,,,,,,,,,,,,,,,,,,,,,,,,,,,,,,,,,,,,,,,,,,,,,,,,,,,,,,,,,,,,,
1720524466,70,0,4339.743652,4279.230957,4266.922852,4302.307617,4256.922852,4247.563965,4241.025879,4239.358887,4208.589844,4235.512695,4463.717773,4416.153809,4348.205078,4493.589844,,,,,,,,,,,,,,,,,,,,,,,,,,,,,,,,,,,,,,,,,,,,,,,,,,,,,,,,,,,,,,,,,,,,,,
1720524466,71,0,4339.358887,4281.153809,4262.436035,4298.846191,4258.589844,4247.307617,4235.897461,4245.256348,4200.512695,4231.410156,4459.230957,4412.820313,4341.922852,4485.512695,,,,,,,,,,,,,,,,,,,,,,,,,,,,,,,,,,,,,,,,,,,,,,,,,,,,,,,,,,,,,,,,,,,,,,
1720524466,72,0,4339.871582,4281.538574,4259.743652,4299.102539,4257.820313,4253.461426,4235.256348,4237.05127,4200.897461,4230.641113,4456.794922,4408.077148,4340.128418,4477.05127,,,,,,,,,,,,,,,,,,,,,,,,,,,,,,,,,,,,,,,,,,,,,,,,,,,,,,,,,,,,,,,,,,,,,,
1720524466,73,0,4328.846191,4268.846191,4257.179688,4292.820313,4246.410156,4246.410156,4231.538574,4230.897461,4197.179688,4222.820313,4449.102539,4401.153809,4331.538574,4463.205078,,,,,,,,,,,,,,,,,,,,,,,,,,,,,,,,,,,,,,,,,,,,,,,,,,,,,,,,,,,,,,,,,,,,,,
1720524466,74,0,4320.512695,4264.102539,4252.436035,4292.94873,4248.077148,4244.102539,4231.025879,4232.436035,4194.743652,4211.794922,4440.897461,4394.615234,4328.461426,4455.256348,,,,,,,,,,,,,,,,,,,,,,,,,,,,,,,,,,,,,,,,,,,,,,,,,,,,,,,,,,,,,,,,,,,,,,
1720524466,75,0,4321.410156,4267.563965,4247.94873,4290.769043,4259.615234,4257.820313,4242.307617,4238.077148,4205.128418,4212.307617,4440,4391.922852,4332.820313,4451.794922,2.271822,4.308488,0.740345,0.832772,0.420784,1.642024,3.091258,0.362565,0.428348,0.270452,2.3565,3.452351,1.462408,0.81491,0.354579,1.559161,1.943482,0.450467,0.703313,0.305571,0.324425,0.713015,0.258778,0.144567,0.146822,1.347052,2.876067,0.614877,0.244414,0.140686,1.685423,4.301411,0.591108,0.449659,0.164371,0.242845,1.720288,0.33374,0.180913,0.184189,1.593765,3.778529,0.710506,0.54821,0.28034,2.281983,1.018438,0.542498,0.814915,0.551621,3.155556,2.500295,0.723,0.99012,0.423377,2.388127,3.855044,2.069169,0.879756,0.364232,4.455726,3.07804,0.589094,0.86496,0.474945,8.743189,7.458256,0.730596,1.007345,0.397236
1720524466,76,0,4322.820313,4263.717773,4247.94873,4283.077148,4256.538574,4257.05127,4248.205078,4241.666504,4211.794922,4219.487305,4440.769043,4389.358887,4327.307617,4449.487305,,,,,,,,,,,,,,,,,,,,,,,,,,,,,,,,,,,,,,,,,,,,,,,,,,,,,,,,,,,,,,,,,,,,,,
1720524466,77,0,4327.307617,4261.922852,4255.384766,4287.179688,4247.820313,4248.974121,4244.743652,4241.794922,4209.358887,4223.461426,4448.205078,4399.358887,4325.897461,4454.615234,,,,,,,,,,,,,,,,,,,,,,,,,,,,,,,,,,,,,,,,,,,,,,,,,,,,,,,,,,,,,,,,,,,,,,
1720524466,78,0,4325.897461,4259.871582,4262.563965,4286.922852,4248.205078,4257.820313,4248.077148,4246.410156,4215,4230.512695,4474.230957,4416.282227,4335.512695,4458.077148,,,,,,,,,,,,,,,,,,,,,,,,,,,,,,,,,,,,,,,,,,,,,,,,,,,,,,,,,,,,,,,,,,,,,,
1720524466,79,0,4314.871582,4255.256348,4259.871582,4276.922852,4251.538574,4262.179688,4252.692383,4244.102539,4218.717773,4235.256348,4519.230957,4409.487305,4333.333496,4447.563965,,,,,,,,,,,,,,,,,,,,,,,,,,,,,,,,,,,,,,,,,,,,,,,,,,,,,,,,,,,,,,,,,,,,,,
1720524466,80,0,4309.230957,4256.282227,4251.922852,4276.538574,4248.077148,4248.974121,4243.205078,4235.256348,4206.538574,4228.974121,4592.820313,4390.897461,4316.922852,4430.128418,,,,,,,,,,,,,,,,,,,,,,,,,,,,,,,,,,,,,,,,,,,,,,,,,,,,,,,,,,,,,,,,,,,,,,
1720524466,81,0,4310.128418,4260.769043,4247.05127,4273.974121,4243.589844,4242.692383,4233.333496,4235.384766,4201.794922,4228.717773,4706.410156,4388.717773,4310.256348,4422.436035,,,,,,,,,,,,,,,,,,,,,,,,,,,,,,,,,,,,,,,,,,,,,,,,,,,,,,,,,,,,,,,,,,,,,,
1720524466,82,0,4311.666504,4268.974121,4247.307617,4269.487305,4247.692383,4250.256348,4238.461426,4240,4214.102539,4232.94873,4821.153809,4390.769043,4315.256348,4424.487305,,,,,,,,,,,,,,,,,,,,,,,,,,,,,,,,,,,,,,,,,,,,,,,,,,,,,,,,,,,,,,,,,,,,,,
1720524466,83,0,4315.256348,4277.563965,4248.717773,4274.615234,4255.641113,4255,4244.743652,4237.820313,4219.871582,4226.794922,4872.436035,4381.538574,4308.717773,4420.512695,,,,,,,,,,,,,,,,,,,,,,,,,,,,,,,,,,,,,,,,,,,,,,,,,,,,,,,,,,,,,,,,,,,,,,
1720524466,84,0,4320.641113,4281.025879,4255.512695,4279.615234,4259.743652,4253.461426,4243.974121,4240.128418,4211.538574,4216.410156,4852.820313,4383.205078,4297.179688,4414.487305,,,,,,,,,,,,,,,,,,,,,,,,,,,,,,,,,,,,,,,,,,,,,,,,,,,,,,,,,,,,,,,,,,,,,,
1720524466,85,0,4325,4289.615234,4263.077148,4286.538574,4260.256348,4252.307617,4240.769043,4232.436035,4202.563965,4214.487305,4801.025879,4394.871582,4304.230957,4422.179688,,,,,,,,,,,,,,,,,,,,,,,,,,,,,,,,,,,,,,,,,,,,,,,,,,,,,,,,,,,,,,,,,,,,,,
1720524466,86,0,4329.871582,4298.077148,4265.897461,4298.717773,4263.461426,4252.436035,4236.666504,4220.769043,4201.922852,4218.846191,4746.282227,4400.128418,4315,4438.205078,,,,,,,,,,,,,,,,,,,,,,,,,,,,,,,,,,,,,,,,,,,,,,,,,,,,,,,,,,,,,,,,,,,,,,
1720524466,87,0,4329.358887,4286.410156,4262.436035,4297.307617,4263.205078,4244.743652,4230.384766,4232.05127,4197.436035,4217.307617,4699.230957,4399.487305,4308.589844,4438.974121,,,,,,,,,,,,,,,,,,,,,,,,,,,,,,,,,,,,,,,,,,,,,,,,,,,,,,,,,,,,,,,,,,,,,,
1720524466,88,0,4326.025879,4275.256348,4251.794922,4290.512695,4259.743652,4236.666504,4227.820313,4232.820313,4190,4212.692383,4659.358887,4392.436035,4305.641113,4428.589844,,,,,,,,,,,,,,,,,,,,,,,,,,,,,,,,,,,,,,,,,,,,,,,,,,,,,,,,,,,,,,,,,,,,,,
1720524466,89,0,4324.871582,4279.743652,4249.743652,4293.333496,4259.102539,4244.487305,4232.94873,4226.025879,4189.358887,4212.820313,4629.615234,4387.436035,4311.666504,4424.871582,,,,,,,,,,,,,,,,,,,,,,,,,,,,,,,,,,,,,,,,,,,,,,,,,,,,,,,,,,,,,,,,,,,,,,
1720524466,90,0,4326.153809,4281.538574,4256.666504,4295.256348,4259.743652,4252.05127,4236.153809,4234.743652,4190.769043,4211.025879,4607.563965,4387.05127,4308.205078,4422.307617,,,,,,,,,,,,,,,,,,,,,,,,,,,,,,,,,,,,,,,,,,,,,,,,,,,,,,,,,,,,,,,,,,,,,,
1720524466,91,0,4334.871582,4282.692383,4262.563965,4294.871582,4260.128418,4246.794922,4230.897461,4236.025879,4190.384766,4207.179688,4589.358887,4393.461426,4309.615234,4423.077148,2.037736,3.931747,0.896974,0.742293,0.397184,1.645421,2.871258,0.448713,0.390656,0.271126,2.250473,3.510353,1.776077,0.75371,0.367629,1.480777,1.778062,0.550649,0.642018,0.293315,0.308139,0.678092,0.308881,0.150243,0.170015,1.07186,2.520501,0.508981,0.228216,0.151203,1.492574,3.265138,0.57957,0.402089,0.174367,0.25599,1.475645,0.379508,0.181537,0.167308,1.617741,3.499377,0.81743,0.540263,0.31908,2.240158,1.083457,0.639456,0.745975,0.574526,3.169948,2.528458,0.743093,0.962556,0.435802,2.540384,4.114435,2.423135,0.826918,0.357715,4.426522,2.944395,0.640246,0.815103,0.468137,9.011778,6.400812,0.676793,0.959032,0.375275
1720524466,92,0,4342.563965,4285.384766,4272.94873,4296.282227,4261.410156,4246.282227,4230.897461,4235.128418,4194.358887,4210,4582.820313,4411.794922,4321.666504,4433.077148,,,,,,,,,,,,,,,,,,,,,,,,,,,,,,,,,,,,,,,,,,,,,,,,,,,,,,,,,,,,,,,,,,,,,,
1720524466,93,0,4342.307617,4287.692383,4278.589844,4296.025879,4264.871582,4256.922852,4242.307617,4240.641113,4206.666504,4220.512695,4577.692383,4422.05127,4325.512695,4437.94873,,,,,,,,,,,,,,,,,,,,,,,,,,,,,,,,,,,,,,,,,,,,,,,,,,,,,,,,,,,,,,,,,,,,,,
1720524466,94,0,4340.128418,4288.717773,4270,4296.153809,4267.436035,4259.487305,4242.820313,4241.282227,4210.128418,4220.384766,4561.666504,4417.563965,4322.05127,4431.538574,,,,,,,,,,,,,,,,,,,,,,,,,,,,,,,,,,,,,,,,,,,,,,,,,,,,,,,,,,,,,,,,,,,,,,
1720524466,95,0,4335.769043,4282.692383,4262.307617,4294.487305,4265.769043,4251.922852,4233.333496,4239.743652,4205.769043,4217.179688,4546.538574,4412.563965,4319.102539,4423.846191,,,,,,,,,,,,,,,,,,,,,,,,,,,,,,,,,,,,,,,,,,,,,,,,,,,,,,,,,,,,,,,,,,,,,,
1720524466,96,0,4328.589844,4276.410156,4258.846191,4292.94873,4261.922852,4248.589844,4235.256348,4241.666504,4209.230957,4225.512695,4532.94873,4406.538574,4314.743652,4416.410156,,,,,,,,,,,,,,,,,,,,,,,,,,,,,,,,,,,,,,,,,,,,,,,,,,,,,,,,,,,,,,,,,,,,,,
1720524466,97,0,4324.487305,4276.153809,4254.102539,4292.692383,4254.743652,4249.615234,4242.563965,4241.538574,4215.256348,4233.333496,4521.410156,4401.922852,4314.743652,4413.077148,,,,,,,,,,,,,,,,,,,,,,,,,,,,,,,,,,,,,,,,,,,,,,,,,,,,,,,,,,,,,,,,,,,,,,
1720524466,98,0,4326.025879,4276.153809,4254.743652,4292.563965,4249.230957,4248.333496,4242.820313,4246.410156,4215.384766,4231.282227,4520.641113,4409.487305,4323.077148,4418.717773,,,,,,,,,,,,,,,,,,,,,,,,,,,,,,,,,,,,,,,,,,,,,,,,,,,,,,,,,,,,,,,,,,,,,,
1720524466,99,0,4328.461426,4274.230957,4256.538574,4291.666504,4254.615234,4247.563965,4242.436035,4246.666504,4208.717773,4222.820313,4515.128418,4411.666504,4324.743652,4418.461426,,,,,,,,,,,,,,,,,,,,,,,,,,,,,,,,,,,,,,,,,,,,,,,,,,,,,,,,,,,,,,,,,,,,,,
1720524466,100,0,4332.563965,4276.025879,4259.615234,4291.153809,4263.333496,4250.641113,4244.102539,4233.205078,4202.692383,4216.410156,4501.538574,4405.897461,4322.436035,4414.871582,,,,,,,,,,,,,,,,,,,,,,,,,,,,,,,,,,,,,,,,,,,,,,,,,,,,,,,,,,,,,,,,,,,,,,
1720524466,101,0,4341.922852,4278.589844,4275.512695,4295.641113,4265.128418,4255.128418,4246.922852,4231.922852,4198.077148,4214.743652,4501.794922,4415,4329.487305,4422.436035,,,,,,,,,,,,,,,,,,,,,,,,,,,,,,,,,,,,,,,,,,,,,,,,,,,,,,,,,,,,,,,,,,,,,,
1720524466,102,0,4348.333496,4280.128418,4287.436035,4305.384766,4265,4259.102539,4250.384766,4236.666504,4198.205078,4215.384766,4501.666504,4424.743652,4336.153809,4428.846191,,,,,,,,,,,,,,,,,,,,,,,,,,,,,,,,,,,,,,,,,,,,,,,,,,,,,,,,,,,,,,,,,,,,,,
1720524466,103,0,4347.94873,4281.794922,4282.94873,4310.641113,4268.461426,4261.922852,4249.743652,4239.102539,4205.769043,4219.743652,4493.333496,4422.563965,4338.461426,4429.230957,,,,,,,,,,,,,,,,,,,,,,,,,,,,,,,,,,,,,,,,,,,,,,,,,,,,,,,,,,,,,,,,,,,,,,
1720524466,104,0,4342.05127,4278.846191,4272.307617,4303.205078,4268.589844,4262.307617,4248.846191,4245.769043,4213.846191,4219.358887,4491.153809,4420.128418,4339.102539,4426.666504,,,,,,,,,,,,,,,,,,,,,,,,,,,,,,,,,,,,,,,,,,,,,,,,,,,,,,,,,,,,,,,,,,,,,,
1720524466,105,0,4336.282227,4275,4266.794922,4293.461426,4264.487305,4260.512695,4249.230957,4245.897461,4219.871582,4214.871582,4485.256348,4418.205078,4333.846191,4418.846191,,,,,,,,,,,,,,,,,,,,,,,,,,,,,,,,,,,,,,,,,,,,,,,,,,,,,,,,,,,,,,,,,,,,,,
1720524466,106,0,4339.102539,4278.589844,4273.333496,4296.282227,4265,4259.230957,4250.897461,4242.05127,4219.230957,4225.641113,4476.922852,4418.461426,4333.333496,4414.871582,,,,,,,,,,,,,,,,,,,,,,,,,,,,,,,,,,,,,,,,,,,,,,,,,,,,,,,,,,,,,,,,,,,,,,
1720524466,107,0,4339.871582,4280,4276.282227,4297.820313,4262.179688,4254.743652,4248.333496,4239.743652,4214.487305,4233.205078,4474.615234,4419.102539,4334.615234,4413.974121,1.826862,3.198623,1.080869,0.644455,0.363397,1.648197,2.429128,0.586592,0.368676,0.276906,2.072368,3.188263,1.985095,0.671528,0.369373,1.409494,1.459782,0.702119,0.562272,0.274939,0.296332,0.613213,0.396056,0.165995,0.194745,0.804059,2.038154,0.447397,0.217265,0.163133,1.309362,2.220455,0.619316,0.383402,0.181293,0.286989,1.186805,0.420556,0.197792,0.154826,1.605973,3.047959,0.970327,0.540936,0.342063,2.065294,1.134646,0.776151,0.6938,0.570543,4.657722,3.241678,0.98447,0.981354,0.435893,2.661451,4.008204,2.681986,0.776998,0.345691,4.144032,2.667261,0.809994,0.78346,0.435032,8.777071,5.265091,0.83048,0.92279,0.344869
1720524466,108,0,4329.615234,4274.230957,4268.461426,4292.563965,4254.743652,4252.820313,4242.307617,4236.282227,4211.922852,4216.538574,4467.94873,4417.179688,4327.179688,4409.743652,,,,,,,,,,,,,,,,,,,,,,,,,,,,,,,,,,,,,,,,,,,,,,,,,,,,,,,,,,,,,,,,,,,,,,
1720524466,109,0,4322.820313,4275.512695,4267.94873,4296.538574,4258.589844,4255.897461,4244.615234,4236.410156,4216.153809,4217.436035,4466.410156,4421.794922,4329.358887,4406.538574,,,,,,,,,,,,,,,,,,,,,,,,,,,,,,,,,,,,,,,,,,,,,,,,,,,,,,,,,,,,,,,,,,,,,,
1720524466,110,0,4325.897461,4282.05127,4274.358887,4305.512695,4269.102539,4253.205078,4245.256348,4238.077148,4218.846191,4234.871582,4471.666504,4426.794922,4341.025879,4408.589844,,,,,,,,,,,,,,,,,,,,,,,,,,,,,,,,,,,,,,,,,,,,,,,,,,,,,,,,,,,,,,,,,,,,,,
1720524466,111,0,4325.256348,4279.358887,4277.436035,4300.256348,4267.05127,4251.538574,4237.94873,4233.205078,4215.384766,4225.897461,4466.410156,4421.410156,4338.589844,4409.358887,,,,,,,,,,,,,,,,,,,,,,,,,,,,,,,,,,,,,,,,,,,,,,,,,,,,,,,,,,,,,,,,,,,,,,
1720524466,112,0,4323.589844,4275.512695,4279.743652,4293.333496,4261.025879,4256.282227,4237.820313,4234.102539,4213.333496,4212.820313,4458.461426,4424.230957,4336.025879,4409.102539,,,,,,,,,,,,,,,,,,,,,,,,,,,,,,,,,,,,,,,,,,,,,,,,,,,,,,,,,,,,,,,,,,,,,,
1720524466,113,0,4326.922852,4278.333496,4277.436035,4301.153809,4264.487305,4256.153809,4243.333496,4235,4209.358887,4219.743652,4457.692383,4430.897461,4341.922852,4410.128418,,,,,,,,,,,,,,,,,,,,,,,,,,,,,,,,,,,,,,,,,,,,,,,,,,,,,,,,,,,,,,,,,,,,,,
1720524466,114,0,4327.307617,4280.641113,4284.102539,4310,4265.641113,4253.461426,4243.846191,4229.102539,4207.436035,4220.897461,4456.538574,4425.641113,4339.871582,4411.666504,,,,,,,,,,,,,,,,,,,,,,,,,,,,,,,,,,,,,,,,,,,,,,,,,,,,,,,,,,,,,,,,,,,,,,
1720524466,115,0,4327.820313,4276.282227,4275.384766,4307.563965,4263.077148,4256.153809,4244.871582,4240.384766,4212.820313,4214.743652,4456.538574,4428.205078,4338.205078,4415.384766,,,,,,,,,,,,,,,,,,,,,,,,,,,,,,,,,,,,,,,,,,,,,,,,,,,,,,,,,,,,,,,,,,,,,,
1720524466,116,0,4329.871582,4268.461426,4184.358887,4301.025879,4262.820313,4251.922852,4239.487305,4242.179688,4212.05127,4217.563965,4451.538574,4432.436035,4346.410156,4414.358887,,,,,,,,,,,,,,,,,,,,,,,,,,,,,,,,,,,,,,,,,,,,,,,,,,,,,,,,,,,,,,,,,,,,,,
1720524466,117,0,4326.153809,4263.717773,4077.05127,4295.384766,4260.256348,4245.769043,4230.897461,4226.666504,4201.282227,4216.666504,4441.282227,4424.743652,4345,4410.128418,,,,,,,,,,,,,,,,,,,,,,,,,,,,,,,,,,,,,,,,,,,,,,,,,,,,,,,,,,,,,,,,,,,,,,
1720524466,118,0,4319.615234,4263.717773,4061.153809,4294.358887,4260,4253.717773,4238.205078,4230.641113,4197.692383,4207.563965,4437.179688,4421.153809,4332.820313,4405.512695,,,,,,,,,,,,,,,,,,,,,,,,,,,,,,,,,,,,,,,,,,,,,,,,,,,,,,,,,,,,,,,,,,,,,,
1720524466,119,0,4318.589844,4267.563965,4083.461426,4300.256348,4265.641113,4262.692383,4249.743652,4238.333496,4206.666504,4206.538574,4436.922852,4425.128418,4332.94873,4399.358887,,,,,,,,,,,,,,,,,,,,,,,,,,,,,,,,,,,,,,,,,,,,,,,,,,,,,,,,,,,,,,,,,,,,,,
1720524466,120,0,4322.436035,4273.846191,4080.641113,4309.871582,4268.589844,4266.538574,4255.384766,4241.794922,4216.794922,4217.436035,4442.307617,4434.102539,4345.256348,4403.846191,,,,,,,,,,,,,,,,,,,,,,,,,,,,,,,,,,,,,,,,,,,,,,,,,,,,,,,,,,,,,,,,,,,,,,
1720524466,121,0,4320.897461,4277.692383,4073.333252,4310.128418,4263.974121,4268.846191,4258.717773,4245.512695,4220.384766,4224.487305,4445,4436.025879,4346.794922,4407.05127,,,,,,,,,,,,,,,,,,,,,,,,,,,,,,,,,,,,,,,,,,,,,,,,,,,,,,,,,,,,,,,,,,,,,,
1720524466,122,0,4311.025879,4270.128418,4067.05127,4299.358887,4261.538574,4266.410156,4253.333496,4241.922852,4220.641113,4218.333496,4434.358887,4425.384766,4333.974121,4394.615234,,,,,,,,,,,,,,,,,,,,,,,,,,,,,,,,,,,,,,,,,,,,,,,,,,,,,,,,,,,,,,,,,,,,,,
1720524466,123,0,4306.922852,4261.666504,4060,4289.871582,4262.436035,4261.282227,4244.615234,4238.077148,4219.358887,4210.641113,4428.205078,4423.333496,4331.666504,4391.410156,1.666929,2.381871,1.294526,0.564289,0.326089,1.655506,1.954677,0.745597,0.368477,0.282018,1.912243,2.609057,2.092262,0.600102,0.358134,1.414786,1.099072,0.889224,0.484316,0.252215,0.308211,0.536226,0.511343,0.188452,0.216201,0.59415,1.537616,0.453053,0.216653,0.173514,1.178525,1.439012,0.758233,0.404332,0.184425,0.337029,0.914738,0.475169,0.233087,0.148781,1.665491,2.508412,1.187009,0.559506,0.345583,1.902232,1.181418,0.942357,0.673617,0.534663,13.215906,6.66351,1.869185,1.148073,0.428577,2.866864,3.622477,2.866821,0.774364,0.333294,3.726585,2.350327,1.090069,0.790252,0.387167,8.289793,4.385685,1.279848,0.93895,0.316688
1720524466,124,0,4321.282227,4270,4066.794922,4292.05127,4262.436035,4260,4244.230957,4235.512695,4216.666504,4217.563965,4436.538574,4435.128418,4347.05127,4407.307617,,,,,,,,,,,,,,,,,,,,,,,,,,,,,,,,,,,,,,,,,,,,,,,,,,,,,,,,,,,,,,,,,,,,,,
1720524466,125,0,4335.641113,4276.410156,4081.025635,4301.025879,4260.384766,4262.05127,4250.384766,4235.256348,4220.384766,4226.282227,4447.563965,4448.974121,4360.641113,4416.794922,,,,,,,,,,,,,,,,,,,,,,,,,,,,,,,,,,,,,,,,,,,,,,,,,,,,,,,,,,,,,,,,,,,,,,
1720524466,126,0,4340.641113,4277.05127,4091.794922,4308.974121,4263.589844,4265.512695,4258.589844,4244.615234,4230.769043,4222.436035,4458.205078,4464.615234,4366.282227,4423.589844,,,,,,,,,,,,,,,,,,,,,,,,,,,,,,,,,,,,,,,,,,,,,,,,,,,,,,,,,,,,,,,,,,,,,,
1720524466,127,0,4350.384766,4289.743652,4102.05127,4318.077148,4273.077148,4273.717773,4268.077148,4246.922852,4236.410156,4226.025879,4463.974121,4471.794922,4373.461426,4435.512695,,,,,,,,,,,,,,,,,,,,,,,,,,,,,,,,,,,,,,,,,,,,,,,,,,,,,,,,,,,,,,,,,,,,,,
1720524466,0,0,4348.717773,4293.333496,4109.102539,4319.358887,4271.025879,4275.256348,4267.05127,4233.077148,4226.410156,4228.333496,4448.077148,4455.897461,4366.282227,4422.94873,,,,,,,,,,,,,,,,,,,,,,,,,,,,,,,,,,,,,,,,,,,,,,,,,,,,,,,,,,,,,,,,,,,,,,
1720524466,1,0,4319.615234,4267.692383,4102.179688,4297.692383,4255.769043,4265.641113,4253.205078,4224.871582,4202.05127,4199.230957,4410.256348,4427.307617,4326.666504,4380.769043,,,,,,,,,,,,,,,,,,,,,,,,,,,,,,,,,,,,,,,,,,,,,,,,,,,,,,,,,,,,,,,,,,,,,,
1720524466,2,0,4305.384766,4252.05127,4097.179688,4278.333496,4255.769043,4262.563965,4248.205078,4220.641113,4190.897461,4180.641113,4391.025879,4416.666504,4301.410156,4362.307617,,,,,,,,,,,,,,,,,,,,,,,,,,,,,,,,,,,,,,,,,,,,,,,,,,,,,,,,,,,,,,,,,,,,,,
1720524466,3,0,4323.461426,4267.820313,4115.256348,4287.820313,4266.025879,4267.05127,4257.692383,4224.743652,4206.410156,4205.256348,4411.666504,4437.436035,4322.94873,4383.589844,,,,,,,,,,,,,,,,,,,,,,,,,,,,,,,,,,,,,,,,,,,,,,,,,,,,,,,,,,,,,,,,,,,,,,
1720524466,4,0,4331.794922,4279.487305,4135.384766,4299.743652,4263.846191,4264.615234,4259.871582,4232.307617,4218.333496,4223.589844,4430.512695,4454.358887,4343.846191,4397.179688,,,,,,,,,,,,,,,,,,,,,,,,,,,,,,,,,,,,,,,,,,,,,,,,,,,,,,,,,,,,,,,,,,,,,,
1720524466,5,0,4326.025879,4278.205078,4141.282227,4300.384766,4260.897461,4261.794922,4256.538574,4231.410156,4217.692383,4217.307617,4431.538574,4455.128418,4345,4393.717773,,,,,,,,,,,,,,,,,,,,,,,,,,,,,,,,,,,,,,,,,,,,,,,,,,,,,,,,,,,,,,,,,,,,,,
1720524466,6,0,4325.897461,4281.282227,4144.871582,4305.512695,4266.922852,4265.769043,4261.153809,4237.179688,4224.743652,4219.615234,4435.128418,4459.743652,4351.538574,4397.179688,,,,,,,,,,,,,,,,,,,,,,,,,,,,,,,,,,,,,,,,,,,,,,,,,,,,,,,,,,,,,,,,,,,,,,
1720524466,7,0,4326.922852,4284.487305,4147.94873,4307.179688,4265.897461,4263.333496,4263.461426,4237.692383,4232.563965,4232.820313,4436.794922,4458.846191,4358.846191,4401.922852,,,,,,,,,,,,,,,,,,,,,,,,,,,,,,,,,,,,,,,,,,,,,,,,,,,,,,,,,,,,,,,,,,,,,,
1720524466,8,0,4338.717773,4292.307617,4164.102539,4313.846191,4263.846191,4263.461426,4268.717773,4240.897461,4234.743652,4245.256348,4443.205078,4469.615234,4364.358887,4409.615234,,,,,,,,,,,,,,,,,,,,,,,,,,,,,,,,,,,,,,,,,,,,,,,,,,,,,,,,,,,,,,,,,,,,,,
1720524466,9,0,4350.128418,4305.512695,4184.615234,4331.666504,4273.077148,4277.563965,4280.897461,4247.820313,4237.820313,4239.615234,4453.589844,4488.717773,4372.436035,4419.871582,,,,,,,,,,,,,,,,,,,,,,,,,,,,,,,,,,,,,,,,,,,,,,,,,,,,,,,,,,,,,,,,,,,,,,
1720524466,10,0,4338.077148,4300.384766,4178.461426,4328.846191,4276.666504,4280.512695,4274.487305,4233.333496,4230.897461,4210.897461,4441.538574,4471.282227,4362.563965,4411.153809,,,,,,,,,,,,,,,,,,,,,,,,,,,,,,,,,,,,,,,,,,,,,,,,,,,,,,,,,,,,,,,,,,,,,,
1720524466,11,0,4321.666504,4277.94873,4168.461426,4306.922852,4265.641113,4264.871582,4259.615234,4231.282227,4215.641113,4199.743652,4424.871582,4449.358887,4344.230957,4395.641113,1.643484,1.746613,1.516592,0.511428,0.287871,1.699175,1.622556,0.900423,0.381925,0.279042,2.098363,2.106503,2.17451,0.589682,0.337726,1.519091,0.811049,1.080127,0.423729,0.227284,0.358044,0.464356,0.638939,0.208146,0.229231,0.465159,1.11273,0.531544,0.223952,0.180102,1.092321,1.021333,1.003464,0.454774,0.183994,0.377033,0.709233,0.554217,0.284078,0.147551,1.771693,2.026135,1.464789,0.59347,0.330966,1.830636,1.26033,1.11554,0.677751,0.472837,35.676216,14.9725,3.931713,1.534183,0.418309,3.023566,3.12403,3.004568,0.83838,0.322117,3.332605,2.107088,1.422261,0.823862,0.337651,7.624932,3.91708,1.991605,1.011165,0.295895
1720524466,12,0,4320.512695,4271.794922,4169.358887,4301.538574,4260.641113,4261.666504,4262.563965,4238.846191,4219.358887,4218.717773,4423.077148,4451.794922,4345.384766,4398.589844,,,,,,,,,,,,,,,,,,,,,,,,,,,,,,,,,,,,,,,,,,,,,,,,,,,,,,,,,,,,,,,,,,,,,,
1720524466,13,0,4319.358887,4277.179688,4165,4300.512695,4263.846191,4268.974121,4264.615234,4229.487305,4232.179688,4223.333496,4419.230957,4448.589844,4349.615234,4408.077148,,,,,,,,,,,,,,,,,,,,,,,,,,,,,,,,,,,,,,,,,,,,,,,,,,,,,,,,,,,,,,,,,,,,,,
1720524466,14,0,4316.538574,4275.641113,4169.487305,4291.922852,4261.922852,4267.94873,4260.641113,4229.743652,4228.077148,4205.256348,4416.538574,4445.384766,4347.436035,4412.179688,,,,,,,,,,,,,,,,,,,,,,,,,,,,,,,,,,,,,,,,,,,,,,,,,,,,,,,,,,,,,,,,,,,,,,
1720524466,15,0,4319.871582,4275.384766,4187.692383,4299.487305,4260.641113,4269.743652,4269.487305,4238.717773,4219.487305,4198.974121,4418.077148,4453.205078,4348.974121,4414.743652,,,,,,,,,,,,,,,,,,,,,,,,,,,,,,,,,,,,,,,,,,,,,,,,,,,,,,,,,,,,,,,,,,,,,,
1720524466,16,0,4313.333496,4269.615234,4197.563965,4307.820313,4260.256348,4274.871582,4276.410156,4235.384766,4216.025879,4199.743652,4410.897461,4455.641113,4344.230957,4413.077148,,,,,,,,,,,,,,,,,,,,,,,,,,,,,,,,,,,,,,,,,,,,,,,,,,,,,,,,,,,,,,,,,,,,,,
1720524466,17,0,4308.846191,4265.128418,4205.384766,4305.769043,4264.230957,4277.179688,4279.358887,4230.128418,4215.128418,4200.128418,4410.256348,4459.102539,4339.230957,4414.487305,,,,,,,,,,,,,,,,,,,,,,,,,,,,,,,,,,,,,,,,,,,,,,,,,,,,,,,,,,,,,,,,,,,,,,
1720524466,18,0,4318.461426,4277.179688,4218.589844,4310.769043,4274.230957,4281.025879,4290.128418,4237.94873,4226.025879,4217.563965,4426.410156,4470.384766,4348.077148,4429.230957,,,,,,,,,,,,,,,,,,,,,,,,,,,,,,,,,,,,,,,,,,,,,,,,,,,,,,,,,,,,,,,,,,,,,,
1720524466,19,0,4320.384766,4280.512695,4217.563965,4315.128418,4273.333496,4281.153809,4291.922852,4246.794922,4241.538574,4238.077148,4432.692383,4469.230957,4354.102539,4437.05127,,,,,,,,,,,,,,,,,,,,,,,,,,,,,,,,,,,,,,,,,,,,,,,,,,,,,,,,,,,,,,,,,,,,,,
1720524466,20,0,4316.410156,4272.563965,4213.077148,4310.641113,4268.205078,4278.846191,4285.384766,4241.666504,4245.256348,4231.282227,4424.230957,4462.436035,4351.282227,4432.94873,,,,,,,,,,,,,,,,,,,,,,,,,,,,,,,,,,,,,,,,,,,,,,,,,,,,,,,,,,,,,,,,,,,,,,
1720524466,21,0,4319.743652,4274.102539,4223.333496,4308.077148,4273.205078,4280.512695,4290.128418,4242.563965,4246.666504,4219.871582,4425.256348,4464.871582,4352.820313,4437.692383,,,,,,,,,,,,,,,,,,,,,,,,,,,,,,,,,,,,,,,,,,,,,,,,,,,,,,,,,,,,,,,,,,,,,,
1720524466,22,0,4324.615234,4279.743652,4231.025879,4312.94873,4274.358887,4283.077148,4294.102539,4244.102539,4250.256348,4225.384766,4431.538574,4466.025879,4354.102539,4447.179688,,,,,,,,,,,,,,,,,,,,,,,,,,,,,,,,,,,,,,,,,,,,,,,,,,,,,,,,,,,,,,,,,,,,,,
1720524466,23,0,4324.743652,4277.05127,4234.615234,4311.666504,4264.871582,4280.512695,4283.589844,4236.282227,4242.820313,4227.307617,4429.743652,4463.333496,4351.666504,4446.666504,,,,,,,,,,,,,,,,,,,,,,,,,,,,,,,,,,,,,,,,,,,,,,,,,,,,,,,,,,,,,,,,,,,,,,
1720524466,24,0,4324.743652,4269.871582,4240.256348,4299.871582,4260.512695,4271.410156,4276.794922,4233.333496,4231.410156,4216.922852,4424.743652,4464.358887,4349.487305,4444.615234,,,,,,,,,,,,,,,,,,,,,,,,,,,,,,,,,,,,,,,,,,,,,,,,,,,,,,,,,,,,,,,,,,,,,,
1720524466,25,0,4324.487305,4263.461426,4236.922852,4291.025879,4263.461426,4266.922852,4278.717773,4233.333496,4237.307617,4211.282227,4427.05127,4464.487305,4353.846191,4449.230957,,,,,,,,,,,,,,,,,,,,,,,,,,,,,,,,,,,,,,,,,,,,,,,,,,,,,,,,,,,,,,,,,,,,,,
1720524466,26,0,4321.666504,4261.025879,4234.615234,4291.282227,4264.102539,4275.256348,4281.666504,4236.794922,4244.615234,4218.461426,4435.512695,4466.538574,4363.589844,4452.05127,,,,,,,,,,,,,,,,,,,,,,,,,,,,,,,,,,,,,,,,,,,,,,,,,,,,,,,,,,,,,,,,,,,,,,
1720524466,27,0,4320.384766,4264.615234,4244.743652,4293.974121,4264.615234,4281.922852,4287.563965,4239.615234,4238.461426,4224.615234,4436.410156,4468.461426,4365.384766,4449.487305,1.754274,1.433734,1.711628,0.475908,0.250261,1.791224,1.492867,1.02112,0.392059,0.263674,3.794601,2.167107,2.369017,0.718885,0.325827,1.707093,0.660556,1.233837,0.385422,0.202361,0.4434,0.407208,0.759433,0.215623,0.230026,0.408593,0.800224,0.667027,0.232676,0.181742,1.042179,0.886246,1.301842,0.509214,0.179904,0.409267,0.590733,0.645173,0.339809,0.146996,1.922974,1.726844,1.756641,0.627358,0.30211,1.831408,1.393117,1.25614,0.681286,0.400747,74.072777,28.5455,7.379819,2.104165,0.405031,3.07991,2.684665,3.101585,0.9499,0.309725,2.957899,1.99768,1.71364,0.849711,0.295257,6.885011,3.776279,2.792969,1.100272,0.281697
1720524466,28,0,4322.179688,4265.641113,4254.743652,4296.410156,4265.256348,4278.077148,4288.333496,4224.871582,4230.641113,4212.692383,4426.282227,4461.794922,4355.512695,4442.05127,,,,,,,,,,,,,,,,,,,,,,,,,,,,,,,,,,,,,,,,,,,,,,,,,,,,,,,,,,,,,,,,,,,,,,
1720524466,29,0,4328.974121,4266.282227,4270.128418,4302.05127,4266.025879,4275.512695,4285.384766,4224.358887,4228.077148,4198.717773,4423.589844,4469.871582,4353.461426,4441.025879,,,,,,,,,,,,,,,,,,,,,,,,,,,,,,,,,,,,,,,,,,,,,,,,,,,,,,,,,,,,,,,,,,,,,,
1720524466,30,0,4333.333496,4271.666504,4287.05127,4307.179688,4268.077148,4280.128418,4289.230957,4236.153809,4228.589844,4208.461426,4428.846191,4487.179688,4362.307617,4450.256348,,,,,,,,,,,,,,,,,,,,,,,,,,,,,,,,,,,,,,,,,,,,,,,,,,,,,,,,,,,,,,,,,,,,,,
1720524466,31,0,4331.922852,4278.589844,4291.794922,4312.692383,4273.589844,4283.717773,4295.897461,4231.153809,4231.153809,4223.461426,4431.025879,4493.461426,4364.743652,4456.794922,,,,,,,,,,,,,,,,,,,,,,,,,,,,,,,,,,,,,,,,,,,,,,,,,,,,,,,,,,,,,,,,,,,,,,
1720524466,32,0,4326.410156,4279.102539,4292.436035,4311.282227,4275.128418,4283.333496,4295.641113,4230.512695,4235.256348,4210.128418,4426.410156,4491.538574,4357.820313,4451.538574,,,,,,,,,,,,,,,,,,,,,,,,,,,,,,,,,,,,,,,,,,,,,,,,,,,,,,,,,,,,,,,,,,,,,,
1720524466,33,0,4315.256348,4269.230957,4290.769043,4298.461426,4268.974121,4280.512695,4292.820313,4235.384766,4237.94873,4192.94873,4414.230957,4477.307617,4348.077148,4440.128418,,,,,,,,,,,,,,,,,,,,,,,,,,,,,,,,,,,,,,,,,,,,,,,,,,,,,,,,,,,,,,,,,,,,,,
1720524467,34,0,4301.538574,4257.820313,4285.512695,4293.333496,4263.205078,4279.871582,4293.461426,4235.256348,4242.820313,4203.717773,4407.436035,4469.487305,4344.743652,4435,,,,,,,,,,,,,,,,,,,,,,,,,,,,,,,,,,,,,,,,,,,,,,,,,,,,,,,,,,,,,,,,,,,,,,
1720524467,35,0,4301.794922,4260,4285.512695,4295.256348,4266.410156,4284.230957,4297.05127,4236.794922,4254.358887,4226.282227,4421.538574,4476.794922,4355.897461,4440.256348,,,,,,,,,,,,,,,,,,,,,,,,,,,,,,,,,,,,,,,,,,,,,,,,,,,,,,,,,,,,,,,,,,,,,,
1720524467,36,0,4307.436035,4263.589844,4286.794922,4286.025879,4268.461426,4288.333496,4301.922852,4238.974121,4262.692383,4229.871582,4435.641113,4480.769043,4363.333496,4447.820313,,,,,,,,,,,,,,,,,,,,,,,,,,,,,,,,,,,,,,,,,,,,,,,,,,,,,,,,,,,,,,,,,,,,,,
1720524467,37,0,4298.846191,4254.358887,4286.922852,4275.512695,4267.436035,4291.922852,4307.436035,4241.410156,4266.922852,4228.846191,4438.846191,4491.282227,4363.974121,4456.794922,,,,,,,,,,,,,,,,,,,,,,,,,,,,,,,,,,,,,,,,,,,,,,,,,,,,,,,,,,,,,,,,,,,,,,
1720524467,38,0,4292.307617,4250.641113,4294.743652,4279.743652,4272.179688,4293.589844,4311.794922,4245.256348,4275.256348,4245.128418,4454.230957,4511.025879,4381.282227,4474.615234,,,,,,,,,,,,,,,,,,,,,,,,,,,,,,,,,,,,,,,,,,,,,,,,,,,,,,,,,,,,,,,,,,,,,,
1720524467,39,0,4303.333496,4257.820313,4306.025879,4286.282227,4276.153809,4291.153809,4313.974121,4245.512695,4282.94873,4254.871582,4477.179688,4517.05127,4407.692383,4492.94873,,,,,,,,,,,,,,,,,,,,,,,,,,,,,,,,,,,,,,,,,,,,,,,,,,,,,,,,,,,,,,,,,,,,,,
1720524467,40,0,4311.282227,4261.922852,4313.461426,4290.256348,4275.641113,4289.230957,4312.05127,4241.538574,4283.846191,4250.128418,4481.282227,4516.153809,4414.487305,4498.974121,,,,,,,,,,,,,,,,,,,,,,,,,,,,,,,,,,,,,,,,,,,,,,,,,,,,,,,,,,,,,,,,,,,,,,
1720524467,41,0,4304.743652,4260.128418,4320.128418,4296.153809,4277.94873,4290.256348,4310.641113,4243.589844,4288.205078,4254.871582,4475.641113,4526.025879,4413.077148,4503.589844,,,,,,,,,,,,,,,,,,,,,,,,,,,,,,,,,,,,,,,,,,,,,,,,,,,,,,,,,,,,,,,,,,,,,,
1720524467,42,0,4295.769043,4254.487305,4318.333496,4293.333496,4278.717773,4291.153809,4314.487305,4243.333496,4295.384766,4256.794922,4476.922852,4528.589844,4417.436035,4509.102539,,,,,,,,,,,,,,,,,,,,,,,,,,,,,,,,,,,,,,,,,,,,,,,,,,,,,,,,,,,,,,,,,,,,,,
1720524467,43,0,4290,4245.769043,4313.205078,4282.05127,4273.333496,4290.512695,4320.641113,4243.974121,4290.384766,4249.871582,4479.487305,4525.256348,4416.666504,4506.538574,1.942881,1.420242,1.844928,0.446721,0.216829,1.918538,1.518206,1.085804,0.390052,0.23896,8.328376,3.20954,2.793719,1.066555,0.344473,1.90023,0.654405,1.32183,0.374359,0.17981,0.54195,0.366803,0.849712,0.206942,0.218573,0.395596,0.589522,0.820606,0.23654,0.178644,1.004229,0.87329,1.564351,0.546312,0.172408,0.426207,0.55267,0.718574,0.388358,0.143446,2.037417,1.664256,1.987946,0.651452,0.265321,1.825152,1.571538,1.328151,0.666631,0.34184,122.430817,44.957684,11.762553,2.726199,0.38649,2.928262,2.396989,3.134735,1.071139,0.293954,2.621788,2.015579,1.908668,0.850553,0.26596,6.031466,3.743515,3.456244,1.159331,0.272221
1720524467,44,0,4284.102539,4242.05127,4315.256348,4277.179688,4274.743652,4292.307617,4322.436035,4245.384766,4286.410156,4256.153809,4474.230957,4526.153809,4409.102539,4499.358887,,,,,,,,,,,,,,,,,,,,,,,,,,,,,,,,,,,,,,,,,,,,,,,,,,,,,,,,,,,,,,,,,,,,,,
1720524467,45,0,4281.538574,4245.256348,4318.077148,4278.589844,4282.692383,4293.461426,4321.025879,4237.563965,4289.871582,4261.410156,4464.871582,4519.743652,4401.666504,4493.461426,,,,,,,,,,,,,,,,,,,,,,,,,,,,,,,,,,,,,,,,,,,,,,,,,,,,,,,,,,,,,,,,,,,,,,
1720524467,46,0,4284.615234,4241.282227,4323.589844,4278.589844,4274.743652,4288.205078,4319.743652,4235.641113,4284.358887,4248.077148,4456.922852,4515.256348,4396.666504,4492.563965,,,,,,,,,,,,,,,,,,,,,,,,,,,,,,,,,,,,,,,,,,,,,,,,,,,,,,,,,,,,,,,,,,,,,,
1720524467,47,0,4289.743652,4233.205078,4331.282227,4276.794922,4262.94873,4281.410156,4314.615234,4233.077148,4277.94873,4239.871582,4456.922852,4520.256348,4396.794922,4485,,,,,,,,,,,,,,,,,,,,,,,,,,,,,,,,,,,,,,,,,,,,,,,,,,,,,,,,,,,,,,,,,,,,,,
1720524467,48,0,4291.153809,4231.538574,4335.256348,4274.743652,4268.589844,4283.846191,4313.077148,4228.717773,4286.538574,4252.179688,4464.615234,4527.820313,4404.102539,4472.692383,,,,,,,,,,,,,,,,,,,,,,,,,,,,,,,,,,,,,,,,,,,,,,,,,,,,,,,,,,,,,,,,,,,,,,
1720524467,49,0,4291.025879,4235.128418,4339.743652,4275.641113,4279.358887,4293.333496,4322.692383,4237.05127,4299.230957,4265.384766,4474.615234,4535,4415.512695,4479.102539,,,,,,,,,,,,,,,,,,,,,,,,,,,,,,,,,,,,,,,,,,,,,,,,,,,,,,,,,,,,,,,,,,,,,,
1720524467,50,0,4291.025879,4234.102539,4343.333496,4279.743652,4276.538574,4295.769043,4328.077148,4235.641113,4297.563965,4268.589844,4478.333496,4531.794922,4417.94873,4488.461426,,,,,,,,,,,,,,,,,,,,,,,,,,,,,,,,,,,,,,,,,,,,,,,,,,,,,,,,,,,,,,,,,,,,,,
1720524467,51,0,4290.128418,4231.282227,4346.410156,4277.820313,4272.179688,4291.666504,4323.077148,4225.128418,4292.94873,4272.692383,4478.205078,4527.436035,4412.820313,4482.94873,,,,,,,,,,,,,,,,,,,,,,,,,,,,,,,,,,,,,,,,,,,,,,,,,,,,,,,,,,,,,,,,,,,,,,
1720524467,52,0,4293.717773,4238.077148,4352.436035,4275.128418,4277.179688,4292.05127,4323.461426,4231.538574,4298.974121,4283.205078,4490.641113,4535.256348,4417.436035,4486.153809,,,,,,,,,,,,,,,,,,,,,,,,,,,,,,,,,,,,,,,,,,,,,,,,,,,,,,,,,,,,,,,,,,,,,,
1720524467,53,0,4297.692383,4245.512695,4355,4278.846191,4281.153809,4295.641113,4331.666504,4239.487305,4307.179688,4285.897461,4507.692383,4542.692383,4422.179688,4497.563965,,,,,,,,,,,,,,,,,,,,,,,,,,,,,,,,,,,,,,,,,,,,,,,,,,,,,,,,,,,,,,,,,,,,,,
1720524467,54,0,4295.128418,4245.769043,4352.94873,4280.512695,4281.410156,4295.769043,4336.666504,4238.333496,4309.743652,4279.487305,4505,4544.871582,4414.743652,4491.538574,,,,,,,,,,,,,,,,,,,,,,,,,,,,,,,,,,,,,,,,,,,,,,,,,,,,,,,,,,,,,,,,,,,,,,
1720524467,55,0,4293.846191,4244.615234,4358.717773,4279.871582,4281.282227,4294.615234,4337.307617,4241.666504,4311.410156,4278.333496,4495,4550.897461,4411.666504,4481.153809,,,,,,,,,,,,,,,,,,,,,,,,,,,,,,,,,,,,,,,,,,,,,,,,,,,,,,,,,,,,,,,,,,,,,,
1720524467,56,0,4295.769043,4245.128418,4364.487305,4280.897461,4279.487305,4292.05127,4334.487305,4239.615234,4310,4273.077148,4488.461426,4553.205078,4409.743652,4479.358887,,,,,,,,,,,,,,,,,,,,,,,,,,,,,,,,,,,,,,,,,,,,,,,,,,,,,,,,,,,,,,,,,,,,,,
1720524467,57,0,4293.461426,4244.358887,4362.179688,4280.641113,4278.717773,4288.077148,4329.871582,4235.641113,4300.384766,4259.230957,4481.282227,4548.077148,4398.333496,4472.05127,,,,,,,,,,,,,,,,,,,,,,,,,,,,,,,,,,,,,,,,,,,,,,,,,,,,,,,,,,,,,,,,,,,,,,
1720524467,58,0,4289.871582,4241.794922,4359.743652,4280.256348,4278.589844,4289.102539,4327.563965,4235.384766,4290.128418,4252.94873,4472.436035,4544.487305,4393.077148,4462.692383,,,,,,,,,,,,,,,,,,,,,,,,,,,,,,,,,,,,,,,,,,,,,,,,,,,,,,,,,,,,,,,,,,,,,,
1720524467,59,0,4289.743652,4241.282227,4358.717773,4278.461426,4279.871582,4291.922852,4331.794922,4228.461426,4291.025879,4260,4470.512695,4545.128418,4397.94873,4456.666504,2.119598,1.579938,1.898155,0.419928,0.19286,2.007084,1.605267,1.090433,0.377266,0.214668,16.523384,5.322798,3.440614,1.649322,0.405161,1.992671,0.764597,1.346752,0.392673,0.163058,0.61718,0.342151,0.890271,0.184019,0.198768,0.415148,0.458718,0.942023,0.234226,0.17226,0.980438,0.866921,1.699321,0.55646,0.163303,0.437201,0.577419,0.741511,0.420712,0.136284,2.019568,1.819364,2.078248,0.669371,0.228741,1.709979,1.79039,1.320696,0.636874,0.321089,167.671143,59.575321,16.043865,3.213728,0.362996,2.543779,2.280649,3.087453,1.165344,0.276413,2.220208,2.146265,2.009934,0.831266,0.253941,5.107107,3.626372,3.796458,1.161173,0.268123
1720524467,60,0,4290.256348,4244.487305,4367.05127,4277.307617,4287.05127,4291.025879,4339.871582,4232.436035,4301.153809,4273.717773,4480.512695,4555.256348,4403.846191,4454.102539,,,,,,,,,,,,,,,,,,,,,,,,,,,,,,,,,,,,,,,,,,,,,,,,,,,,,,,,,,,,,,,,,,,,,,
1720524467,61,0,4294.743652,4248.333496,4383.589844,4286.922852,4294.487305,4295.769043,4346.410156,4241.666504,4310,4279.358887,4489.487305,4570.641113,4409.230957,4455.128418,,,,,,,,,,,,,,,,,,,,,,,,,,,,,,,,,,,,,,,,,,,,,,,,,,,,,,,,,,,,,,,,,,,,,,
1720524467,62,0,4303.205078,4247.94873,4393.077148,4294.230957,4290.384766,4303.461426,4350.769043,4239.230957,4313.333496,4276.153809,4494.743652,4577.179688,4414.487305,4455.256348,,,,,,,,,,,,,,,,,,,,,,,,,,,,,,,,,,,,,,,,,,,,,,,,,,,,,,,,,,,,,,,,,,,,,,
1720524467,63,0,4309.615234,4248.589844,4394.487305,4288.333496,4287.05127,4300.641113,4350.128418,4240.769043,4320.384766,4287.94873,4505.897461,4580.384766,4421.153809,4453.077148,,,,,,,,,,,,,,,,,,,,,,,,,,,,,,,,,,,,,,,,,,,,,,,,,,,,,,,,,,,,,,,,,,,,,,
1720524467,64,0,4307.179688,4249.358887,4393.333496,4283.205078,4290,4295.256348,4344.615234,4240.769043,4325.384766,4296.794922,4509.743652,4578.974121,4421.922852,4446.410156,,,,,,,,,,,,,,,,,,,,,,,,,,,,,,,,,,,,,,,,,,,,,,,,,,,,,,,,,,,,,,,,,,,,,,
1720524467,65,0,4293.717773,4240,4388.717773,4279.358887,4286.666504,4296.538574,4340.641113,4235.128418,4315.769043,4275,4492.436035,4571.794922,4406.153809,4436.025879,,,,,,,,,,,,,,,,,,,,,,,,,,,,,,,,,,,,,,,,,,,,,,,,,,,,,,,,,,,,,,,,,,,,,,
1720524467,66,0,4288.974121,4233.589844,4385.641113,4275.897461,4283.846191,4297.94873,4343.077148,4235.897461,4310.641113,4262.563965,4485,4574.743652,4399.615234,4432.94873,,,,,,,,,,,,,,,,,,,,,,,,,,,,,,,,,,,,,,,,,,,,,,,,,,,,,,,,,,,,,,,,,,,,,,
1720524467,67,0,4290.384766,4233.974121,4390,4273.974121,4289.743652,4294.358887,4348.077148,4242.179688,4321.538574,4283.846191,4501.538574,4585.897461,4418.846191,4440.256348,,,,,,,,,,,,,,,,,,,,,,,,,,,,,,,,,,,,,,,,,,,,,,,,,,,,,,,,,,,,,,,,,,,,,,
1720524467,68,0,4286.153809,4233.589844,4394.615234,4269.230957,4292.05127,4294.102539,4355.897461,4249.871582,4332.692383,4302.05127,4510.897461,4592.820313,4431.410156,4446.666504,,,,,,,,,,,,,,,,,,,,,,,,,,,,,,,,,,,,,,,,,,,,,,,,,,,,,,,,,,,,,,,,,,,,,,
1720524467,69,0,4287.563965,4238.846191,4400.384766,4269.615234,4288.461426,4300.256348,4365,4252.05127,4339.102539,4299.871582,4509.487305,4597.820313,4426.025879,4443.205078,,,,,,,,,,,,,,,,,,,,,,,,,,,,,,,,,,,,,,,,,,,,,,,,,,,,,,,,,,,,,,,,,,,,,,
1720524467,70,0,4290.256348,4245.512695,4405.384766,4278.717773,4288.717773,4305.256348,4369.358887,4246.666504,4338.589844,4291.410156,4506.794922,4596.410156,4420.769043,4433.846191,,,,,,,,,,,,,,,,,,,,,,,,,,,,,,,,,,,,,,,,,,,,,,,,,,,,,,,,,,,,,,,,,,,,,,
1720524467,71,0,4280.769043,4244.871582,4402.563965,4280.128418,4291.025879,4306.410156,4368.589844,4247.307617,4332.692383,4290.128418,4502.94873,4588.846191,4413.974121,4426.922852,,,,,,,,,,,,,,,,,,,,,,,,,,,,,,,,,,,,,,,,,,,,,,,,,,,,,,,,,,,,,,,,,,,,,,
1720524467,72,0,4275.384766,4246.025879,4402.820313,4276.538574,4293.717773,4308.461426,4368.205078,4251.025879,4335.769043,4299.487305,4503.974121,4595.512695,4412.692383,4434.871582,,,,,,,,,,,,,,,,,,,,,,,,,,,,,,,,,,,,,,,,,,,,,,,,,,,,,,,,,,,,,,,,,,,,,,
1720524467,73,0,4277.820313,4252.05127,4406.282227,4280.128418,4298.205078,4311.025879,4372.307617,4243.974121,4345.897461,4304.487305,4508.974121,4607.05127,4424.615234,4447.436035,,,,,,,,,,,,,,,,,,,,,,,,,,,,,,,,,,,,,,,,,,,,,,,,,,,,,,,,,,,,,,,,,,,,,,
1720524467,74,0,4267.820313,4248.974121,4404.358887,4278.974121,4295.897461,4308.077148,4373.717773,4244.487305,4342.94873,4293.717773,4511.410156,4600.641113,4427.563965,4439.743652,,,,,,,,,,,,,,,,,,,,,,,,,,,,,,,,,,,,,,,,,,,,,,,,,,,,,,,,,,,,,,,,,,,,,,
1720524467,75,0,4260.384766,4245.769043,4401.922852,4276.922852,4293.974121,4306.410156,4371.666504,4253.846191,4343.717773,4293.205078,4526.282227,4595,4418.589844,4427.436035,2.257957,1.779617,1.889096,0.404409,0.183975,1.995797,1.681863,1.056139,0.366932,0.202223,27.338789,8.124341,4.17208,2.381829,0.498219,1.905521,0.972852,1.350827,0.440772,0.155343,0.633958,0.33353,0.875555,0.15608,0.17709,0.439678,0.38523,0.985372,0.227621,0.164063,0.969171,0.824197,1.653757,0.54137,0.154489,0.447084,0.634528,0.69026,0.431578,0.127873,1.890679,2.112088,1.9702,0.69074,0.199446,1.516196,2.060372,1.239776,0.614255,0.354422,194.978821,67.66114,18.93626,3.409322,0.3397,2.010763,2.302606,2.972578,1.218932,0.262074,1.857144,2.407661,2.06828,0.816165,0.261164,4.298888,3.423492,3.769232,1.112766,0.272668
1720524467,76,0,4265.641113,4250.128418,4406.025879,4279.102539,4298.717773,4312.179688,4373.717773,4251.025879,4354.743652,4307.307617,4549.615234,4602.179688,4418.846191,4429.230957,,,,,,,,,,,,,,,,,,,,,,,,,,,,,,,,,,,,,,,,,,,,,,,,,,,,,,,,,,,,,,,,,,,,,,
1720524467,77,0,4259.743652,4249.487305,4406.538574,4271.538574,4298.333496,4309.615234,4372.05127,4247.692383,4348.589844,4303.974121,4549.102539,4600.897461,4421.153809,4424.871582,,,,,,,,,,,,,,,,,,,,,,,,,,,,,,,,,,,,,,,,,,,,,,,,,,,,,,,,,,,,,,,,,,,,,,
1720524467,78,0,4245.128418,4246.922852,4400.128418,4261.538574,4294.102539,4299.871582,4365.128418,4245.512695,4338.589844,4285.897461,4529.743652,4590.897461,4413.461426,4411.538574,,,,,,,,,,,,,,,,,,,,,,,,,,,,,,,,,,,,,,,,,,,,,,,,,,,,,,,,,,,,,,,,,,,,,,
1720524467,79,0,4240.769043,4247.692383,4398.589844,4262.436035,4293.205078,4295,4362.94873,4244.358887,4342.820313,4286.794922,4522.563965,4591.666504,4408.717773,4407.05127,,,,,,,,,,,,,,,,,,,,,,,,,,,,,,,,,,,,,,,,,,,,,,,,,,,,,,,,,,,,,,,,,,,,,,
1720524467,80,0,4242.820313,4247.820313,4398.461426,4266.153809,4291.794922,4295.641113,4367.820313,4248.717773,4344.871582,4296.153809,4525.128418,4597.307617,4410,4405,,,,,,,,,,,,,,,,,,,,,,,,,,,,,,,,,,,,,,,,,,,,,,,,,,,,,,,,,,,,,,,,,,,,,,
1720524467,81,0,4239.102539,4248.589844,4399.615234,4264.487305,4290.897461,4300.256348,4375.769043,4252.563965,4348.589844,4296.410156,4523.717773,4602.820313,4412.436035,4404.615234,,,,,,,,,,,,,,,,,,,,,,,,,,,,,,,,,,,,,,,,,,,,,,,,,,,,,,,,,,,,,,,,,,,,,,
1720524467,82,0,4233.717773,4248.974121,4406.922852,4263.333496,4291.410156,4303.461426,4379.615234,4253.589844,4357.436035,4298.589844,4521.666504,4612.307617,4412.820313,4409.102539,,,,,,,,,,,,,,,,,,,,,,,,,,,,,,,,,,,,,,,,,,,,,,,,,,,,,,,,,,,,,,,,,,,,,,
1720524467,83,0,4231.922852,4248.077148,4408.333496,4264.871582,4290.769043,4296.922852,4374.871582,4255.128418,4352.820313,4301.666504,4518.974121,4615.256348,4410.384766,4411.282227,,,,,,,,,,,,,,,,,,,,,,,,,,,,,,,,,,,,,,,,,,,,,,,,,,,,,,,,,,,,,,,,,,,,,,
1720524467,84,0,4232.94873,4256.282227,4405,4265.641113,4292.563965,4291.922852,4370.384766,4249.871582,4345.128418,4296.025879,4518.461426,4611.538574,4414.615234,4417.94873,,,,,,,,,,,,,,,,,,,,,,,,,,,,,,,,,,,,,,,,,,,,,,,,,,,,,,,,,,,,,,,,,,,,,,
1720524467,85,0,4235.384766,4266.922852,4412.05127,4265.769043,4297.94873,4302.179688,4377.563965,4243.717773,4350.769043,4292.94873,4525.384766,4616.666504,4424.743652,4432.436035,,,,,,,,,,,,,,,,,,,,,,,,,,,,,,,,,,,,,,,,,,,,,,,,,,,,,,,,,,,,,,,,,,,,,,
1720524467,86,0,4234.230957,4260.512695,4416.025879,4262.820313,4297.307617,4306.538574,4382.94873,4250.128418,4354.871582,4296.794922,4525,4625.256348,4427.820313,4436.410156,,,,,,,,,,,,,,,,,,,,,,,,,,,,,,,,,,,,,,,,,,,,,,,,,,,,,,,,,,,,,,,,,,,,,,
1720524467,87,0,4228.461426,4251.282227,4407.05127,4259.230957,4293.077148,4296.153809,4379.487305,4254.871582,4356.410156,4302.94873,4519.871582,4625.769043,4424.743652,4433.077148,,,,,,,,,,,,,,,,,,,,,,,,,,,,,,,,,,,,,,,,,,,,,,,,,,,,,,,,,,,,,,,,,,,,,,
1720524467,88,0,4228.589844,4258.077148,4411.282227,4265.256348,4295.769043,4297.563965,4383.846191,4260.256348,4370.384766,4309.230957,4531.025879,4636.538574,4429.871582,4442.692383,,,,,,,,,,,,,,,,,,,,,,,,,,,,,,,,,,,,,,,,,,,,,,,,,,,,,,,,,,,,,,,,,,,,,,
1720524467,89,0,4233.974121,4266.538574,4422.563965,4274.102539,4302.563965,4305.769043,4390.128418,4266.922852,4381.538574,4313.077148,4538.846191,4650.512695,4435.128418,4449.487305,,,,,,,,,,,,,,,,,,,,,,,,,,,,,,,,,,,,,,,,,,,,,,,,,,,,,,,,,,,,,,,,,,,,,,
1720524467,90,0,4228.717773,4264.358887,4423.461426,4270.897461,4302.307617,4299.615234,4386.153809,4262.563965,4377.692383,4313.461426,4525.641113,4644.487305,4431.282227,4440.128418,,,,,,,,,,,,,,,,,,,,,,,,,,,,,,,,,,,,,,,,,,,,,,,,,,,,,,,,,,,,,,,,,,,,,,
1720524467,91,0,4217.563965,4264.230957,4425.256348,4262.307617,4296.666504,4291.025879,4380,4256.794922,4368.974121,4305.384766,4516.666504,4631.666504,4427.179688,4430.897461,2.345178,1.920417,1.849211,0.41627,0.190407,1.870532,1.715598,1.015654,0.374203,0.206837,37.98027,10.866727,4.752719,3.086061,0.593155,1.642092,1.254873,1.383787,0.514519,0.15711,0.584748,0.344074,0.81412,0.133151,0.159831,0.47137,0.345626,0.937213,0.219439,0.154783,0.957497,0.752555,1.449689,0.511704,0.146987,0.471769,0.693589,0.572101,0.42162,0.121155,1.705187,2.451162,1.679824,0.724888,0.181479,1.344112,2.410998,1.127119,0.620955,0.438761,194.590073,66.524185,19.461037,3.257117,0.323323,1.48666,2.421405,2.831871,1.242623,0.254045,1.582427,2.848519,2.142147,0.831211,0.284045,3.742077,3.308223,3.45447,1.046758,0.286183
1720524467,92,0,4215.769043,4273.333496,4426.153809,4264.102539,4296.153809,4294.743652,4377.94873,4255.128418,4365.641113,4290.512695,4519.743652,4627.692383,4424.615234,4428.205078,,,,,,,,,,,,,,,,,,,,,,,,,,,,,,,,,,,,,,,,,,,,,,,,,,,,,,,,,,,,,,,,,,,,,,
1720524467,93,0,4218.333496,4279.487305,4420.769043,4265.256348,4295.384766,4293.974121,4373.333496,4254.743652,4370.512695,4293.333496,4519.487305,4629.102539,4423.589844,4428.077148,,,,,,,,,,,,,,,,,,,,,,,,,,,,,,,,,,,,,,,,,,,,,,,,,,,,,,,,,,,,,,,,,,,,,,
1720524467,94,0,4215.641113,4280.128418,4418.717773,4261.153809,4292.94873,4285.641113,4370.128418,4254.615234,4375.769043,4310.641113,4521.410156,4626.794922,4426.282227,4430.641113,,,,,,,,,,,,,,,,,,,,,,,,,,,,,,,,,,,,,,,,,,,,,,,,,,,,,,,,,,,,,,,,,,,,,,
1720524467,95,0,4214.102539,4288.077148,4422.94873,4266.666504,4298.077148,4290,4376.922852,4257.820313,4379.230957,4313.205078,4530.128418,4628.461426,4431.922852,4436.794922,,,,,,,,,,,,,,,,,,,,,,,,,,,,,,,,,,,,,,,,,,,,,,,,,,,,,,,,,,,,,,,,,,,,,,
1720524467,96,0,4217.436035,4299.102539,4428.205078,4276.153809,4305.897461,4301.282227,4388.205078,4262.94873,4387.563965,4312.179688,4533.846191,4640.256348,4435.641113,4439.615234,,,,,,,,,,,,,,,,,,,,,,,,,,,,,,,,,,,,,,,,,,,,,,,,,,,,,,,,,,,,,,,,,,,,,,
1720524467,97,0,4219.615234,4299.615234,4433.589844,4281.025879,4308.461426,4302.436035,4396.538574,4266.922852,4396.410156,4321.025879,4536.025879,4650.384766,4432.94873,4435.128418,,,,,,,,,,,,,,,,,,,,,,,,,,,,,,,,,,,,,,,,,,,,,,,,,,,,,,,,,,,,,,,,,,,,,,
1720524467,98,0,4211.794922,4294.743652,4434.871582,4277.820313,4307.820313,4298.461426,4398.974121,4269.358887,4394.487305,4319.102539,4538.846191,4654.743652,4432.563965,4430.384766,,,,,,,,,,,,,,,,,,,,,,,,,,,,,,,,,,,,,,,,,,,,,,,,,,,,,,,,,,,,,,,,,,,,,,
1720524467,99,0,4201.153809,4296.153809,4433.077148,4267.820313,4307.179688,4296.025879,4396.410156,4269.743652,4387.05127,4310.128418,4539.743652,4656.794922,4440.641113,4428.077148,,,,,,,,,,,,,,,,,,,,,,,,,,,,,,,,,,,,,,,,,,,,,,,,,,,,,,,,,,,,,,,,,,,,,,
1720524467,100,0,4200.897461,4297.94873,4437.820313,4266.538574,4306.794922,4297.179688,4396.282227,4268.846191,4390.512695,4313.974121,4542.179688,4660.256348,4446.410156,4425.256348,,,,,,,,,,,,,,,,,,,,,,,,,,,,,,,,,,,,,,,,,,,,,,,,,,,,,,,,,,,,,,,,,,,,,,
1720524467,101,0,4186.922852,4284.743652,4431.794922,4264.871582,4301.153809,4296.282227,4393.974121,4259.487305,4392.307617,4307.05127,4532.436035,4648.846191,4427.94873,4402.307617,,,,,,,,,,,,,,,,,,,,,,,,,,,,,,,,,,,,,,,,,,,,,,,,,,,,,,,,,,,,,,,,,,,,,,
1720524467,102,0,4155.128418,4261.794922,4413.333496,4244.743652,4285.897461,4284.871582,4381.025879,4256.282227,4375.641113,4275.897461,4503.589844,4626.025879,4392.820313,4364.615234,,,,,,,,,,,,,,,,,,,,,,,,,,,,,,,,,,,,,,,,,,,,,,,,,,,,,,,,,,,,,,,,,,,,,,
1720524467,103,0,4147.05127,4255.897461,4406.410156,4230.897461,4275.641113,4274.487305,4369.487305,4258.717773,4360,4263.974121,4481.410156,4614.358887,4373.077148,4348.846191,,,,,,,,,,,,,,,,,,,,,,,,,,,,,,,,,,,,,,,,,,,,,,,,,,,,,,,,,,,,,,,,,,,,,,
1720524467,104,0,4169.871582,4273.717773,4417.820313,4246.922852,4282.179688,4280.384766,4371.410156,4256.025879,4366.538574,4282.307617,4489.230957,4624.102539,4381.666504,4366.794922,,,,,,,,,,,,,,,,,,,,,,,,,,,,,,,,,,,,,,,,,,,,,,,,,,,,,,,,,,,,,,,,,,,,,,
1720524467,105,0,4193.589844,4296.794922,4444.871582,4267.307617,4297.307617,4292.820313,4383.333496,4264.102539,4386.538574,4298.077148,4518.461426,4659.487305,4407.05127,4397.05127,,,,,,,,,,,,,,,,,,,,,,,,,,,,,,,,,,,,,,,,,,,,,,,,,,,,,,,,,,,,,,,,,,,,,,
1720524467,106,0,4204.743652,4309.743652,4463.717773,4277.692383,4308.205078,4296.025879,4395.256348,4269.871582,4397.94873,4303.333496,4539.871582,4685.128418,4427.179688,4416.794922,,,,,,,,,,,,,,,,,,,,,,,,,,,,,,,,,,,,,,,,,,,,,,,,,,,,,,,,,,,,,,,,,,,,,,
1720524467,107,0,4205,4311.666504,4460,4279.487305,4308.846191,4294.358887,4396.538574,4264.615234,4394.230957,4304.743652,4541.538574,4681.794922,4431.538574,4422.94873,2.436044,1.981742,1.797724,0.457335,0.205002,1.682781,1.722434,0.985814,0.400656,0.223984,45.207718,12.669263,4.94713,3.54994,0.650686,1.269598,1.586811,1.463359,0.59296,0.164938,0.479071,0.377084,0.718183,0.120377,0.150197,0.493706,0.322086,0.821078,0.211459,0.144921,0.955564,0.683922,1.178553,0.479753,0.140063,0.522054,0.733527,0.427083,0.396593,0.117749,1.668899,2.76223,1.29853,0.769037,0.175388,1.340841,2.845576,1.043842,0.659305,0.552248,166.697708,56.754646,17.41634,2.823045,0.317227,1.112825,2.601461,2.690562,1.246137,0.250676,1.554451,3.464132,2.247238,0.873603,0.312886,3.571573,3.45294,2.993155,0.987334,0.30279
1720524467,108,0,4200.128418,4311.410156,4459.743652,4272.820313,4309.487305,4294.743652,4389.487305,4266.538574,4391.025879,4302.94873,4544.230957,4678.333496,4433.077148,4427.94873,,,,,,,,,,,,,,,,,,,,,,,,,,,,,,,,,,,,,,,,,,,,,,,,,,,,,,,,,,,,,,,,,,,,,,
1720524467,109,0,4197.179688,4311.025879,4466.794922,4266.282227,4308.077148,4292.307617,4387.563965,4269.487305,4397.692383,4305.897461,4553.077148,4678.974121,4435.256348,4428.589844,,,,,,,,,,,,,,,,,,,,,,,,,,,,,,,,,,,,,,,,,,,,,,,,,,,,,,,,,,,,,,,,,,,,,,
1720524467,110,0,4189.102539,4302.820313,4461.410156,4262.692383,4299.230957,4287.05127,4390.384766,4268.461426,4402.179688,4313.589844,4556.666504,4672.94873,4432.563965,4417.179688,,,,,,,,,,,,,,,,,,,,,,,,,,,,,,,,,,,,,,,,,,,,,,,,,,,,,,,,,,,,,,,,,,,,,,
1720524467,111,0,4176.153809,4299.871582,4452.94873,4259.358887,4295,4286.666504,4388.974121,4273.589844,4398.461426,4312.820313,4552.94873,4671.025879,4431.025879,4403.846191,,,,,,,,,,,,,,,,,,,,,,,,,,,,,,,,,,,,,,,,,,,,,,,,,,,,,,,,,,,,,,,,,,,,,,
1720524467,112,0,4170.256348,4302.436035,4456.538574,4255.512695,4296.794922,4286.025879,4390,4273.717773,4399.358887,4308.077148,4545.256348,4673.974121,4429.743652,4394.871582,,,,,,,,,,,,,,,,,,,,,,,,,,,,,,,,,,,,,,,,,,,,,,,,,,,,,,,,,,,,,,,,,,,,,,
1720524467,113,0,4166.666504,4297.692383,4461.410156,4250.769043,4295.256348,4283.589844,4396.153809,4270.384766,4405.128418,4310.256348,4541.922852,4674.871582,4420.769043,4385.641113,,,,,,,,,,,,,,,,,,,,,,,,,,,,,,,,,,,,,,,,,,,,,,,,,,,,,,,,,,,,,,,,,,,,,,
1720524467,114,0,4161.025879,4299.358887,4465.897461,4247.563965,4298.077148,4288.717773,4397.563965,4278.589844,4403.974121,4313.846191,4545.512695,4681.282227,4412.820313,4381.538574,,,,,,,,,,,,,,,,,,,,,,,,,,,,,,,,,,,,,,,,,,,,,,,,,,,,,,,,,,,,,,,,,,,,,,
1720524467,115,0,4156.025879,4307.94873,4470,4249.743652,4304.871582,4295,4393.205078,4275,4396.666504,4307.692383,4542.563965,4681.025879,4413.461426,4376.922852,,,,,,,,,,,,,,,,,,,,,,,,,,,,,,,,,,,,,,,,,,,,,,,,,,,,,,,,,,,,,,,,,,,,,,
1720524467,116,0,4147.05127,4302.179688,4465.384766,4244.871582,4300.128418,4290.897461,4391.153809,4267.05127,4391.025879,4294.230957,4531.410156,4671.025879,4407.307617,4362.307617,,,,,,,,,,,,,,,,,,,,,,,,,,,,,,,,,,,,,,,,,,,,,,,,,,,,,,,,,,,,,,,,,,,,,,
1720524467,117,0,4138.077148,4296.794922,4465.769043,4238.077148,4298.974121,4290.128418,4394.358887,4273.846191,4394.358887,4291.538574,4531.538574,4674.615234,4400.256348,4355.256348,,,,,,,,,,,,,,,,,,,,,,,,,,,,,,,,,,,,,,,,,,,,,,,,,,,,,,,,,,,,,,,,,,,,,,
1720524467,118,0,4135.384766,4306.922852,4476.025879,4239.102539,4308.333496,4296.410156,4396.922852,4273.974121,4401.025879,4304.871582,4541.410156,4684.230957,4407.05127,4362.05127,,,,,,,,,,,,,,,,,,,,,,,,,,,,,,,,,,,,,,,,,,,,,,,,,,,,,,,,,,,,,,,,,,,,,,
1720524467,119,0,4129.487305,4309.230957,4478.589844,4236.282227,4307.179688,4295,4395.512695,4272.94873,4398.589844,4313.077148,4548.717773,4684.230957,4413.846191,4361.153809,,,,,,,,,,,,,,,,,,,,,,,,,,,,,,,,,,,,,,,,,,,,,,,,,,,,,,,,,,,,,,,,,,,,,,
1720524467,120,0,4123.461426,4306.410156,4476.153809,4237.307617,4304.102539,4292.94873,4395.384766,4280,4397.307617,4308.077148,4552.94873,4687.436035,4416.282227,4356.153809,,,,,,,,,,,,,,,,,,,,,,,,,,,,,,,,,,,,,,,,,,,,,,,,,,,,,,,,,,,,,,,,,,,,,,
1720524467,121,0,4125.769043,4313.205078,4483.461426,4246.666504,4310.512695,4293.974121,4396.538574,4280,4401.922852,4301.153809,4555.384766,4696.025879,4419.230957,4360.384766,,,,,,,,,,,,,,,,,,,,,,,,,,,,,,,,,,,,,,,,,,,,,,,,,,,,,,,,,,,,,,,,,,,,,,
1720524467,122,0,4124.358887,4319.871582,4491.410156,4247.179688,4311.282227,4291.666504,4394.615234,4276.153809,4404.102539,4302.94873,4557.05127,4698.717773,4418.205078,4360.897461,,,,,,,,,,,,,,,,,,,,,,,,,,,,,,,,,,,,,,,,,,,,,,,,,,,,,,,,,,,,,,,,,,,,,,
1720524467,123,0,4112.94873,4319.615234,4487.563965,4236.666504,4306.282227,4290.384766,4396.282227,4280.641113,4407.05127,4307.692383,4556.538574,4700.769043,4413.846191,4349.871582,2.486187,1.962891,1.723797,0.503301,0.216817,1.511592,1.714615,0.962656,0.426755,0.242231,46.152519,12.916657,4.642516,3.613983,0.641064,0.897322,1.906019,1.558962,0.639635,0.172789,0.36446,0.425445,0.604543,0.116959,0.146773,0.508792,0.311556,0.676829,0.203369,0.135762,0.933531,0.651571,0.938914,0.454009,0.132428,0.595184,0.743873,0.297773,0.364722,0.116818,1.793273,2.987416,0.933696,0.808987,0.178449,1.490645,3.310162,1.011859,0.712983,0.661939,121.197243,41.904255,13.462901,2.263579,0.320817,1.018632,2.781686,2.528621,1.222268,0.246999,1.750192,4.115069,2.307689,0.913412,0.335729,3.75535,3.862371,2.490795,0.931397,0.312915
1720524467,124,0,4103.333496,4316.794922,4482.692383,4232.05127,4305.897461,4293.589844,4402.563965,4284.871582,4412.94873,4303.974121,4553.974121,4700.256348,4410.769043,4337.820313,,,,,,,,,,,,,,,,,,,,,,,,,,,,,,,,,,,,,,,,,,,,,,,,,,,,,,,,,,,,,,,,,,,,,,
1720524467,125,0,4093.076904,4314.102539,4481.282227,4230,4305.897461,4294.743652,4405,4283.205078,4412.05127,4295.512695,4547.05127,4687.94873,4402.307617,4326.153809,,,,,,,,,,,,,,,,,,,,,,,,,,,,,,,,,,,,,,,,,,,,,,,,,,,,,,,,,,,,,,,,,,,,,,
1720524467,126,0,4082.435791,4319.615234,4480.769043,4228.589844,4308.077148,4295.384766,4407.94873,4285.384766,4408.846191,4297.820313,4539.230957,4682.307617,4394.487305,4319.871582,,,,,,,,,,,,,,,,,,,,,,,,,,,,,,,,,,,,,,,,,,,,,,,,,,,,,,,,,,,,,,,,,,,,,,
1720524467,127,0,4078.718018,4328.717773,4482.820313,4233.717773,4311.666504,4295.256348,4410.256348,4290.128418,4412.05127,4300.384766,4538.717773,4693.333496,4394.871582,4324.230957,,,,,,,,,,,,,,,,,,,,,,,,,,,,,,,,,,,,,,,,,,,,,,,,,,,,,,,,,,,,,,,,,,,,,,
1720524467,0,0,4074.358887,4328.461426,4482.436035,4231.410156,4304.615234,4287.692383,4403.717773,4283.205078,4409.743652,4288.205078,4541.025879,4696.666504,4389.743652,4326.410156,,,,,,,,,,,,,,,,,,,,,,,,,,,,,,,,,,,,,,,,,,,,,,,,,,,,,,,,,,,,,,,,,,,,,,
1720524467,1,0,4061.281982,4325.384766,4477.94873,4227.820313,4296.025879,4281.153809,4393.974121,4275.769043,4396.153809,4278.589844,4535.641113,4688.461426,4377.563965,4322.692383,,,,,,,,,,,,,,,,,,,,,,,,,,,,,,,,,,,,,,,,,,,,,,,,,,,,,,,,,,,,,,,,,,,,,,
1720524467,2,0,4045.128174,4326.153809,4474.487305,4227.05127,4296.410156,4279.615234,4390.769043,4280.384766,4388.846191,4275.641113,4526.666504,4687.05127,4373.974121,4318.077148,,,,,,,,,,,,,,,,,,,,,,,,,,,,,,,,,,,,,,,,,,,,,,,,,,,,,,,,,,,,,,,,,,,,,,
1720524467,3,0,4030,4326.282227,4471.794922,4221.666504,4297.05127,4280.897461,4388.077148,4280.384766,4393.333496,4273.205078,4521.538574,4688.589844,4376.025879,4314.871582,,,,,,,,,,,,,,,,,,,,,,,,,,,,,,,,,,,,,,,,,,,,,,,,,,,,,,,,,,,,,,,,,,,,,,
1720524467,4,0,4020.384521,4325.256348,4466.922852,4214.871582,4294.487305,4285.512695,4386.666504,4274.230957,4398.205078,4274.615234,4522.05127,4685.641113,4373.461426,4316.666504,,,,,,,,,,,,,,,,,,,,,,,,,,,,,,,,,,,,,,,,,,,,,,,,,,,,,,,,,,,,,,,,,,,,,,
1720524467,5,0,4021.794922,4325,4471.410156,4215.897461,4295.897461,4289.743652,4391.025879,4281.666504,4400.512695,4279.358887,4532.307617,4689.743652,4372.436035,4329.358887,,,,,,,,,,,,,,,,,,,,,,,,,,,,,,,,,,,,,,,,,,,,,,,,,,,,,,,,,,,,,,,,,,,,,,
1720524467,6,0,4028.333252,4327.820313,4481.538574,4222.307617,4298.205078,4289.102539,4388.974121,4283.717773,4403.205078,4284.230957,4542.94873,4698.461426,4377.94873,4346.794922,,,,,,,,,,,,,,,,,,,,,,,,,,,,,,,,,,,,,,,,,,,,,,,,,,,,,,,,,,,,,,,,,,,,,,
1720524467,7,0,4030.384521,4337.692383,4485.384766,4229.743652,4298.077148,4285.769043,4383.846191,4278.589844,4407.692383,4288.717773,4550,4705.256348,4386.025879,4368.077148,,,,,,,,,,,,,,,,,,,,,,,,,,,,,,,,,,,,,,,,,,,,,,,,,,,,,,,,,,,,,,,,,,,,,,
1720524467,8,0,4028.205078,4344.743652,4482.179688,4231.794922,4299.615234,4281.666504,4384.230957,4284.615234,4408.461426,4291.794922,4552.94873,4704.487305,4387.692383,4388.205078,,,,,,,,,,,,,,,,,,,,,,,,,,,,,,,,,,,,,,,,,,,,,,,,,,,,,,,,,,,,,,,,,,,,,,
1720524467,9,0,4021.538574,4340.384766,4469.102539,4221.922852,4298.974121,4278.717773,4384.230957,4288.205078,4405.512695,4291.922852,4547.820313,4691.794922,4382.05127,4392.563965,,,,,,,,,,,,,,,,,,,,,,,,,,,,,,,,,,,,,,,,,,,,,,,,,,,,,,,,,,,,,,,,,,,,,,
1720524467,10,0,4014.743652,4337.563965,4459.102539,4214.743652,4295.256348,4280.256348,4384.871582,4285.641113,4405.897461,4295,4544.871582,4684.487305,4382.307617,4393.717773,,,,,,,,,,,,,,,,,,,,,,,,,,,,,,,,,,,,,,,,,,,,,,,,,,,,,,,,,,,,,,,,,,,,,,
1720524467,11,0,4017.564209,4341.794922,4465.769043,4217.05127,4293.846191,4281.153809,4392.436035,4292.563965,4416.153809,4298.589844,4552.436035,4692.436035,4390.512695,4404.102539,2.570119,1.908676,1.633151,0.531274,0.218586,1.417365,1.723722,0.936283,0.433647,0.250425,40.912498,11.515094,3.880972,3.250108,0.56005,0.620763,2.145799,1.62285,0.630287,0.176083,0.269343,0.482795,0.498717,0.120593,0.145096,0.507869,0.326984,0.543198,0.192689,0.129577,0.907655,0.669935,0.78943,0.434017,0.123182,0.667382,0.715471,0.216037,0.332516,0.115459,2.131807,3.04769,0.672018,0.825991,0.186158,1.775492,3.685383,1.029763,0.758991,0.737091,73.01255,26.805239,8.850317,1.742049,0.330834,1.140144,2.885292,2.333913,1.17023,0.23867,2.176768,4.626339,2.241979,0.928776,0.343956,4.272286,4.451959,2.05067,0.871981,0.309985
1720524467,12,0,4026.666748,4347.307617,4476.922852,4218.205078,4297.179688,4284.230957,4401.410156,4299.358887,4427.563965,4304.743652,4561.794922,4703.846191,4398.333496,4422.179688,,,,,,,,,,,,,,,,,,,,,,,,,,,,,,,,,,,,,,,,,,,,,,,,,,,,,,,,,,,,,,,,,,,,,,
1720524467,13,0,4030,4347.179688,4479.487305,4215.897461,4297.94873,4291.025879,4402.692383,4298.077148,4425.641113,4306.666504,4562.94873,4708.333496,4395.384766,4437.179688,,,,,,,,,,,,,,,,,,,,,,,,,,,,,,,,,,,,,,,,,,,,,,,,,,,,,,,,,,,,,,,,,,,,,,
1720524467,14,0,4030.128174,4344.743652,4476.922852,4210.128418,4292.94873,4291.538574,4401.666504,4301.025879,4421.282227,4299.102539,4562.692383,4712.05127,4389.358887,4445.897461,,,,,,,,,,,,,,,,,,,,,,,,,,,,,,,,,,,,,,,,,,,,,,,,,,,,,,,,,,,,,,,,,,,,,,
1720524467,15,0,4033.076904,4348.077148,4469.102539,4204.230957,4293.461426,4287.436035,4400.256348,4302.307617,4422.563965,4299.871582,4564.871582,4712.94873,4391.282227,4454.358887,,,,,,,,,,,,,,,,,,,,,,,,,,,,,,,,,,,,,,,,,,,,,,,,,,,,,,,,,,,,,,,,,,,,,,
1720524467,16,0,4036.923096,4355.128418,4468.461426,4203.461426,4298.974121,4285.641113,4399.487305,4301.538574,4425.128418,4311.410156,4569.487305,4716.538574,4397.436035,4469.358887,,,,,,,,,,,,,,,,,,,,,,,,,,,,,,,,,,,,,,,,,,,,,,,,,,,,,,,,,,,,,,,,,,,,,,
1720524467,17,0,4038.076904,4355.641113,4481.666504,4202.05127,4297.820313,4282.05127,4399.102539,4304.230957,4426.538574,4310.769043,4573.846191,4726.794922,4400,4481.410156,,,,,,,,,,,,,,,,,,,,,,,,,,,,,,,,,,,,,,,,,,,,,,,,,,,,,,,,,,,,,,,,,,,,,,
1720524467,18,0,4036.410156,4355.512695,4484.487305,4201.666504,4291.922852,4277.820313,4396.025879,4300.128418,4423.974121,4297.692383,4570.128418,4725.128418,4397.820313,4472.563965,,,,,,,,,,,,,,,,,,,,,,,,,,,,,,,,,,,,,,,,,,,,,,,,,,,,,,,,,,,,,,,,,,,,,,
1720524467,19,0,4036.281982,4363.461426,4480.128418,4212.179688,4292.436035,4279.230957,4392.307617,4299.230957,4416.922852,4293.333496,4569.358887,4721.025879,4397.179688,4461.922852,,,,,,,,,,,,,,,,,,,,,,,,,,,,,,,,,,,,,,,,,,,,,,,,,,,,,,,,,,,,,,,,,,,,,,
1720524467,20,0,4040.769287,4369.102539,4483.205078,4221.410156,4298.846191,4283.589844,4390.512695,4297.94873,4412.307617,4297.94873,4572.563965,4722.692383,4397.94873,4461.666504,,,,,,,,,,,,,,,,,,,,,,,,,,,,,,,,,,,,,,,,,,,,,,,,,,,,,,,,,,,,,,,,,,,,,,
1720524467,21,0,4045.128174,4367.563965,4483.077148,4218.589844,4298.333496,4282.436035,4389.871582,4294.615234,4414.102539,4298.461426,4571.282227,4723.205078,4396.794922,4462.563965,,,,,,,,,,,,,,,,,,,,,,,,,,,,,,,,,,,,,,,,,,,,,,,,,,,,,,,,,,,,,,,,,,,,,,
1720524467,22,0,4043.718018,4364.871582,4469.871582,4215.512695,4290.897461,4275.128418,4389.230957,4301.922852,4417.05127,4295.384766,4569.743652,4721.538574,4394.102539,4468.205078,,,,,,,,,,,,,,,,,,,,,,,,,,,,,,,,,,,,,,,,,,,,,,,,,,,,,,,,,,,,,,,,,,,,,,
1720524467,23,0,4045.384521,4365.641113,4460.512695,4217.05127,4287.307617,4271.922852,4390.769043,4308.717773,4422.436035,4301.794922,4574.230957,4718.589844,4393.589844,4475.769043,,,,,,,,,,,,,,,,,,,,,,,,,,,,,,,,,,,,,,,,,,,,,,,,,,,,,,,,,,,,,,,,,,,,,,
1720524467,24,0,4054.358887,4366.922852,4466.282227,4216.025879,4291.410156,4275.512695,4400.512695,4311.282227,4433.077148,4318.333496,4581.922852,4720.897461,4399.871582,4480.512695,,,,,,,,,,,,,,,,,,,,,,,,,,,,,,,,,,,,,,,,,,,,,,,,,,,,,,,,,,,,,,,,,,,,,,
1720524467,25,0,4060.512939,4369.102539,4468.077148,4220.897461,4290.769043,4280.256348,4411.282227,4321.538574,4445,4325.897461,4588.846191,4726.282227,4403.077148,4487.179688,,,,,,,,,,,,,,,,,,,,,,,,,,,,,,,,,,,,,,,,,,,,,,,,,,,,,,,,,,,,,,,,,,,,,,
1720524467,26,0,4059.230713,4374.230957,4460.384766,4227.94873,4284.230957,4281.666504,4408.333496,4326.794922,4445.256348,4323.974121,4588.205078,4724.487305,4400.641113,4488.846191,,,,,,,,,,,,,,,,,,,,,,,,,,,,,,,,,,,,,,,,,,,,,,,,,,,,,,,,,,,,,,,,,,,,,,
1720524467,27,0,4053.718018,4375.128418,4449.743652,4221.922852,4283.461426,4279.358887,4395.897461,4317.179688,4433.205078,4320.512695,4576.025879,4712.307617,4396.282227,4471.025879,2.536379,1.911818,1.554089,0.536142,0.21065,1.437133,1.78644,0.921158,0.418843,0.244054,30.633123,8.964458,2.922882,2.583272,0.433417,0.473442,2.270869,1.629939,0.569969,0.17397,0.228924,0.546523,0.440894,0.130768,0.141164,0.48929,0.373212,0.452025,0.177414,0.128489,0.830461,0.730241,0.74888,0.415915,0.11273,0.70635,0.647563,0.191364,0.304168,0.110814,2.432115,2.902198,0.557668,0.808635,0.19465,2.034128,3.866891,1.088331,0.781654,0.76041,34.979473,15.455997,4.926116,1.368508,0.342466,1.403821,2.870288,2.168821,1.107093,0.225512,2.646179,4.923417,2.047598,0.923047,0.334903,5.185211,5.164566,1.771286,0.816525,0.294217
1720524467,28,0,4045.897461,4370.384766,4439.743652,4212.563965,4287.820313,4276.410156,4391.410156,4313.333496,4425.512695,4314.487305,4572.692383,4706.153809,4393.205078,4459.230957,,,,,,,,,,,,,,,,,,,,,,,,,,,,,,,,,,,,,,,,,,,,,,,,,,,,,,,,,,,,,,,,,,,,,,
1720524467,29,0,4044.102539,4371.794922,4428.205078,4214.102539,4291.922852,4278.077148,4395.512695,4314.358887,4429.743652,4311.922852,4586.666504,4708.846191,4400,4471.794922,,,,,,,,,,,,,,,,,,,,,,,,,,,,,,,,,,,,,,,,,,,,,,,,,,,,,,,,,,,,,,,,,,,,,,
1720524467,30,0,4049.615479,4380.128418,4418.205078,4217.692383,4291.794922,4281.538574,4398.077148,4314.230957,4431.794922,4314.102539,4590.256348,4712.307617,4405.256348,4480.128418,,,,,,,,,,,,,,,,,,,,,,,,,,,,,,,,,,,,,,,,,,,,,,,,,,,,,,,,,,,,,,,,,,,,,,
1720524467,31,0,4049.102539,4379.358887,4413.077148,4214.487305,4287.436035,4279.358887,4394.487305,4318.974121,4426.666504,4307.179688,4577.436035,4712.05127,4398.461426,4474.743652,,,,,,,,,,,,,,,,,,,,,,,,,,,,,,,,,,,,,,,,,,,,,,,,,,,,,,,,,,,,,,,,,,,,,,
1720524467,32,0,4051.538574,4378.205078,4406.794922,4215.769043,4288.717773,4278.846191,4388.846191,4315.256348,4423.974121,4304.487305,4577.179688,4707.94873,4395.897461,4476.025879,,,,,,,,,,,,,,,,,,,,,,,,,,,,,,,,,,,,,,,,,,,,,,,,,,,,,,,,,,,,,,,,,,,,,,
1720524467,33,0,4061.410156,4385.128418,4402.05127,4216.922852,4292.179688,4277.692383,4385,4312.436035,4422.05127,4307.820313,4588.077148,4712.436035,4403.333496,4482.563965,,,,,,,,,,,,,,,,,,,,,,,,,,,,,,,,,,,,,,,,,,,,,,,,,,,,,,,,,,,,,,,,,,,,,,
1720524468,34,0,4066.410156,4385.384766,4396.282227,4205.769043,4287.179688,4269.102539,4382.563965,4314.615234,4414.615234,4298.717773,4586.153809,4716.153809,4405.512695,4480.256348,,,,,,,,,,,,,,,,,,,,,,,,,,,,,,,,,,,,,,,,,,,,,,,,,,,,,,,,,,,,,,,,,,,,,,
1720524468,35,0,4070,4376.794922,4384.102539,4196.666504,4279.358887,4263.077148,4381.282227,4309.615234,4408.589844,4287.94873,4579.615234,4708.589844,4402.436035,4476.922852,,,,,,,,,,,,,,,,,,,,,,,,,,,,,,,,,,,,,,,,,,,,,,,,,,,,,,,,,,,,,,,,,,,,,,
1720524468,36,0,4076.923096,4372.563965,4375.769043,4201.922852,4281.153809,4265.256348,4383.077148,4314.871582,4412.179688,4293.974121,4585.384766,4710.512695,4401.922852,4478.461426,,,,,,,,,,,,,,,,,,,,,,,,,,,,,,,,,,,,,,,,,,,,,,,,,,,,,,,,,,,,,,,,,,,,,,
1720524468,37,0,4073.974365,4374.230957,4365.128418,4202.05127,4281.794922,4265.641113,4381.410156,4320.897461,4411.410156,4297.05127,4583.077148,4710.128418,4393.461426,4470.256348,,,,,,,,,,,,,,,,,,,,,,,,,,,,,,,,,,,,,,,,,,,,,,,,,,,,,,,,,,,,,,,,,,,,,,
1720524468,38,0,4066.794922,4373.589844,4347.436035,4189.487305,4274.358887,4262.05127,4376.410156,4315.384766,4402.94873,4287.820313,4570.384766,4695.128418,4382.179688,4458.333496,,,,,,,,,,,,,,,,,,,,,,,,,,,,,,,,,,,,,,,,,,,,,,,,,,,,,,,,,,,,,,,,,,,,,,
1720524468,39,0,4066.538574,4372.692383,4333.333496,4183.974121,4271.538574,4263.717773,4374.358887,4314.743652,4399.358887,4281.410156,4565.512695,4686.153809,4377.179688,4453.846191,,,,,,,,,,,,,,,,,,,,,,,,,,,,,,,,,,,,,,,,,,,,,,,,,,,,,,,,,,,,,,,,,,,,,,
1720524468,40,0,4063.718018,4369.615234,4322.563965,4187.05127,4273.589844,4261.794922,4372.179688,4317.94873,4397.436035,4279.358887,4562.05127,4684.102539,4372.179688,4446.025879,,,,,,,,,,,,,,,,,,,,,,,,,,,,,,,,,,,,,,,,,,,,,,,,,,,,,,,,,,,,,,,,,,,,,,
1720524468,41,0,4063.589844,4368.077148,4312.179688,4187.05127,4273.205078,4253.333496,4372.179688,4316.282227,4394.102539,4281.794922,4563.589844,4685.512695,4373.589844,4440.256348,,,,,,,,,,,,,,,,,,,,,,,,,,,,,,,,,,,,,,,,,,,,,,,,,,,,,,,,,,,,,,,,,,,,,,
1720524468,42,0,4073.461426,4374.487305,4304.358887,4186.922852,4271.922852,4248.077148,4372.307617,4317.692383,4394.743652,4283.205078,4573.717773,4693.461426,4381.666504,4446.153809,,,,,,,,,,,,,,,,,,,,,,,,,,,,,,,,,,,,,,,,,,,,,,,,,,,,,,,,,,,,,,,,,,,,,,
1720524468,43,0,4083.718018,4382.179688,4293.333496,4189.102539,4274.871582,4248.077148,4367.563965,4316.666504,4397.94873,4281.794922,4577.307617,4694.871582,4381.794922,4446.025879,2.664595,2.042348,1.50992,0.533831,0.198386,1.472327,1.91642,0.934367,0.398161,0.226857,19.499407,6.103862,2.036089,1.835359,0.303836,0.457584,2.288724,1.579944,0.49107,0.168856,0.2381,0.613933,0.46159,0.148219,0.133604,0.457235,0.434415,0.415915,0.159826,0.132441,0.754009,0.812662,0.784942,0.399514,0.102468,0.691153,0.55583,0.207939,0.281892,0.101838,2.64372,2.589702,0.557556,0.760832,0.201619,2.247945,3.817352,1.130561,0.779109,0.732194,12.857074,9.33674,2.432478,1.172197,0.350206,1.692455,2.740616,2.054548,1.062111,0.211467,3.069919,5.039999,1.765165,0.918882,0.312179,6.579424,5.927528,1.66061,0.79478,0.271983
1720524468,44,0,4086.794922,4383.205078,4279.102539,4187.179688,4277.563965,4248.461426,4366.410156,4311.153809,4396.794922,4283.461426,4575.512695,4685.897461,4373.205078,4435,,,,,,,,,,,,,,,,,,,,,,,,,,,,,,,,,,,,,,,,,,,,,,,,,,,,,,,,,,,,,,,,,,,,,,
1720524468,45,0,4083.205078,4380,4265.641113,4185.512695,4277.692383,4242.05127,4368.974121,4315.897461,4392.179688,4272.94873,4588.589844,4678.461426,4362.692383,4423.461426,,,,,,,,,,,,,,,,,,,,,,,,,,,,,,,,,,,,,,,,,,,,,,,,,,,,,,,,,,,,,,,,,,,,,,
1720524468,46,0,4078.333252,4381.666504,4249.615234,4185.512695,4278.846191,4234.615234,4363.205078,4313.205078,4385.641113,4251.794922,4602.179688,4668.461426,4349.871582,4412.563965,,,,,,,,,,,,,,,,,,,,,,,,,,,,,,,,,,,,,,,,,,,,,,,,,,,,,,,,,,,,,,,,,,,,,,
1720524468,47,0,4077.692383,4380,4236.410156,4177.94873,4276.153809,4230.641113,4355,4306.794922,4379.871582,4239.743652,4595,4660.769043,4340.256348,4401.410156,,,,,,,,,,,,,,,,,,,,,,,,,,,,,,,,,,,,,,,,,,,,,,,,,,,,,,,,,,,,,,,,,,,,,,
1720524468,48,0,4081.281982,4372.05127,4226.538574,4169.743652,4266.025879,4223.077148,4356.538574,4311.794922,4381.025879,4237.563965,4584.358887,4662.05127,4340.384766,4394.230957,,,,,,,,,,,,,,,,,,,,,,,,,,,,,,,,,,,,,,,,,,,,,,,,,,,,,,,,,,,,,,,,,,,,,,
1720524468,49,0,4088.718018,4374.230957,4212.563965,4176.922852,4263.589844,4214.743652,4359.871582,4312.563965,4380.641113,4233.461426,4587.94873,4663.205078,4343.205078,4392.05127,,,,,,,,,,,,,,,,,,,,,,,,,,,,,,,,,,,,,,,,,,,,,,,,,,,,,,,,,,,,,,,,,,,,,,
1720524468,50,0,4097.563965,4383.461426,4198.205078,4184.102539,4272.436035,4212.692383,4356.282227,4308.974121,4370.769043,4228.589844,4589.358887,4661.922852,4340.256348,4386.282227,,,,,,,,,,,,,,,,,,,,,,,,,,,,,,,,,,,,,,,,,,,,,,,,,,,,,,,,,,,,,,,,,,,,,,
1720524468,51,0,4095,4379.615234,4180.641113,4175.128418,4270.769043,4209.743652,4349.615234,4308.974121,4365.769043,4226.538574,4576.666504,4655,4332.563965,4374.615234,,,,,,,,,,,,,,,,,,,,,,,,,,,,,,,,,,,,,,,,,,,,,,,,,,,,,,,,,,,,,,,,,,,,,,
1720524468,52,0,4090.384521,4372.94873,4161.538574,4166.025879,4261.025879,4203.589844,4350.128418,4314.230957,4374.743652,4230.384766,4575.384766,4651.153809,4336.025879,4367.692383,,,,,,,,,,,,,,,,,,,,,,,,,,,,,,,,,,,,,,,,,,,,,,,,,,,,,,,,,,,,,,,,,,,,,,
1720524468,53,0,4091.410156,4371.153809,4143.974121,4161.538574,4257.307617,4201.282227,4350.641113,4312.94873,4373.974121,4232.179688,4582.05127,4651.025879,4343.846191,4363.589844,,,,,,,,,,,,,,,,,,,,,,,,,,,,,,,,,,,,,,,,,,,,,,,,,,,,,,,,,,,,,,,,,,,,,,
1720524468,54,0,4088.589844,4361.922852,4124.743652,4152.436035,4251.538574,4198.846191,4342.179688,4307.563965,4357.179688,4224.230957,4574.358887,4643.077148,4333.717773,4352.94873,,,,,,,,,,,,,,,,,,,,,,,,,,,,,,,,,,,,,,,,,,,,,,,,,,,,,,,,,,,,,,,,,,,,,,
1720524468,55,0,4090.769287,4358.974121,4115.256348,4147.94873,4247.179688,4197.692383,4337.05127,4307.179688,4349.358887,4215,4564.230957,4636.410156,4322.692383,4347.307617,,,,,,,,,,,,,,,,,,,,,,,,,,,,,,,,,,,,,,,,,,,,,,,,,,,,,,,,,,,,,,,,,,,,,,
1720524468,56,0,4105.897461,4367.179688,4110.641113,4151.282227,4248.461426,4198.846191,4333.461426,4305.769043,4348.077148,4203.974121,4558.077148,4635.256348,4326.538574,4352.436035,,,,,,,,,,,,,,,,,,,,,,,,,,,,,,,,,,,,,,,,,,,,,,,,,,,,,,,,,,,,,,,,,,,,,,
1720524468,57,0,4118.333496,4369.615234,4099.487305,4151.922852,4250.256348,4199.358887,4328.974121,4303.461426,4343.974121,4192.820313,4550.897461,4630.256348,4324.615234,4346.922852,,,,,,,,,,,,,,,,,,,,,,,,,,,,,,,,,,,,,,,,,,,,,,,,,,,,,,,,,,,,,,,,,,,,,,
1720524468,58,0,4121.153809,4372.307617,4092.692383,4153.333496,4254.230957,4197.436035,4331.153809,4308.205078,4344.743652,4197.436035,4550,4631.666504,4319.358887,4339.230957,,,,,,,,,,,,,,,,,,,,,,,,,,,,,,,,,,,,,,,,,,,,,,,,,,,,,,,,,,,,,,,,,,,,,,
1720524468,59,0,4128.974121,4382.179688,4094.871826,4155,4255.897461,4189.230957,4331.794922,4315.897461,4344.487305,4201.153809,4555,4644.871582,4327.692383,4352.05127,2.852633,2.308157,1.504969,0.546762,0.187069,1.516524,2.092031,0.990357,0.393271,0.206554,9.908013,3.718916,1.418724,1.222678,0.208533,0.513401,2.23298,1.495568,0.435867,0.163589,0.287024,0.678062,0.563973,0.171715,0.1236,0.41405,0.484987,0.431375,0.145663,0.138009,0.645935,0.908131,0.848129,0.388471,0.093605,0.616533,0.475288,0.242295,0.264939,0.090216,2.497406,2.222573,0.618313,0.698363,0.205628,2.301529,3.599569,1.12708,0.757804,0.666288,4.382855,7.303195,1.354673,1.106489,0.349455,1.853689,2.545989,2.02341,1.057644,0.201105,3.300638,5.050688,1.490294,0.937361,0.282475,8.479519,6.665315,1.718573,0.836305,0.251648
1720524468,60,0,4140.128418,4381.153809,4087.435791,4152.436035,4250.641113,4185.897461,4324.230957,4304.102539,4335.128418,4192.94873,4550.769043,4640.897461,4332.94873,4363.461426,,,,,,,,,,,,,,,,,,,,,,,,,,,,,,,,,,,,,,,,,,,,,,,,,,,,,,,,,,,,,,,,,,,,,,
1720524468,61,0,4156.794922,4378.077148,4082.435791,4158.205078,4255.641113,4194.871582,4323.974121,4299.358887,4330.769043,4194.358887,4550.384766,4632.563965,4332.820313,4368.717773,,,,,,,,,,,,,,,,,,,,,,,,,,,,,,,,,,,,,,,,,,,,,,,,,,,,,,,,,,,,,,,,,,,,,,
1720524468,62,0,4184.358887,4392.692383,4096.025879,4171.410156,4264.230957,4203.589844,4332.820313,4312.307617,4337.436035,4202.307617,4563.077148,4645.769043,4349.487305,4391.538574,,,,,,,,,,,,,,,,,,,,,,,,,,,,,,,,,,,,,,,,,,,,,,,,,,,,,,,,,,,,,,,,,,,,,,
1720524468,63,0,4204.230957,4399.743652,4102.94873,4176.538574,4255.641113,4209.230957,4335.512695,4308.717773,4341.282227,4204.743652,4574.358887,4651.025879,4368.846191,4416.922852,,,,,,,,,,,,,,,,,,,,,,,,,,,,,,,,,,,,,,,,,,,,,,,,,,,,,,,,,,,,,,,,,,,,,,
1720524468,64,0,4210.641113,4390.384766,4089.102539,4170.641113,4245.128418,4212.05127,4331.538574,4306.153809,4341.025879,4215.384766,4578.333496,4646.153809,4371.922852,4421.410156,,,,,,,,,,,,,,,,,,,,,,,,,,,,,,,,,,,,,,,,,,,,,,,,,,,,,,,,,,,,,,,,,,,,,,
1720524468,65,0,4225.256348,4390.769043,4065.641113,4173.077148,4247.563965,4205.769043,4326.666504,4315.384766,4345.384766,4231.666504,4583.974121,4653.846191,4377.436035,4431.794922,,,,,,,,,,,,,,,,,,,,,,,,,,,,,,,,,,,,,,,,,,,,,,,,,,,,,,,,,,,,,,,,,,,,,,
1720524468,66,0,4248.077148,4396.922852,4054.871826,4182.692383,4248.589844,4200.512695,4325.769043,4319.487305,4347.692383,4233.589844,4599.487305,4661.282227,4397.820313,4460.769043,,,,,,,,,,,,,,,,,,,,,,,,,,,,,,,,,,,,,,,,,,,,,,,,,,,,,,,,,,,,,,,,,,,,,,
1720524468,67,0,4260,4396.153809,4062.94873,4183.717773,4245.897461,4202.307617,4324.487305,4320.384766,4344.230957,4227.179688,4610.897461,4657.05127,4409.358887,4475.256348,,,,,,,,,,,,,,,,,,,,,,,,,,,,,,,,,,,,,,,,,,,,,,,,,,,,,,,,,,,,,,,,,,,,,,
1720524468,68,0,4271.922852,4401.666504,4068.333252,4188.461426,4248.333496,4198.846191,4316.922852,4321.025879,4342.179688,4233.974121,4611.410156,4655.769043,4412.692383,4479.230957,,,,,,,,,,,,,,,,,,,,,,,,,,,,,,,,,,,,,,,,,,,,,,,,,,,,,,,,,,,,,,,,,,,,,,
1720524468,69,0,4276.153809,4399.615234,4059.871826,4191.410156,4246.922852,4193.333496,4312.563965,4316.025879,4336.794922,4232.179688,4606.282227,4652.820313,4412.179688,4483.205078,,,,,,,,,,,,,,,,,,,,,,,,,,,,,,,,,,,,,,,,,,,,,,,,,,,,,,,,,,,,,,,,,,,,,,
1720524468,70,0,4254.615234,4372.307617,4049.743652,4168.589844,4233.205078,4193.077148,4310,4314.102539,4318.077148,4208.077148,4588.589844,4636.922852,4389.102539,4467.179688,,,,,,,,,,,,,,,,,,,,,,,,,,,,,,,,,,,,,,,,,,,,,,,,,,,,,,,,,,,,,,,,,,,,,,
1720524468,71,0,4250,4361.410156,4053.076904,4149.358887,4227.307617,4195,4305.897461,4317.820313,4312.179688,4200.641113,4578.077148,4627.436035,4376.153809,4456.410156,,,,,,,,,,,,,,,,,,,,,,,,,,,,,,,,,,,,,,,,,,,,,,,,,,,,,,,,,,,,,,,,,,,,,,
1720524468,72,0,4287.307617,4389.102539,4076.153809,4167.179688,4237.307617,4200.512695,4310.641113,4317.307617,4328.717773,4224.871582,4600.641113,4641.794922,4407.307617,4487.94873,,,,,,,,,,,,,,,,,,,,,,,,,,,,,,,,,,,,,,,,,,,,,,,,,,,,,,,,,,,,,,,,,,,,,,
1720524468,73,0,4324.358887,4414.487305,4104.615234,4193.333496,4247.692383,4204.358887,4320.128418,4321.794922,4339.743652,4244.615234,4631.282227,4667.94873,4444.102539,4526.794922,,,,,,,,,,,,,,,,,,,,,,,,,,,,,,,,,,,,,,,,,,,,,,,,,,,,,,,,,,,,,,,,,,,,,,
1720524468,74,0,4332.692383,4416.410156,4113.461426,4197.05127,4248.846191,4203.077148,4317.307617,4320.512695,4335.384766,4249.487305,4632.94873,4671.282227,4447.179688,4528.589844,,,,,,,,,,,,,,,,,,,,,,,,,,,,,,,,,,,,,,,,,,,,,,,,,,,,,,,,,,,,,,,,,,,,,,
1720524468,75,0,4330.256348,4413.461426,4111.282227,4190.641113,4243.205078,4199.871582,4307.307617,4313.077148,4329.102539,4247.436035,4621.410156,4649.871582,4436.794922,4514.871582,3.238115,2.647177,1.555689,0.583677,0.17852,1.469319,2.256753,1.068845,0.409989,0.189394,4.034533,2.207381,1.11776,0.85649,0.162295,0.655015,2.137271,1.403127,0.427051,0.159922,0.349422,0.728052,0.70449,0.195625,0.113611,0.384075,0.504409,0.48267,0.139996,0.140022,0.604452,1.011897,0.901771,0.383194,0.086946,0.521322,0.441356,0.280434,0.249751,0.079032,2.215546,1.919434,0.70698,0.635953,0.205757,2.26698,3.331237,1.106046,0.724643,0.581785,2.852849,6.961101,1.150862,1.085733,0.338503,1.974577,2.345208,2.093286,1.086881,0.19615,3.325033,5.002741,1.341958,0.973901,0.252117,10.496691,7.243127,1.97252,0.937512,0.238595
1720524468,76,0,4338.589844,4419.743652,4114.487305,4189.743652,4244.102539,4200.384766,4308.589844,4317.563965,4330.512695,4240,4623.589844,4642.563965,4439.102539,4511.794922,,,,,,,,,,,,,,,,,,,,,,,,,,,,,,,,,,,,,,,,,,,,,,,,,,,,,,,,,,,,,,,,,,,,,,
1720524468,77,0,4344.102539,4418.205078,4118.205078,4190.128418,4244.487305,4202.436035,4311.410156,4322.692383,4333.333496,4237.436035,4629.358887,4647.436035,4449.487305,4512.307617,,,,,,,,,,,,,,,,,,,,,,,,,,,,,,,,,,,,,,,,,,,,,,,,,,,,,,,,,,,,,,,,,,,,,,
1720524468,78,0,4333.974121,4402.820313,4122.05127,4182.94873,4236.794922,4201.282227,4306.666504,4322.05127,4331.153809,4247.820313,4624.102539,4640.512695,4445.512695,4503.717773,,,,,,,,,,,,,,,,,,,,,,,,,,,,,,,,,,,,,,,,,,,,,,,,,,,,,,,,,,,,,,,,,,,,,,
1720524468,79,0,4333.205078,4404.102539,4128.333496,4180.641113,4235.512695,4202.94873,4303.974121,4318.846191,4323.205078,4250,4611.794922,4629.487305,4427.563965,4488.333496,,,,,,,,,,,,,,,,,,,,,,,,,,,,,,,,,,,,,,,,,,,,,,,,,,,,,,,,,,,,,,,,,,,,,,
1720524468,80,0,4352.436035,4419.102539,4139.615234,4188.077148,4239.615234,4203.846191,4304.230957,4314.743652,4315.897461,4236.153809,4609.102539,4629.230957,4429.487305,4487.94873,,,,,,,,,,,,,,,,,,,,,,,,,,,,,,,,,,,,,,,,,,,,,,,,,,,,,,,,,,,,,,,,,,,,,,
1720524468,81,0,4361.410156,4417.94873,4154.358887,4188.333496,4235.641113,4201.538574,4305.897461,4315.769043,4316.153809,4237.307617,4614.358887,4635.512695,4445.256348,4500.256348,,,,,,,,,,,,,,,,,,,,,,,,,,,,,,,,,,,,,,,,,,,,,,,,,,,,,,,,,,,,,,,,,,,,,,
1720524468,82,0,4362.563965,4416.666504,4170.897461,4191.025879,4235.769043,4205.384766,4310.641113,4322.307617,4325.384766,4258.333496,4615,4644.743652,4444.102539,4504.871582,,,,,,,,,,,,,,,,,,,,,,,,,,,,,,,,,,,,,,,,,,,,,,,,,,,,,,,,,,,,,,,,,,,,,,
1720524468,83,0,4375.769043,4432.820313,4183.717773,4204.358887,4248.717773,4210.512695,4308.974121,4325,4331.538574,4258.717773,4613.717773,4647.820313,4440,4508.717773,,,,,,,,,,,,,,,,,,,,,,,,,,,,,,,,,,,,,,,,,,,,,,,,,,,,,,,,,,,,,,,,,,,,,,
1720524468,84,0,4381.410156,4434.230957,4186.922852,4202.436035,4248.077148,4204.743652,4296.538574,4318.461426,4321.025879,4243.589844,4610,4632.563965,4444.615234,4520.384766,,,,,,,,,,,,,,,,,,,,,,,,,,,,,,,,,,,,,,,,,,,,,,,,,,,,,,,,,,,,,,,,,,,,,,
1720524468,85,0,4370.641113,4413.717773,4185.512695,4187.820313,4233.717773,4197.05127,4288.077148,4310.769043,4311.922852,4245.897461,4603.077148,4617.05127,4438.205078,4525.128418,,,,,,,,,,,,,,,,,,,,,,,,,,,,,,,,,,,,,,,,,,,,,,,,,,,,,,,,,,,,,,,,,,,,,,
1720524468,86,0,4363.205078,4405.256348,4187.692383,4183.077148,4226.794922,4197.692383,4286.025879,4311.153809,4306.794922,4242.307617,4597.179688,4615.512695,4423.974121,4522.05127,,,,,,,,,,,,,,,,,,,,,,,,,,,,,,,,,,,,,,,,,,,,,,,,,,,,,,,,,,,,,,,,,,,,,,
1720524468,87,0,4372.05127,4416.410156,4199.102539,4189.230957,4231.410156,4198.077148,4283.717773,4315.256348,4299.230957,4231.410156,4601.794922,4617.820313,4430.897461,4532.307617,,,,,,,,,,,,,,,,,,,,,,,,,,,,,,,,,,,,,,,,,,,,,,,,,,,,,,,,,,,,,,,,,,,,,,
1720524468,88,0,4375,4414.615234,4204.102539,4188.846191,4236.025879,4192.436035,4279.358887,4304.615234,4296.922852,4237.94873,4598.974121,4603.974121,4435.256348,4536.025879,,,,,,,,,,,,,,,,,,,,,,,,,,,,,,,,,,,,,,,,,,,,,,,,,,,,,,,,,,,,,,,,,,,,,,
1720524468,89,0,4363.461426,4400.512695,4206.410156,4182.692383,4231.666504,4186.282227,4274.487305,4295.769043,4291.538574,4237.436035,4581.153809,4586.410156,4418.589844,4516.666504,,,,,,,,,,,,,,,,,,,,,,,,,,,,,,,,,,,,,,,,,,,,,,,,,,,,,,,,,,,,,,,,,,,,,,
1720524468,90,0,4363.205078,4401.794922,4221.025879,4184.487305,4224.358887,4186.922852,4277.179688,4307.05127,4282.307617,4230.897461,4573.205078,4587.820313,4409.871582,4506.794922,,,,,,,,,,,,,,,,,,,,,,,,,,,,,,,,,,,,,,,,,,,,,,,,,,,,,,,,,,,,,,,,,,,,,,
1720524468,91,0,4366.794922,4405.384766,4229.102539,4183.717773,4218.077148,4189.871582,4279.230957,4307.436035,4278.717773,4232.563965,4567.692383,4580.641113,4402.94873,4499.358887,3.620492,2.932532,1.660013,0.63919,0.170934,1.379267,2.353817,1.146352,0.437803,0.17788,1.810513,1.526292,1.041478,0.718829,0.155251,0.814031,2.015793,1.318935,0.460657,0.157584,0.412603,0.75685,0.822289,0.212629,0.106138,0.384438,0.487528,0.546907,0.144108,0.134424,0.601809,1.111948,0.92438,0.377871,0.082472,0.422249,0.467433,0.310712,0.232339,0.071552,1.829732,1.739735,0.795272,0.580115,0.20154,2.202177,3.104199,1.104286,0.682929,0.495246,3.01643,6.531922,1.249843,1.040354,0.320045,1.930257,2.161878,2.213828,1.120437,0.195258,3.184242,4.870076,1.360973,0.999019,0.2261,12.609901,7.460802,2.370258,1.058685,0.234091
1720524468,92,0,4358.461426,4395.512695,4224.487305,4172.436035,4214.615234,4185.128418,4269.743652,4295.769043,4278.077148,4223.589844,4553.333496,4557.94873,4386.025879,4475.897461,,,,,,,,,,,,,,,,,,,,,,,,,,,,,,,,,,,,,,,,,,,,,,,,,,,,,,,,,,,,,,,,,,,,,,
1720524468,93,0,4353.205078,4391.282227,4226.410156,4167.05127,4213.846191,4179.487305,4260,4295.897461,4272.436035,4212.563965,4549.871582,4551.153809,4384.615234,4465.512695,,,,,,,,,,,,,,,,,,,,,,,,,,,,,,,,,,,,,,,,,,,,,,,,,,,,,,,,,,,,,,,,,,,,,,
1720524468,94,0,4356.282227,4396.282227,4235,4171.282227,4214.871582,4182.307617,4262.307617,4298.974121,4270.769043,4218.077148,4556.922852,4558.333496,4392.563965,4474.615234,,,,,,,,,,,,,,,,,,,,,,,,,,,,,,,,,,,,,,,,,,,,,,,,,,,,,,,,,,,,,,,,,,,,,,
1720524468,95,0,4355.897461,4396.410156,4239.358887,4171.025879,4217.307617,4186.153809,4264.743652,4299.871582,4277.179688,4221.282227,4557.563965,4559.358887,4386.794922,4475.769043,,,,,,,,,,,,,,,,,,,,,,,,,,,,,,,,,,,,,,,,,,,,,,,,,,,,,,,,,,,,,,,,,,,,,,
1720524468,96,0,4356.410156,4394.871582,4242.94873,4167.94873,4214.358887,4183.461426,4260.128418,4302.179688,4277.436035,4213.589844,4552.94873,4553.974121,4381.538574,4473.205078,,,,,,,,,,,,,,,,,,,,,,,,,,,,,,,,,,,,,,,,,,,,,,,,,,,,,,,,,,,,,,,,,,,,,,
1720524468,97,0,4359.230957,4394.102539,4244.615234,4168.205078,4208.077148,4178.333496,4257.436035,4296.794922,4268.461426,4210.641113,4542.563965,4544.487305,4378.461426,4480.769043,,,,,,,,,,,,,,,,,,,,,,,,,,,,,,,,,,,,,,,,,,,,,,,,,,,,,,,,,,,,,,,,,,,,,,
1720524468,98,0,4362.563965,4393.846191,4252.307617,4168.589844,4210.512695,4180.641113,4262.05127,4292.94873,4261.666504,4215.128418,4535.897461,4543.077148,4371.282227,4494.230957,,,,,,,,,,,,,,,,,,,,,,,,,,,,,,,,,,,,,,,,,,,,,,,,,,,,,,,,,,,,,,,,,,,,,,
1720524468,99,0,4367.820313,4397.436035,4266.025879,4168.461426,4218.205078,4187.692383,4265.384766,4302.692383,4261.153809,4217.179688,4543.333496,4549.871582,4373.077148,4503.077148,,,,,,,,,,,,,,,,,,,,,,,,,,,,,,,,,,,,,,,,,,,,,,,,,,,,,,,,,,,,,,,,,,,,,,
1720524468,100,0,4365.384766,4393.717773,4262.94873,4167.94873,4216.922852,4182.436035,4255.128418,4297.563965,4254.102539,4203.077148,4533.333496,4534.743652,4364.615234,4496.922852,,,,,,,,,,,,,,,,,,,,,,,,,,,,,,,,,,,,,,,,,,,,,,,,,,,,,,,,,,,,,,,,,,,,,,
1720524468,101,0,4365.128418,4386.538574,4258.461426,4170.256348,4215.256348,4174.615234,4245.641113,4287.692383,4243.461426,4185.769043,4514.743652,4515.769043,4347.94873,4488.974121,,,,,,,,,,,,,,,,,,,,,,,,,,,,,,,,,,,,,,,,,,,,,,,,,,,,,,,,,,,,,,,,,,,,,,
1720524468,102,0,4373.205078,4383.974121,4268.846191,4172.820313,4218.717773,4179.358887,4244.358887,4291.153809,4245.256348,4192.820313,4520.128418,4519.230957,4355.256348,4491.538574,,,,,,,,,,,,,,,,,,,,,,,,,,,,,,,,,,,,,,,,,,,,,,,,,,,,,,,,,,,,,,,,,,,,,,
1720524468,103,0,4381.153809,4387.05127,4281.282227,4176.153809,4219.487305,4185,4244.230957,4292.692383,4251.282227,4214.102539,4533.077148,4527.307617,4369.102539,4498.974121,,,,,,,,,,,,,,,,,,,,,,,,,,,,,,,,,,,,,,,,,,,,,,,,,,,,,,,,,,,,,,,,,,,,,,
1720524468,104,0,4386.794922,4395.641113,4288.717773,4185.512695,4225.256348,4183.717773,4243.077148,4294.230957,4251.025879,4215.256348,4536.410156,4527.820313,4366.922852,4503.589844,,,,,,,,,,,,,,,,,,,,,,,,,,,,,,,,,,,,,,,,,,,,,,,,,,,,,,,,,,,,,,,,,,,,,,
1720524468,105,0,4391.538574,4393.461426,4289.102539,4188.461426,4231.025879,4183.333496,4235.769043,4299.102539,4248.717773,4201.410156,4536.538574,4522.179688,4363.589844,4504.230957,,,,,,,,,,,,,,,,,,,,,,,,,,,,,,,,,,,,,,,,,,,,,,,,,,,,,,,,,,,,,,,,,,,,,,
1720524468,106,0,4390.769043,4381.282227,4284.871582,4183.589844,4222.563965,4184.358887,4231.410156,4302.05127,4247.820313,4203.717773,4535,4517.563965,4365.256348,4504.871582,,,,,,,,,,,,,,,,,,,,,,,,,,,,,,,,,,,,,,,,,,,,,,,,,,,,,,,,,,,,,,,,,,,,,,
1720524468,107,0,4383.846191,4381.282227,4287.94873,4190.384766,4214.487305,4184.358887,4239.871582,4298.846191,4249.102539,4218.846191,4533.461426,4516.922852,4368.974121,4508.461426,3.955222,3.031579,1.77758,0.707285,0.16398,1.226555,2.334273,1.185268,0.46666,0.173692,1.516877,1.384796,1.010718,0.712683,0.165755,1.032465,1.855859,1.230088,0.518689,0.156783,0.468314,0.758427,0.861205,0.220133,0.102751,0.439695,0.440945,0.594669,0.155606,0.120481,0.654047,1.179456,0.891182,0.363884,0.080336,0.351352,0.534725,0.321683,0.210193,0.070028,1.58224,1.663512,0.858288,0.530075,0.194365,2.178977,2.962049,1.145747,0.636633,0.419172,3.563683,5.846597,1.418305,0.958569,0.30159,1.854492,1.963661,2.283366,1.126438,0.197382,3.04143,4.587938,1.493282,0.987839,0.211462,14.916228,7.147964,2.784285,1.150946,0.238062
1720524468,108,0,4380.512695,4388.846191,4296.538574,4199.743652,4221.794922,4186.153809,4246.794922,4299.358887,4251.025879,4222.563965,4538.461426,4516.666504,4378.205078,4511.025879,,,,,,,,,,,,,,,,,,,,,,,,,,,,,,,,,,,,,,,,,,,,,,,,,,,,,,,,,,,,,,,,,,,,,,
1720524468,109,0,4382.820313,4384.487305,4300.256348,4196.025879,4230.897461,4188.205078,4247.05127,4309.230957,4253.589844,4218.589844,4548.846191,4520.384766,4383.846191,4512.563965,,,,,,,,,,,,,,,,,,,,,,,,,,,,,,,,,,,,,,,,,,,,,,,,,,,,,,,,,,,,,,,,,,,,,,
1720524468,110,0,4383.974121,4377.436035,4302.820313,4194.487305,4231.282227,4188.974121,4246.666504,4311.922852,4250.897461,4216.025879,4552.94873,4521.025879,4382.05127,4510.384766,,,,,,,,,,,,,,,,,,,,,,,,,,,,,,,,,,,,,,,,,,,,,,,,,,,,,,,,,,,,,,,,,,,,,,
