Timestamp,EEG.Counter,EEG.Interpolated,EEG.AF3,EEG.F7,EEG.F3,EEG.FC5,EEG.T7,EEG.P7,EEG.O1,EEG.O2,EEG.P8,EEG.T8,EEG.FC6,EEG.F4,EEG.F8,EEG.AF4,POW.AF3.Theta,POW.AF3.Alpha,POW.AF3.BetaL,POW.AF3.BetaH,POW.AF3.Gamma,POW.F7.Theta,POW.F7.Alpha,POW.F7.BetaL,POW.F7.BetaH,POW.F7.Gamma,POW.F3.Theta,POW.F3.Alpha,POW.F3.BetaL,POW.F3.BetaH,POW.F3.Gamma,POW.FC5.Theta,POW.FC5.Alpha,POW.FC5.BetaL,POW.FC5.BetaH,POW.FC5.Gamma,POW.T7.Theta,POW.T7.Alpha,POW.T7.BetaL,POW.T7.BetaH,POW.T7.Gamma,POW.P7.Theta,POW.P7.Alpha,POW.P7.BetaL,POW.P7.BetaH,POW.P7.Gamma,POW.O1.Theta,POW.O1.Alpha,POW.O1.BetaL,POW.O1.BetaH,POW.O1.Gamma,POW.O2.Theta,POW.O2.Alpha,POW.O2.BetaL,POW.O2.BetaH,POW.O2.Gamma,POW.P8.Theta,POW.P8.Alpha,POW.P8.BetaL,POW.P8.BetaH,POW.P8.Gamma,POW.T8.Theta,POW.T8.Alpha,POW.T8.BetaL,POW.T8.BetaH,POW.T8.Gamma,POW.FC6.Theta,POW.FC6.Alpha,POW.FC6.BetaL,POW.FC6.BetaH,POW.FC6.Gamma,POW.F4.Theta,POW.F4.Alpha,POW.F4.BetaL,POW.F4.BetaH,POW.F4.Gamma,POW.F8.Theta,POW.F8.Alpha,POW.F8.BetaL,POW.F8.BetaH,POW.F8.Gamma,POW.AF4.Theta,POW.AF4.Alpha,POW.AF4.BetaL,POW.AF4.BetaH,POW.AF4.Gamma
1720079372,33,0,4359.358887,4379.230957,4313.974121,4369.487305,4390.641113,4389.358887,4411.282227,4411.794922,4401.538574,4325.897461,4288.717773,4453.974121,4308.461426,4303.974121,,,,,,,,,,,,,,,,,,,,,,,,,,,,,,,,,,,,,,,,,,,,,,,,,,,,,,,,,,,,,,,,,,,,,,
1720079372,34,0,4358.461426,4381.666504,4313.205078,4366.538574,4396.922852,4393.205078,4413.205078,4417.307617,4408.717773,4326.025879,4293.589844,4460,4312.94873,4302.563965,,,,,,,,,,,,,,,,,,,,,,,,,,,,,,,,,,,,,,,,,,,,,,,,,,,,,,,,,,,,,,,,,,,,,,
1720079372,35,0,4356.282227,4382.05127,4308.717773,4351.794922,4399.743652,4398.461426,4412.307617,4421.410156,4413.589844,4325.384766,4295,4462.692383,4317.692383,4301.153809,,,,,,,,,,,,,,,,,,,,,,,,,,,,,,,,,,,,,,,,,,,,,,,,,,,,,,,,,,,,,,,,,,,,,,
1720079372,36,0,4355.512695,4380.641113,4309.102539,4351.794922,4397.05127,4398.333496,4411.922852,4422.05127,4414.871582,4327.179688,4292.94873,4460.384766,4319.743652,4305.128418,,,,,,,,,,,,,,,,,,,,,,,,,,,,,,,,,,,,,,,,,,,,,,,,,,,,,,,,,,,,,,,,,,,,,,
1720079372,37,0,4356.922852,4382.05127,4312.05127,4361.153809,4394.102539,4391.922852,4411.153809,4420.641113,4415.256348,4327.436035,4289.230957,4459.358887,4318.461426,4300.384766,,,,,,,,,,,,,,,,,,,,,,,,,,,,,,,,,,,,,,,,,,,,,,,,,,,,,,,,,,,,,,,,,,,,,,
1720079372,38,0,4360.256348,4385.897461,4314.871582,4365.128418,4397.436035,4391.922852,4412.563965,4425,4413.205078,4313.205078,4292.563965,4462.563965,4313.717773,4296.922852,,,,,,,,,,,,,,,,,,,,,,,,,,,,,,,,,,,,,,,,,,,,,,,,,,,,,,,,,,,,,,,,,,,,,,
1720079372,39,0,4365.769043,4391.538574,4321.666504,4372.820313,4402.05127,4396.538574,4413.461426,4426.666504,4410.256348,4294.230957,4295.384766,4468.077148,4314.871582,4301.794922,,,,,,,,,,,,,,,,,,,,,,,,,,,,,,,,,,,,,,,,,,,,,,,,,,,,,,,,,,,,,,,,,,,,,,
1720079372,40,0,4376.025879,4394.615234,4335.641113,4381.153809,4400.128418,4397.05127,4411.922852,4426.410156,4411.282227,4288.846191,4299.487305,4481.666504,4328.461426,4313.589844,,,,,,,,,,,,,,,,,,,,,,,,,,,,,,,,,,,,,,,,,,,,,,,,,,,,,,,,,,,,,,,,,,,,,,
1720079372,41,0,4384.871582,4397.179688,4345.256348,4379.615234,4398.589844,4396.922852,4417.94873,4435,4411.410156,4292.94873,4310.641113,4497.05127,4337.563965,4325.512695,,,,,,,,,,,,,,,,,,,,,,,,,,,,,,,,,,,,,,,,,,,,,,,,,,,,,,,,,,,,,,,,,,,,,,
1720079372,42,0,4381.922852,4401.794922,4345.384766,4373.846191,4404.102539,4397.05127,4421.025879,4432.563965,4410.769043,4293.846191,4309.102539,4490.512695,4333.205078,4313.333496,,,,,,,,,,,,,,,,,,,,,,,,,,,,,,,,,,,,,,,,,,,,,,,,,,,,,,,,,,,,,,,,,,,,,,
1720079372,43,0,4377.05127,4398.717773,4343.717773,4371.538574,4408.589844,4395.897461,4414.487305,4426.794922,4410.641113,4293.589844,4298.205078,4480.769043,4333.077148,4308.333496,,,,,,,,,,,,,,,,,,,,,,,,,,,,,,,,,,,,,,,,,,,,,,,,,,,,,,,,,,,,,,,,,,,,,,
1720079372,44,0,4379.358887,4397.94873,4343.333496,4375.769043,4409.743652,4396.538574,4410.384766,4434.102539,4405.641113,4298.077148,4298.717773,4487.179688,4335.384766,4322.94873,,,,,,,,,,,,,,,,,,,,,,,,,,,,,,,,,,,,,,,,,,,,,,,,,,,,,,,,,,,,,,,,,,,,,,
1720079372,45,0,4383.974121,4408.333496,4344.230957,4383.974121,4412.307617,4399.102539,4411.282227,4433.717773,4404.230957,4307.94873,4304.230957,4488.205078,4334.487305,4320.769043,,,,,,,,,,,,,,,,,,,,,,,,,,,,,,,,,,,,,,,,,,,,,,,,,,,,,,,,,,,,,,,,,,,,,,
1720079372,46,0,4381.922852,4410.384766,4342.436035,4387.436035,4409.487305,4397.179688,4412.692383,4429.102539,4408.589844,4313.205078,4306.410156,4486.922852,4338.717773,4316.666504,,,,,,,,,,,,,,,,,,,,,,,,,,,,,,,,,,,,,,,,,,,,,,,,,,,,,,,,,,,,,,,,,,,,,,
1720079372,47,0,4375,4398.205078,4336.538574,4382.94873,4403.974121,4394.615234,4413.205078,4427.179688,4405.384766,4311.282227,4301.025879,4484.487305,4336.922852,4314.615234,,,,,,,,,,,,,,,,,,,,,,,,,,,,,,,,,,,,,,,,,,,,,,,,,,,,,,,,,,,,,,,,,,,,,,
1720079372,48,0,4376.025879,4394.102539,4335,4380,4406.410156,4393.077148,4412.820313,4425,4398.333496,4310,4295.512695,4477.820313,4329.230957,4308.333496,7.907768,2.704625,1.326583,1.009589,0.240833,1.726007,1.194527,1.438497,1.025011,0.38675,2.774367,2.430025,1.469592,1.15602,0.227301,1.788578,1.163408,1.540952,2.265665,0.750888,0.76904,0.329815,0.272729,0.284988,0.097459,0.432487,0.317423,0.381121,0.226209,0.097803,0.552748,0.613732,0.597147,0.386735,0.110768,0.398175,0.698611,0.545856,0.26193,0.158247,1.309985,1.139068,1.093372,0.41926,0.255722,4.191778,2.421625,0.955976,0.66888,0.207645,1.893379,1.708715,1.575608,0.851049,0.25669,2.923952,1.890796,1.293622,0.839216,0.235149,3.029158,2.48585,1.835626,1.186581,0.363424,3.29679,1.754193,0.749958,0.448888,0.210669
1720079372,49,0,4384.871582,4402.820313,4338.589844,4379.358887,4411.153809,4391.922852,4412.307617,4429.102539,4399.615234,4311.153809,4299.871582,4480.897461,4335.512695,4311.794922,,,,,,,,,,,,,,,,,,,,,,,,,,,,,,,,,,,,,,,,,,,,,,,,,,,,,,,,,,,,,,,,,,,,,,
1720079372,50,0,4384.230957,4413.077148,4337.436035,4383.974121,4412.436035,4394.102539,4413.077148,4426.794922,4400.128418,4314.743652,4301.410156,4482.563965,4343.846191,4315.256348,,,,,,,,,,,,,,,,,,,,,,,,,,,,,,,,,,,,,,,,,,,,,,,,,,,,,,,,,,,,,,,,,,,,,,
1720079372,51,0,4374.743652,4415.128418,4331.025879,4391.025879,4407.436035,4396.153809,4412.05127,4422.563965,4397.436035,4320.897461,4297.179688,4472.94873,4338.333496,4309.358887,,,,,,,,,,,,,,,,,,,,,,,,,,,,,,,,,,,,,,,,,,,,,,,,,,,,,,,,,,,,,,,,,,,,,,
1720079372,52,0,4372.307617,4405.897461,4327.05127,4384.358887,4399.487305,4394.615234,4410.641113,4430.256348,4402.05127,4328.461426,4297.692383,4470.641113,4333.205078,4303.974121,,,,,,,,,,,,,,,,,,,,,,,,,,,,,,,,,,,,,,,,,,,,,,,,,,,,,,,,,,,,,,,,,,,,,,
1720079372,53,0,4376.282227,4400.384766,4326.025879,4374.102539,4403.589844,4394.230957,4411.153809,4429.358887,4404.358887,4331.153809,4300.641113,4474.743652,4331.282227,4308.846191,,,,,,,,,,,,,,,,,,,,,,,,,,,,,,,,,,,,,,,,,,,,,,,,,,,,,,,,,,,,,,,,,,,,,,
1720079372,54,0,4374.102539,4400.769043,4324.487305,4371.410156,4413.461426,4396.922852,4410.897461,4415.769043,4397.307617,4327.94873,4292.94873,4468.205078,4323.846191,4304.743652,,,,,,,,,,,,,,,,,,,,,,,,,,,,,,,,,,,,,,,,,,,,,,,,,,,,,,,,,,,,,,,,,,,,,,
1720079372,55,0,4371.794922,4396.410156,4324.358887,4372.05127,4407.563965,4397.436035,4411.538574,4418.589844,4395.897461,4328.974121,4289.230957,4469.743652,4321.538574,4301.666504,,,,,,,,,,,,,,,,,,,,,,,,,,,,,,,,,,,,,,,,,,,,,,,,,,,,,,,,,,,,,,,,,,,,,,
1720079372,56,0,4378.974121,4400.769043,4333.077148,4385.769043,4400.384766,4396.794922,4413.589844,4426.922852,4399.615234,4334.102539,4301.282227,4477.820313,4327.307617,4309.615234,,,,,,,,,,,,,,,,,,,,,,,,,,,,,,,,,,,,,,,,,,,,,,,,,,,,,,,,,,,,,,,,,,,,,,
1720079372,57,0,4381.666504,4408.589844,4341.922852,4399.358887,4409.358887,4396.922852,4414.102539,4422.94873,4397.692383,4336.922852,4304.358887,4475.512695,4323.461426,4306.025879,,,,,,,,,,,,,,,,,,,,,,,,,,,,,,,,,,,,,,,,,,,,,,,,,,,,,,,,,,,,,,,,,,,,,,
1720079372,58,0,4374.743652,4404.358887,4337.820313,4386.666504,4415.897461,4395.128418,4412.692383,4423.461426,4397.307617,4340.128418,4298.589844,4477.05127,4324.358887,4305.897461,,,,,,,,,,,,,,,,,,,,,,,,,,,,,,,,,,,,,,,,,,,,,,,,,,,,,,,,,,,,,,,,,,,,,,
1720079372,59,0,4376.666504,4400.512695,4333.717773,4376.282227,4411.410156,4395.128418,4411.666504,4421.410156,4397.05127,4345.769043,4298.717773,4477.820313,4338.589844,4313.205078,,,,,,,,,,,,,,,,,,,,,,,,,,,,,,,,,,,,,,,,,,,,,,,,,,,,,,,,,,,,,,,,,,,,,,
1720079372,60,0,4387.436035,4405.384766,4339.487305,4391.794922,4410,4397.307617,4411.794922,4414.743652,4387.94873,4343.974121,4300.384766,4473.333496,4344.487305,4312.94873,,,,,,,,,,,,,,,,,,,,,,,,,,,,,,,,,,,,,,,,,,,,,,,,,,,,,,,,,,,,,,,,,,,,,,
1720079372,61,0,4394.358887,4408.717773,4345.641113,4400.256348,4412.820313,4396.794922,4411.794922,4415.641113,4382.563965,4341.538574,4304.230957,4480.641113,4348.333496,4315.512695,,,,,,,,,,,,,,,,,,,,,,,,,,,,,,,,,,,,,,,,,,,,,,,,,,,,,,,,,,,,,,,,,,,,,,
1720079372,62,0,4395.512695,4408.589844,4344.358887,4389.102539,4412.820313,4394.871582,4411.922852,4414.871582,4384.615234,4348.589844,4308.461426,4488.846191,4358.205078,4318.205078,,,,,,,,,,,,,,,,,,,,,,,,,,,,,,,,,,,,,,,,,,,,,,,,,,,,,,,,,,,,,,,,,,,,,,
1720079372,63,0,4388.846191,4402.563965,4335.512695,4380.128418,4407.820313,4395.897461,4412.307617,4409.358887,4379.615234,4345.384766,4303.205078,4481.410156,4355,4316.153809,,,,,,,,,,,,,,,,,,,,,,,,,,,,,,,,,,,,,,,,,,,,,,,,,,,,,,,,,,,,,,,,,,,,,,
1720079372,64,0,4382.307617,4391.538574,4329.358887,4380,4401.282227,4397.692383,4412.692383,4405.384766,4369.871582,4328.333496,4299.743652,4470.769043,4340.384766,4315.128418,9.756155,2.530263,1.268903,1.014373,0.234846,1.894995,1.186137,1.357155,0.995063,0.391353,3.345672,2.355561,1.372924,1.16231,0.219778,1.958857,1.162401,1.480774,2.256551,0.724405,0.808136,0.310809,0.259752,0.249316,0.085066,0.385201,0.206384,0.352501,0.210221,0.095643,0.587464,0.40193,0.565213,0.358296,0.106234,0.38506,0.501289,0.488166,0.264246,0.173385,1.347759,1.079648,1.007086,0.426966,0.254176,3.627101,2.487755,0.915729,0.636872,0.203927,1.91031,1.604076,1.403313,0.851287,0.258232,3.32583,1.745165,1.320178,0.812592,0.245907,3.09489,2.436436,1.739144,1.083939,0.348715,3.899189,1.564247,0.760223,0.442983,0.223394
1720079372,65,0,4384.615234,4387.820313,4334.230957,4381.538574,4401.538574,4396.794922,4412.563965,4404.487305,4370.769043,4324.487305,4307.436035,4472.179688,4339.615234,4317.179688,,,,,,,,,,,,,,,,,,,,,,,,,,,,,,,,,,,,,,,,,,,,,,,,,,,,,,,,,,,,,,,,,,,,,,
1720079372,66,0,4387.307617,4390,4336.922852,4382.05127,4406.538574,4395.384766,4413.077148,4411.538574,4378.077148,4336.410156,4309.358887,4481.025879,4344.615234,4321.794922,,,,,,,,,,,,,,,,,,,,,,,,,,,,,,,,,,,,,,,,,,,,,,,,,,,,,,,,,,,,,,,,,,,,,,
1720079372,67,0,4380.897461,4387.820313,4327.820313,4379.615234,4412.05127,4396.922852,4412.307617,4412.436035,4379.230957,4337.179688,4303.205078,4476.538574,4343.205078,4313.589844,,,,,,,,,,,,,,,,,,,,,,,,,,,,,,,,,,,,,,,,,,,,,,,,,,,,,,,,,,,,,,,,,,,,,,
1720079372,68,0,4373.974121,4385.641113,4322.307617,4374.871582,4413.077148,4401.666504,4410.256348,4399.358887,4374.871582,4328.205078,4299.871582,4462.820313,4340.769043,4301.538574,,,,,,,,,,,,,,,,,,,,,,,,,,,,,,,,,,,,,,,,,,,,,,,,,,,,,,,,,,,,,,,,,,,,,,
1720079372,69,0,4374.871582,4381.666504,4323.974121,4368.974121,4404.743652,4401.153809,4411.153809,4401.538574,4370.384766,4322.692383,4298.205078,4467.05127,4335.256348,4309.487305,,,,,,,,,,,,,,,,,,,,,,,,,,,,,,,,,,,,,,,,,,,,,,,,,,,,,,,,,,,,,,,,,,,,,,
1720079372,70,0,4381.666504,4380.641113,4325.769043,4372.436035,4402.436035,4402.563965,4414.487305,4408.205078,4373.974121,4319.487305,4294.487305,4471.666504,4329.358887,4309.871582,,,,,,,,,,,,,,,,,,,,,,,,,,,,,,,,,,,,,,,,,,,,,,,,,,,,,,,,,,,,,,,,,,,,,,
1720079372,71,0,4384.871582,4390.769043,4327.179688,4381.410156,4410.256348,4407.94873,4414.871582,4403.077148,4385.384766,4320.256348,4299.487305,4467.692383,4336.794922,4305.512695,,,,,,,,,,,,,,,,,,,,,,,,,,,,,,,,,,,,,,,,,,,,,,,,,,,,,,,,,,,,,,,,,,,,,,
1720079372,72,0,4379.358887,4393.974121,4324.615234,4379.358887,4406.410156,4404.615234,4412.94873,4406.153809,4390.512695,4323.461426,4309.102539,4469.230957,4350.384766,4314.358887,,,,,,,,,,,,,,,,,,,,,,,,,,,,,,,,,,,,,,,,,,,,,,,,,,,,,,,,,,,,,,,,,,,,,,
1720079372,73,0,4375.641113,4387.563965,4322.436035,4381.410156,4394.615234,4397.820313,4412.94873,4406.794922,4387.05127,4320.769043,4307.820313,4465,4350.128418,4314.487305,,,,,,,,,,,,,,,,,,,,,,,,,,,,,,,,,,,,,,,,,,,,,,,,,,,,,,,,,,,,,,,,,,,,,,
1720079372,74,0,4377.94873,4388.974121,4324.358887,4387.692383,4399.743652,4398.461426,4412.563965,4402.307617,4383.974121,4313.974121,4307.307617,4462.436035,4340.897461,4311.153809,,,,,,,,,,,,,,,,,,,,,,,,,,,,,,,,,,,,,,,,,,,,,,,,,,,,,,,,,,,,,,,,,,,,,,
1720079372,75,0,4384.743652,4397.563965,4326.410156,4383.846191,4411.153809,4398.461426,4410.897461,4400.769043,4380.897461,4308.974121,4308.589844,4466.153809,4338.846191,4307.436035,,,,,,,,,,,,,,,,,,,,,,,,,,,,,,,,,,,,,,,,,,,,,,,,,,,,,,,,,,,,,,,,,,,,,,
1720079372,76,0,4394.743652,4398.205078,4332.436035,4380.897461,4411.025879,4396.666504,4410.769043,4401.025879,4379.487305,4309.230957,4310.512695,4471.410156,4346.153809,4308.077148,,,,,,,,,,,,,,,,,,,,,,,,,,,,,,,,,,,,,,,,,,,,,,,,,,,,,,,,,,,,,,,,,,,,,,
1720079372,77,0,4397.820313,4393.461426,4339.487305,4381.410156,4410.256348,4402.436035,4414.230957,4406.538574,4387.436035,4312.436035,4316.794922,4479.615234,4356.025879,4318.846191,,,,,,,,,,,,,,,,,,,,,,,,,,,,,,,,,,,,,,,,,,,,,,,,,,,,,,,,,,,,,,,,,,,,,,
1720079372,78,0,4395.256348,4400.769043,4337.436035,4382.436035,4411.794922,4405,4414.358887,4407.692383,4391.666504,4310.897461,4319.230957,4479.487305,4358.846191,4320.128418,,,,,,,,,,,,,,,,,,,,,,,,,,,,,,,,,,,,,,,,,,,,,,,,,,,,,,,,,,,,,,,,,,,,,,
1720079372,79,0,4396.025879,4411.410156,4337.436035,4392.563965,4411.025879,4397.563965,4411.025879,4401.922852,4383.846191,4304.615234,4317.820313,4476.794922,4360.128418,4318.077148,,,,,,,,,,,,,,,,,,,,,,,,,,,,,,,,,,,,,,,,,,,,,,,,,,,,,,,,,,,,,,,,,,,,,,
1720079372,80,0,4400.384766,4409.743652,4341.922852,4398.205078,4411.153809,4398.077148,4418.461426,4401.025879,4383.461426,4303.461426,4318.846191,4479.487305,4363.589844,4322.94873,10.651725,2.130306,1.15387,0.969596,0.231174,2.006241,1.090585,1.199488,0.922234,0.387284,3.785213,2.075543,1.263064,1.121426,0.219656,2.110121,1.064366,1.341698,2.141975,0.688768,0.836277,0.309249,0.276365,0.220531,0.075496,0.453423,0.175701,0.313676,0.191489,0.089909,0.682397,0.291218,0.492778,0.312118,0.098743,0.482729,0.419254,0.417108,0.25371,0.179897,1.445405,1.046739,0.883589,0.422102,0.247028,3.076713,2.480009,0.868885,0.584324,0.200812,1.984374,1.490584,1.193209,0.811906,0.259524,3.663763,1.543931,1.249635,0.753249,0.252464,3.222461,2.289659,1.627662,1.002674,0.344964,4.167939,1.289003,0.741586,0.429122,0.234287
1720079372,81,0,4406.922852,4410.897461,4344.102539,4397.05127,4411.410156,4407.692383,4425.641113,4406.153809,4388.461426,4306.794922,4321.538574,4483.333496,4364.230957,4329.743652,,,,,,,,,,,,,,,,,,,,,,,,,,,,,,,,,,,,,,,,,,,,,,,,,,,,,,,,,,,,,,,,,,,,,,
1720079372,82,0,4418.077148,4425.641113,4351.538574,4412.563965,4412.94873,4406.282227,4419.102539,4402.692383,4384.102539,4304.102539,4321.410156,4485.384766,4364.102539,4330.256348,,,,,,,,,,,,,,,,,,,,,,,,,,,,,,,,,,,,,,,,,,,,,,,,,,,,,,,,,,,,,,,,,,,,,,
1720079372,83,0,4418.333496,4424.615234,4352.563965,4417.436035,4413.846191,4396.922852,4413.974121,4393.717773,4371.922852,4291.794922,4317.436035,4483.077148,4357.307617,4324.615234,,,,,,,,,,,,,,,,,,,,,,,,,,,,,,,,,,,,,,,,,,,,,,,,,,,,,,,,,,,,,,,,,,,,,,
1720079372,84,0,4396.025879,4390.641113,4327.05127,4377.820313,4401.922852,4390.641113,4409.871582,4383.461426,4360.256348,4273.333496,4299.615234,4463.205078,4330,4314.615234,,,,,,,,,,,,,,,,,,,,,,,,,,,,,,,,,,,,,,,,,,,,,,,,,,,,,,,,,,,,,,,,,,,,,,
1720079372,85,0,4386.794922,4374.871582,4312.692383,4353.205078,4392.94873,4390.641113,4402.436035,4377.820313,4356.153809,4268.589844,4286.410156,4446.666504,4311.922852,4304.487305,,,,,,,,,,,,,,,,,,,,,,,,,,,,,,,,,,,,,,,,,,,,,,,,,,,,,,,,,,,,,,,,,,,,,,
1720079372,86,0,4419.615234,4406.538574,4345.512695,4385.897461,4411.025879,4401.794922,4411.922852,4393.717773,4371.922852,4292.179688,4307.307617,4474.871582,4341.794922,4324.871582,,,,,,,,,,,,,,,,,,,,,,,,,,,,,,,,,,,,,,,,,,,,,,,,,,,,,,,,,,,,,,,,,,,,,,
1720079372,87,0,4459.358887,4435.897461,4380.641113,4418.974121,4430.641113,4413.974121,4428.846191,4406.666504,4393.589844,4315.512695,4335.256348,4505.897461,4382.179688,4355.769043,,,,,,,,,,,,,,,,,,,,,,,,,,,,,,,,,,,,,,,,,,,,,,,,,,,,,,,,,,,,,,,,,,,,,,
1720079372,88,0,4469.358887,4430.769043,4382.307617,4413.589844,4425,4413.846191,4422.94873,4400.512695,4391.922852,4313.589844,4336.025879,4501.282227,4385.512695,4355.128418,,,,,,,,,,,,,,,,,,,,,,,,,,,,,,,,,,,,,,,,,,,,,,,,,,,,,,,,,,,,,,,,,,,,,,
1720079372,89,0,4473.974121,4429.615234,4380,4407.05127,4415.641113,4409.102539,4415.128418,4397.307617,4380.769043,4305.897461,4327.563965,4500,4373.974121,4351.922852,,,,,,,,,,,,,,,,,,,,,,,,,,,,,,,,,,,,,,,,,,,,,,,,,,,,,,,,,,,,,,,,,,,,,,
1720079372,90,0,4489.358887,4445.128418,4392.692383,4428.589844,4416.282227,4411.410156,4424.487305,4397.820313,4388.077148,4311.794922,4333.974121,4512.94873,4383.077148,4363.205078,,,,,,,,,,,,,,,,,,,,,,,,,,,,,,,,,,,,,,,,,,,,,,,,,,,,,,,,,,,,,,,,,,,,,,
1720079372,91,0,4498.077148,4448.461426,4402.436035,4446.025879,4417.94873,4415.769043,4430.897461,4400.384766,4401.666504,4319.230957,4345.384766,4519.230957,4398.846191,4372.307617,,,,,,,,,,,,,,,,,,,,,,,,,,,,,,,,,,,,,,,,,,,,,,,,,,,,,,,,,,,,,,,,,,,,,,
1720079372,92,0,4501.666504,4442.05127,4398.333496,4431.538574,4423.461426,4416.794922,4429.230957,4401.282227,4397.820313,4316.153809,4346.794922,4518.461426,4395.512695,4376.538574,,,,,,,,,,,,,,,,,,,,,,,,,,,,,,,,,,,,,,,,,,,,,,,,,,,,,,,,,,,,,,,,,,,,,,
1720079372,93,0,4506.025879,4442.94873,4391.666504,4415,4427.05127,4413.205078,4428.589844,4393.846191,4384.102539,4304.358887,4336.538574,4509.102539,4381.666504,4371.282227,,,,,,,,,,,,,,,,,,,,,,,,,,,,,,,,,,,,,,,,,,,,,,,,,,,,,,,,,,,,,,,,,,,,,,
1720079372,94,0,4508.589844,4449.230957,4392.94873,4420.769043,4423.205078,4410.641113,4427.307617,4393.461426,4383.717773,4297.179688,4333.846191,4504.487305,4379.358887,4373.846191,,,,,,,,,,,,,,,,,,,,,,,,,,,,,,,,,,,,,,,,,,,,,,,,,,,,,,,,,,,,,,,,,,,,,,
1720079372,95,0,4514.743652,4457.563965,4400.256348,4429.230957,4422.820313,4417.179688,4433.205078,4400.897461,4394.102539,4303.461426,4343.461426,4512.692383,4391.794922,4383.717773,,,,,,,,,,,,,,,,,,,,,,,,,,,,,,,,,,,,,,,,,,,,,,,,,,,,,,,,,,,,,,,,,,,,,,
1720079372,96,0,4520.641113,4460.512695,4404.102539,4432.436035,4428.589844,4421.538574,4441.538574,4397.563965,4399.615234,4309.615234,4341.666504,4515.641113,4401.153809,4377.94873,10.419161,1.625382,0.991011,0.881509,0.226861,2.063203,0.94853,0.992244,0.832235,0.373478,4.095585,1.690804,1.133659,1.040482,0.221166,2.233127,0.911429,1.149432,1.955505,0.642208,0.851171,0.322947,0.313951,0.199486,0.071954,0.593507,0.188941,0.270892,0.170342,0.081938,0.862508,0.252589,0.39958,0.256983,0.08881,0.730329,0.396671,0.352741,0.233001,0.176011,1.644739,1.026224,0.748176,0.403415,0.230762,2.706071,2.408717,0.808211,0.518134,0.197746,2.07639,1.352031,0.998271,0.745264,0.259795,3.937251,1.297546,1.107599,0.673669,0.251582,3.370088,2.067189,1.534837,0.948932,0.351685,4.048653,0.980783,0.700282,0.408346,0.240496
1720079372,97,0,4525.128418,4457.692383,4406.282227,4438.589844,4426.538574,4416.410156,4438.846191,4401.922852,4396.666504,4309.102539,4339.102539,4521.025879,4398.717773,4381.666504,,,,,,,,,,,,,,,,,,,,,,,,,,,,,,,,,,,,,,,,,,,,,,,,,,,,,,,,,,,,,,,,,,,,,,
1720079372,98,0,4526.794922,4458.846191,4410.769043,4436.922852,4422.820313,4417.820313,4436.538574,4409.102539,4396.666504,4308.974121,4344.487305,4527.436035,4392.94873,4389.102539,,,,,,,,,,,,,,,,,,,,,,,,,,,,,,,,,,,,,,,,,,,,,,,,,,,,,,,,,,,,,,,,,,,,,,
1720079372,99,0,4529.102539,4461.282227,4414.487305,4428.974121,4428.846191,4423.974121,4441.410156,4401.282227,4402.563965,4311.410156,4352.307617,4527.820313,4398.717773,4391.282227,,,,,,,,,,,,,,,,,,,,,,,,,,,,,,,,,,,,,,,,,,,,,,,,,,,,,,,,,,,,,,,,,,,,,,
1720079372,100,0,4529.871582,4459.871582,4414.102539,4432.692383,4430,4422.307617,4438.974121,4400.128418,4403.589844,4310.512695,4352.563965,4526.538574,4401.538574,4396.922852,,,,,,,,,,,,,,,,,,,,,,,,,,,,,,,,,,,,,,,,,,,,,,,,,,,,,,,,,,,,,,,,,,,,,,
1720079372,101,0,4525.769043,4459.487305,4410.769043,4438.077148,4423.589844,4415.128418,4431.153809,4400.128418,4396.794922,4304.358887,4338.589844,4520,4385.512695,4385.384766,,,,,,,,,,,,,,,,,,,,,,,,,,,,,,,,,,,,,,,,,,,,,,,,,,,,,,,,,,,,,,,,,,,,,,
1720079372,102,0,4528.717773,4460.512695,4409.871582,4440.897461,4423.717773,4413.846191,4432.94873,4399.871582,4397.05127,4303.461426,4340.384766,4522.179688,4383.717773,4381.794922,,,,,,,,,,,,,,,,,,,,,,,,,,,,,,,,,,,,,,,,,,,,,,,,,,,,,,,,,,,,,,,,,,,,,,
1720079372,103,0,4536.282227,4461.666504,4413.205078,4448.461426,4428.461426,4417.436035,4435.128418,4404.102539,4401.282227,4310.256348,4352.820313,4526.666504,4394.487305,4390.256348,,,,,,,,,,,,,,,,,,,,,,,,,,,,,,,,,,,,,,,,,,,,,,,,,,,,,,,,,,,,,,,,,,,,,,
1720079372,104,0,4531.922852,4460.512695,4416.282227,4445,4430.128418,4416.922852,4429.871582,4396.666504,4395.512695,4312.436035,4343.846191,4519.230957,4385.769043,4384.230957,,,,,,,,,,,,,,,,,,,,,,,,,,,,,,,,,,,,,,,,,,,,,,,,,,,,,,,,,,,,,,,,,,,,,,
1720079372,105,0,4519.743652,4457.563965,4410.769043,4431.410156,4427.05127,4413.205078,4428.205078,4393.589844,4389.615234,4305.512695,4327.94873,4513.846191,4373.717773,4376.410156,,,,,,,,,,,,,,,,,,,,,,,,,,,,,,,,,,,,,,,,,,,,,,,,,,,,,,,,,,,,,,,,,,,,,,
1720079372,106,0,4517.820313,4457.436035,4404.230957,4425.641113,4422.692383,4411.153809,4430.384766,4400.384766,4394.871582,4303.589844,4330.897461,4513.846191,4378.974121,4376.922852,,,,,,,,,,,,,,,,,,,,,,,,,,,,,,,,,,,,,,,,,,,,,,,,,,,,,,,,,,,,,,,,,,,,,,
1720079372,107,0,4525,4460.769043,4410.769043,4432.307617,4424.102539,4412.179688,4430.384766,4398.333496,4398.333496,4313.205078,4340,4512.820313,4381.794922,4380.128418,,,,,,,,,,,,,,,,,,,,,,,,,,,,,,,,,,,,,,,,,,,,,,,,,,,,,,,,,,,,,,,,,,,,,,
1720079372,108,0,4520,4460.641113,4410.641113,4436.666504,4429.230957,4415.384766,4427.436035,4389.487305,4395.128418,4316.153809,4335.256348,4507.179688,4372.563965,4374.487305,,,,,,,,,,,,,,,,,,,,,,,,,,,,,,,,,,,,,,,,,,,,,,,,,,,,,,,,,,,,,,,,,,,,,,
1720079372,109,0,4508.974121,4457.563965,4397.820313,4429.743652,4427.179688,4417.692383,4427.436035,4390.897461,4396.025879,4302.307617,4333.077148,4503.717773,4369.487305,4370.384766,,,,,,,,,,,,,,,,,,,,,,,,,,,,,,,,,,,,,,,,,,,,,,,,,,,,,,,,,,,,,,,,,,,,,,
1720079372,110,0,4511.025879,4459.743652,4400.128418,4432.563965,4425.256348,4416.153809,4428.333496,4394.615234,4397.94873,4288.846191,4337.05127,4510.256348,4371.666504,4376.538574,,,,,,,,,,,,,,,,,,,,,,,,,,,,,,,,,,,,,,,,,,,,,,,,,,,,,,,,,,,,,,,,,,,,,,
1720079372,111,0,4520.384766,4466.153809,4414.487305,4443.717773,4433.717773,4418.461426,4428.974121,4392.179688,4397.436035,4290.512695,4337.436035,4518.077148,4378.589844,4379.871582,,,,,,,,,,,,,,,,,,,,,,,,,,,,,,,,,,,,,,,,,,,,,,,,,,,,,,,,,,,,,,,,,,,,,,
1720079372,112,0,4522.179688,4472.563965,4415.256348,4442.692383,4437.436035,4422.179688,4429.615234,4393.205078,4398.846191,4296.666504,4341.410156,4518.205078,4388.717773,4385.384766,9.288403,1.1628,0.825312,0.775234,0.220405,2.064889,0.805911,0.80031,0.754385,0.352539,4.268539,1.329968,1.011632,0.935907,0.220601,2.302694,0.758003,0.974775,1.737801,0.588604,0.850585,0.343012,0.361271,0.186543,0.076831,0.782609,0.219256,0.2328,0.150017,0.073555,1.099466,0.248836,0.310539,0.205351,0.078332,1.097502,0.382272,0.305294,0.210702,0.16423,1.951692,0.996925,0.617366,0.37396,0.207106,2.51132,2.30078,0.737155,0.450842,0.196094,2.160404,1.19169,0.84841,0.669686,0.258204,4.148411,1.056039,0.947551,0.594447,0.244623,3.50409,1.825815,1.483197,0.91563,0.365319,3.636415,0.716925,0.656544,0.384716,0.241521
1720079372,113,0,4515.384766,4472.692383,4407.692383,4440,4431.922852,4417.307617,4427.94873,4395.384766,4401.794922,4293.205078,4343.077148,4511.153809,4383.077148,4386.282227,,,,,,,,,,,,,,,,,,,,,,,,,,,,,,,,,,,,,,,,,,,,,,,,,,,,,,,,,,,,,,,,,,,,,,
1720079372,114,0,4510.897461,4468.589844,4406.538574,4448.589844,4434.871582,4413.974121,4431.538574,4397.563965,4406.538574,4288.205078,4335,4506.153809,4367.563965,4373.846191,,,,,,,,,,,,,,,,,,,,,,,,,,,,,,,,,,,,,,,,,,,,,,,,,,,,,,,,,,,,,,,,,,,,,,
1720079372,115,0,4510.256348,4461.922852,4409.230957,4442.820313,4439.102539,4415.897461,4436.025879,4400.512695,4406.538574,4291.282227,4330.769043,4506.922852,4365.897461,4372.692383,,,,,,,,,,,,,,,,,,,,,,,,,,,,,,,,,,,,,,,,,,,,,,,,,,,,,,,,,,,,,,,,,,,,,,
1720079372,116,0,4511.282227,4462.692383,4413.077148,4429.743652,4438.077148,4413.077148,4431.538574,4396.666504,4398.205078,4293.589844,4328.333496,4507.179688,4372.307617,4377.94873,,,,,,,,,,,,,,,,,,,,,,,,,,,,,,,,,,,,,,,,,,,,,,,,,,,,,,,,,,,,,,,,,,,,,,
1720079372,117,0,4520.384766,4474.487305,4414.871582,4441.794922,4436.282227,4409.102539,4428.461426,4395.128418,4395.256348,4294.230957,4326.025879,4509.487305,4372.94873,4376.538574,,,,,,,,,,,,,,,,,,,,,,,,,,,,,,,,,,,,,,,,,,,,,,,,,,,,,,,,,,,,,,,,,,,,,,
1720079372,118,0,4523.589844,4472.820313,4412.94873,4449.358887,4433.205078,4411.025879,4433.077148,4397.307617,4401.410156,4302.563965,4332.94873,4513.461426,4375.128418,4373.205078,,,,,,,,,,,,,,,,,,,,,,,,,,,,,,,,,,,,,,,,,,,,,,,,,,,,,,,,,,,,,,,,,,,,,,
1720079373,119,0,4514.871582,4464.615234,4413.077148,4434.743652,4434.230957,4412.05127,4432.94873,4395.128418,4401.666504,4318.077148,4338.589844,4511.410156,4381.282227,4370,,,,,,,,,,,,,,,,,,,,,,,,,,,,,,,,,,,,,,,,,,,,,,,,,,,,,,,,,,,,,,,,,,,,,,
1720079373,120,0,4513.461426,4470.769043,4413.846191,4428.205078,4438.846191,4411.282227,4428.333496,4394.743652,4397.436035,4331.666504,4337.94873,4511.538574,4384.358887,4374.230957,,,,,,,,,,,,,,,,,,,,,,,,,,,,,,,,,,,,,,,,,,,,,,,,,,,,,,,,,,,,,,,,,,,,,,
1720079373,121,0,4518.077148,4473.974121,4412.94873,4433.333496,4438.974121,4411.666504,4428.717773,4392.436035,4393.974121,4340.769043,4335.641113,4511.410156,4379.615234,4371.025879,,,,,,,,,,,,,,,,,,,,,,,,,,,,,,,,,,,,,,,,,,,,,,,,,,,,,,,,,,,,,,,,,,,,,,
1720079373,122,0,4509.743652,4465.512695,4411.666504,4434.230957,4433.205078,4414.358887,4432.94873,4391.025879,4390.512695,4349.230957,4332.94873,4506.025879,4368.846191,4367.820313,,,,,,,,,,,,,,,,,,,,,,,,,,,,,,,,,,,,,,,,,,,,,,,,,,,,,,,,,,,,,,,,,,,,,,
1720079373,123,0,4503.846191,4468.717773,4411.666504,4439.102539,4431.410156,4415.384766,4435.128418,4396.666504,4388.589844,4358.846191,4331.282227,4505,4368.205078,4372.307617,,,,,,,,,,,,,,,,,,,,,,,,,,,,,,,,,,,,,,,,,,,,,,,,,,,,,,,,,,,,,,,,,,,,,,
1720079373,124,0,4510.384766,4478.461426,4410.128418,4447.94873,4437.436035,4413.333496,4431.410156,4389.871582,4385.512695,4371.410156,4328.589844,4504.615234,4374.487305,4362.692383,,,,,,,,,,,,,,,,,,,,,,,,,,,,,,,,,,,,,,,,,,,,,,,,,,,,,,,,,,,,,,,,,,,,,,
1720079373,125,0,4509.615234,4476.922852,4410.256348,4444.487305,4443.461426,4412.436035,4427.05127,4386.922852,4386.538574,4386.794922,4333.205078,4510.128418,4374.102539,4365,,,,,,,,,,,,,,,,,,,,,,,,,,,,,,,,,,,,,,,,,,,,,,,,,,,,,,,,,,,,,,,,,,,,,,
1720079373,126,0,4507.692383,4472.436035,4409.230957,4430.641113,4442.05127,4409.102539,4425.128418,4396.153809,4387.692383,4396.025879,4335.384766,4510.641113,4371.025879,4372.05127,,,,,,,,,,,,,,,,,,,,,,,,,,,,,,,,,,,,,,,,,,,,,,,,,,,,,,,,,,,,,,,,,,,,,,
1720079373,127,0,4508.077148,4463.589844,4403.846191,4417.820313,4432.307617,4405.512695,4424.871582,4388.717773,4381.025879,4397.307617,4325.512695,4500.897461,4372.179688,4362.05127,,,,,,,,,,,,,,,,,,,,,,,,,,,,,,,,,,,,,,,,,,,,,,,,,,,,,,,,,,,,,,,,,,,,,,
1720079373,0,0,4503.717773,4457.563965,4403.461426,4416.666504,4425.384766,4408.333496,4426.153809,4384.615234,4373.846191,4393.717773,4322.563965,4503.461426,4372.307617,4366.410156,7.619134,0.861881,0.714071,0.68971,0.214283,2.004877,0.693899,0.696302,0.711093,0.333612,4.307013,1.096171,0.943428,0.833316,0.221006,2.281054,0.649691,0.901359,1.529681,0.544026,0.826037,0.357467,0.407672,0.183917,0.091149,0.965416,0.246786,0.208383,0.134965,0.067151,1.320282,0.251013,0.245919,0.167655,0.070694,1.490326,0.34818,0.273214,0.195854,0.150311,2.311867,0.938418,0.504266,0.340509,0.184767,2.471146,2.178831,0.67295,0.397981,0.200211,2.205876,1.027981,0.741762,0.604236,0.256628,4.249088,0.871877,0.824167,0.535892,0.239027,3.560384,1.632292,1.487754,0.89739,0.386402,3.078065,0.549192,0.62769,0.366257,0.240075
1720079373,1,0,4504.358887,4467.307617,4410.641113,4428.717773,4429.230957,4413.717773,4428.589844,4393.333496,4375.128418,4392.179688,4329.230957,4512.05127,4374.871582,4369.871582,,,,,,,,,,,,,,,,,,,,,,,,,,,,,,,,,,,,,,,,,,,,,,,,,,,,,,,,,,,,,,,,,,,,,,
1720079373,2,0,4510.897461,4476.410156,4417.179688,4441.666504,4439.871582,4415.769043,4436.282227,4396.538574,4376.410156,4390.384766,4335.256348,4519.358887,4377.05127,4367.436035,,,,,,,,,,,,,,,,,,,,,,,,,,,,,,,,,,,,,,,,,,,,,,,,,,,,,,,,,,,,,,,,,,,,,,
1720079373,3,0,4511.538574,4477.307617,4418.717773,4447.179688,4445.256348,4420.128418,4442.692383,4395,4371.025879,4383.205078,4336.410156,4522.94873,4370.769043,4373.333496,,,,,,,,,,,,,,,,,,,,,,,,,,,,,,,,,,,,,,,,,,,,,,,,,,,,,,,,,,,,,,,,,,,,,,
1720079373,4,0,4506.666504,4476.538574,4414.871582,4446.282227,4444.743652,4424.230957,4436.666504,4387.05127,4367.307617,4382.05127,4330.256348,4515.384766,4369.487305,4373.974121,,,,,,,,,,,,,,,,,,,,,,,,,,,,,,,,,,,,,,,,,,,,,,,,,,,,,,,,,,,,,,,,,,,,,,
1720079373,5,0,4508.717773,4476.025879,4411.538574,4440.897461,4445.384766,4418.846191,4426.282227,4379.487305,4369.615234,4390.641113,4328.717773,4512.05127,4378.461426,4374.487305,,,,,,,,,,,,,,,,,,,,,,,,,,,,,,,,,,,,,,,,,,,,,,,,,,,,,,,,,,,,,,,,,,,,,,
1720079373,6,0,4509.358887,4476.922852,4413.205078,4436.922852,4444.358887,4411.282227,4426.538574,4387.05127,4384.615234,4399.230957,4332.94873,4517.179688,4380.897461,4374.358887,,,,,,,,,,,,,,,,,,,,,,,,,,,,,,,,,,,,,,,,,,,,,,,,,,,,,,,,,,,,,,,,,,,,,,
1720079373,7,0,4497.820313,4476.794922,4408.589844,4439.487305,4442.820313,4410.769043,4430.256348,4394.230957,4398.846191,4400.128418,4331.025879,4512.179688,4372.436035,4365.641113,,,,,,,,,,,,,,,,,,,,,,,,,,,,,,,,,,,,,,,,,,,,,,,,,,,,,,,,,,,,,,,,,,,,,,
1720079373,8,0,4487.05127,4473.717773,4394.871582,4443.205078,4439.743652,4411.538574,4426.922852,4384.743652,4392.436035,4395.641113,4323.461426,4498.077148,4365,4355.897461,,,,,,,,,,,,,,,,,,,,,,,,,,,,,,,,,,,,,,,,,,,,,,,,,,,,,,,,,,,,,,,,,,,,,,
1720079373,9,0,4492.307617,4473.205078,4395.897461,4443.974121,4437.820313,4410.769043,4426.922852,4384.615234,4384.358887,4391.153809,4324.743652,4500.769043,4365.384766,4361.666504,,,,,,,,,,,,,,,,,,,,,,,,,,,,,,,,,,,,,,,,,,,,,,,,,,,,,,,,,,,,,,,,,,,,,,
1720079373,10,0,4504.358887,4476.153809,4410.897461,4445.128418,4447.820313,4418.333496,4438.333496,4395.512695,4392.94873,4390.512695,4335.384766,4515.641113,4372.820313,4371.666504,,,,,,,,,,,,,,,,,,,,,,,,,,,,,,,,,,,,,,,,,,,,,,,,,,,,,,,,,,,,,,,,,,,,,,
1720079373,11,0,4507.563965,4475.512695,4413.717773,4444.871582,4457.436035,4428.717773,4449.102539,4397.05127,4399.358887,4389.230957,4339.230957,4521.538574,4377.563965,4373.974121,,,,,,,,,,,,,,,,,,,,,,,,,,,,,,,,,,,,,,,,,,,,,,,,,,,,,,,,,,,,,,,,,,,,,,
1720079373,12,0,4507.307617,4475,4409.615234,4442.179688,4452.05127,4428.077148,4447.179688,4393.333496,4391.410156,4375.256348,4336.538574,4518.589844,4376.282227,4375,,,,,,,,,,,,,,,,,,,,,,,,,,,,,,,,,,,,,,,,,,,,,,,,,,,,,,,,,,,,,,,,,,,,,,
1720079373,13,0,4506.025879,4477.05127,4410.256348,4443.717773,4445.256348,4420.769043,4441.922852,4384.102539,4389.358887,4360.384766,4337.692383,4514.743652,4377.05127,4370.256348,,,,,,,,,,,,,,,,,,,,,,,,,,,,,,,,,,,,,,,,,,,,,,,,,,,,,,,,,,,,,,,,,,,,,,
1720079373,14,0,4498.461426,4476.282227,4403.205078,4443.589844,4448.077148,4415.128418,4438.333496,4377.692383,4391.025879,4347.563965,4334.871582,4509.487305,4371.282227,4364.102539,,,,,,,,,,,,,,,,,,,,,,,,,,,,,,,,,,,,,,,,,,,,,,,,,,,,,,,,,,,,,,,,,,,,,,
1720079373,15,0,4491.794922,4471.538574,4386.794922,4439.615234,4450.128418,4412.94873,4432.179688,4373.846191,4386.922852,4332.692383,4322.436035,4500.769043,4359.230957,4360.512695,,,,,,,,,,,,,,,,,,,,,,,,,,,,,,,,,,,,,,,,,,,,,,,,,,,,,,,,,,,,,,,,,,,,,,
1720079373,16,0,4484.230957,4464.615234,4374.230957,4442.820313,4446.025879,4413.333496,4425,4368.974121,4386.025879,4322.692383,4318.333496,4493.077148,4359.102539,4357.436035,6.067314,0.783015,0.684922,0.654339,0.213163,1.912043,0.626369,0.703681,0.707168,0.3268,4.23349,1.041439,0.946905,0.75329,0.228863,2.167007,0.61753,0.969942,1.365878,0.52776,0.772654,0.35656,0.436024,0.193397,0.113647,1.096985,0.260181,0.201257,0.12859,0.064765,1.449172,0.249187,0.211809,0.147794,0.068747,1.78174,0.303514,0.254331,0.192722,0.139981,2.633616,0.858064,0.425471,0.311504,0.174376,2.48516,2.080434,0.642362,0.370594,0.214166,2.202618,0.904474,0.667861,0.559947,0.25854,4.209842,0.790599,0.772749,0.507427,0.242647,3.562047,1.555215,1.558215,0.888846,0.418024,2.594655,0.493855,0.619867,0.357236,0.2396
1720079373,17,0,4479.487305,4459.102539,4368.589844,4441.794922,4442.307617,4410.641113,4418.974121,4368.589844,4391.922852,4313.461426,4332.563965,4493.461426,4368.974121,4362.820313,,,,,,,,,,,,,,,,,,,,,,,,,,,,,,,,,,,,,,,,,,,,,,,,,,,,,,,,,,,,,,,,,,,,,,
1720079373,18,0,4485.256348,4459.358887,4368.077148,4436.666504,4443.205078,4407.94873,4419.487305,4371.666504,4403.333496,4300.256348,4339.230957,4496.025879,4370.641113,4365,,,,,,,,,,,,,,,,,,,,,,,,,,,,,,,,,,,,,,,,,,,,,,,,,,,,,,,,,,,,,,,,,,,,,,
1720079373,19,0,4486.282227,4460.769043,4368.077148,4436.666504,4447.436035,4417.94873,4428.077148,4372.94873,4409.230957,4288.333496,4328.205078,4493.461426,4363.205078,4354.358887,,,,,,,,,,,,,,,,,,,,,,,,,,,,,,,,,,,,,,,,,,,,,,,,,,,,,,,,,,,,,,,,,,,,,,
1720079373,20,0,4481.538574,4458.333496,4364.230957,4434.615234,4446.666504,4423.589844,4430.641113,4374.358887,4407.179688,4275.512695,4327.563965,4493.846191,4359.487305,4357.05127,,,,,,,,,,,,,,,,,,,,,,,,,,,,,,,,,,,,,,,,,,,,,,,,,,,,,,,,,,,,,,,,,,,,,,
1720079373,21,0,4482.692383,4458.846191,4362.820313,4433.846191,4446.410156,4418.974121,4426.410156,4371.153809,4408.846191,4262.692383,4333.974121,4493.077148,4360.128418,4359.358887,,,,,,,,,,,,,,,,,,,,,,,,,,,,,,,,,,,,,,,,,,,,,,,,,,,,,,,,,,,,,,,,,,,,,,
1720079373,22,0,4484.487305,4460,4366.666504,4442.307617,4448.589844,4420.384766,4428.333496,4366.410156,4411.794922,4259.743652,4328.205078,4492.05127,4360.897461,4349.230957,,,,,,,,,,,,,,,,,,,,,,,,,,,,,,,,,,,,,,,,,,,,,,,,,,,,,,,,,,,,,,,,,,,,,,
1720079373,23,0,4482.94873,4458.974121,4372.307617,4445.641113,4445.769043,4424.615234,4436.025879,4376.153809,4411.794922,4261.538574,4327.820313,4498.717773,4360.384766,4357.692383,,,,,,,,,,,,,,,,,,,,,,,,,,,,,,,,,,,,,,,,,,,,,,,,,,,,,,,,,,,,,,,,,,,,,,
1720079373,24,0,4488.974121,4465.384766,4379.358887,4441.282227,4447.179688,4418.974121,4437.179688,4374.743652,4418.974121,4260.128418,4336.410156,4500.256348,4363.589844,4362.179688,,,,,,,,,,,,,,,,,,,,,,,,,,,,,,,,,,,,,,,,,,,,,,,,,,,,,,,,,,,,,,,,,,,,,,
1720079373,25,0,4503.205078,4476.666504,4389.358887,4452.307617,4451.666504,4411.666504,4431.410156,4365.897461,4427.307617,4259.871582,4342.436035,4506.153809,4373.333496,4361.538574,,,,,,,,,,,,,,,,,,,,,,,,,,,,,,,,,,,,,,,,,,,,,,,,,,,,,,,,,,,,,,,,,,,,,,
1720079373,26,0,4509.230957,4482.179688,4396.282227,4462.820313,4451.025879,4410.384766,4425.128418,4372.307617,4428.333496,4264.230957,4345.512695,4514.230957,4383.333496,4368.077148,,,,,,,,,,,,,,,,,,,,,,,,,,,,,,,,,,,,,,,,,,,,,,,,,,,,,,,,,,,,,,,,,,,,,,
1720079373,27,0,4496.282227,4472.820313,4382.436035,4443.846191,4444.743652,4410.641113,4419.358887,4366.794922,4429.102539,4262.307617,4337.05127,4499.358887,4374.743652,4355.641113,,,,,,,,,,,,,,,,,,,,,,,,,,,,,,,,,,,,,,,,,,,,,,,,,,,,,,,,,,,,,,,,,,,,,,
1720079373,28,0,4470.641113,4451.538574,4356.025879,4422.05127,4434.743652,4411.794922,4413.461426,4357.179688,4423.974121,4246.282227,4319.743652,4477.563965,4348.077148,4341.922852,,,,,,,,,,,,,,,,,,,,,,,,,,,,,,,,,,,,,,,,,,,,,,,,,,,,,,,,,,,,,,,,,,,,,,
1720079373,29,0,4459.487305,4447.820313,4350.769043,4428.846191,4431.153809,4414.871582,4412.563965,4357.05127,4417.307617,4238.333496,4311.794922,4471.025879,4332.94873,4339.487305,,,,,,,,,,,,,,,,,,,,,,,,,,,,,,,,,,,,,,,,,,,,,,,,,,,,,,,,,,,,,,,,,,,,,,
1720079373,30,0,4466.666504,4455.128418,4361.153809,4434.743652,4438.717773,4423.077148,4419.743652,4358.717773,4424.487305,4246.282227,4315.128418,4476.666504,4338.974121,4342.820313,,,,,,,,,,,,,,,,,,,,,,,,,,,,,,,,,,,,,,,,,,,,,,,,,,,,,,,,,,,,,,,,,,,,,,
1720079373,31,0,4466.666504,4448.077148,4359.102539,4416.538574,4445.641113,4430.512695,4426.666504,4363.205078,4433.077148,4251.410156,4313.846191,4477.94873,4343.461426,4340.897461,,,,,,,,,,,,,,,,,,,,,,,,,,,,,,,,,,,,,,,,,,,,,,,,,,,,,,,,,,,,,,,,,,,,,,
1720079373,32,0,4459.743652,4443.077148,4354.102539,4411.025879,4441.666504,4428.461426,4425.641113,4366.025879,4429.487305,4253.717773,4308.846191,4472.820313,4339.487305,4332.179688,5.002658,0.896927,0.724534,0.671315,0.220883,1.758889,0.593107,0.790108,0.725282,0.336032,4.03353,1.13341,1.004924,0.695981,0.248537,1.939285,0.659621,1.165902,1.255687,0.548657,0.689539,0.336437,0.434575,0.214732,0.140461,1.127012,0.254452,0.213911,0.129471,0.066995,1.443268,0.237983,0.20899,0.140062,0.073234,1.867712,0.263942,0.25207,0.198351,0.136347,2.824535,0.775578,0.393469,0.293373,0.180962,2.615487,2.014655,0.661614,0.37063,0.23782,2.139259,0.85243,0.62666,0.533906,0.266328,3.987288,0.813702,0.804716,0.501589,0.257877,3.53634,1.602743,1.689117,0.884785,0.461166,2.312644,0.522179,0.6306,0.355829,0.241676
1720079373,33,0,4465.128418,4457.563965,4367.692383,4426.025879,4440.128418,4425.512695,4425,4369.487305,4433.077148,4263.333496,4323.846191,4486.153809,4351.538574,4344.615234,,,,,,,,,,,,,,,,,,,,,,,,,,,,,,,,,,,,,,,,,,,,,,,,,,,,,,,,,,,,,,,,,,,,,,
1720079373,34,0,4478.974121,4470.897461,4387.692383,4436.282227,4445.641113,4424.102539,4431.025879,4375,4442.307617,4267.820313,4340.512695,4503.717773,4364.230957,4358.077148,,,,,,,,,,,,,,,,,,,,,,,,,,,,,,,,,,,,,,,,,,,,,,,,,,,,,,,,,,,,,,,,,,,,,,
1720079373,35,0,4477.436035,4468.077148,4385.897461,4433.589844,4441.794922,4415.897461,4424.230957,4370.128418,4430.512695,4263.589844,4326.538574,4493.077148,4346.666504,4346.666504,,,,,,,,,,,,,,,,,,,,,,,,,,,,,,,,,,,,,,,,,,,,,,,,,,,,,,,,,,,,,,,,,,,,,,
1720079373,36,0,4453.846191,4450.512695,4361.025879,4413.589844,4428.205078,4405.256348,4405.897461,4353.717773,4410,4260.512695,4300.641113,4465,4319.102539,4324.487305,,,,,,,,,,,,,,,,,,,,,,,,,,,,,,,,,,,,,,,,,,,,,,,,,,,,,,,,,,,,,,,,,,,,,,
1720079373,37,0,4432.563965,4434.358887,4342.05127,4393.205078,4415.897461,4404.102539,4403.461426,4351.922852,4406.922852,4259.230957,4292.692383,4450.384766,4308.589844,4316.922852,,,,,,,,,,,,,,,,,,,,,,,,,,,,,,,,,,,,,,,,,,,,,,,,,,,,,,,,,,,,,,,,,,,,,,
1720079373,38,0,4434.358887,4440.897461,4350.769043,4403.974121,4412.05127,4407.179688,4411.794922,4361.153809,4417.692383,4272.307617,4302.05127,4455,4315.897461,4323.846191,,,,,,,,,,,,,,,,,,,,,,,,,,,,,,,,,,,,,,,,,,,,,,,,,,,,,,,,,,,,,,,,,,,,,,
1720079373,39,0,4445.256348,4448.846191,4364.871582,4420.897461,4416.538574,4415.128418,4413.589844,4363.461426,4429.102539,4302.820313,4307.692383,4465.897461,4327.820313,4326.282227,,,,,,,,,,,,,,,,,,,,,,,,,,,,,,,,,,,,,,,,,,,,,,,,,,,,,,,,,,,,,,,,,,,,,,
1720079373,40,0,4442.436035,4443.717773,4364.358887,4414.871582,4425.769043,4426.282227,4412.94873,4367.436035,4434.358887,4322.820313,4305.641113,4468.333496,4332.307617,4327.563965,,,,,,,,,,,,,,,,,,,,,,,,,,,,,,,,,,,,,,,,,,,,,,,,,,,,,,,,,,,,,,,,,,,,,,
1720079373,41,0,4428.205078,4444.487305,4355,4413.461426,4431.153809,4425.384766,4413.461426,4366.282227,4426.025879,4323.333496,4296.794922,4455.128418,4322.820313,4320.512695,,,,,,,,,,,,,,,,,,,,,,,,,,,,,,,,,,,,,,,,,,,,,,,,,,,,,,,,,,,,,,,,,,,,,,
1720079373,42,0,4416.410156,4440.128418,4346.153809,4414.871582,4428.333496,4422.307617,4411.794922,4359.487305,4408.846191,4326.153809,4285.897461,4445.128418,4308.717773,4310.769043,,,,,,,,,,,,,,,,,,,,,,,,,,,,,,,,,,,,,,,,,,,,,,,,,,,,,,,,,,,,,,,,,,,,,,
1720079373,43,0,4417.307617,4433.077148,4348.717773,4404.102539,4425.512695,4424.871582,4412.307617,4362.94873,4397.820313,4338.205078,4290.128418,4451.922852,4308.974121,4316.025879,,,,,,,,,,,,,,,,,,,,,,,,,,,,,,,,,,,,,,,,,,,,,,,,,,,,,,,,,,,,,,,,,,,,,,
1720079373,44,0,4426.410156,4439.358887,4359.871582,4403.205078,4427.179688,4421.794922,4414.871582,4367.563965,4396.410156,4351.666504,4301.922852,4462.436035,4321.666504,4323.077148,,,,,,,,,,,,,,,,,,,,,,,,,,,,,,,,,,,,,,,,,,,,,,,,,,,,,,,,,,,,,,,,,,,,,,
1720079373,45,0,4434.871582,4449.487305,4369.487305,4417.820313,4431.282227,4414.871582,4415.128418,4365.897461,4397.436035,4371.153809,4303.333496,4470.897461,4324.487305,4325.769043,,,,,,,,,,,,,,,,,,,,,,,,,,,,,,,,,,,,,,,,,,,,,,,,,,,,,,,,,,,,,,,,,,,,,,
1720079373,46,0,4435.384766,4447.563965,4368.461426,4415.384766,4432.05127,4415,4413.205078,4368.461426,4396.666504,4392.563965,4296.410156,4473.333496,4316.025879,4328.333496,,,,,,,,,,,,,,,,,,,,,,,,,,,,,,,,,,,,,,,,,,,,,,,,,,,,,,,,,,,,,,,,,,,,,,
1720079373,47,0,4434.102539,4443.077148,4369.487305,4401.025879,4426.922852,4415.128418,4416.922852,4376.153809,4399.102539,4412.94873,4298.461426,4473.974121,4322.179688,4325.641113,,,,,,,,,,,,,,,,,,,,,,,,,,,,,,,,,,,,,,,,,,,,,,,,,,,,,,,,,,,,,,,,,,,,,,
1720079373,48,0,4440.128418,4444.230957,4380.256348,4406.410156,4417.563965,4412.436035,4421.794922,4382.436035,4404.871582,4433.589844,4308.717773,4483.077148,4332.05127,4329.615234,4.585462,1.116269,0.80622,0.721203,0.237956,1.624733,0.574979,0.900882,0.741805,0.356244,3.699969,1.297206,1.106913,0.655498,0.278767,1.68454,0.746609,1.43159,1.196116,0.596104,0.597697,0.29767,0.409431,0.244634,0.166186,1.042317,0.229777,0.258549,0.132955,0.072726,1.310443,0.218501,0.245615,0.135981,0.082974,1.727903,0.240213,0.270249,0.204122,0.139104,2.818655,0.71111,0.408288,0.285923,0.20151,2.882333,1.997776,0.733843,0.390251,0.26537,1.977787,0.865241,0.627918,0.516003,0.279472,3.567546,0.90078,0.915678,0.505009,0.280793,3.446599,1.717527,1.857346,0.881668,0.509018,2.207388,0.581374,0.657742,0.359513,0.245102
1720079373,49,0,4436.153809,4442.179688,4378.974121,4413.589844,4413.589844,4413.461426,4414.230957,4378.333496,4400.641113,4446.282227,4304.102539,4479.743652,4326.025879,4330.512695,,,,,,,,,,,,,,,,,,,,,,,,,,,,,,,,,,,,,,,,,,,,,,,,,,,,,,,,,,,,,,,,,,,,,,
1720079373,50,0,4417.307617,4433.205078,4357.820313,4399.102539,4421.025879,4411.794922,4403.974121,4367.692383,4385.256348,4452.692383,4291.282227,4462.307617,4321.025879,4315.256348,,,,,,,,,,,,,,,,,,,,,,,,,,,,,,,,,,,,,,,,,,,,,,,,,,,,,,,,,,,,,,,,,,,,,,
1720079373,51,0,4400.641113,4416.410156,4338.589844,4374.615234,4420.384766,4410,4400.641113,4369.358887,4372.05127,4457.820313,4283.205078,4455.384766,4316.410156,4310.897461,,,,,,,,,,,,,,,,,,,,,,,,,,,,,,,,,,,,,,,,,,,,,,,,,,,,,,,,,,,,,,,,,,,,,,
1720079373,52,0,4391.153809,4409.615234,4338.333496,4371.025879,4413.589844,4418.589844,4403.717773,4371.666504,4368.974121,4466.666504,4276.282227,4450.897461,4304.615234,4310.897461,,,,,,,,,,,,,,,,,,,,,,,,,,,,,,,,,,,,,,,,,,,,,,,,,,,,,,,,,,,,,,,,,,,,,,
1720079373,53,0,4387.820313,4415,4345.128418,4386.922852,4418.589844,4425.769043,4410.512695,4368.077148,4368.846191,4481.025879,4278.205078,4451.410156,4306.153809,4305.897461,,,,,,,,,,,,,,,,,,,,,,,,,,,,,,,,,,,,,,,,,,,,,,,,,,,,,,,,,,,,,,,,,,,,,,
1720079373,54,0,4389.230957,4415.384766,4345.512695,4392.05127,4420.769043,4418.974121,4408.717773,4369.358887,4360.128418,4492.820313,4280.769043,4457.05127,4310.384766,4306.282227,,,,,,,,,,,,,,,,,,,,,,,,,,,,,,,,,,,,,,,,,,,,,,,,,,,,,,,,,,,,,,,,,,,,,,
1720079373,55,0,4382.307617,4414.487305,4339.102539,4386.410156,4413.589844,4410.512695,4400.384766,4365.512695,4348.717773,4501.666504,4268.461426,4447.05127,4298.846191,4299.487305,,,,,,,,,,,,,,,,,,,,,,,,,,,,,,,,,,,,,,,,,,,,,,,,,,,,,,,,,,,,,,,,,,,,,,
1720079373,56,0,4372.94873,4415.641113,4335.769043,4384.358887,4412.94873,4411.153809,4404.102539,4365,4349.615234,4513.333496,4267.307617,4441.025879,4298.461426,4290.512695,,,,,,,,,,,,,,,,,,,,,,,,,,,,,,,,,,,,,,,,,,,,,,,,,,,,,,,,,,,,,,,,,,,,,,
1720079373,57,0,4372.563965,4416.794922,4339.615234,4386.922852,4417.692383,4413.461426,4412.307617,4374.871582,4358.974121,4525.256348,4284.358887,4452.563965,4313.846191,4291.153809,,,,,,,,,,,,,,,,,,,,,,,,,,,,,,,,,,,,,,,,,,,,,,,,,,,,,,,,,,,,,,,,,,,,,,
1720079373,58,0,4369.871582,4414.102539,4341.282227,4380.384766,4418.333496,4411.410156,4406.153809,4377.05127,4361.410156,4533.589844,4287.436035,4456.922852,4315.897461,4296.922852,,,,,,,,,,,,,,,,,,,,,,,,,,,,,,,,,,,,,,,,,,,,,,,,,,,,,,,,,,,,,,,,,,,,,,
1720079373,59,0,4365,4413.205078,4339.615234,4372.692383,4420.256348,4405,4396.666504,4370.384766,4354.743652,4539.743652,4279.230957,4450.256348,4307.94873,4294.871582,,,,,,,,,,,,,,,,,,,,,,,,,,,,,,,,,,,,,,,,,,,,,,,,,,,,,,,,,,,,,,,,,,,,,,
1720079373,60,0,4359.102539,4415.384766,4338.717773,4375.512695,4421.794922,4401.794922,4394.358887,4367.94873,4347.692383,4537.94873,4275.512695,4445.384766,4302.563965,4287.563965,,,,,,,,,,,,,,,,,,,,,,,,,,,,,,,,,,,,,,,,,,,,,,,,,,,,,,,,,,,,,,,,,,,,,,
1720079373,61,0,4344.743652,4407.179688,4330.897461,4370.512695,4418.974121,4408.589844,4393.717773,4362.94873,4340.384766,4526.922852,4268.974121,4436.282227,4286.153809,4278.974121,,,,,,,,,,,,,,,,,,,,,,,,,,,,,,,,,,,,,,,,,,,,,,,,,,,,,,,,,,,,,,,,,,,,,,
1720079373,62,0,4328.333496,4392.820313,4318.717773,4354.615234,4418.589844,4413.205078,4393.974121,4358.974121,4334.743652,4514.871582,4260.384766,4425.384766,4271.025879,4270.128418,,,,,,,,,,,,,,,,,,,,,,,,,,,,,,,,,,,,,,,,,,,,,,,,,,,,,,,,,,,,,,,,,,,,,,
1720079373,63,0,4317.820313,4382.820313,4311.538574,4345.897461,4418.205078,4410.769043,4395.384766,4364.230957,4335.128418,4508.205078,4256.282227,4423.461426,4277.820313,4269.102539,,,,,,,,,,,,,,,,,,,,,,,,,,,,,,,,,,,,,,,,,,,,,,,,,,,,,,,,,,,,,,,,,,,,,,
1720079373,64,0,4316.025879,4381.794922,4308.205078,4352.179688,4416.922852,4412.563965,4398.589844,4360.256348,4338.333496,4506.282227,4255.128418,4421.922852,4288.077148,4268.974121,4.610964,1.359408,0.902771,0.781215,0.262795,1.45384,0.568685,0.997804,0.742474,0.377549,3.261994,1.484375,1.246658,0.631229,0.314368,1.401708,0.842935,1.688185,1.177038,0.646445,0.499027,0.250278,0.379525,0.278192,0.185621,0.871899,0.1938,0.35318,0.13539,0.07961,1.100504,0.205963,0.333679,0.13406,0.095652,1.42368,0.23944,0.306262,0.205707,0.145577,2.603351,0.673971,0.453844,0.292426,0.226816,3.368714,2.030766,0.827919,0.422814,0.287135,1.71968,0.909537,0.680259,0.507724,0.294517,2.994689,1.015792,1.085036,0.515956,0.30434,3.271556,1.805807,2.017973,0.887692,0.548062,2.176978,0.630529,0.698159,0.36868,0.247644
1720079373,65,0,4321.410156,4384.487305,4307.436035,4357.820313,4412.94873,4413.589844,4400,4358.846191,4339.615234,4495.384766,4258.077148,4423.589844,4284.871582,4271.666504,,,,,,,,,,,,,,,,,,,,,,,,,,,,,,,,,,,,,,,,,,,,,,,,,,,,,,,,,,,,,,,,,,,,,,
1720079373,66,0,4324.487305,4385.641113,4310.256348,4355.897461,4409.102539,4410.256348,4395.641113,4366.025879,4340.512695,4479.230957,4261.282227,4429.102539,4281.794922,4278.461426,,,,,,,,,,,,,,,,,,,,,,,,,,,,,,,,,,,,,,,,,,,,,,,,,,,,,,,,,,,,,,,,,,,,,,
1720079373,67,0,4320,4388.461426,4307.820313,4358.461426,4410.256348,4412.436035,4393.846191,4360,4339.358887,4475,4256.282227,4425.256348,4283.717773,4274.487305,,,,,,,,,,,,,,,,,,,,,,,,,,,,,,,,,,,,,,,,,,,,,,,,,,,,,,,,,,,,,,,,,,,,,,
1720079373,68,0,4316.153809,4390.512695,4300.384766,4366.025879,4414.487305,4411.666504,4394.102539,4357.436035,4337.436035,4472.692383,4256.153809,4422.692383,4281.666504,4271.153809,,,,,,,,,,,,,,,,,,,,,,,,,,,,,,,,,,,,,,,,,,,,,,,,,,,,,,,,,,,,,,,,,,,,,,
1720079373,69,0,4315.384766,4391.666504,4298.333496,4368.717773,4419.871582,4405.256348,4391.153809,4364.102539,4346.025879,4466.922852,4266.538574,4426.153809,4286.922852,4273.589844,,,,,,,,,,,,,,,,,,,,,,,,,,,,,,,,,,,,,,,,,,,,,,,,,,,,,,,,,,,,,,,,,,,,,,
1720079373,70,0,4309.871582,4388.205078,4297.307617,4359.102539,4419.230957,4405.897461,4387.692383,4362.692383,4358.717773,4465.641113,4267.563965,4426.666504,4293.846191,4270.769043,,,,,,,,,,,,,,,,,,,,,,,,,,,,,,,,,,,,,,,,,,,,,,,,,,,,,,,,,,,,,,,,,,,,,,
1720079373,71,0,4302.436035,4382.820313,4292.94873,4353.077148,4413.077148,4408.589844,4385.641113,4360.897461,4358.974121,4461.025879,4262.179688,4423.846191,4288.205078,4267.94873,,,,,,,,,,,,,,,,,,,,,,,,,,,,,,,,,,,,,,,,,,,,,,,,,,,,,,,,,,,,,,,,,,,,,,
1720079373,72,0,4298.846191,4379.358887,4288.974121,4357.307617,4410.384766,4407.820313,4384.615234,4363.589844,4355.256348,4448.974121,4259.871582,4419.615234,4280.384766,4264.230957,,,,,,,,,,,,,,,,,,,,,,,,,,,,,,,,,,,,,,,,,,,,,,,,,,,,,,,,,,,,,,,,,,,,,,
1720079373,73,0,4300.769043,4380.128418,4287.692383,4357.94873,4419.230957,4409.743652,4386.153809,4363.077148,4358.974121,4440,4262.307617,4420.897461,4282.820313,4261.538574,,,,,,,,,,,,,,,,,,,,,,,,,,,,,,,,,,,,,,,,,,,,,,,,,,,,,,,,,,,,,,,,,,,,,,
1720079373,74,0,4302.307617,4382.307617,4287.94873,4355,4425,4413.974121,4386.025879,4361.153809,4358.461426,4430.641113,4267.307617,4425.641113,4285.128418,4267.179688,,,,,,,,,,,,,,,,,,,,,,,,,,,,,,,,,,,,,,,,,,,,,,,,,,,,,,,,,,,,,,,,,,,,,,
1720079373,75,0,4300,4378.077148,4286.153809,4358.461426,4415.769043,4413.717773,4384.102539,4358.077148,4351.282227,4420.384766,4262.563965,4421.922852,4279.102539,4265.512695,,,,,,,,,,,,,,,,,,,,,,,,,,,,,,,,,,,,,,,,,,,,,,,,,,,,,,,,,,,,,,,,,,,,,,
1720079373,76,0,4301.025879,4375,4286.922852,4363.974121,4414.487305,4410.897461,4388.461426,4358.717773,4353.589844,4421.538574,4260.256348,4422.692383,4281.410156,4266.153809,,,,,,,,,,,,,,,,,,,,,,,,,,,,,,,,,,,,,,,,,,,,,,,,,,,,,,,,,,,,,,,,,,,,,,
1720079373,77,0,4307.179688,4381.794922,4293.717773,4362.179688,4427.820313,4412.179688,4391.666504,4361.666504,4367.179688,4421.922852,4272.820313,4433.974121,4290.641113,4271.025879,,,,,,,,,,,,,,,,,,,,,,,,,,,,,,,,,,,,,,,,,,,,,,,,,,,,,,,,,,,,,,,,,,,,,,
1720079373,78,0,4312.307617,4388.461426,4297.94873,4362.563965,4427.94873,4414.358887,4389.487305,4360.512695,4384.102539,4421.666504,4279.230957,4434.102539,4289.615234,4262.05127,,,,,,,,,,,,,,,,,,,,,,,,,,,,,,,,,,,,,,,,,,,,,,,,,,,,,,,,,,,,,,,,,,,,,,
1720079373,79,0,4308.717773,4383.846191,4293.846191,4365.512695,4410.128418,4406.282227,4388.589844,4366.922852,4394.487305,4422.436035,4275.256348,4431.153809,4283.461426,4267.307617,,,,,,,,,,,,,,,,,,,,,,,,,,,,,,,,,,,,,,,,,,,,,,,,,,,,,,,,,,,,,,,,,,,,,,
1720079373,80,0,4306.153809,4381.153809,4292.436035,4366.410156,4411.922852,4401.282227,4387.563965,4367.05127,4399.487305,4416.410156,4273.333496,4432.307617,4285.641113,4273.333496,4.651646,1.581613,0.994479,0.83588,0.291736,1.294521,0.592585,1.072088,0.727482,0.389867,2.784829,1.696946,1.413139,0.629313,0.349329,1.170688,0.910047,1.864276,1.182636,0.676601,0.426539,0.213027,0.371024,0.309856,0.195231,0.668115,0.167352,0.515179,0.13517,0.085223,0.879287,0.228796,0.481039,0.137513,0.108964,1.058283,0.266826,0.350973,0.206236,0.152098,2.256879,0.664089,0.516586,0.322569,0.246407,4.374657,2.129733,0.920191,0.468751,0.29293,1.407886,0.956523,0.774529,0.521037,0.308169,2.370451,1.154634,1.2766,0.543801,0.322035,2.994904,1.783796,2.120881,0.919864,0.564429,2.075166,0.654501,0.740129,0.384574,0.247667
1720079373,81,0,4311.922852,4388.846191,4296.025879,4372.563965,4429.358887,4416.025879,4390.769043,4361.025879,4408.846191,4413.333496,4275.384766,4435.897461,4290.641113,4265.128418,,,,,,,,,,,,,,,,,,,,,,,,,,,,,,,,,,,,,,,,,,,,,,,,,,,,,,,,,,,,,,,,,,,,,,
1720079373,82,0,4315.641113,4391.025879,4297.563965,4375.897461,4427.692383,4426.794922,4399.358887,4373.846191,4418.974121,4413.846191,4283.205078,4444.102539,4292.820313,4273.333496,,,,,,,,,,,,,,,,,,,,,,,,,,,,,,,,,,,,,,,,,,,,,,,,,,,,,,,,,,,,,,,,,,,,,,
1720079373,83,0,4307.94873,4383.717773,4293.461426,4367.820313,4418.333496,4422.692383,4396.922852,4372.692383,4413.077148,4396.153809,4282.307617,4436.282227,4291.794922,4272.436035,,,,,,,,,,,,,,,,,,,,,,,,,,,,,,,,,,,,,,,,,,,,,,,,,,,,,,,,,,,,,,,,,,,,,,
1720079373,84,0,4296.538574,4378.077148,4286.282227,4363.717773,4422.179688,4416.282227,4385.897461,4350.897461,4397.307617,4370.897461,4270.384766,4421.922852,4287.692383,4260.256348,,,,,,,,,,,,,,,,,,,,,,,,,,,,,,,,,,,,,,,,,,,,,,,,,,,,,,,,,,,,,,,,,,,,,,
1720079373,85,0,4303.333496,4383.974121,4288.974121,4374.487305,4429.871582,4417.692383,4387.94873,4351.153809,4402.436035,4373.589844,4267.05127,4427.820313,4289.615234,4262.820313,,,,,,,,,,,,,,,,,,,,,,,,,,,,,,,,,,,,,,,,,,,,,,,,,,,,,,,,,,,,,,,,,,,,,,
1720079373,86,0,4317.436035,4395,4300.256348,4378.077148,4430.128418,4426.153809,4398.461426,4367.307617,4430.256348,4381.794922,4278.077148,4441.410156,4300.641113,4269.871582,,,,,,,,,,,,,,,,,,,,,,,,,,,,,,,,,,,,,,,,,,,,,,,,,,,,,,,,,,,,,,,,,,,,,,
1720079373,87,0,4313.333496,4391.794922,4301.025879,4367.05127,4431.025879,4426.410156,4398.717773,4368.717773,4443.846191,4365.641113,4286.282227,4442.436035,4305.128418,4273.333496,,,,,,,,,,,,,,,,,,,,,,,,,,,,,,,,,,,,,,,,,,,,,,,,,,,,,,,,,,,,,,,,,,,,,,
1720079373,88,0,4301.794922,4378.846191,4293.333496,4362.307617,4429.743652,4418.461426,4395,4361.153809,4438.461426,4342.692383,4280.128418,4435.641113,4298.846191,4270.897461,,,,,,,,,,,,,,,,,,,,,,,,,,,,,,,,,,,,,,,,,,,,,,,,,,,,,,,,,,,,,,,,,,,,,,
1720079373,89,0,4308.461426,4381.922852,4301.025879,4372.563965,4427.05127,4422.179688,4400.128418,4364.230957,4448.461426,4333.717773,4278.461426,4441.794922,4300.641113,4268.589844,,,,,,,,,,,,,,,,,,,,,,,,,,,,,,,,,,,,,,,,,,,,,,,,,,,,,,,,,,,,,,,,,,,,,,
1720079373,90,0,4316.538574,4388.333496,4312.436035,4376.282227,4428.205078,4430.897461,4400.641113,4368.205078,4457.563965,4323.846191,4284.102539,4449.743652,4303.077148,4271.153809,,,,,,,,,,,,,,,,,,,,,,,,,,,,,,,,,,,,,,,,,,,,,,,,,,,,,,,,,,,,,,,,,,,,,,
1720079373,91,0,4311.666504,4386.794922,4308.333496,4372.179688,4426.794922,4425.512695,4398.077148,4367.307617,4452.692383,4303.461426,4283.974121,4447.563965,4299.487305,4275.384766,,,,,,,,,,,,,,,,,,,,,,,,,,,,,,,,,,,,,,,,,,,,,,,,,,,,,,,,,,,,,,,,,,,,,,
1720079373,92,0,4315.512695,4392.563965,4309.743652,4384.871582,4427.307617,4424.743652,4406.538574,4371.410156,4462.820313,4294.230957,4287.563965,4450.256348,4309.102539,4278.333496,,,,,,,,,,,,,,,,,,,,,,,,,,,,,,,,,,,,,,,,,,,,,,,,,,,,,,,,,,,,,,,,,,,,,,
1720079373,93,0,4323.205078,4392.179688,4315.128418,4390.769043,4431.538574,4432.05127,4409.615234,4375.512695,4473.846191,4286.025879,4296.410156,4455.512695,4317.94873,4278.077148,,,,,,,,,,,,,,,,,,,,,,,,,,,,,,,,,,,,,,,,,,,,,,,,,,,,,,,,,,,,,,,,,,,,,,
1720079373,94,0,4317.05127,4375.641113,4305.256348,4367.94873,4426.282227,4425.384766,4397.563965,4368.717773,4460.128418,4264.743652,4291.282227,4449.102539,4305.128418,4276.153809,,,,,,,,,,,,,,,,,,,,,,,,,,,,,,,,,,,,,,,,,,,,,,,,,,,,,,,,,,,,,,,,,,,,,,
1720079373,95,0,4312.05127,4371.538574,4299.615234,4355.256348,4420,4417.820313,4393.717773,4363.974121,4455.384766,4255.897461,4281.282227,4447.179688,4293.461426,4277.179688,,,,,,,,,,,,,,,,,,,,,,,,,,,,,,,,,,,,,,,,,,,,,,,,,,,,,,,,,,,,,,,,,,,,,,
1720079373,96,0,4314.358887,4379.871582,4307.820313,4363.717773,4424.358887,4424.487305,4401.538574,4372.563965,4473.077148,4261.538574,4285.641113,4457.94873,4303.974121,4279.358887,4.527812,1.795726,1.079785,0.879093,0.320587,1.143333,0.683901,1.128479,0.703887,0.386227,2.367612,1.973519,1.581767,0.659944,0.379882,1.033411,0.946189,1.922367,1.191399,0.676775,0.382131,0.205282,0.400776,0.333756,0.194549,0.479935,0.178023,0.739813,0.133489,0.088932,0.692092,0.311547,0.673499,0.149257,0.121389,0.735059,0.322045,0.389888,0.212888,0.156311,1.895461,0.675372,0.602878,0.389462,0.253791,5.591923,2.278479,0.995388,0.532137,0.278361,1.118758,1.010845,0.885086,0.564987,0.320233,1.847344,1.345972,1.448862,0.600063,0.332607,2.664297,1.643675,2.140021,0.994157,0.55266,1.864355,0.661708,0.772241,0.410445,0.245376
1720079373,97,0,4317.179688,4378.461426,4308.846191,4367.179688,4424.487305,4427.692383,4401.153809,4374.615234,4477.692383,4260.128418,4291.025879,4456.794922,4315.384766,4279.358887,,,,,,,,,,,,,,,,,,,,,,,,,,,,,,,,,,,,,,,,,,,,,,,,,,,,,,,,,,,,,,,,,,,,,,
1720079373,98,0,4315.897461,4375.128418,4307.692383,4365.384766,4422.436035,4422.820313,4398.333496,4368.846191,4470.256348,4258.077148,4286.025879,4448.461426,4302.692383,4277.436035,,,,,,,,,,,,,,,,,,,,,,,,,,,,,,,,,,,,,,,,,,,,,,,,,,,,,,,,,,,,,,,,,,,,,,
1720079373,99,0,4305,4373.077148,4309.615234,4359.230957,4423.205078,4420.897461,4398.333496,4368.589844,4466.410156,4262.307617,4273.205078,4446.666504,4284.487305,4270,,,,,,,,,,,,,,,,,,,,,,,,,,,,,,,,,,,,,,,,,,,,,,,,,,,,,,,,,,,,,,,,,,,,,,
1720079373,100,0,4298.205078,4368.333496,4300,4350.512695,4415.384766,4418.461426,4395.256348,4368.717773,4461.153809,4261.410156,4266.410156,4442.179688,4291.922852,4264.615234,,,,,,,,,,,,,,,,,,,,,,,,,,,,,,,,,,,,,,,,,,,,,,,,,,,,,,,,,,,,,,,,,,,,,,
1720079373,101,0,4308.589844,4374.358887,4294.615234,4358.589844,4413.333496,4415.128418,4394.358887,4367.94873,4458.589844,4266.922852,4279.743652,4441.153809,4311.794922,4273.717773,,,,,,,,,,,,,,,,,,,,,,,,,,,,,,,,,,,,,,,,,,,,,,,,,,,,,,,,,,,,,,,,,,,,,,
1720079373,102,0,4317.692383,4381.025879,4305.384766,4368.205078,4422.436035,4416.410156,4398.205078,4370.641113,4461.410156,4282.94873,4296.666504,4450.384766,4321.666504,4285.384766,,,,,,,,,,,,,,,,,,,,,,,,,,,,,,,,,,,,,,,,,,,,,,,,,,,,,,,,,,,,,,,,,,,,,,
1720079373,103,0,4313.077148,4371.153809,4309.358887,4360.769043,4419.102539,4415.128418,4398.205078,4374.487305,4463.461426,4296.538574,4294.615234,4453.205078,4327.563965,4283.333496,,,,,,,,,,,,,,,,,,,,,,,,,,,,,,,,,,,,,,,,,,,,,,,,,,,,,,,,,,,,,,,,,,,,,,
1720079373,104,0,4310.769043,4361.538574,4306.794922,4355.897461,4407.307617,4411.794922,4393.717773,4377.05127,4461.025879,4304.615234,4292.563965,4451.794922,4330.256348,4282.307617,,,,,,,,,,,,,,,,,,,,,,,,,,,,,,,,,,,,,,,,,,,,,,,,,,,,,,,,,,,,,,,,,,,,,,
1720079373,105,0,4312.692383,4362.820313,4306.922852,4356.794922,4409.358887,4415,4393.461426,4375.512695,4458.846191,4308.589844,4302.94873,4455.256348,4322.820313,4287.436035,,,,,,,,,,,,,,,,,,,,,,,,,,,,,,,,,,,,,,,,,,,,,,,,,,,,,,,,,,,,,,,,,,,,,,
1720079373,106,0,4313.077148,4364.615234,4305.769043,4353.717773,4413.846191,4415.512695,4395.512695,4368.205078,4459.615234,4316.410156,4301.282227,4451.922852,4318.846191,4282.05127,,,,,,,,,,,,,,,,,,,,,,,,,,,,,,,,,,,,,,,,,,,,,,,,,,,,,,,,,,,,,,,,,,,,,,
1720079373,107,0,4313.717773,4362.179688,4304.230957,4353.077148,4411.538574,4412.436035,4394.358887,4375.256348,4460.384766,4328.846191,4293.205078,4450.641113,4322.05127,4281.153809,,,,,,,,,,,,,,,,,,,,,,,,,,,,,,,,,,,,,,,,,,,,,,,,,,,,,,,,,,,,,,,,,,,,,,
1720079373,108,0,4313.205078,4364.358887,4307.436035,4353.846191,4411.794922,4414.230957,4393.333496,4385.897461,4460.769043,4340.256348,4299.487305,4457.179688,4320.384766,4289.230957,,,,,,,,,,,,,,,,,,,,,,,,,,,,,,,,,,,,,,,,,,,,,,,,,,,,,,,,,,,,,,,,,,,,,,
1720079373,109,0,4315.256348,4370,4310.128418,4350,4412.692383,4415.256348,4399.230957,4376.666504,4461.666504,4345.897461,4305.512695,4458.846191,4323.077148,4290.128418,,,,,,,,,,,,,,,,,,,,,,,,,,,,,,,,,,,,,,,,,,,,,,,,,,,,,,,,,,,,,,,,,,,,,,
1720079373,110,0,4315.512695,4368.974121,4306.410156,4351.025879,4408.333496,4413.205078,4405,4374.487305,4457.94873,4348.461426,4296.410156,4455.512695,4326.794922,4286.922852,,,,,,,,,,,,,,,,,,,,,,,,,,,,,,,,,,,,,,,,,,,,,,,,,,,,,,,,,,,,,,,,,,,,,,
1720079373,111,0,4315.641113,4367.563965,4310.512695,4361.666504,4408.205078,4418.717773,4406.922852,4382.692383,4453.205078,4357.436035,4290,4456.025879,4323.717773,4284.615234,,,,,,,,,,,,,,,,,,,,,,,,,,,,,,,,,,,,,,,,,,,,,,,,,,,,,,,,,,,,,,,,,,,,,,
1720079373,112,0,4316.538574,4367.179688,4313.077148,4357.563965,4410.384766,4420.769043,4407.820313,4378.589844,4446.153809,4367.563965,4292.563965,4455.256348,4317.05127,4283.333496,4.238637,2.039848,1.158582,0.906156,0.344311,0.996377,0.870156,1.168346,0.675879,0.364865,2.083575,2.33636,1.706095,0.719603,0.402638,0.988569,0.977657,1.859968,1.175939,0.650435,0.369444,0.236215,0.464363,0.344822,0.187373,0.331812,0.241411,0.991902,0.131376,0.091762,0.553539,0.45061,0.869097,0.167546,0.131913,0.502638,0.395835,0.409047,0.229319,0.15781,1.537453,0.693573,0.73452,0.497873,0.249183,6.593635,2.40904,1.057094,0.611578,0.247623,0.90257,1.094269,0.96926,0.630776,0.331602,1.525193,1.617166,1.552516,0.682064,0.337583,2.336551,1.452642,2.064362,1.101285,0.517062,1.609134,0.677381,0.778821,0.444261,0.241006
1720079373,113,0,4303.077148,4355.256348,4294.487305,4331.794922,4401.666504,4410.128418,4398.717773,4367.563965,4424.615234,4360.769043,4281.025879,4440,4299.358887,4276.153809,,,,,,,,,,,,,,,,,,,,,,,,,,,,,,,,,,,,,,,,,,,,,,,,,,,,,,,,,,,,,,,,,,,,,,
1720079373,114,0,4283.974121,4339.871582,4273.205078,4324.230957,4393.205078,4405.641113,4387.94873,4358.846191,4403.717773,4346.153809,4258.461426,4420,4275.384766,4259.487305,,,,,,,,,,,,,,,,,,,,,,,,,,,,,,,,,,,,,,,,,,,,,,,,,,,,,,,,,,,,,,,,,,,,,,
1720079373,115,0,4283.717773,4336.538574,4271.922852,4335,4395.128418,4411.666504,4391.666504,4359.358887,4410.512695,4356.794922,4255.384766,4418.333496,4270.128418,4256.538574,,,,,,,,,,,,,,,,,,,,,,,,,,,,,,,,,,,,,,,,,,,,,,,,,,,,,,,,,,,,,,,,,,,,,,
1720079373,116,0,4297.820313,4345.641113,4283.846191,4336.794922,4401.025879,4416.153809,4398.077148,4373.717773,4427.563965,4382.307617,4276.922852,4438.589844,4290.769043,4276.410156,,,,,,,,,,,,,,,,,,,,,,,,,,,,,,,,,,,,,,,,,,,,,,,,,,,,,,,,,,,,,,,,,,,,,,
1720079373,117,0,4318.205078,4368.589844,4302.563965,4346.410156,4408.205078,4417.820313,4396.538574,4376.794922,4428.589844,4398.974121,4292.436035,4451.538574,4313.974121,4283.974121,,,,,,,,,,,,,,,,,,,,,,,,,,,,,,,,,,,,,,,,,,,,,,,,,,,,,,,,,,,,,,,,,,,,,,
1720079373,118,0,4335.769043,4386.538574,4321.922852,4364.230957,4415.769043,4417.05127,4399.743652,4368.333496,4428.077148,4417.179688,4298.077148,4455.512695,4323.846191,4285.384766,,,,,,,,,,,,,,,,,,,,,,,,,,,,,,,,,,,,,,,,,,,,,,,,,,,,,,,,,,,,,,,,,,,,,,
1720079374,119,0,4329.615234,4377.05127,4318.461426,4356.794922,4415.256348,4413.333496,4402.692383,4373.717773,4425.512695,4429.487305,4300.769043,4457.820313,4321.410156,4290,,,,,,,,,,,,,,,,,,,,,,,,,,,,,,,,,,,,,,,,,,,,,,,,,,,,,,,,,,,,,,,,,,,,,,
1720079374,120,0,4319.743652,4369.102539,4311.666504,4346.282227,4412.94873,4414.102539,4397.820313,4372.692383,4411.922852,4426.153809,4293.077148,4452.692383,4319.871582,4275.897461,,,,,,,,,,,,,,,,,,,,,,,,,,,,,,,,,,,,,,,,,,,,,,,,,,,,,,,,,,,,,,,,,,,,,,
1720079374,121,0,4329.230957,4378.589844,4321.410156,4359.871582,4413.589844,4414.743652,4397.94873,4374.358887,4405.384766,4428.205078,4296.666504,4457.820313,4323.077148,4280.512695,,,,,,,,,,,,,,,,,,,,,,,,,,,,,,,,,,,,,,,,,,,,,,,,,,,,,,,,,,,,,,,,,,,,,,
1720079374,122,0,4332.820313,4376.922852,4321.153809,4362.692383,4412.436035,4412.820313,4399.615234,4379.487305,4408.461426,4446.666504,4301.282227,4459.615234,4319.358887,4287.94873,,,,,,,,,,,,,,,,,,,,,,,,,,,,,,,,,,,,,,,,,,,,,,,,,,,,,,,,,,,,,,,,,,,,,,
1720079374,123,0,4326.282227,4369.871582,4313.846191,4350.769043,4408.846191,4414.487305,4397.94873,4376.666504,4405.384766,4460.256348,4298.333496,4459.358887,4324.615234,4286.025879,,,,,,,,,,,,,,,,,,,,,,,,,,,,,,,,,,,,,,,,,,,,,,,,,,,,,,,,,,,,,,,,,,,,,,
1720079374,124,0,4326.153809,4375.897461,4315.769043,4358.205078,4403.974121,4412.692383,4396.794922,4383.077148,4395,4459.487305,4304.743652,4468.589844,4334.743652,4300.897461,,,,,,,,,,,,,,,,,,,,,,,,,,,,,,,,,,,,,,,,,,,,,,,,,,,,,,,,,,,,,,,,,,,,,,
1720079374,125,0,4325.769043,4382.820313,4315.128418,4372.307617,4408.333496,4411.025879,4393.974121,4369.102539,4389.102539,4466.410156,4292.820313,4451.794922,4326.025879,4277.94873,,,,,,,,,,,,,,,,,,,,,,,,,,,,,,,,,,,,,,,,,,,,,,,,,,,,,,,,,,,,,,,,,,,,,,
1720079374,126,0,4319.102539,4373.461426,4307.05127,4357.563965,4409.871582,4410.897461,4392.436035,4370.384766,4385.256348,4480.641113,4287.94873,4448.717773,4316.666504,4282.436035,,,,,,,,,,,,,,,,,,,,,,,,,,,,,,,,,,,,,,,,,,,,,,,,,,,,,,,,,,,,,,,,,,,,,,
1720079374,127,0,4318.461426,4366.794922,4308.717773,4341.538574,4402.436035,4409.487305,4393.846191,4387.94873,4384.230957,4493.205078,4303.077148,4459.743652,4318.846191,4304.102539,,,,,,,,,,,,,,,,,,,,,,,,,,,,,,,,,,,,,,,,,,,,,,,,,,,,,,,,,,,,,,,,,,,,,,
1720079374,0,0,4325,4378.333496,4317.436035,4353.717773,4407.179688,4412.436035,4396.282227,4353.846191,4385.897461,4505.384766,4283.846191,4434.871582,4315.384766,4241.666504,3.765074,2.299452,1.223895,0.912724,0.358816,0.859017,1.127721,1.185134,0.643224,0.330812,1.887538,2.728515,1.742119,0.78787,0.414847,1.010116,1.024414,1.6991,1.118707,0.609308,0.367018,0.300471,0.53724,0.339913,0.180415,0.229516,0.350326,1.21198,0.128824,0.096104,0.451981,0.61153,1.009618,0.185841,0.140192,0.368917,0.471536,0.401517,0.251938,0.158273,1.200814,0.706371,0.924034,0.634166,0.239436,7.378623,2.478906,1.112379,0.696378,0.21195,0.77963,1.21529,0.984711,0.692738,0.342507,1.406049,1.935024,1.551967,0.768331,0.338819,2.049114,1.275765,1.899582,1.209983,0.468792,1.358458,0.705088,0.746679,0.476497,0.233662
1720079374,1,0,4328.974121,4376.666504,4319.102539,4357.179688,4412.179688,4413.717773,4398.974121,4365.128418,4381.538574,4510,4286.410156,4451.410156,4319.743652,4263.461426,,,,,,,,,,,,,,,,,,,,,,,,,,,,,,,,,,,,,,,,,,,,,,,,,,,,,,,,,,,,,,,,,,,,,,
1720079374,2,0,4326.922852,4367.05127,4320.641113,4344.230957,4410.384766,4413.077148,4396.794922,4404.743652,4377.820313,4515.641113,4311.410156,4477.563965,4330.641113,4319.743652,,,,,,,,,,,,,,,,,,,,,,,,,,,,,,,,,,,,,,,,,,,,,,,,,,,,,,,,,,,,,,,,,,,,,,
1720079374,3,0,4325.256348,4373.846191,4321.410156,4343.846191,4411.025879,4414.871582,4397.436035,4382.436035,4381.282227,4530.256348,4296.025879,4455.897461,4321.794922,4278.974121,,,,,,,,,,,,,,,,,,,,,,,,,,,,,,,,,,,,,,,,,,,,,,,,,,,,,,,,,,,,,,,,,,,,,,
1720079374,4,0,4326.922852,4377.692383,4317.179688,4352.94873,4407.307617,4413.974121,4402.692383,4380.256348,4383.077148,4542.436035,4288.717773,4457.692383,4313.589844,4284.230957,,,,,,,,,,,,,,,,,,,,,,,,,,,,,,,,,,,,,,,,,,,,,,,,,,,,,,,,,,,,,,,,,,,,,,
1720079374,5,0,4327.692383,4376.410156,4317.179688,4360.641113,4404.102539,4415.384766,4403.461426,4391.666504,4378.461426,4550.256348,4293.717773,4460.128418,4318.205078,4297.179688,,,,,,,,,,,,,,,,,,,,,,,,,,,,,,,,,,,,,,,,,,,,,,,,,,,,,,,,,,,,,,,,,,,,,,
1720079374,6,0,4328.717773,4380.384766,4326.025879,4365.641113,4410.641113,4425.384766,4403.717773,4378.589844,4375.256348,4559.743652,4291.922852,4453.717773,4319.230957,4277.436035,,,,,,,,,,,,,,,,,,,,,,,,,,,,,,,,,,,,,,,,,,,,,,,,,,,,,,,,,,,,,,,,,,,,,,
1720079374,7,0,4330.384766,4378.205078,4325.384766,4358.461426,4413.974121,4430.384766,4405.128418,4379.230957,4369.743652,4561.538574,4292.179688,4459.102539,4314.358887,4283.333496,,,,,,,,,,,,,,,,,,,,,,,,,,,,,,,,,,,,,,,,,,,,,,,,,,,,,,,,,,,,,,,,,,,,,,
1720079374,8,0,4330,4374.615234,4316.025879,4348.205078,4409.743652,4422.307617,4403.333496,4382.436035,4359.743652,4556.922852,4286.538574,4452.563965,4314.358887,4285.384766,,,,,,,,,,,,,,,,,,,,,,,,,,,,,,,,,,,,,,,,,,,,,,,,,,,,,,,,,,,,,,,,,,,,,,
1720079374,9,0,4333.205078,4382.820313,4322.307617,4351.538574,4410.384766,4417.820313,4402.692383,4375.384766,4355.769043,4558.589844,4291.410156,4452.307617,4321.153809,4284.743652,,,,,,,,,,,,,,,,,,,,,,,,,,,,,,,,,,,,,,,,,,,,,,,,,,,,,,,,,,,,,,,,,,,,,,
1720079374,10,0,4339.102539,4388.717773,4329.358887,4357.692383,4412.307617,4419.743652,4402.94873,4371.153809,4357.05127,4553.077148,4301.410156,4459.871582,4324.871582,4287.179688,,,,,,,,,,,,,,,,,,,,,,,,,,,,,,,,,,,,,,,,,,,,,,,,,,,,,,,,,,,,,,,,,,,,,,
1720079374,11,0,4343.846191,4385.256348,4325.512695,4357.436035,4405.641113,4416.153809,4402.436035,4374.102539,4355,4542.179688,4301.794922,4463.333496,4327.436035,4292.05127,,,,,,,,,,,,,,,,,,,,,,,,,,,,,,,,,,,,,,,,,,,,,,,,,,,,,,,,,,,,,,,,,,,,,,
1720079374,12,0,4347.820313,4385.897461,4330,4357.436035,4404.230957,4412.05127,4402.692383,4375.641113,4351.922852,4538.974121,4298.589844,4462.179688,4327.563965,4296.282227,,,,,,,,,,,,,,,,,,,,,,,,,,,,,,,,,,,,,,,,,,,,,,,,,,,,,,,,,,,,,,,,,,,,,,
1720079374,13,0,4354.358887,4392.307617,4341.922852,4363.333496,4412.692383,4413.333496,4405.641113,4374.230957,4354.102539,4530.128418,4299.487305,4465.769043,4326.666504,4300.641113,,,,,,,,,,,,,,,,,,,,,,,,,,,,,,,,,,,,,,,,,,,,,,,,,,,,,,,,,,,,,,,,,,,,,,
1720079374,14,0,4365.641113,4395.256348,4345.769043,4367.820313,4411.922852,4417.179688,4407.94873,4375.769043,4354.743652,4512.307617,4301.922852,4477.820313,4332.05127,4311.025879,,,,,,,,,,,,,,,,,,,,,,,,,,,,,,,,,,,,,,,,,,,,,,,,,,,,,,,,,,,,,,,,,,,,,,
1720079374,15,0,4379.743652,4394.487305,4349.871582,4369.871582,4411.025879,4421.666504,4409.871582,4375.256348,4355.897461,4503.333496,4305.256348,4481.922852,4341.538574,4317.307617,,,,,,,,,,,,,,,,,,,,,,,,,,,,,,,,,,,,,,,,,,,,,,,,,,,,,,,,,,,,,,,,,,,,,,
1720079374,16,0,4395.384766,4402.94873,4366.410156,4377.94873,4424.230957,4427.05127,4414.102539,4380.256348,4366.666504,4496.410156,4317.179688,4488.846191,4353.205078,4327.692383,3.239017,2.524772,1.279088,0.898108,0.362567,0.719346,1.393887,1.184524,0.607105,0.294865,1.715059,3.051769,1.687296,0.84137,0.414807,1.029572,1.100262,1.478984,1.023493,0.56822,0.357542,0.383169,0.59057,0.318493,0.179713,0.166645,0.473418,1.336758,0.125196,0.104432,0.370435,0.743987,1.049081,0.197667,0.146474,0.300024,0.530382,0.371146,0.271822,0.161044,0.922418,0.709165,1.159349,0.771853,0.234385,8.52751,2.417059,1.165893,0.77077,0.184363,0.738618,1.383076,0.926916,0.726375,0.353564,1.402126,2.240092,1.456558,0.831051,0.337327,1.846712,1.182261,1.688257,1.288518,0.422152,1.170618,0.744902,0.678514,0.498138,0.222326
1720079374,17,0,4410.128418,4417.307617,4377.307617,4385,4428.717773,4426.538574,4416.410156,4385.512695,4374.615234,4480.256348,4321.794922,4498.717773,4360.641113,4335.384766,,,,,,,,,,,,,,,,,,,,,,,,,,,,,,,,,,,,,,,,,,,,,,,,,,,,,,,,,,,,,,,,,,,,,,
1720079374,18,0,4423.205078,4422.94873,4381.538574,4387.563965,4422.179688,4424.871582,4416.153809,4379.102539,4374.230957,4470,4317.436035,4501.153809,4367.563965,4333.846191,,,,,,,,,,,,,,,,,,,,,,,,,,,,,,,,,,,,,,,,,,,,,,,,,,,,,,,,,,,,,,,,,,,,,,
1720079374,19,0,4440.512695,4426.538574,4393.846191,4390.256348,4425.512695,4426.922852,4420.128418,4386.025879,4374.615234,4466.666504,4325.897461,4512.436035,4375.128418,4354.358887,,,,,,,,,,,,,,,,,,,,,,,,,,,,,,,,,,,,,,,,,,,,,,,,,,,,,,,,,,,,,,,,,,,,,,
1720079374,20,0,4454.102539,4438.717773,4404.487305,4401.282227,4431.922852,4427.307617,4425.384766,4388.846191,4382.05127,4461.025879,4334.487305,4520.897461,4374.230957,4366.025879,,,,,,,,,,,,,,,,,,,,,,,,,,,,,,,,,,,,,,,,,,,,,,,,,,,,,,,,,,,,,,,,,,,,,,
1720079374,21,0,4460.512695,4445,4405.384766,4417.692383,4431.666504,4428.205078,4427.94873,4380.128418,4387.179688,4448.461426,4335.512695,4523.974121,4373.461426,4355.769043,,,,,,,,,,,,,,,,,,,,,,,,,,,,,,,,,,,,,,,,,,,,,,,,,,,,,,,,,,,,,,,,,,,,,,
1720079374,22,0,4462.820313,4437.436035,4401.922852,4418.333496,4428.846191,4427.436035,4425.641113,4384.358887,4383.974121,4427.820313,4339.358887,4526.410156,4379.487305,4362.307617,,,,,,,,,,,,,,,,,,,,,,,,,,,,,,,,,,,,,,,,,,,,,,,,,,,,,,,,,,,,,,,,,,,,,,
1720079374,23,0,4457.307617,4436.153809,4398.846191,4404.615234,4427.563965,4425.384766,4421.794922,4383.205078,4385.384766,4415.897461,4337.179688,4519.615234,4377.692383,4366.538574,,,,,,,,,,,,,,,,,,,,,,,,,,,,,,,,,,,,,,,,,,,,,,,,,,,,,,,,,,,,,,,,,,,,,,
1720079374,24,0,4455.769043,4442.436035,4396.794922,4405.769043,4426.794922,4427.820313,4425,4380.769043,4395.256348,4415,4337.307617,4520.128418,4379.871582,4364.230957,,,,,,,,,,,,,,,,,,,,,,,,,,,,,,,,,,,,,,,,,,,,,,,,,,,,,,,,,,,,,,,,,,,,,,
1720079374,25,0,4466.922852,4447.692383,4399.102539,4420.512695,4428.205078,4427.692383,4427.179688,4385.384766,4398.205078,4408.461426,4343.846191,4526.282227,4390,4362.563965,,,,,,,,,,,,,,,,,,,,,,,,,,,,,,,,,,,,,,,,,,,,,,,,,,,,,,,,,,,,,,,,,,,,,,
1720079374,26,0,4468.717773,4447.307617,4400.256348,4418.589844,4429.487305,4422.436035,4423.974121,4383.461426,4397.179688,4396.538574,4338.077148,4521.025879,4384.487305,4353.717773,,,,,,,,,,,,,,,,,,,,,,,,,,,,,,,,,,,,,,,,,,,,,,,,,,,,,,,,,,,,,,,,,,,,,,
1720079374,27,0,4460.256348,4444.102539,4397.05127,4406.922852,4428.333496,4422.94873,4424.615234,4382.692383,4406.282227,4390,4331.794922,4520.512695,4377.692383,4353.974121,,,,,,,,,,,,,,,,,,,,,,,,,,,,,,,,,,,,,,,,,,,,,,,,,,,,,,,,,,,,,,,,,,,,,,
1720079374,28,0,4467.307617,4452.563965,4404.102539,4414.871582,4433.974121,4429.743652,4428.205078,4384.871582,4415.256348,4387.563965,4338.077148,4530.384766,4385.128418,4362.692383,,,,,,,,,,,,,,,,,,,,,,,,,,,,,,,,,,,,,,,,,,,,,,,,,,,,,,,,,,,,,,,,,,,,,,
1720079374,29,0,4474.743652,4460.256348,4411.410156,4427.820313,4438.846191,4430.128418,4425.256348,4383.974121,4412.692383,4377.692383,4338.205078,4530.128418,4380.384766,4360.897461,,,,,,,,,,,,,,,,,,,,,,,,,,,,,,,,,,,,,,,,,,,,,,,,,,,,,,,,,,,,,,,,,,,,,,
1720079374,30,0,4468.077148,4450.512695,4408.205078,4424.871582,4430.128418,4428.589844,4425.641113,4385.512695,4414.230957,4361.410156,4337.94873,4528.717773,4371.410156,4359.487305,,,,,,,,,,,,,,,,,,,,,,,,,,,,,,,,,,,,,,,,,,,,,,,,,,,,,,,,,,,,,,,,,,,,,,
1720079374,31,0,4464.487305,4441.153809,4401.922852,4417.820313,4423.846191,4431.025879,4430.384766,4384.743652,4423.333496,4352.563965,4341.153809,4531.025879,4374.358887,4361.922852,,,,,,,,,,,,,,,,,,,,,,,,,,,,,,,,,,,,,,,,,,,,,,,,,,,,,,,,,,,,,,,,,,,,,,
1720079374,32,0,4465,4444.871582,4398.205078,4414.230957,4429.871582,4432.179688,4428.589844,4380.897461,4427.307617,4344.743652,4335.512695,4526.025879,4376.794922,4360.769043,2.726286,2.656479,1.317001,0.868475,0.355751,0.592224,1.599356,1.185534,0.57776,0.26798,1.494457,3.211225,1.572453,0.866271,0.401273,1.02821,1.206223,1.248925,0.913331,0.537756,0.332707,0.462399,0.60567,0.283706,0.186959,0.141911,0.56583,1.322815,0.120543,0.117235,0.310177,0.800905,0.973586,0.199944,0.150632,0.264913,0.559897,0.328672,0.280547,0.171665,0.69209,0.719535,1.40876,0.882615,0.24056,10.603697,2.21525,1.212565,0.820267,0.173901,0.774431,1.600747,0.824099,0.724183,0.365261,1.415983,2.462076,1.298623,0.852706,0.332685,1.786769,1.217828,1.491605,1.328654,0.387694,1.052994,0.799669,0.588797,0.511229,0.214744
1720079374,33,0,4465.769043,4443.846191,4401.282227,4411.922852,4429.230957,4430.769043,4427.692383,4386.538574,4429.102539,4330.512695,4335.512695,4527.692383,4375.512695,4368.717773,,,,,,,,,,,,,,,,,,,,,,,,,,,,,,,,,,,,,,,,,,,,,,,,,,,,,,,,,,,,,,,,,,,,,,
1720079374,34,0,4468.974121,4440.769043,4406.282227,4421.666504,4423.333496,4429.615234,4430.512695,4384.230957,4433.846191,4319.230957,4341.538574,4528.589844,4373.846191,4372.692383,,,,,,,,,,,,,,,,,,,,,,,,,,,,,,,,,,,,,,,,,,,,,,,,,,,,,,,,,,,,,,,,,,,,,,
1720079374,35,0,4470.897461,4445.128418,4403.717773,4431.922852,4428.717773,4431.666504,4429.102539,4382.820313,4440,4313.077148,4342.692383,4529.743652,4376.410156,4371.282227,,,,,,,,,,,,,,,,,,,,,,,,,,,,,,,,,,,,,,,,,,,,,,,,,,,,,,,,,,,,,,,,,,,,,,
1720079374,36,0,4469.743652,4443.717773,4397.307617,4419.487305,4433.589844,4434.230957,4429.743652,4398.846191,4447.692383,4304.102539,4345.128418,4533.846191,4386.794922,4371.666504,,,,,,,,,,,,,,,,,,,,,,,,,,,,,,,,,,,,,,,,,,,,,,,,,,,,,,,,,,,,,,,,,,,,,,
1720079374,37,0,4468.205078,4436.025879,4397.05127,4402.307617,4429.230957,4432.94873,4437.307617,4396.666504,4451.794922,4295,4342.179688,4525.256348,4383.717773,4360.897461,,,,,,,,,,,,,,,,,,,,,,,,,,,,,,,,,,,,,,,,,,,,,,,,,,,,,,,,,,,,,,,,,,,,,,
1720079374,38,0,4465.384766,4436.922852,4396.410156,4402.307617,4425.641113,4430.128418,4438.077148,4384.615234,4448.205078,4282.05127,4335.769043,4516.794922,4369.743652,4358.333496,,,,,,,,,,,,,,,,,,,,,,,,,,,,,,,,,,,,,,,,,,,,,,,,,,,,,,,,,,,,,,,,,,,,,,
1720079374,39,0,4465.384766,4440.641113,4390.256348,4403.846191,4425.384766,4429.743652,4431.153809,4383.205078,4441.410156,4264.743652,4333.717773,4517.307617,4365.897461,4359.358887,,,,,,,,,,,,,,,,,,,,,,,,,,,,,,,,,,,,,,,,,,,,,,,,,,,,,,,,,,,,,,,,,,,,,,
1720079374,40,0,4464.102539,4435.384766,4383.205078,4401.666504,4427.307617,4430.769043,4428.205078,4382.179688,4440.512695,4258.589844,4331.025879,4515.512695,4367.563965,4352.692383,,,,,,,,,,,,,,,,,,,,,,,,,,,,,,,,,,,,,,,,,,,,,,,,,,,,,,,,,,,,,,,,,,,,,,
1720079374,41,0,4458.589844,4433.589844,4381.282227,4404.487305,4436.922852,4429.615234,4431.922852,4384.743652,4450.128418,4266.666504,4324.230957,4512.692383,4366.025879,4355,,,,,,,,,,,,,,,,,,,,,,,,,,,,,,,,,,,,,,,,,,,,,,,,,,,,,,,,,,,,,,,,,,,,,,
1720079374,42,0,4460.128418,4438.461426,4383.974121,4408.077148,4441.282227,4427.692383,4436.794922,4388.846191,4458.205078,4266.538574,4319.871582,4514.487305,4365.256348,4355.897461,,,,,,,,,,,,,,,,,,,,,,,,,,,,,,,,,,,,,,,,,,,,,,,,,,,,,,,,,,,,,,,,,,,,,,
1720079374,43,0,4463.077148,4439.230957,4384.358887,4408.461426,4434.743652,4427.436035,4434.743652,4388.333496,4456.538574,4253.974121,4322.307617,4513.846191,4363.717773,4344.743652,,,,,,,,,,,,,,,,,,,,,,,,,,,,,,,,,,,,,,,,,,,,,,,,,,,,,,,,,,,,,,,,,,,,,,
1720079374,44,0,4460.256348,4439.102539,4386.794922,4407.307617,4435,4428.205078,4436.794922,4394.487305,4456.666504,4251.538574,4329.743652,4513.846191,4363.717773,4347.436035,,,,,,,,,,,,,,,,,,,,,,,,,,,,,,,,,,,,,,,,,,,,,,,,,,,,,,,,,,,,,,,,,,,,,,
1720079374,45,0,4465.128418,4444.743652,4393.461426,4417.179688,4443.974121,4429.487305,4441.025879,4400.128418,4462.563965,4253.589844,4334.230957,4520,4367.820313,4357.563965,,,,,,,,,,,,,,,,,,,,,,,,,,,,,,,,,,,,,,,,,,,,,,,,,,,,,,,,,,,,,,,,,,,,,,
1720079374,46,0,4472.94873,4446.410156,4390.384766,4427.307617,4445.256348,4430.641113,4437.05127,4390,4460.384766,4238.974121,4332.563965,4518.846191,4369.743652,4352.307617,,,,,,,,,,,,,,,,,,,,,,,,,,,,,,,,,,,,,,,,,,,,,,,,,,,,,,,,,,,,,,,,,,,,,,
1720079374,47,0,4467.94873,4440.641113,4380,4416.282227,4439.230957,4430.641113,4433.846191,4385.512695,4457.820313,4220.512695,4329.615234,4513.077148,4361.282227,4348.461426,,,,,,,,,,,,,,,,,,,,,,,,,,,,,,,,,,,,,,,,,,,,,,,,,,,,,,,,,,,,,,,,,,,,,,
1720079374,48,0,4463.846191,4439.358887,4377.692383,4402.179688,4439.743652,4429.102539,4436.666504,4391.282227,4462.692383,4217.563965,4324.743652,4512.820313,4349.102539,4351.025879,2.50927,2.654622,1.32253,0.828837,0.338662,0.55678,1.688428,1.199137,0.562753,0.254487,1.316374,3.165435,1.437223,0.856,0.37384,1.034278,1.318255,1.050682,0.813266,0.518992,0.318852,0.520495,0.57673,0.241136,0.198452,0.153386,0.597203,1.168235,0.11582,0.131715,0.284041,0.767515,0.810778,0.193536,0.151295,0.245999,0.568341,0.288407,0.275787,0.19665,0.529096,0.785176,1.616268,0.945493,0.256147,13.544125,1.969134,1.232395,0.836907,0.181709,0.902427,1.850062,0.715914,0.692336,0.376528,1.438067,2.551015,1.116611,0.831287,0.324017,1.969207,1.370198,1.351558,1.336215,0.367161,1.035688,0.862118,0.493377,0.524365,0.230456
1720079374,49,0,4468.333496,4441.153809,4380.641113,4407.94873,4441.282227,4427.436035,4437.05127,4390.641113,4464.615234,4220.128418,4326.794922,4515.897461,4351.153809,4351.153809,,,,,,,,,,,,,,,,,,,,,,,,,,,,,,,,,,,,,,,,,,,,,,,,,,,,,,,,,,,,,,,,,,,,,,
1720079374,50,0,4468.205078,4443.077148,4380,4419.230957,4440.256348,4426.025879,4432.05127,4387.05127,4461.794922,4213.974121,4332.179688,4516.666504,4360.384766,4349.102539,,,,,,,,,,,,,,,,,,,,,,,,,,,,,,,,,,,,,,,,,,,,,,,,,,,,,,,,,,,,,,,,,,,,,,
1720079374,51,0,4473.077148,4450,4384.871582,4423.717773,4441.153809,4428.333496,4436.794922,4391.025879,4460.897461,4208.846191,4331.282227,4519.358887,4362.820313,4353.717773,,,,,,,,,,,,,,,,,,,,,,,,,,,,,,,,,,,,,,,,,,,,,,,,,,,,,,,,,,,,,,,,,,,,,,
1720079374,52,0,4484.487305,4458.717773,4398.205078,4430,4443.205078,4432.563965,4446.410156,4399.615234,4465.512695,4213.846191,4340,4531.153809,4368.205078,4365.512695,,,,,,,,,,,,,,,,,,,,,,,,,,,,,,,,,,,,,,,,,,,,,,,,,,,,,,,,,,,,,,,,,,,,,,
1720079374,53,0,4483.717773,4457.05127,4400.769043,4427.692383,4443.846191,4430,4443.717773,4397.820313,4465.641113,4219.102539,4349.102539,4533.461426,4372.436035,4366.922852,,,,,,,,,,,,,,,,,,,,,,,,,,,,,,,,,,,,,,,,,,,,,,,,,,,,,,,,,,,,,,,,,,,,,,
1720079374,54,0,4478.717773,4452.436035,4394.102539,4420.256348,4441.794922,4427.563965,4436.410156,4391.794922,4456.538574,4215.512695,4341.666504,4525.769043,4372.307617,4360.897461,,,,,,,,,,,,,,,,,,,,,,,,,,,,,,,,,,,,,,,,,,,,,,,,,,,,,,,,,,,,,,,,,,,,,,
1720079374,55,0,4483.846191,4458.974121,4397.820313,4425.512695,4442.307617,4431.922852,4439.871582,4395.897461,4458.333496,4215.769043,4338.461426,4527.05127,4373.717773,4359.871582,,,,,,,,,,,,,,,,,,,,,,,,,,,,,,,,,,,,,,,,,,,,,,,,,,,,,,,,,,,,,,,,,,,,,,
1720079374,56,0,4482.94873,4464.615234,4401.410156,4432.05127,4442.820313,4431.538574,4441.153809,4397.692383,4463.077148,4216.282227,4343.717773,4526.666504,4365.384766,4358.205078,,,,,,,,,,,,,,,,,,,,,,,,,,,,,,,,,,,,,,,,,,,,,,,,,,,,,,,,,,,,,,,,,,,,,,
1720079374,57,0,4472.307617,4454.871582,4391.794922,4423.717773,4436.922852,4425.769043,4428.077148,4391.922852,4446.538574,4208.077148,4331.922852,4515.641113,4350.897461,4349.487305,,,,,,,,,,,,,,,,,,,,,,,,,,,,,,,,,,,,,,,,,,,,,,,,,,,,,,,,,,,,,,,,,,,,,,
1720079374,58,0,4467.820313,4443.974121,4388.077148,4420.128418,4431.666504,4425.769043,4424.102539,4391.153809,4431.282227,4209.615234,4321.282227,4512.94873,4357.179688,4349.230957,,,,,,,,,,,,,,,,,,,,,,,,,,,,,,,,,,,,,,,,,,,,,,,,,,,,,,,,,,,,,,,,,,,,,,
1720079374,59,0,4469.743652,4447.820313,4393.717773,4425.512695,4431.794922,4427.820313,4427.307617,4389.743652,4432.307617,4221.922852,4325.897461,4517.307617,4363.205078,4353.333496,,,,,,,,,,,,,,,,,,,,,,,,,,,,,,,,,,,,,,,,,,,,,,,,,,,,,,,,,,,,,,,,,,,,,,
1720079374,60,0,4474.487305,4456.025879,4395.512695,4418.717773,4431.025879,4426.538574,4423.717773,4389.358887,4429.871582,4229.615234,4331.025879,4520.641113,4355.512695,4355.256348,,,,,,,,,,,,,,,,,,,,,,,,,,,,,,,,,,,,,,,,,,,,,,,,,,,,,,,,,,,,,,,,,,,,,,
1720079374,61,0,4479.615234,4461.538574,4400.641113,4416.538574,4430.256348,4427.436035,4424.871582,4404.615234,4427.692383,4241.538574,4340.384766,4533.077148,4363.589844,4368.589844,,,,,,,,,,,,,,,,,,,,,,,,,,,,,,,,,,,,,,,,,,,,,,,,,,,,,,,,,,,,,,,,,,,,,,
1720079374,62,0,4470.897461,4457.563965,4400,4423.077148,4431.282227,4429.487305,4423.205078,4402.05127,4424.487305,4248.205078,4336.025879,4522.94873,4362.94873,4362.05127,,,,,,,,,,,,,,,,,,,,,,,,,,,,,,,,,,,,,,,,,,,,,,,,,,,,,,,,,,,,,,,,,,,,,,
1720079374,63,0,4447.563965,4433.846191,4372.307617,4401.794922,4420.128418,4422.179688,4410.512695,4376.025879,4399.230957,4231.794922,4305.256348,4488.974121,4328.461426,4333.717773,,,,,,,,,,,,,,,,,,,,,,,,,,,,,,,,,,,,,,,,,,,,,,,,,,,,,,,,,,,,,,,,,,,,,,
1720079374,64,0,4435.512695,4412.179688,4348.333496,4371.153809,4407.179688,4415.256348,4402.820313,4373.589844,4377.820313,4227.179688,4287.436035,4479.743652,4304.230957,4327.436035,2.801881,2.536723,1.288677,0.77947,0.312607,0.699883,1.637117,1.219139,0.55955,0.2516,1.350939,2.951534,1.321346,0.81101,0.334761,1.10754,1.389372,0.90134,0.738267,0.507263,0.333162,0.547577,0.513632,0.197775,0.207708,0.189035,0.563771,0.916344,0.111922,0.142647,0.293642,0.66433,0.611646,0.181227,0.146313,0.242731,0.571568,0.258002,0.259474,0.237879,0.444501,0.92412,1.713362,0.949925,0.271888,16.60747,1.753258,1.19678,0.820704,0.201245,1.116398,2.078783,0.628352,0.64347,0.38458,1.519958,2.500594,0.945326,0.776899,0.311275,2.427727,1.577776,1.268233,1.314438,0.35311,1.145426,0.933705,0.408558,0.543836,0.287019
1720079374,65,0,4451.794922,4425.897461,4367.820313,4389.102539,4418.205078,4421.410156,4411.922852,4388.461426,4395.512695,4262.436035,4306.025879,4495.128418,4320.641113,4341.666504,,,,,,,,,,,,,,,,,,,,,,,,,,,,,,,,,,,,,,,,,,,,,,,,,,,,,,,,,,,,,,,,,,,,,,
1720079374,66,0,4474.487305,4454.230957,4399.358887,4427.307617,4431.282227,4429.358887,4425.769043,4401.538574,4420.769043,4301.922852,4331.153809,4517.436035,4351.153809,4357.820313,,,,,,,,,,,,,,,,,,,,,,,,,,,,,,,,,,,,,,,,,,,,,,,,,,,,,,,,,,,,,,,,,,,,,,
1720079374,67,0,4478.333496,4461.666504,4402.179688,4430.384766,4426.794922,4429.615234,4427.692383,4409.871582,4419.358887,4318.846191,4331.666504,4527.563965,4362.179688,4364.487305,,,,,,,,,,,,,,,,,,,,,,,,,,,,,,,,,,,,,,,,,,,,,,,,,,,,,,,,,,,,,,,,,,,,,,
1720079374,68,0,4468.333496,4455.384766,4391.666504,4416.282227,4426.410156,4428.205078,4422.94873,4407.307617,4407.05127,4329.358887,4323.333496,4518.205078,4355.128418,4359.230957,,,,,,,,,,,,,,,,,,,,,,,,,,,,,,,,,,,,,,,,,,,,,,,,,,,,,,,,,,,,,,,,,,,,,,
1720079374,69,0,4464.230957,4446.410156,4388.974121,4410.641113,4430.769043,4429.743652,4426.025879,4410.641113,4402.820313,4343.846191,4331.025879,4517.436035,4355.897461,4360.256348,,,,,,,,,,,,,,,,,,,,,,,,,,,,,,,,,,,,,,,,,,,,,,,,,,,,,,,,,,,,,,,,,,,,,,
1720079374,70,0,4469.230957,4441.538574,4390.897461,4411.922852,4428.333496,4433.205078,4429.487305,4415.641113,4396.153809,4354.743652,4335.897461,4526.410156,4368.077148,4361.794922,,,,,,,,,,,,,,,,,,,,,,,,,,,,,,,,,,,,,,,,,,,,,,,,,,,,,,,,,,,,,,,,,,,,,,
1720079374,71,0,4472.05127,4444.743652,4388.589844,4411.410156,4428.846191,4435.897461,4427.307617,4404.743652,4379.102539,4354.871582,4325.897461,4521.153809,4360.128418,4351.922852,,,,,,,,,,,,,,,,,,,,,,,,,,,,,,,,,,,,,,,,,,,,,,,,,,,,,,,,,,,,,,,,,,,,,,
1720079374,72,0,4470.897461,4448.846191,4384.743652,4410.897461,4434.358887,4433.846191,4427.179688,4396.794922,4368.205078,4351.922852,4322.179688,4511.538574,4340.897461,4345.641113,,,,,,,,,,,,,,,,,,,,,,,,,,,,,,,,,,,,,,,,,,,,,,,,,,,,,,,,,,,,,,,,,,,,,,
1720079374,73,0,4469.487305,4447.563965,4384.743652,4415,4432.05127,4431.922852,4428.846191,4403.846191,4372.563965,4359.358887,4326.282227,4515.384766,4345,4348.333496,,,,,,,,,,,,,,,,,,,,,,,,,,,,,,,,,,,,,,,,,,,,,,,,,,,,,,,,,,,,,,,,,,,,,,
1720079374,74,0,4471.922852,4444.358887,4386.282227,4419.230957,4428.205078,4432.563965,4429.358887,4412.05127,4386.282227,4373.589844,4331.282227,4525.641113,4360.769043,4357.05127,,,,,,,,,,,,,,,,,,,,,,,,,,,,,,,,,,,,,,,,,,,,,,,,,,,,,,,,,,,,,,,,,,,,,,
1720079374,75,0,4472.436035,4444.230957,4380.512695,4413.589844,4428.077148,4430.256348,4429.743652,4414.871582,4397.436035,4383.717773,4335.384766,4526.922852,4361.153809,4362.05127,,,,,,,,,,,,,,,,,,,,,,,,,,,,,,,,,,,,,,,,,,,,,,,,,,,,,,,,,,,,,,,,,,,,,,
1720079374,76,0,4465,4442.94873,4369.871582,4406.538574,4423.589844,4428.974121,4423.333496,4413.077148,4395.897461,4385.897461,4335.256348,4515.897461,4350.641113,4354.487305,,,,,,,,,,,,,,,,,,,,,,,,,,,,,,,,,,,,,,,,,,,,,,,,,,,,,,,,,,,,,,,,,,,,,,
1720079374,77,0,4464.358887,4440.512695,4371.282227,4412.563965,4420.641113,4428.846191,4418.205078,4409.743652,4383.846191,4377.307617,4336.410156,4510.769043,4351.538574,4353.589844,,,,,,,,,,,,,,,,,,,,,,,,,,,,,,,,,,,,,,,,,,,,,,,,,,,,,,,,,,,,,,,,,,,,,,
1720079374,78,0,4475.769043,4443.846191,4383.333496,4417.94873,4427.820313,4427.179688,4421.922852,4408.205078,4375.128418,4367.563965,4341.794922,4518.461426,4365.256348,4361.410156,,,,,,,,,,,,,,,,,,,,,,,,,,,,,,,,,,,,,,,,,,,,,,,,,,,,,,,,,,,,,,,,,,,,,,
1720079374,79,0,4478.846191,4449.487305,4383.077148,4415.897461,4431.153809,4427.94873,4423.846191,4406.538574,4372.563965,4365.512695,4340.128418,4523.077148,4363.461426,4361.538574,,,,,,,,,,,,,,,,,,,,,,,,,,,,,,,,,,,,,,,,,,,,,,,,,,,,,,,,,,,,,,,,,,,,,,
1720079374,80,0,4467.94873,4446.410156,4370,4415.897461,4426.666504,4429.615234,4423.589844,4407.05127,4368.461426,4361.410156,4328.974121,4519.871582,4347.692383,4352.94873,3.78397,2.350042,1.211835,0.723994,0.281325,1.118427,1.469611,1.227517,0.563073,0.253671,1.735322,2.649138,1.2336,0.743958,0.290371,1.375004,1.391395,0.793781,0.694979,0.498439,0.403614,0.543362,0.437512,0.160354,0.20948,0.231528,0.486724,0.636827,0.109297,0.144971,0.333298,0.530262,0.429037,0.167068,0.134888,0.248434,0.580811,0.242343,0.238227,0.289885,0.44917,1.110465,1.657363,0.899707,0.277957,18.722353,1.591287,1.094321,0.778416,0.223749,1.412306,2.22337,0.566988,0.594791,0.385946,1.754795,2.333642,0.797997,0.709144,0.296279,3.098266,1.776478,1.223632,1.268407,0.336291,1.416145,1.012455,0.342532,0.571958,0.385051
1720079374,81,0,4464.487305,4444.743652,4369.358887,4420.384766,4428.077148,4429.230957,4429.230957,4411.666504,4371.282227,4358.461426,4327.692383,4518.974121,4351.282227,4347.179688,,,,,,,,,,,,,,,,,,,,,,,,,,,,,,,,,,,,,,,,,,,,,,,,,,,,,,,,,,,,,,,,,,,,,,
1720079374,82,0,4467.820313,4445.641113,4380.256348,4421.410156,4432.179688,4430,4434.871582,4420.128418,4387.820313,4365.641113,4338.589844,4527.820313,4361.410156,4352.563965,,,,,,,,,,,,,,,,,,,,,,,,,,,,,,,,,,,,,,,,,,,,,,,,,,,,,,,,,,,,,,,,,,,,,,
1720079374,83,0,4464.102539,4435.128418,4376.410156,4412.820313,4428.974121,4429.871582,4432.436035,4421.410156,4400.384766,4367.179688,4341.538574,4530.512695,4352.94873,4355.512695,,,,,,,,,,,,,,,,,,,,,,,,,,,,,,,,,,,,,,,,,,,,,,,,,,,,,,,,,,,,,,,,,,,,,,
1720079374,84,0,4461.410156,4426.922852,4365.641113,4402.563965,4425.769043,4426.666504,4427.692383,4413.077148,4397.692383,4351.410156,4335.897461,4520.769043,4343.461426,4347.692383,,,,,,,,,,,,,,,,,,,,,,,,,,,,,,,,,,,,,,,,,,,,,,,,,,,,,,,,,,,,,,,,,,,,,,
1720079374,85,0,4465.769043,4432.692383,4366.025879,4402.179688,4428.589844,4426.666504,4426.666504,4407.94873,4393.717773,4335.384766,4334.358887,4518.077148,4347.820313,4343.333496,,,,,,,,,,,,,,,,,,,,,,,,,,,,,,,,,,,,,,,,,,,,,,,,,,,,,,,,,,,,,,,,,,,,,,
1720079374,86,0,4466.282227,4433.717773,4366.282227,4412.436035,4425.769043,4430.128418,4424.358887,4407.05127,4400,4323.717773,4330.897461,4519.871582,4349.102539,4344.743652,,,,,,,,,,,,,,,,,,,,,,,,,,,,,,,,,,,,,,,,,,,,,,,,,,,,,,,,,,,,,,,,,,,,,,
1720079374,87,0,4460,4426.282227,4360.897461,4416.922852,4417.94873,4427.692383,4417.563965,4399.615234,4400.897461,4303.333496,4321.666504,4511.025879,4337.436035,4338.589844,,,,,,,,,,,,,,,,,,,,,,,,,,,,,,,,,,,,,,,,,,,,,,,,,,,,,,,,,,,,,,,,,,,,,,
1720079374,88,0,4462.436035,4428.974121,4362.05127,4407.307617,4422.94873,4419.230957,4410.641113,4393.974121,4396.922852,4282.94873,4321.666504,4505.897461,4333.717773,4333.333496,,,,,,,,,,,,,,,,,,,,,,,,,,,,,,,,,,,,,,,,,,,,,,,,,,,,,,,,,,,,,,,,,,,,,,
1720079374,89,0,4463.846191,4430.128418,4360.897461,4400.256348,4429.487305,4413.974121,4410.256348,4398.461426,4400.128418,4262.436035,4326.794922,4511.153809,4340.256348,4340.128418,,,,,,,,,,,,,,,,,,,,,,,,,,,,,,,,,,,,,,,,,,,,,,,,,,,,,,,,,,,,,,,,,,,,,,
1720079374,90,0,4456.153809,4424.102539,4353.974121,4406.538574,4424.743652,4419.487305,4418.846191,4397.436035,4407.05127,4239.743652,4326.410156,4509.102539,4341.922852,4345.384766,,,,,,,,,,,,,,,,,,,,,,,,,,,,,,,,,,,,,,,,,,,,,,,,,,,,,,,,,,,,,,,,,,,,,,
1720079374,91,0,4462.692383,4432.692383,4365.128418,4414.487305,4431.282227,4428.717773,4432.820313,4397.94873,4416.025879,4227.307617,4327.820313,4511.538574,4346.025879,4348.589844,,,,,,,,,,,,,,,,,,,,,,,,,,,,,,,,,,,,,,,,,,,,,,,,,,,,,,,,,,,,,,,,,,,,,,
1720079374,92,0,4477.179688,4445.897461,4382.820313,4414.615234,4447.820313,4432.820313,4439.230957,4408.333496,4430.769043,4224.487305,4333.461426,4525.512695,4362.436035,4351.794922,,,,,,,,,,,,,,,,,,,,,,,,,,,,,,,,,,,,,,,,,,,,,,,,,,,,,,,,,,,,,,,,,,,,,,
1720079374,93,0,4476.153809,4447.563965,4377.05127,4414.358887,4443.846191,4432.820313,4434.487305,4409.358887,4443.846191,4215.128418,4336.153809,4525.256348,4366.922852,4351.025879,,,,,,,,,,,,,,,,,,,,,,,,,,,,,,,,,,,,,,,,,,,,,,,,,,,,,,,,,,,,,,,,,,,,,,
1720079374,94,0,4461.410156,4444.871582,4363.974121,4415,4430.384766,4431.666504,4430,4405.128418,4445.512695,4196.538574,4334.102539,4514.487305,4356.025879,4346.282227,,,,,,,,,,,,,,,,,,,,,,,,,,,,,,,,,,,,,,,,,,,,,,,,,,,,,,,,,,,,,,,,,,,,,,
1720079374,95,0,4457.436035,4439.358887,4364.871582,4413.974121,4429.871582,4429.487305,4428.461426,4405.897461,4447.563965,4185.384766,4335.128418,4517.436035,4358.333496,4348.974121,,,,,,,,,,,,,,,,,,,,,,,,,,,,,,,,,,,,,,,,,,,,,,,,,,,,,,,,,,,,,,,,,,,,,,
1720079374,96,0,4463.077148,4430.897461,4366.666504,4410.384766,4431.410156,4423.461426,4425,4406.538574,4451.922852,4180.769043,4334.871582,4522.05127,4357.820313,4352.179688,5.213134,2.152892,1.097357,0.674209,0.250288,1.741358,1.248142,1.203661,0.578038,0.256926,2.398958,2.350963,1.163281,0.683524,0.250973,1.843508,1.333244,0.712372,0.69487,0.494837,0.528867,0.517568,0.36726,0.13399,0.202165,0.258051,0.402444,0.398026,0.107665,0.136775,0.391229,0.408795,0.292888,0.155992,0.119472,0.26332,0.598329,0.245911,0.22468,0.341486,0.552371,1.28668,1.458146,0.815902,0.271631,19.186928,1.509744,0.943417,0.729045,0.243741,1.750549,2.242437,0.527416,0.568591,0.37996,2.124122,2.101331,0.680164,0.656026,0.283289,3.825071,1.91689,1.201258,1.209758,0.316385,1.787195,1.094446,0.30575,0.610385,0.503715
1720079374,97,0,4457.820313,4429.487305,4356.410156,4404.743652,4428.461426,4415.512695,4418.333496,4399.743652,4447.563965,4167.563965,4323.333496,4508.717773,4340.512695,4336.794922,,,,,,,,,,,,,,,,,,,,,,,,,,,,,,,,,,,,,,,,,,,,,,,,,,,,,,,,,,,,,,,,,,,,,,
1720079374,98,0,4454.871582,4434.102539,4352.563965,4409.743652,4426.794922,4409.487305,4416.025879,4398.333496,4444.615234,4153.846191,4322.94873,4507.179688,4339.743652,4339.743652,,,,,,,,,,,,,,,,,,,,,,,,,,,,,,,,,,,,,,,,,,,,,,,,,,,,,,,,,,,,,,,,,,,,,,
1720079374,99,0,4460.256348,4436.025879,4362.563965,4421.410156,4427.436035,4413.589844,4422.05127,4404.230957,4450.897461,4155.256348,4327.563965,4517.94873,4354.487305,4352.05127,,,,,,,,,,,,,,,,,,,,,,,,,,,,,,,,,,,,,,,,,,,,,,,,,,,,,,,,,,,,,,,,,,,,,,
1720079374,100,0,4459.102539,4432.179688,4365.897461,4412.820313,4429.743652,4423.589844,4429.358887,4407.05127,4453.077148,4163.974121,4320.769043,4515.897461,4353.333496,4344.230957,,,,,,,,,,,,,,,,,,,,,,,,,,,,,,,,,,,,,,,,,,,,,,,,,,,,,,,,,,,,,,,,,,,,,,
1720079374,101,0,4454.743652,4425.769043,4359.743652,4395.897461,4430,4429.743652,4431.282227,4412.692383,4442.692383,4160.769043,4323.717773,4512.820313,4345.256348,4348.846191,,,,,,,,,,,,,,,,,,,,,,,,,,,,,,,,,,,,,,,,,,,,,,,,,,,,,,,,,,,,,,,,,,,,,,
1720079374,102,0,4458.333496,4432.436035,4365.769043,4406.282227,4429.358887,4431.794922,4432.94873,4413.846191,4439.743652,4160.641113,4329.358887,4515.641113,4346.922852,4355.128418,,,,,,,,,,,,,,,,,,,,,,,,,,,,,,,,,,,,,,,,,,,,,,,,,,,,,,,,,,,,,,,,,,,,,,
1720079374,103,0,4461.666504,4437.563965,4376.153809,4416.538574,4429.743652,4432.820313,4435.128418,4413.461426,4444.230957,4170.512695,4328.077148,4522.179688,4351.922852,4355.641113,,,,,,,,,,,,,,,,,,,,,,,,,,,,,,,,,,,,,,,,,,,,,,,,,,,,,,,,,,,,,,,,,,,,,,
1720079374,104,0,4460.512695,4427.820313,4368.589844,4400.256348,4430.512695,4429.743652,4430.128418,4410.256348,4440.769043,4182.563965,4326.282227,4519.102539,4354.230957,4355.769043,,,,,,,,,,,,,,,,,,,,,,,,,,,,,,,,,,,,,,,,,,,,,,,,,,,,,,,,,,,,,,,,,,,,,,
1720079374,105,0,4458.974121,4429.102539,4359.615234,4397.563965,4429.743652,4421.282227,4423.461426,4404.743652,4439.871582,4198.717773,4325.256348,4509.871582,4350.641113,4349.743652,,,,,,,,,,,,,,,,,,,,,,,,,,,,,,,,,,,,,,,,,,,,,,,,,,,,,,,,,,,,,,,,,,,,,,
1720079374,106,0,4448.717773,4430.897461,4358.205078,4408.846191,4423.974121,4415.641113,4418.974121,4408.589844,4441.025879,4213.461426,4323.077148,4512.05127,4345.897461,4349.871582,,,,,,,,,,,,,,,,,,,,,,,,,,,,,,,,,,,,,,,,,,,,,,,,,,,,,,,,,,,,,,,,,,,,,,
1720079374,107,0,4439.358887,4418.589844,4353.717773,4401.666504,4420.128418,4418.333496,4416.153809,4407.307617,4433.974121,4226.666504,4315.384766,4510.128418,4341.538574,4343.846191,,,,,,,,,,,,,,,,,,,,,,,,,,,,,,,,,,,,,,,,,,,,,,,,,,,,,,,,,,,,,,,,,,,,,,
1720079374,108,0,4441.025879,4417.94873,4350.256348,4393.974121,4419.615234,4424.615234,4418.589844,4406.282227,4427.05127,4243.717773,4309.230957,4502.436035,4331.666504,4334.102539,,,,,,,,,,,,,,,,,,,,,,,,,,,,,,,,,,,,,,,,,,,,,,,,,,,,,,,,,,,,,,,,,,,,,,
1720079374,109,0,4442.179688,4423.333496,4350,4397.307617,4416.153809,4426.922852,4425,4410.128418,4425.384766,4260.769043,4309.615234,4501.410156,4326.794922,4332.05127,,,,,,,,,,,,,,,,,,,,,,,,,,,,,,,,,,,,,,,,,,,,,,,,,,,,,,,,,,,,,,,,,,,,,,
1720079374,110,0,4441.282227,4417.692383,4353.974121,4400.384766,4416.794922,4426.922852,4429.871582,4415.384766,4419.743652,4275.256348,4316.794922,4503.717773,4333.461426,4337.307617,,,,,,,,,,,,,,,,,,,,,,,,,,,,,,,,,,,,,,,,,,,,,,,,,,,,,,,,,,,,,,,,,,,,,,
1720079374,111,0,4447.05127,4421.538574,4364.615234,4403.333496,4420.897461,4429.615234,4430.384766,4421.666504,4412.436035,4291.410156,4326.922852,4510.641113,4341.794922,4348.974121,,,,,,,,,,,,,,,,,,,,,,,,,,,,,,,,,,,,,,,,,,,,,,,,,,,,,,,,,,,,,,,,,,,,,,
1720079374,112,0,4450.384766,4432.179688,4369.615234,4400.256348,4422.94873,4427.563965,4424.487305,4418.077148,4408.589844,4307.820313,4330.641113,4516.153809,4346.922852,4350.128418,6.797348,1.974864,0.955126,0.646995,0.226318,2.439906,1.032255,1.131494,0.619972,0.260487,3.139892,2.10974,1.084322,0.663963,0.228639,2.452291,1.243353,0.641861,0.750522,0.502822,0.704499,0.48522,0.310694,0.122574,0.188284,0.263095,0.344987,0.236049,0.106412,0.120262,0.477031,0.335093,0.20611,0.152541,0.105152,0.288148,0.618217,0.271975,0.233559,0.379664,0.743073,1.386338,1.212056,0.739135,0.258574,18.048687,1.507777,0.809005,0.704179,0.259538,2.101886,2.113537,0.507684,0.583513,0.369496,2.596937,1.850997,0.592672,0.643376,0.277539,4.412087,1.956157,1.20117,1.154621,0.304159,2.199828,1.162979,0.307505,0.658094,0.608273
1720079374,113,0,4444.358887,4426.282227,4363.461426,4391.025879,4420.641113,4418.333496,4415.769043,4407.692383,4400.769043,4317.436035,4324.743652,4512.436035,4351.538574,4341.922852,,,,,,,,,,,,,,,,,,,,,,,,,,,,,,,,,,,,,,,,,,,,,,,,,,,,,,,,,,,,,,,,,,,,,,
1720079374,114,0,4441.666504,4418.974121,4357.563965,4392.179688,4417.820313,4414.230957,4411.794922,4405.384766,4392.179688,4324.487305,4320.897461,4508.589844,4349.487305,4341.153809,,,,,,,,,,,,,,,,,,,,,,,,,,,,,,,,,,,,,,,,,,,,,,,,,,,,,,,,,,,,,,,,,,,,,,
1720079374,115,0,4442.307617,4422.179688,4353.717773,4397.820313,4420.384766,4418.589844,4409.743652,4412.820313,4394.230957,4337.563965,4324.102539,4505.641113,4343.077148,4339.743652,,,,,,,,,,,,,,,,,,,,,,,,,,,,,,,,,,,,,,,,,,,,,,,,,,,,,,,,,,,,,,,,,,,,,,
1720079374,116,0,4436.025879,4421.410156,4346.153809,4391.922852,4421.666504,4419.487305,4406.666504,4410,4396.153809,4351.282227,4318.205078,4497.94873,4339.102539,4329.102539,,,,,,,,,,,,,,,,,,,,,,,,,,,,,,,,,,,,,,,,,,,,,,,,,,,,,,,,,,,,,,,,,,,,,,
1720079374,117,0,4430.128418,4413.205078,4342.307617,4382.563965,4416.282227,4421.282227,4409.358887,4408.589844,4387.692383,4354.230957,4314.487305,4498.205078,4339.487305,4330.769043,,,,,,,,,,,,,,,,,,,,,,,,,,,,,,,,,,,,,,,,,,,,,,,,,,,,,,,,,,,,,,,,,,,,,,
1720079374,118,0,4428.205078,4408.205078,4346.922852,4380.256348,4413.589844,4427.820313,4417.307617,4416.666504,4380.512695,4355.128418,4325.256348,4506.025879,4340,4339.358887,,,,,,,,,,,,,,,,,,,,,,,,,,,,,,,,,,,,,,,,,,,,,,,,,,,,,,,,,,,,,,,,,,,,,,
1720079375,119,0,4428.589844,4415,4353.717773,4386.538574,4413.846191,4429.871582,4424.102539,4420.641113,4382.820313,4363.974121,4330.128418,4508.077148,4334.743652,4337.179688,,,,,,,,,,,,,,,,,,,,,,,,,,,,,,,,,,,,,,,,,,,,,,,,,,,,,,,,,,,,,,,,,,,,,,
1720079375,120,0,4443.461426,4432.307617,4360.897461,4400.769043,4413.589844,4427.179688,4426.666504,4425.641113,4386.666504,4372.820313,4325.128418,4515.512695,4340,4339.102539,,,,,,,,,,,,,,,,,,,,,,,,,,,,,,,,,,,,,,,,,,,,,,,,,,,,,,,,,,,,,,,,,,,,,,
1720079375,121,0,4454.358887,4444.102539,4366.025879,4417.179688,4416.666504,4422.563965,4422.179688,4421.410156,4382.05127,4369.743652,4325.128418,4522.563965,4351.538574,4342.94873,,,,,,,,,,,,,,,,,,,,,,,,,,,,,,,,,,,,,,,,,,,,,,,,,,,,,,,,,,,,,,,,,,,,,,
1720079375,122,0,4439.743652,4434.358887,4359.230957,4416.538574,4417.05127,4414.358887,4410.512695,4412.563965,4368.077148,4362.692383,4327.692383,4515.256348,4346.025879,4338.974121,,,,,,,,,,,,,,,,,,,,,,,,,,,,,,,,,,,,,,,,,,,,,,,,,,,,,,,,,,,,,,,,,,,,,,
1720079375,123,0,4423.461426,4418.589844,4341.538574,4395,4415.256348,4409.230957,4398.846191,4404.102539,4357.692383,4362.563965,4323.333496,4500.384766,4336.025879,4333.974121,,,,,,,,,,,,,,,,,,,,,,,,,,,,,,,,,,,,,,,,,,,,,,,,,,,,,,,,,,,,,,,,,,,,,,
1720079375,124,0,4422.436035,4413.205078,4328.717773,4378.077148,4420.256348,4411.282227,4392.820313,4393.717773,4358.974121,4365.641113,4313.589844,4485.128418,4330.384766,4327.820313,,,,,,,,,,,,,,,,,,,,,,,,,,,,,,,,,,,,,,,,,,,,,,,,,,,,,,,,,,,,,,,,,,,,,,
1720079375,125,0,4421.922852,4406.410156,4327.179688,4377.436035,4418.077148,4411.153809,4396.282227,4397.05127,4358.974121,4363.589844,4302.563965,4477.692383,4321.410156,4321.666504,,,,,,,,,,,,,,,,,,,,,,,,,,,,,,,,,,,,,,,,,,,,,,,,,,,,,,,,,,,,,,,,,,,,,,
1720079375,126,0,4417.820313,4403.333496,4330.384766,4381.794922,4410.641113,4414.743652,4405.384766,4410.897461,4356.025879,4359.743652,4303.077148,4485.641113,4317.563965,4327.692383,,,,,,,,,,,,,,,,,,,,,,,,,,,,,,,,,,,,,,,,,,,,,,,,,,,,,,,,,,,,,,,,,,,,,,
1720079375,127,0,4422.307617,4412.179688,4338.589844,4383.333496,4413.974121,4425.769043,4415.641113,4415.512695,4366.666504,4367.307617,4315.384766,4499.102539,4328.717773,4337.05127,,,,,,,,,,,,,,,,,,,,,,,,,,,,,,,,,,,,,,,,,,,,,,,,,,,,,,,,,,,,,,,,,,,,,,
1720079375,0,0,4427.307617,4414.358887,4345.641113,4385.512695,4416.922852,4433.205078,4423.717773,4416.794922,4380.384766,4379.743652,4320.256348,4504.102539,4340.128418,4337.436035,8.212319,1.804082,0.813822,0.64764,0.213372,3.054649,0.874091,1.01462,0.697043,0.262564,3.736276,1.935921,1.002545,0.699737,0.230084,3.076458,1.164822,0.575404,0.858006,0.521446,0.897237,0.462203,0.269951,0.125076,0.173081,0.250912,0.322821,0.16158,0.105978,0.100522,0.599009,0.327067,0.182451,0.158441,0.096561,0.330243,0.635493,0.333247,0.269862,0.394025,0.968762,1.372976,1.058913,0.708883,0.247871,16.013893,1.576909,0.77298,0.726719,0.272036,2.435628,1.857929,0.519546,0.638322,0.357744,3.054219,1.621277,0.554201,0.677283,0.281003,4.754535,1.903737,1.240255,1.111412,0.311836,2.571551,1.194414,0.353543,0.704547,0.663844
1720079375,1,0,4429.615234,4411.666504,4348.846191,4390.897461,4411.794922,4432.692383,4428.205078,4428.974121,4378.333496,4381.282227,4323.846191,4508.974121,4346.538574,4346.025879,,,,,,,,,,,,,,,,,,,,,,,,,,,,,,,,,,,,,,,,,,,,,,,,,,,,,,,,,,,,,,,,,,,,,,
1720079375,2,0,4437.563965,4424.102539,4357.94873,4403.589844,4415.769043,4431.922852,4427.692383,4426.410156,4373.461426,4377.563965,4334.358887,4515.512695,4353.717773,4350,,,,,,,,,,,,,,,,,,,,,,,,,,,,,,,,,,,,,,,,,,,,,,,,,,,,,,,,,,,,,,,,,,,,,,
1720079375,3,0,4448.205078,4437.05127,4364.743652,4417.563965,4425.512695,4431.282227,4421.025879,4415,4376.410156,4378.589844,4334.871582,4519.487305,4358.077148,4346.282227,,,,,,,,,,,,,,,,,,,,,,,,,,,,,,,,,,,,,,,,,,,,,,,,,,,,,,,,,,,,,,,,,,,,,,
1720079375,4,0,4444.358887,4430.512695,4356.410156,4412.563965,4422.692383,4421.282227,4408.461426,4410.897461,4378.974121,4377.94873,4320.769043,4509.871582,4353.077148,4342.436035,,,,,,,,,,,,,,,,,,,,,,,,,,,,,,,,,,,,,,,,,,,,,,,,,,,,,,,,,,,,,,,,,,,,,,
1720079375,5,0,4427.94873,4417.05127,4338.589844,4390.641113,4409.871582,4407.820313,4396.794922,4400,4372.94873,4366.410156,4311.410156,4489.230957,4337.820313,4331.794922,,,,,,,,,,,,,,,,,,,,,,,,,,,,,,,,,,,,,,,,,,,,,,,,,,,,,,,,,,,,,,,,,,,,,,
1720079375,6,0,4423.717773,4410.128418,4331.153809,4381.794922,4406.538574,4404.615234,4397.692383,4395.897461,4369.871582,4359.487305,4316.922852,4486.410156,4335.641113,4330.128418,,,,,,,,,,,,,,,,,,,,,,,,,,,,,,,,,,,,,,,,,,,,,,,,,,,,,,,,,,,,,,,,,,,,,,
1720079375,7,0,4427.820313,4411.410156,4337.436035,4391.410156,4416.794922,4414.615234,4408.077148,4405.512695,4378.461426,4363.846191,4321.794922,4493.205078,4348.717773,4332.436035,,,,,,,,,,,,,,,,,,,,,,,,,,,,,,,,,,,,,,,,,,,,,,,,,,,,,,,,,,,,,,,,,,,,,,
1720079375,8,0,4433.205078,4419.102539,4347.94873,4398.077148,4423.974121,4426.025879,4419.487305,4417.05127,4385.384766,4365.256348,4322.436035,4500.128418,4353.077148,4334.358887,,,,,,,,,,,,,,,,,,,,,,,,,,,,,,,,,,,,,,,,,,,,,,,,,,,,,,,,,,,,,,,,,,,,,,
1720079375,9,0,4439.615234,4427.05127,4356.410156,4398.846191,4424.615234,4429.615234,4423.974121,4418.717773,4384.230957,4361.666504,4328.333496,4507.820313,4352.692383,4342.307617,,,,,,,,,,,,,,,,,,,,,,,,,,,,,,,,,,,,,,,,,,,,,,,,,,,,,,,,,,,,,,,,,,,,,,
1720079375,10,0,4439.615234,4427.05127,4354.743652,4397.179688,4423.589844,4428.974121,4419.230957,4412.05127,4380.641113,4358.846191,4333.846191,4507.94873,4354.230957,4343.589844,,,,,,,,,,,,,,,,,,,,,,,,,,,,,,,,,,,,,,,,,,,,,,,,,,,,,,,,,,,,,,,,,,,,,,
1720079375,11,0,4434.487305,4421.922852,4349.102539,4398.205078,4420.256348,4430.128418,4413.461426,4411.922852,4380.512695,4355.769043,4331.025879,4503.333496,4350.641113,4338.717773,,,,,,,,,,,,,,,,,,,,,,,,,,,,,,,,,,,,,,,,,,,,,,,,,,,,,,,,,,,,,,,,,,,,,,
1720079375,12,0,4430.641113,4420.128418,4343.589844,4399.230957,4416.153809,4426.282227,4414.358887,4415.512695,4382.563965,4352.692383,4322.05127,4499.615234,4340.897461,4331.538574,,,,,,,,,,,,,,,,,,,,,,,,,,,,,,,,,,,,,,,,,,,,,,,,,,,,,,,,,,,,,,,,,,,,,,
1720079375,13,0,4424.615234,4408.846191,4330.128418,4387.563965,4408.205078,4416.153809,4414.743652,4407.94873,4381.282227,4343.974121,4306.282227,4486.666504,4323.333496,4320.769043,,,,,,,,,,,,,,,,,,,,,,,,,,,,,,,,,,,,,,,,,,,,,,,,,,,,,,,,,,,,,,,,,,,,,,
1720079375,14,0,4416.153809,4393.717773,4322.05127,4379.743652,4403.205078,4411.538574,4409.871582,4400,4376.410156,4329.230957,4297.179688,4474.230957,4307.179688,4317.179688,,,,,,,,,,,,,,,,,,,,,,,,,,,,,,,,,,,,,,,,,,,,,,,,,,,,,,,,,,,,,,,,,,,,,,
1720079375,15,0,4422.563965,4404.615234,4334.871582,4393.717773,4406.410156,4417.94873,4409.102539,4408.974121,4379.487305,4330.641113,4311.025879,4486.794922,4314.358887,4327.94873,,,,,,,,,,,,,,,,,,,,,,,,,,,,,,,,,,,,,,,,,,,,,,,,,,,,,,,,,,,,,,,,,,,,,,
1720079375,16,0,4440.256348,4428.461426,4350.897461,4408.205078,4412.94873,4424.743652,4412.820313,4412.307617,4396.922852,4351.153809,4325.769043,4500.512695,4338.205078,4333.077148,8.820591,1.606385,0.69453,0.666557,0.210617,3.357479,0.792264,0.871732,0.798896,0.261404,3.897609,1.795817,0.939179,0.774386,0.252695,3.472509,1.117615,0.511024,0.987257,0.542956,1.049156,0.456747,0.244518,0.136871,0.161492,0.233898,0.325096,0.175873,0.10825,0.082903,0.744241,0.379798,0.246016,0.169995,0.095339,0.391814,0.643918,0.433493,0.323011,0.380922,1.167976,1.26221,1.092137,0.737084,0.246278,14.048809,1.696164,0.860803,0.792068,0.282122,2.676385,1.527892,0.567201,0.711936,0.345333,3.335242,1.424351,0.570298,0.739993,0.29141,4.74753,1.799688,1.311984,1.076912,0.343457,2.738209,1.173585,0.43748,0.733946,0.650774
1720079375,17,0,4445.512695,4430.128418,4349.230957,4399.871582,4414.230957,4420.512695,4412.179688,4408.461426,4402.94873,4351.282227,4325.512695,4499.487305,4350.769043,4336.410156,,,,,,,,,,,,,,,,,,,,,,,,,,,,,,,,,,,,,,,,,,,,,,,,,,,,,,,,,,,,,,,,,,,,,,
1720079375,18,0,4434.358887,4416.666504,4338.846191,4383.205078,4409.615234,4411.153809,4402.436035,4406.794922,4388.333496,4327.436035,4320.384766,4492.563965,4343.077148,4339.487305,,,,,,,,,,,,,,,,,,,,,,,,,,,,,,,,,,,,,,,,,,,,,,,,,,,,,,,,,,,,,,,,,,,,,,
1720079375,19,0,4424.615234,4411.794922,4333.333496,4378.077148,4408.589844,4410.128418,4395.256348,4400.128418,4383.589844,4319.487305,4312.179688,4485.641113,4328.333496,4328.205078,,,,,,,,,,,,,,,,,,,,,,,,,,,,,,,,,,,,,,,,,,,,,,,,,,,,,,,,,,,,,,,,,,,,,,
1720079375,20,0,4427.436035,4413.077148,4336.410156,4383.717773,4411.025879,4415.897461,4399.102539,4405.128418,4401.922852,4329.230957,4314.358887,4494.871582,4331.794922,4332.692383,,,,,,,,,,,,,,,,,,,,,,,,,,,,,,,,,,,,,,,,,,,,,,,,,,,,,,,,,,,,,,,,,,,,,,
1720079375,21,0,4428.205078,4413.461426,4339.102539,4387.94873,4410.128418,4415.512695,4403.461426,4412.436035,4411.153809,4324.102539,4319.487305,4498.589844,4342.05127,4340.769043,,,,,,,,,,,,,,,,,,,,,,,,,,,,,,,,,,,,,,,,,,,,,,,,,,,,,,,,,,,,,,,,,,,,,,
1720079375,22,0,4421.794922,4411.922852,4326.922852,4389.102539,4403.717773,4412.563965,4405.641113,4405.128418,4398.846191,4308.974121,4311.538574,4486.153809,4333.589844,4324.615234,,,,,,,,,,,,,,,,,,,,,,,,,,,,,,,,,,,,,,,,,,,,,,,,,,,,,,,,,,,,,,,,,,,,,,
1720079375,23,0,4424.358887,4414.358887,4321.922852,4391.922852,4406.666504,4421.666504,4411.538574,4406.538574,4396.666504,4303.846191,4310.384766,4485.641113,4328.333496,4317.307617,,,,,,,,,,,,,,,,,,,,,,,,,,,,,,,,,,,,,,,,,,,,,,,,,,,,,,,,,,,,,,,,,,,,,,
1720079375,24,0,4436.922852,4424.615234,4341.153809,4398.205078,4420.128418,4432.307617,4423.077148,4420.897461,4409.358887,4310,4322.179688,4498.461426,4340.256348,4330.897461,,,,,,,,,,,,,,,,,,,,,,,,,,,,,,,,,,,,,,,,,,,,,,,,,,,,,,,,,,,,,,,,,,,,,,
1720079375,25,0,4443.717773,4430.897461,4352.94873,4406.153809,4423.974121,4433.077148,4428.205078,4424.487305,4414.871582,4311.922852,4325,4504.743652,4344.743652,4335.641113,,,,,,,,,,,,,,,,,,,,,,,,,,,,,,,,,,,,,,,,,,,,,,,,,,,,,,,,,,,,,,,,,,,,,,
1720079375,26,0,4439.230957,4427.820313,4345.128418,4401.538574,4417.94873,4428.333496,4421.025879,4419.871582,4410,4303.205078,4319.871582,4506.282227,4339.871582,4335.769043,,,,,,,,,,,,,,,,,,,,,,,,,,,,,,,,,,,,,,,,,,,,,,,,,,,,,,,,,,,,,,,,,,,,,,
1720079375,27,0,4434.487305,4421.666504,4339.487305,4389.615234,4413.461426,4424.487305,4410.512695,4415.641113,4407.820313,4294.615234,4315.128418,4500.641113,4338.974121,4334.358887,,,,,,,,,,,,,,,,,,,,,,,,,,,,,,,,,,,,,,,,,,,,,,,,,,,,,,,,,,,,,,,,,,,,,,
1720079375,28,0,4431.025879,4421.666504,4340.256348,4396.282227,4410.769043,4422.05127,4412.692383,4413.589844,4417.307617,4296.538574,4313.077148,4494.871582,4332.179688,4324.358887,,,,,,,,,,,,,,,,,,,,,,,,,,,,,,,,,,,,,,,,,,,,,,,,,,,,,,,,,,,,,,,,,,,,,,
1720079375,29,0,4424.358887,4423.589844,4338.846191,4403.717773,4410.512695,4419.487305,4423.333496,4421.666504,4424.743652,4298.589844,4323.461426,4505.128418,4329.358887,4331.666504,,,,,,,,,,,,,,,,,,,,,,,,,,,,,,,,,,,,,,,,,,,,,,,,,,,,,,,,,,,,,,,,,,,,,,
1720079375,30,0,4420,4418.717773,4334.871582,4391.538574,4412.820313,4416.282227,4422.820313,4419.230957,4418.717773,4287.94873,4322.179688,4502.307617,4340.128418,4333.461426,,,,,,,,,,,,,,,,,,,,,,,,,,,,,,,,,,,,,,,,,,,,,,,,,,,,,,,,,,,,,,,,,,,,,,
1720079375,31,0,4421.410156,4410.512695,4332.05127,4384.743652,4410.769043,4413.846191,4413.077148,4408.333496,4410.769043,4278.461426,4306.282227,4487.563965,4342.692383,4321.410156,,,,,,,,,,,,,,,,,,,,,,,,,,,,,,,,,,,,,,,,,,,,,,,,,,,,,,,,,,,,,,,,,,,,,,
1720079375,32,0,4421.410156,4410.641113,4329.871582,4391.922852,4409.615234,4420.128418,4408.846191,4408.333496,4411.666504,4275.769043,4309.615234,4489.743652,4334.358887,4323.589844,8.425866,1.356722,0.622042,0.687611,0.214539,3.300403,0.761928,0.752199,0.902061,0.256978,3.582001,1.636504,0.946757,0.850285,0.286557,3.52344,1.08954,0.479263,1.101991,0.557335,1.122467,0.467056,0.229932,0.15218,0.155421,0.223677,0.336464,0.284173,0.112883,0.071033,0.887048,0.466579,0.442344,0.179254,0.099492,0.472163,0.642339,0.578761,0.371421,0.345102,1.315832,1.113917,1.304011,0.802169,0.254555,13.021044,1.835251,1.032684,0.867805,0.288977,2.760467,1.185394,0.651406,0.772716,0.330962,3.320683,1.249957,0.652028,0.800695,0.30346,4.425323,1.690247,1.396969,1.041949,0.390318,2.642867,1.095874,0.547059,0.732775,0.574383
1720079375,33,0,4411.666504,4411.025879,4326.538574,4383.974121,4413.589844,4427.05127,4413.077148,4407.307617,4404.230957,4261.410156,4309.358887,4485.897461,4326.153809,4317.307617,,,,,,,,,,,,,,,,,,,,,,,,,,,,,,,,,,,,,,,,,,,,,,,,,,,,,,,,,,,,,,,,,,,,,,
1720079375,34,0,4405.512695,4405.897461,4319.615234,4370.512695,4413.461426,4426.153809,4412.179688,4405.641113,4392.563965,4241.025879,4295.128418,4476.410156,4318.717773,4308.205078,,,,,,,,,,,,,,,,,,,,,,,,,,,,,,,,,,,,,,,,,,,,,,,,,,,,,,,,,,,,,,,,,,,,,,
1720079375,35,0,4412.179688,4416.282227,4321.922852,4390.897461,4413.077148,4426.794922,4409.358887,4410.256348,4400.128418,4242.436035,4297.94873,4483.461426,4321.282227,4316.025879,,,,,,,,,,,,,,,,,,,,,,,,,,,,,,,,,,,,,,,,,,,,,,,,,,,,,,,,,,,,,,,,,,,,,,
1720079375,36,0,4421.282227,4425.641113,4333.589844,4413.461426,4416.153809,4429.102539,4415.128418,4418.974121,4413.333496,4255.384766,4311.538574,4494.487305,4331.282227,4326.282227,,,,,,,,,,,,,,,,,,,,,,,,,,,,,,,,,,,,,,,,,,,,,,,,,,,,,,,,,,,,,,,,,,,,,,
1720079375,37,0,4427.05127,4415.641113,4335.769043,4398.333496,4414.743652,4427.05127,4417.179688,4422.307617,4413.077148,4252.179688,4309.871582,4494.487305,4332.563965,4325.769043,,,,,,,,,,,,,,,,,,,,,,,,,,,,,,,,,,,,,,,,,,,,,,,,,,,,,,,,,,,,,,,,,,,,,,
1720079375,38,0,4427.563965,4414.487305,4336.282227,4385.641113,4414.487305,4425.512695,4412.436035,4418.974121,4405,4242.436035,4305.384766,4495,4329.743652,4326.410156,,,,,,,,,,,,,,,,,,,,,,,,,,,,,,,,,,,,,,,,,,,,,,,,,,,,,,,,,,,,,,,,,,,,,,
1720079375,39,0,4427.05127,4424.871582,4343.846191,4396.922852,4421.538574,4426.538574,4416.794922,4421.282227,4412.307617,4244.230957,4315,4506.282227,4339.102539,4337.436035,,,,,,,,,,,,,,,,,,,,,,,,,,,,,,,,,,,,,,,,,,,,,,,,,,,,,,,,,,,,,,,,,,,,,,
1720079375,40,0,4431.282227,4421.282227,4346.538574,4397.307617,4421.153809,4421.794922,4427.05127,4425.384766,4427.820313,4249.871582,4320,4513.974121,4341.282227,4339.871582,,,,,,,,,,,,,,,,,,,,,,,,,,,,,,,,,,,,,,,,,,,,,,,,,,,,,,,,,,,,,,,,,,,,,,
1720079375,41,0,4430,4414.743652,4341.025879,4388.077148,4411.922852,4416.410156,4422.692383,4419.743652,4424.487305,4250.512695,4312.179688,4506.538574,4329.230957,4330.897461,,,,,,,,,,,,,,,,,,,,,,,,,,,,,,,,,,,,,,,,,,,,,,,,,,,,,,,,,,,,,,,,,,,,,,
1720079375,42,0,4416.153809,4416.538574,4334.871582,4389.871582,4411.538574,4417.563965,4412.179688,4416.282227,4413.846191,4248.717773,4304.230957,4495.128418,4323.205078,4327.179688,,,,,,,,,,,,,,,,,,,,,,,,,,,,,,,,,,,,,,,,,,,,,,,,,,,,,,,,,,,,,,,,,,,,,,
1720079375,43,0,4405.769043,4406.922852,4326.922852,4386.282227,4414.615234,4419.487305,4409.743652,4420.256348,4412.820313,4249.102539,4296.153809,4489.230957,4322.94873,4322.05127,,,,,,,,,,,,,,,,,,,,,,,,,,,,,,,,,,,,,,,,,,,,,,,,,,,,,,,,,,,,,,,,,,,,,,
1720079375,44,0,4409.358887,4399.230957,4322.179688,4376.282227,4413.717773,4422.436035,4414.358887,4415.128418,4415.769043,4255.897461,4293.846191,4487.05127,4324.743652,4311.794922,,,,,,,,,,,,,,,,,,,,,,,,,,,,,,,,,,,,,,,,,,,,,,,,,,,,,,,,,,,,,,,,,,,,,,
1720079375,45,0,4413.461426,4405.512695,4327.692383,4372.436035,4414.615234,4427.179688,4421.538574,4415.512695,4416.922852,4258.589844,4305.128418,4491.666504,4328.974121,4319.102539,,,,,,,,,,,,,,,,,,,,,,,,,,,,,,,,,,,,,,,,,,,,,,,,,,,,,,,,,,,,,,,,,,,,,,
1720079375,46,0,4416.794922,4412.94873,4336.922852,4382.94873,4419.102539,4428.846191,4424.743652,4428.974121,4419.743652,4256.025879,4314.487305,4501.025879,4331.410156,4330.897461,,,,,,,,,,,,,,,,,,,,,,,,,,,,,,,,,,,,,,,,,,,,,,,,,,,,,,,,,,,,,,,,,,,,,,
1720079375,47,0,4426.153809,4424.102539,4345.897461,4405.384766,4424.358887,4428.461426,4424.358887,4425.897461,4419.102539,4257.94873,4311.282227,4502.692383,4334.871582,4325.769043,,,,,,,,,,,,,,,,,,,,,,,,,,,,,,,,,,,,,,,,,,,,,,,,,,,,,,,,,,,,,,,,,,,,,,
1720079375,48,0,4429.615234,4431.794922,4355.512695,4409.487305,4427.692383,4429.102539,4427.436035,4422.563965,4413.333496,4261.410156,4312.820313,4503.077148,4339.230957,4326.666504,7.048293,1.080968,0.633878,0.703391,0.221274,2.901087,0.757759,0.732649,0.987493,0.251388,2.902545,1.448528,1.107579,0.898934,0.319735,3.174361,1.068131,0.539642,1.180539,0.559057,1.082877,0.48522,0.229622,0.168877,0.15352,0.224656,0.357267,0.502864,0.118643,0.066082,0.980965,0.563299,0.822151,0.184331,0.10486,0.537301,0.637106,0.786435,0.396425,0.297559,1.414549,0.977142,1.594962,0.861179,0.267886,13.212754,1.942506,1.213861,0.913498,0.291945,2.647256,0.888713,0.788399,0.800517,0.313727,2.996102,1.097578,0.844983,0.839134,0.312168,3.895989,1.61147,1.50634,1.011189,0.436299,2.296134,0.976732,0.688469,0.700071,0.462011
1720079375,49,0,4427.94873,4430,4361.922852,4398.205078,4431.410156,4430.384766,4428.077148,4431.282227,4409.615234,4266.282227,4321.922852,4507.436035,4341.538574,4334.743652,,,,,,,,,,,,,,,,,,,,,,,,,,,,,,,,,,,,,,,,,,,,,,,,,,,,,,,,,,,,,,,,,,,,,,
1720079375,50,0,4432.05127,4428.846191,4363.974121,4399.358887,4435,4431.025879,4426.922852,4431.282227,4416.794922,4281.410156,4329.230957,4512.692383,4344.230957,4336.666504,,,,,,,,,,,,,,,,,,,,,,,,,,,,,,,,,,,,,,,,,,,,,,,,,,,,,,,,,,,,,,,,,,,,,,
1720079375,51,0,4433.205078,4431.410156,4362.436035,4402.692383,4433.974121,4426.922852,4427.94873,4431.153809,4426.666504,4299.102539,4327.563965,4517.179688,4343.717773,4337.692383,,,,,,,,,,,,,,,,,,,,,,,,,,,,,,,,,,,,,,,,,,,,,,,,,,,,,,,,,,,,,,,,,,,,,,
1720079375,52,0,4419.487305,4424.871582,4348.205078,4391.538574,4426.666504,4416.025879,4419.230957,4430.128418,4419.487305,4301.153809,4310.256348,4504.743652,4332.179688,4329.743652,,,,,,,,,,,,,,,,,,,,,,,,,,,,,,,,,,,,,,,,,,,,,,,,,,,,,,,,,,,,,,,,,,,,,,
1720079375,53,0,4404.102539,4410.897461,4327.692383,4377.563965,4417.820313,4410,4409.358887,4424.102539,4409.358887,4305,4301.410156,4483.717773,4321.538574,4315.512695,,,,,,,,,,,,,,,,,,,,,,,,,,,,,,,,,,,,,,,,,,,,,,,,,,,,,,,,,,,,,,,,,,,,,,
1720079375,54,0,4405,4411.410156,4325,4382.692383,4412.179688,4412.179688,4411.922852,4428.974121,4415.384766,4324.487305,4308.589844,4484.743652,4322.05127,4316.666504,,,,,,,,,,,,,,,,,,,,,,,,,,,,,,,,,,,,,,,,,,,,,,,,,,,,,,,,,,,,,,,,,,,,,,
1720079375,55,0,4412.179688,4419.743652,4334.230957,4399.615234,4410.641113,4412.94873,4413.333496,4434.487305,4419.615234,4336.666504,4308.077148,4495.512695,4327.05127,4323.461426,,,,,,,,,,,,,,,,,,,,,,,,,,,,,,,,,,,,,,,,,,,,,,,,,,,,,,,,,,,,,,,,,,,,,,
1720079375,56,0,4406.025879,4409.487305,4328.717773,4389.102539,4414.487305,4416.410156,4410.897461,4423.717773,4405.512695,4330.769043,4298.461426,4488.846191,4326.153809,4313.974121,,,,,,,,,,,,,,,,,,,,,,,,,,,,,,,,,,,,,,,,,,,,,,,,,,,,,,,,,,,,,,,,,,,,,,
1720079375,57,0,4396.666504,4396.410156,4319.358887,4362.307617,4417.05127,4425.641113,4412.94873,4419.615234,4389.743652,4329.102539,4297.820313,4484.871582,4325.128418,4310.897461,,,,,,,,,,,,,,,,,,,,,,,,,,,,,,,,,,,,,,,,,,,,,,,,,,,,,,,,,,,,,,,,,,,,,,
1720079375,58,0,4404.102539,4411.666504,4328.846191,4373.589844,4419.102539,4429.102539,4413.461426,4428.077148,4385.384766,4337.179688,4301.922852,4492.436035,4326.153809,4312.820313,,,,,,,,,,,,,,,,,,,,,,,,,,,,,,,,,,,,,,,,,,,,,,,,,,,,,,,,,,,,,,,,,,,,,,
1720079375,59,0,4418.717773,4429.615234,4341.410156,4401.538574,4425.384766,4427.05127,4414.102539,4430.128418,4383.589844,4343.077148,4305,4498.205078,4326.794922,4311.282227,,,,,,,,,,,,,,,,,,,,,,,,,,,,,,,,,,,,,,,,,,,,,,,,,,,,,,,,,,,,,,,,,,,,,,
1720079375,60,0,4426.666504,4426.666504,4346.153809,4401.410156,4430,4428.461426,4417.563965,4428.333496,4378.974121,4354.230957,4310.384766,4505,4333.333496,4321.538574,,,,,,,,,,,,,,,,,,,,,,,,,,,,,,,,,,,,,,,,,,,,,,,,,,,,,,,,,,,,,,,,,,,,,,
1720079375,61,0,4430.769043,4427.563965,4354.743652,4399.743652,4427.94873,4429.487305,4416.794922,4427.05127,4375.769043,4368.974121,4312.05127,4507.436035,4342.692383,4328.333496,,,,,,,,,,,,,,,,,,,,,,,,,,,,,,,,,,,,,,,,,,,,,,,,,,,,,,,,,,,,,,,,,,,,,,
1720079375,62,0,4434.102539,4437.307617,4361.025879,4409.615234,4427.563965,4424.871582,4422.307617,4430.256348,4380,4381.025879,4316.025879,4511.153809,4345,4328.846191,,,,,,,,,,,,,,,,,,,,,,,,,,,,,,,,,,,,,,,,,,,,,,,,,,,,,,,,,,,,,,,,,,,,,,
1720079375,63,0,4426.538574,4432.179688,4351.410156,4405.512695,4426.538574,4418.974121,4427.692383,4433.589844,4386.794922,4394.487305,4314.230957,4510,4338.333496,4324.871582,,,,,,,,,,,,,,,,,,,,,,,,,,,,,,,,,,,,,,,,,,,,,,,,,,,,,,,,,,,,,,,,,,,,,,
1720079375,64,0,4411.025879,4413.717773,4336.282227,4387.05127,4416.922852,4414.487305,4419.615234,4429.358887,4386.025879,4399.230957,4305.384766,4495.641113,4324.871582,4316.794922,5.116534,0.857073,0.74993,0.715857,0.228244,2.30228,0.776505,0.857863,1.04424,0.248539,2.083373,1.269576,1.458445,0.913067,0.343152,2.536688,1.066745,0.718972,1.218676,0.550223,0.948184,0.504793,0.252594,0.187781,0.152441,0.234845,0.411972,0.824246,0.126915,0.067085,1.002639,0.664097,1.36989,0.194072,0.10792,0.577853,0.639448,1.052899,0.391351,0.250682,1.444999,0.878023,1.829146,0.87533,0.281057,13.975464,1.963274,1.330272,0.902097,0.292581,2.355217,0.674076,0.983511,0.792751,0.295366,2.44135,0.984998,1.174279,0.849604,0.315569,3.318666,1.571586,1.659152,0.996867,0.46562,1.805559,0.848786,0.867822,0.64337,0.349537
