Timestamp,EEG.Counter,EEG.Interpolated,EEG.AF3,EEG.F7,EEG.F3,EEG.FC5,EEG.T7,EEG.P7,EEG.O1,EEG.O2,EEG.P8,EEG.T8,EEG.FC6,EEG.F4,EEG.F8,EEG.AF4,POW.AF3.Theta,POW.AF3.Alpha,POW.AF3.BetaL,POW.AF3.BetaH,POW.AF3.Gamma,POW.F7.Theta,POW.F7.Alpha,POW.F7.BetaL,POW.F7.BetaH,POW.F7.Gamma,POW.F3.Theta,POW.F3.Alpha,POW.F3.BetaL,POW.F3.BetaH,POW.F3.Gamma,POW.FC5.Theta,POW.FC5.Alpha,POW.FC5.BetaL,POW.FC5.BetaH,POW.FC5.Gamma,POW.T7.Theta,POW.T7.Alpha,POW.T7.BetaL,POW.T7.BetaH,POW.T7.Gamma,POW.P7.Theta,POW.P7.Alpha,POW.P7.BetaL,POW.P7.BetaH,POW.P7.Gamma,POW.O1.Theta,POW.O1.Alpha,POW.O1.BetaL,POW.O1.BetaH,POW.O1.Gamma,POW.O2.Theta,POW.O2.Alpha,POW.O2.BetaL,POW.O2.BetaH,POW.O2.Gamma,POW.P8.Theta,POW.P8.Alpha,POW.P8.BetaL,POW.P8.BetaH,POW.P8.Gamma,POW.T8.Theta,POW.T8.Alpha,POW.T8.BetaL,POW.T8.BetaH,POW.T8.Gamma,POW.FC6.Theta,POW.FC6.Alpha,POW.FC6.BetaL,POW.FC6.BetaH,POW.FC6.Gamma,POW.F4.Theta,POW.F4.Alpha,POW.F4.BetaL,POW.F4.BetaH,POW.F4.Gamma,POW.F8.Theta,POW.F8.Alpha,POW.F8.BetaL,POW.F8.BetaH,POW.F8.Gamma,POW.AF4.Theta,POW.AF4.Alpha,POW.AF4.BetaL,POW.AF4.BetaH,POW.AF4.Gamma
1720515211,20,0,4292.179688,4283.461426,4265.512695,4273.205078,4287.307617,4293.717773,4287.307617,4274.871582,4266.025879,4332.692383,4436.538574,4457.820313,4353.717773,4390.769043,,,,,,,,,,,,,,,,,,,,,,,,,,,,,,,,,,,,,,,,,,,,,,,,,,,,,,,,,,,,,,,,,,,,,,
1720515211,21,0,4290.897461,4282.179688,4271.410156,4275.769043,4287.436035,4293.077148,4287.94873,4274.487305,4266.410156,4330.641113,4437.692383,4457.05127,4356.922852,4403.717773,,,,,,,,,,,,,,,,,,,,,,,,,,,,,,,,,,,,,,,,,,,,,,,,,,,,,,,,,,,,,,,,,,,,,,
1720515211,22,0,4302.436035,4283.333496,4281.025879,4273.333496,4285.512695,4290.641113,4291.666504,4278.589844,4279.487305,4344.743652,4449.230957,4478.205078,4366.410156,4410.769043,,,,,,,,,,,,,,,,,,,,,,,,,,,,,,,,,,,,,,,,,,,,,,,,,,,,,,,,,,,,,,,,,,,,,,
1720515211,23,0,4301.538574,4287.307617,4270.384766,4268.205078,4283.077148,4290.641113,4286.538574,4280.897461,4276.282227,4342.05127,4452.436035,4475.769043,4363.589844,4402.563965,,,,,,,,,,,,,,,,,,,,,,,,,,,,,,,,,,,,,,,,,,,,,,,,,,,,,,,,,,,,,,,,,,,,,,
1720515211,24,0,4297.820313,4287.436035,4270.641113,4271.794922,4281.282227,4293.461426,4285.128418,4284.230957,4270.256348,4332.307617,4451.025879,4477.94873,4357.05127,4405.769043,,,,,,,,,,,,,,,,,,,,,,,,,,,,,,,,,,,,,,,,,,,,,,,,,,,,,,,,,,,,,,,,,,,,,,
1720515211,25,0,4304.102539,4285.897461,4278.974121,4277.05127,4286.025879,4297.692383,4292.436035,4286.153809,4273.974121,4343.974121,4455.897461,4489.358887,4366.282227,4418.333496,,,,,,,,,,,,,,,,,,,,,,,,,,,,,,,,,,,,,,,,,,,,,,,,,,,,,,,,,,,,,,,,,,,,,,
1720515211,26,0,4300.769043,4287.179688,4276.794922,4273.589844,4292.820313,4301.794922,4296.025879,4283.077148,4276.410156,4348.077148,4459.102539,4481.410156,4373.077148,4413.846191,,,,,,,,,,,,,,,,,,,,,,,,,,,,,,,,,,,,,,,,,,,,,,,,,,,,,,,,,,,,,,,,,,,,,,
1720515211,27,0,4296.153809,4289.871582,4277.179688,4274.487305,4293.846191,4301.794922,4294.871582,4283.333496,4277.436035,4339.230957,4457.05127,4482.307617,4365.512695,4407.94873,,,,,,,,,,,,,,,,,,,,,,,,,,,,,,,,,,,,,,,,,,,,,,,,,,,,,,,,,,,,,,,,,,,,,,
1720515212,28,0,4296.538574,4288.974121,4275.769043,4279.487305,4290.128418,4298.077148,4291.025879,4284.358887,4273.077148,4335.641113,4452.692383,4487.692383,4361.153809,4407.94873,0.393376,0.68368,0.344159,0.2066,0.228652,0.559628,0.541121,0.539857,0.128165,0.117139,0.259039,0.125878,0.070447,0.043181,0.124246,0.124945,0.185802,0.340829,0.111536,0.101589,0.189689,0.168504,0.305279,0.092231,0.138773,0.118533,0.102572,0.091876,0.053025,0.050001,0.252513,0.225186,0.111627,0.073667,0.065517,0.080885,0.343159,0.207044,0.083536,0.073968,0.10313,0.073346,0.087936,0.088122,0.109772,1.040276,0.458317,0.567932,0.241111,0.288657,0.358127,0.884033,0.384364,0.301885,0.400298,0.452936,0.491077,0.545757,0.328842,0.637033,0.812629,0.66685,0.338263,0.185893,0.243218,1.872893,1.231459,0.751547,0.27114,0.284759
1720515212,29,0,4290.641113,4285.897461,4269.487305,4275,4288.589844,4296.410156,4288.974121,4280.769043,4266.794922,4331.538574,4444.743652,4473.717773,4358.205078,4401.666504,,,,,,,,,,,,,,,,,,,,,,,,,,,,,,,,,,,,,,,,,,,,,,,,,,,,,,,,,,,,,,,,,,,,,,
1720515212,30,0,4287.94873,4286.922852,4271.282227,4275.897461,4292.179688,4300.641113,4294.871582,4279.615234,4269.871582,4326.666504,4441.282227,4465.384766,4354.743652,4399.358887,,,,,,,,,,,,,,,,,,,,,,,,,,,,,,,,,,,,,,,,,,,,,,,,,,,,,,,,,,,,,,,,,,,,,,
1720515212,31,0,4297.563965,4293.974121,4273.974121,4289.487305,4295.769043,4304.230957,4300.384766,4283.974121,4274.487305,4327.436035,4445.769043,4473.717773,4357.820313,4405.897461,,,,,,,,,,,,,,,,,,,,,,,,,,,,,,,,,,,,,,,,,,,,,,,,,,,,,,,,,,,,,,,,,,,,,,
1720515212,32,0,4301.025879,4297.563965,4269.871582,4297.94873,4292.94873,4300.641113,4295.641113,4283.974121,4271.025879,4325.384766,4450.256348,4470,4361.666504,4408.333496,,,,,,,,,,,,,,,,,,,,,,,,,,,,,,,,,,,,,,,,,,,,,,,,,,,,,,,,,,,,,,,,,,,,,,
1720515212,33,0,4304.230957,4295.384766,4279.358887,4294.743652,4286.410156,4296.538574,4290.641113,4282.692383,4272.563965,4329.487305,4457.563965,4479.615234,4367.563965,4412.563965,,,,,,,,,,,,,,,,,,,,,,,,,,,,,,,,,,,,,,,,,,,,,,,,,,,,,,,,,,,,,,,,,,,,,,
1720515212,34,0,4313.461426,4299.615234,4284.230957,4294.487305,4284.230957,4296.666504,4295.384766,4286.922852,4278.077148,4339.615234,4467.307617,4496.794922,4377.563965,4421.922852,,,,,,,,,,,,,,,,,,,,,,,,,,,,,,,,,,,,,,,,,,,,,,,,,,,,,,,,,,,,,,,,,,,,,,
1720515212,35,0,4307.179688,4301.794922,4275.256348,4298.974121,4280.769043,4294.743652,4295.769043,4286.666504,4275.512695,4331.666504,4463.205078,4485.384766,4377.563965,4423.333496,,,,,,,,,,,,,,,,,,,,,,,,,,,,,,,,,,,,,,,,,,,,,,,,,,,,,,,,,,,,,,,,,,,,,,
1720515212,36,0,4297.436035,4293.461426,4276.410156,4298.717773,4273.717773,4293.077148,4288.846191,4282.692383,4273.974121,4326.794922,4457.436035,4479.102539,4371.666504,4421.025879,,,,,,,,,,,,,,,,,,,,,,,,,,,,,,,,,,,,,,,,,,,,,,,,,,,,,,,,,,,,,,,,,,,,,,
1720515212,37,0,4296.025879,4288.846191,4276.025879,4294.615234,4275,4297.05127,4287.94873,4283.205078,4275.512695,4330.384766,4463.589844,4482.692383,4367.05127,4420.128418,,,,,,,,,,,,,,,,,,,,,,,,,,,,,,,,,,,,,,,,,,,,,,,,,,,,,,,,,,,,,,,,,,,,,,
1720515212,38,0,4298.717773,4292.179688,4272.179688,4294.487305,4281.794922,4301.922852,4293.205078,4288.717773,4279.743652,4329.230957,4464.230957,4486.922852,4365.256348,4420.256348,,,,,,,,,,,,,,,,,,,,,,,,,,,,,,,,,,,,,,,,,,,,,,,,,,,,,,,,,,,,,,,,,,,,,,
1720515212,39,0,4301.410156,4294.230957,4273.717773,4299.743652,4282.179688,4303.205078,4296.025879,4290.897461,4280.897461,4330.256348,4453.461426,4486.153809,4367.307617,4416.666504,,,,,,,,,,,,,,,,,,,,,,,,,,,,,,,,,,,,,,,,,,,,,,,,,,,,,,,,,,,,,,,,,,,,,,
1720515212,40,0,4299.358887,4294.487305,4275.641113,4305.256348,4281.922852,4301.153809,4290.512695,4283.974121,4276.666504,4323.846191,4446.538574,4474.487305,4363.461426,4409.615234,,,,,,,,,,,,,,,,,,,,,,,,,,,,,,,,,,,,,,,,,,,,,,,,,,,,,,,,,,,,,,,,,,,,,,
1720515212,41,0,4300.128418,4302.179688,4276.922852,4308.589844,4287.563965,4298.974121,4287.436035,4280.641113,4277.692383,4323.846191,4454.230957,4474.102539,4363.461426,4413.717773,,,,,,,,,,,,,,,,,,,,,,,,,,,,,,,,,,,,,,,,,,,,,,,,,,,,,,,,,,,,,,,,,,,,,,
1720515212,42,0,4303.333496,4308.205078,4277.179688,4310.128418,4292.05127,4298.717773,4292.94873,4285.641113,4283.205078,4335.641113,4460.128418,4478.974121,4372.563965,4421.153809,,,,,,,,,,,,,,,,,,,,,,,,,,,,,,,,,,,,,,,,,,,,,,,,,,,,,,,,,,,,,,,,,,,,,,
1720515212,43,0,4301.410156,4302.05127,4276.666504,4309.487305,4287.820313,4298.461426,4293.589844,4283.717773,4285,4333.974121,4451.666504,4472.179688,4367.563965,4417.94873,,,,,,,,,,,,,,,,,,,,,,,,,,,,,,,,,,,,,,,,,,,,,,,,,,,,,,,,,,,,,,,,,,,,,,
1720515212,44,0,4300.512695,4297.692383,4277.179688,4308.717773,4281.794922,4295.512695,4286.666504,4277.179688,4281.666504,4323.333496,4446.538574,4469.615234,4361.282227,4415.769043,0.313244,0.579534,0.273801,0.188895,0.223699,0.521848,0.516947,0.462061,0.122927,0.107839,0.20779,0.105387,0.068936,0.044142,0.122488,0.146705,0.140522,0.258306,0.108506,0.085263,0.209973,0.172814,0.273608,0.104383,0.126372,0.130229,0.094496,0.099018,0.054387,0.041484,0.284629,0.17515,0.085931,0.082339,0.062238,0.099295,0.231915,0.196517,0.088576,0.0777,0.097583,0.061767,0.096201,0.089221,0.106351,0.841041,0.444566,0.611944,0.246294,0.273924,0.253032,0.776494,0.348769,0.320841,0.39848,0.386203,0.397722,0.520592,0.293368,0.617594,0.710075,0.620578,0.286392,0.192513,0.238382,1.433679,1.137144,0.618033,0.256192,0.282869
1720515212,45,0,4302.94873,4301.538574,4275.641113,4307.820313,4280.641113,4292.692383,4285.384766,4280.641113,4279.102539,4325.769043,4454.358887,4478.461426,4371.025879,4423.077148,,,,,,,,,,,,,,,,,,,,,,,,,,,,,,,,,,,,,,,,,,,,,,,,,,,,,,,,,,,,,,,,,,,,,,
1720515212,46,0,4308.205078,4303.974121,4276.666504,4308.333496,4283.589844,4292.563965,4291.025879,4290.128418,4282.05127,4334.487305,4464.102539,4485.256348,4377.563965,4431.794922,,,,,,,,,,,,,,,,,,,,,,,,,,,,,,,,,,,,,,,,,,,,,,,,,,,,,,,,,,,,,,,,,,,,,,
1720515212,47,0,4312.820313,4303.077148,4282.692383,4310.641113,4286.922852,4295.128418,4290.641113,4292.692383,4285.256348,4335.897461,4469.102539,4492.563965,4375.769043,4437.307617,,,,,,,,,,,,,,,,,,,,,,,,,,,,,,,,,,,,,,,,,,,,,,,,,,,,,,,,,,,,,,,,,,,,,,
1720515212,48,0,4305.769043,4306.025879,4276.794922,4310.641113,4286.410156,4294.230957,4289.358887,4288.333496,4279.358887,4328.205078,4468.717773,4489.102539,4372.94873,4434.615234,,,,,,,,,,,,,,,,,,,,,,,,,,,,,,,,,,,,,,,,,,,,,,,,,,,,,,,,,,,,,,,,,,,,,,
1720515212,49,0,4299.615234,4304.358887,4274.230957,4309.743652,4282.307617,4294.102539,4291.794922,4286.153809,4272.692383,4319.102539,4460.384766,4481.922852,4370,4434.358887,,,,,,,,,,,,,,,,,,,,,,,,,,,,,,,,,,,,,,,,,,,,,,,,,,,,,,,,,,,,,,,,,,,,,,
1720515212,50,0,4307.436035,4299.230957,4282.307617,4311.666504,4281.282227,4304.743652,4295,4290.128418,4277.179688,4327.179688,4460.897461,4495.384766,4374.487305,4441.153809,,,,,,,,,,,,,,,,,,,,,,,,,,,,,,,,,,,,,,,,,,,,,,,,,,,,,,,,,,,,,,,,,,,,,,
1720515212,51,0,4302.179688,4300.384766,4273.461426,4310.897461,4286.410156,4310.384766,4296.410156,4292.692383,4278.974121,4331.538574,4466.410156,4486.025879,4374.230957,4432.820313,,,,,,,,,,,,,,,,,,,,,,,,,,,,,,,,,,,,,,,,,,,,,,,,,,,,,,,,,,,,,,,,,,,,,,
1720515212,52,0,4288.077148,4296.282227,4268.589844,4305.256348,4285.897461,4302.820313,4295.512695,4288.974121,4275.384766,4320.897461,4458.846191,4466.025879,4364.358887,4417.05127,,,,,,,,,,,,,,,,,,,,,,,,,,,,,,,,,,,,,,,,,,,,,,,,,,,,,,,,,,,,,,,,,,,,,,
1720515212,53,0,4291.538574,4291.666504,4275.384766,4303.846191,4281.282227,4299.615234,4294.487305,4284.871582,4273.717773,4318.589844,4449.358887,4470.128418,4361.410156,4413.974121,,,,,,,,,,,,,,,,,,,,,,,,,,,,,,,,,,,,,,,,,,,,,,,,,,,,,,,,,,,,,,,,,,,,,,
1720515212,54,0,4298.077148,4299.871582,4277.436035,4308.461426,4283.846191,4304.871582,4293.974121,4284.871582,4273.846191,4317.820313,4449.230957,4472.94873,4365.512695,4417.05127,,,,,,,,,,,,,,,,,,,,,,,,,,,,,,,,,,,,,,,,,,,,,,,,,,,,,,,,,,,,,,,,,,,,,,
1720515212,55,0,4300.256348,4309.871582,4282.179688,4311.922852,4287.436035,4303.077148,4295.256348,4287.692383,4278.717773,4316.410156,4456.282227,4477.563965,4369.743652,4421.282227,,,,,,,,,,,,,,,,,,,,,,,,,,,,,,,,,,,,,,,,,,,,,,,,,,,,,,,,,,,,,,,,,,,,,,
1720515212,56,0,4301.410156,4310.641113,4282.307617,4310.769043,4283.461426,4294.615234,4295.128418,4285.897461,4278.846191,4313.205078,4457.179688,4481.538574,4366.922852,4418.461426,,,,,,,,,,,,,,,,,,,,,,,,,,,,,,,,,,,,,,,,,,,,,,,,,,,,,,,,,,,,,,,,,,,,,,
1720515212,57,0,4303.589844,4309.358887,4274.487305,4307.436035,4278.461426,4291.794922,4292.05127,4282.563965,4275.641113,4305.897461,4452.179688,4478.974121,4358.205078,4416.922852,,,,,,,,,,,,,,,,,,,,,,,,,,,,,,,,,,,,,,,,,,,,,,,,,,,,,,,,,,,,,,,,,,,,,,
1720515212,58,0,4310.128418,4310.769043,4277.307617,4304.358887,4282.820313,4294.358887,4291.282227,4286.922852,4277.563965,4308.461426,4457.179688,4484.871582,4362.05127,4428.974121,,,,,,,,,,,,,,,,,,,,,,,,,,,,,,,,,,,,,,,,,,,,,,,,,,,,,,,,,,,,,,,,,,,,,,
1720515212,59,0,4314.615234,4313.333496,4285.641113,4307.179688,4289.230957,4297.436035,4297.436035,4291.922852,4278.974121,4315.897461,4470.384766,4497.05127,4375.384766,4439.871582,,,,,,,,,,,,,,,,,,,,,,,,,,,,,,,,,,,,,,,,,,,,,,,,,,,,,,,,,,,,,,,,,,,,,,
1720515212,60,0,4307.820313,4314.487305,4278.717773,4306.922852,4287.307617,4296.794922,4300.897461,4291.025879,4277.179688,4311.282227,4470.384766,4491.410156,4376.666504,4435.128418,0.295362,0.482091,0.212749,0.180759,0.208227,0.507515,0.460718,0.349226,0.115286,0.092959,0.151512,0.08681,0.073969,0.045501,0.122092,0.177353,0.114085,0.171436,0.106621,0.07323,0.225171,0.174389,0.225153,0.112498,0.114173,0.126865,0.103436,0.121237,0.056998,0.033134,0.308601,0.162318,0.079035,0.092817,0.059186,0.125784,0.147491,0.188898,0.093309,0.079153,0.090853,0.055556,0.106468,0.08639,0.09857,1.214491,0.637299,0.711689,0.260589,0.261423,0.202951,0.675819,0.326714,0.338738,0.379561,0.337271,0.371532,0.489249,0.2715,0.576836,0.653064,0.630684,0.244401,0.204314,0.222054,1.156342,1.052021,0.50131,0.25682,0.273342
1720515212,61,0,4304.487305,4307.307617,4277.692383,4298.333496,4281.025879,4297.05127,4298.974121,4291.922852,4282.179688,4312.307617,4462.820313,4489.487305,4376.025879,4432.563965,,,,,,,,,,,,,,,,,,,,,,,,,,,,,,,,,,,,,,,,,,,,,,,,,,,,,,,,,,,,,,,,,,,,,,
1720515212,62,0,4306.538574,4298.717773,4280.512695,4297.820313,4279.487305,4299.871582,4297.94873,4294.230957,4286.538574,4326.410156,4464.102539,4495,4378.846191,4431.794922,,,,,,,,,,,,,,,,,,,,,,,,,,,,,,,,,,,,,,,,,,,,,,,,,,,,,,,,,,,,,,,,,,,,,,
1720515212,63,0,4296.410156,4298.461426,4275.512695,4304.487305,4284.871582,4300,4296.153809,4292.692383,4280.512695,4326.153809,4463.589844,4478.333496,4372.563965,4418.974121,,,,,,,,,,,,,,,,,,,,,,,,,,,,,,,,,,,,,,,,,,,,,,,,,,,,,,,,,,,,,,,,,,,,,,
1720515212,64,0,4294.102539,4301.538574,4281.153809,4304.871582,4286.282227,4302.436035,4296.666504,4293.974121,4280.897461,4321.922852,4463.589844,4478.589844,4371.538574,4417.179688,,,,,,,,,,,,,,,,,,,,,,,,,,,,,,,,,,,,,,,,,,,,,,,,,,,,,,,,,,,,,,,,,,,,,,
1720515212,65,0,4304.102539,4304.615234,4284.230957,4307.436035,4286.282227,4304.871582,4299.358887,4296.794922,4285.384766,4327.563965,4467.05127,4492.563965,4376.410156,4425.897461,,,,,,,,,,,,,,,,,,,,,,,,,,,,,,,,,,,,,,,,,,,,,,,,,,,,,,,,,,,,,,,,,,,,,,
1720515212,66,0,4304.230957,4303.205078,4281.538574,4312.179688,4290.769043,4298.461426,4296.282227,4295.897461,4283.333496,4325.256348,4465,4488.461426,4370.897461,4424.487305,,,,,,,,,,,,,,,,,,,,,,,,,,,,,,,,,,,,,,,,,,,,,,,,,,,,,,,,,,,,,,,,,,,,,,
1720515212,67,0,4295.512695,4298.077148,4281.153809,4309.230957,4291.282227,4292.179688,4291.282227,4292.05127,4281.922852,4317.563965,4458.333496,4483.461426,4361.282227,4419.615234,,,,,,,,,,,,,,,,,,,,,,,,,,,,,,,,,,,,,,,,,,,,,,,,,,,,,,,,,,,,,,,,,,,,,,
1720515212,68,0,4289.358887,4297.05127,4279.615234,4308.717773,4285.769043,4292.820313,4291.153809,4286.794922,4279.358887,4311.922852,4452.436035,4479.487305,4359.743652,4416.666504,,,,,,,,,,,,,,,,,,,,,,,,,,,,,,,,,,,,,,,,,,,,,,,,,,,,,,,,,,,,,,,,,,,,,,
1720515212,69,0,4295.128418,4299.230957,4280.384766,4312.563965,4285.512695,4294.230957,4294.487305,4287.692383,4279.743652,4311.794922,4457.307617,4480.384766,4367.05127,4416.922852,,,,,,,,,,,,,,,,,,,,,,,,,,,,,,,,,,,,,,,,,,,,,,,,,,,,,,,,,,,,,,,,,,,,,,
1720515212,70,0,4303.974121,4302.307617,4279.871582,4311.153809,4293.205078,4295.128418,4295.769043,4294.102539,4283.717773,4313.077148,4464.102539,4486.025879,4370.512695,4418.717773,,,,,,,,,,,,,,,,,,,,,,,,,,,,,,,,,,,,,,,,,,,,,,,,,,,,,,,,,,,,,,,,,,,,,,
1720515212,71,0,4304.230957,4304.487305,4280,4308.846191,4293.461426,4296.282227,4294.871582,4293.077148,4281.666504,4308.077148,4462.94873,4491.153809,4366.922852,4424.615234,,,,,,,,,,,,,,,,,,,,,,,,,,,,,,,,,,,,,,,,,,,,,,,,,,,,,,,,,,,,,,,,,,,,,,
1720515212,72,0,4307.563965,4307.179688,4286.538574,4310.128418,4289.230957,4297.179688,4296.538574,4288.589844,4277.692383,4306.794922,4461.410156,4494.615234,4366.538574,4434.487305,,,,,,,,,,,,,,,,,,,,,,,,,,,,,,,,,,,,,,,,,,,,,,,,,,,,,,,,,,,,,,,,,,,,,,
1720515212,73,0,4315,4312.179688,4285.897461,4313.205078,4292.436035,4298.717773,4298.974121,4291.410156,4278.205078,4312.820313,4462.563965,4494.615234,4368.205078,4438.717773,,,,,,,,,,,,,,,,,,,,,,,,,,,,,,,,,,,,,,,,,,,,,,,,,,,,,,,,,,,,,,,,,,,,,,
1720515212,74,0,4314.102539,4312.179688,4277.94873,4313.205078,4293.205078,4296.666504,4297.179688,4294.230957,4278.205078,4316.153809,4461.410156,4491.153809,4367.563965,4435.128418,,,,,,,,,,,,,,,,,,,,,,,,,,,,,,,,,,,,,,,,,,,,,,,,,,,,,,,,,,,,,,,,,,,,,,
1720515212,75,0,4311.922852,4304.230957,4284.230957,4310,4285.769043,4293.846191,4296.153809,4297.436035,4280.256348,4317.820313,4461.666504,4495.641113,4371.410156,4433.846191,,,,,,,,,,,,,,,,,,,,,,,,,,,,,,,,,,,,,,,,,,,,,,,,,,,,,,,,,,,,,,,,,,,,,,
1720515212,76,0,4307.563965,4301.666504,4281.410156,4309.743652,4285.641113,4295.384766,4296.410156,4299.230957,4282.05127,4314.358887,4464.358887,4493.974121,4375.641113,4433.717773,0.325747,0.421875,0.184662,0.181676,0.184925,0.508604,0.39498,0.241898,0.109262,0.075432,0.108081,0.074941,0.088694,0.048685,0.121328,0.21559,0.109814,0.103129,0.106423,0.065319,0.231325,0.181264,0.176529,0.117944,0.103718,0.112054,0.130875,0.156996,0.061027,0.026847,0.318913,0.178723,0.09506,0.101894,0.057061,0.153478,0.099232,0.185393,0.095639,0.077235,0.086442,0.054912,0.118245,0.07956,0.08957,2.376762,1.091429,0.884491,0.297917,0.254642,0.193455,0.641588,0.337623,0.353164,0.343924,0.315626,0.43327,0.471247,0.268032,0.516897,0.608845,0.724986,0.22064,0.220049,0.19718,0.982674,1.031561,0.430813,0.263408,0.25246
1720515212,77,0,4295.641113,4304.102539,4271.410156,4309.230957,4289.615234,4295.512695,4292.05127,4291.153809,4276.025879,4304.487305,4458.461426,4477.05127,4368.461426,4427.436035,,,,,,,,,,,,,,,,,,,,,,,,,,,,,,,,,,,,,,,,,,,,,,,,,,,,,,,,,,,,,,,,,,,,,,
1720515212,78,0,4295.897461,4295.128418,4281.922852,4302.94873,4283.974121,4293.333496,4292.05127,4282.94873,4273.974121,4306.410156,4450.769043,4480.384766,4360.641113,4423.589844,,,,,,,,,,,,,,,,,,,,,,,,,,,,,,,,,,,,,,,,,,,,,,,,,,,,,,,,,,,,,,,,,,,,,,
1720515212,79,0,4302.179688,4291.666504,4282.563965,4302.94873,4285.256348,4296.025879,4297.692383,4286.538574,4276.153809,4310.512695,4454.358887,4484.230957,4361.153809,4422.05127,,,,,,,,,,,,,,,,,,,,,,,,,,,,,,,,,,,,,,,,,,,,,,,,,,,,,,,,,,,,,,,,,,,,,,
1720515212,80,0,4301.282227,4302.692383,4277.307617,4309.743652,4293.846191,4297.820313,4297.05127,4291.538574,4275,4305.641113,4457.179688,4477.820313,4364.102539,4423.333496,,,,,,,,,,,,,,,,,,,,,,,,,,,,,,,,,,,,,,,,,,,,,,,,,,,,,,,,,,,,,,,,,,,,,,
1720515212,81,0,4301.282227,4304.743652,4282.05127,4309.102539,4289.102539,4292.94873,4291.410156,4290,4277.563965,4306.538574,4450.384766,4485,4364.358887,4428.974121,,,,,,,,,,,,,,,,,,,,,,,,,,,,,,,,,,,,,,,,,,,,,,,,,,,,,,,,,,,,,,,,,,,,,,
1720515212,82,0,4301.538574,4302.692383,4280.512695,4307.692383,4286.922852,4291.282227,4292.179688,4290.128418,4280.641113,4308.461426,4452.692383,4484.615234,4363.846191,4428.846191,,,,,,,,,,,,,,,,,,,,,,,,,,,,,,,,,,,,,,,,,,,,,,,,,,,,,,,,,,,,,,,,,,,,,,
1720515212,83,0,4306.025879,4309.871582,4280.641113,4311.922852,4298.333496,4298.077148,4300.256348,4293.717773,4279.871582,4309.358887,4464.871582,4481.666504,4370.769043,4426.153809,,,,,,,,,,,,,,,,,,,,,,,,,,,,,,,,,,,,,,,,,,,,,,,,,,,,,,,,,,,,,,,,,,,,,,
1720515212,84,0,4311.025879,4315.384766,4281.922852,4311.922852,4301.282227,4303.717773,4298.974121,4292.820313,4280,4311.794922,4467.820313,4487.307617,4380,4431.794922,,,,,,,,,,,,,,,,,,,,,,,,,,,,,,,,,,,,,,,,,,,,,,,,,,,,,,,,,,,,,,,,,,,,,,
1720515212,85,0,4307.820313,4313.077148,4279.871582,4309.358887,4292.563965,4302.436035,4290.769043,4292.563965,4282.94873,4310.384766,4466.025879,4495,4381.410156,4439.743652,,,,,,,,,,,,,,,,,,,,,,,,,,,,,,,,,,,,,,,,,,,,,,,,,,,,,,,,,,,,,,,,,,,,,,
1720515212,86,0,4304.102539,4311.538574,4283.846191,4311.025879,4292.179688,4300.384766,4294.102539,4295.769043,4285.897461,4308.974121,4469.487305,4502.05127,4378.974121,4441.282227,,,,,,,,,,,,,,,,,,,,,,,,,,,,,,,,,,,,,,,,,,,,,,,,,,,,,,,,,,,,,,,,,,,,,,
1720515212,87,0,4302.563965,4306.410156,4285.384766,4308.333496,4293.461426,4298.589844,4300,4295.641113,4284.615234,4309.871582,4472.436035,4500.256348,4378.717773,4438.717773,,,,,,,,,,,,,,,,,,,,,,,,,,,,,,,,,,,,,,,,,,,,,,,,,,,,,,,,,,,,,,,,,,,,,,
1720515212,88,0,4296.282227,4302.563965,4274.102539,4302.179688,4288.333496,4295.897461,4295.512695,4293.461426,4280.128418,4304.615234,4472.05127,4483.461426,4380.897461,4431.025879,,,,,,,,,,,,,,,,,,,,,,,,,,,,,,,,,,,,,,,,,,,,,,,,,,,,,,,,,,,,,,,,,,,,,,
1720515212,89,0,4297.307617,4307.307617,4279.487305,4303.461426,4288.077148,4297.05127,4294.102539,4293.717773,4282.436035,4302.94873,4470.384766,4485.128418,4383.461426,4427.436035,,,,,,,,,,,,,,,,,,,,,,,,,,,,,,,,,,,,,,,,,,,,,,,,,,,,,,,,,,,,,,,,,,,,,,
1720515212,90,0,4302.179688,4305,4290.641113,4305.384766,4293.974121,4298.461426,4299.230957,4292.563965,4289.102539,4307.436035,4463.333496,4498.589844,4380.256348,4428.974121,,,,,,,,,,,,,,,,,,,,,,,,,,,,,,,,,,,,,,,,,,,,,,,,,,,,,,,,,,,,,,,,,,,,,,
1720515212,91,0,4294.230957,4296.922852,4280.641113,4299.358887,4294.615234,4295.256348,4295.897461,4286.538574,4282.820313,4294.358887,4461.922852,4480.256348,4368.589844,4423.589844,,,,,,,,,,,,,,,,,,,,,,,,,,,,,,,,,,,,,,,,,,,,,,,,,,,,,,,,,,,,,,,,,,,,,,
1720515212,92,0,4293.589844,4298.589844,4278.846191,4300.769043,4291.282227,4294.487305,4289.871582,4283.846191,4277.692383,4282.179688,4478.461426,4471.666504,4367.436035,4420.512695,0.372362,0.419146,0.199842,0.187502,0.159984,0.501374,0.347317,0.174947,0.109437,0.059605,0.08568,0.071676,0.112101,0.05534,0.118726,0.261355,0.122695,0.067391,0.108216,0.06078,0.23061,0.2022,0.141683,0.122949,0.096128,0.089671,0.177626,0.198712,0.066208,0.023972,0.30649,0.206148,0.126607,0.106508,0.056746,0.174606,0.086076,0.182248,0.094669,0.072929,0.090901,0.056599,0.128854,0.06962,0.082624,4.151089,1.73708,1.106925,0.359328,0.25532,0.207186,0.704956,0.386199,0.359201,0.298721,0.325184,0.589119,0.481688,0.280669,0.44703,0.550407,0.888027,0.216598,0.234555,0.170652,0.848637,1.109542,0.411187,0.264683,0.223623
1720515212,93,0,4298.077148,4301.153809,4281.922852,4305.512695,4290.128418,4297.692383,4290.641113,4286.538574,4281.794922,4286.025879,4487.692383,4479.615234,4371.538574,4423.077148,,,,,,,,,,,,,,,,,,,,,,,,,,,,,,,,,,,,,,,,,,,,,,,,,,,,,,,,,,,,,,,,,,,,,,
1720515212,94,0,4293.461426,4295.897461,4279.102539,4300.769043,4288.717773,4298.205078,4293.717773,4289.102539,4280.512695,4287.563965,4476.922852,4473.846191,4366.666504,4423.974121,,,,,,,,,,,,,,,,,,,,,,,,,,,,,,,,,,,,,,,,,,,,,,,,,,,,,,,,,,,,,,,,,,,,,,
1720515212,95,0,4293.717773,4291.922852,4283.077148,4300.256348,4290.512695,4297.94873,4298.846191,4291.794922,4280.256348,4288.461426,4468.717773,4475.384766,4364.358887,4421.538574,,,,,,,,,,,,,,,,,,,,,,,,,,,,,,,,,,,,,,,,,,,,,,,,,,,,,,,,,,,,,,,,,,,,,,
1720515212,96,0,4294.487305,4296.538574,4282.179688,4307.692383,4296.282227,4300.128418,4302.820313,4294.230957,4282.563965,4289.102539,4470.128418,4481.922852,4367.05127,4418.333496,,,,,,,,,,,,,,,,,,,,,,,,,,,,,,,,,,,,,,,,,,,,,,,,,,,,,,,,,,,,,,,,,,,,,,
1720515212,97,0,4289.358887,4297.94873,4276.922852,4310.384766,4295.512695,4297.563965,4298.333496,4291.025879,4279.487305,4286.153809,4466.153809,4478.589844,4362.820313,4413.974121,,,,,,,,,,,,,,,,,,,,,,,,,,,,,,,,,,,,,,,,,,,,,,,,,,,,,,,,,,,,,,,,,,,,,,
1720515212,98,0,4288.077148,4289.743652,4276.410156,4305.128418,4290.128418,4293.077148,4291.922852,4286.025879,4277.307617,4281.153809,4457.436035,4468.589844,4355.256348,4407.05127,,,,,,,,,,,,,,,,,,,,,,,,,,,,,,,,,,,,,,,,,,,,,,,,,,,,,,,,,,,,,,,,,,,,,,
1720515212,99,0,4288.077148,4287.436035,4277.05127,4302.307617,4291.538574,4293.717773,4293.333496,4288.974121,4281.538574,4282.563965,4457.692383,4467.563965,4359.487305,4405.512695,,,,,,,,,,,,,,,,,,,,,,,,,,,,,,,,,,,,,,,,,,,,,,,,,,,,,,,,,,,,,,,,,,,,,,
1720515212,100,0,4288.717773,4295.769043,4277.307617,4305.256348,4299.230957,4294.358887,4297.820313,4292.820313,4282.179688,4290,4461.538574,4477.436035,4369.358887,4413.461426,,,,,,,,,,,,,,,,,,,,,,,,,,,,,,,,,,,,,,,,,,,,,,,,,,,,,,,,,,,,,,,,,,,,,,
1720515212,101,0,4298.077148,4301.666504,4278.974121,4311.410156,4305,4294.358887,4298.846191,4291.282227,4279.871582,4292.179688,4465,4484.358887,4374.102539,4424.230957,,,,,,,,,,,,,,,,,,,,,,,,,,,,,,,,,,,,,,,,,,,,,,,,,,,,,,,,,,,,,,,,,,,,,,
1720515212,102,0,4303.333496,4302.307617,4281.922852,4312.94873,4302.563965,4294.743652,4297.179688,4290,4282.692383,4286.922852,4468.717773,4483.589844,4373.333496,4426.025879,,,,,,,,,,,,,,,,,,,,,,,,,,,,,,,,,,,,,,,,,,,,,,,,,,,,,,,,,,,,,,,,,,,,,,
1720515212,103,0,4298.077148,4299.743652,4283.589844,4306.153809,4292.05127,4293.461426,4296.538574,4291.282227,4282.820313,4283.461426,4462.692383,4482.179688,4367.820313,4421.410156,,,,,,,,,,,,,,,,,,,,,,,,,,,,,,,,,,,,,,,,,,,,,,,,,,,,,,,,,,,,,,,,,,,,,,
1720515212,104,0,4292.692383,4297.820313,4277.307617,4305,4292.307617,4295.384766,4299.743652,4294.615234,4281.666504,4285.641113,4456.538574,4475.769043,4366.922852,4418.205078,,,,,,,,,,,,,,,,,,,,,,,,,,,,,,,,,,,,,,,,,,,,,,,,,,,,,,,,,,,,,,,,,,,,,,
1720515212,105,0,4294.230957,4299.487305,4274.615234,4308.205078,4301.410156,4299.102539,4303.077148,4295.769043,4284.615234,4285.256348,4458.717773,4469.358887,4371.153809,4418.589844,,,,,,,,,,,,,,,,,,,,,,,,,,,,,,,,,,,,,,,,,,,,,,,,,,,,,,,,,,,,,,,,,,,,,,
1720515212,106,0,4306.025879,4297.307617,4289.358887,4305.512695,4298.205078,4298.205078,4303.461426,4293.974121,4288.846191,4293.846191,4465.512695,4489.358887,4376.410156,4423.974121,,,,,,,,,,,,,,,,,,,,,,,,,,,,,,,,,,,,,,,,,,,,,,,,,,,,,,,,,,,,,,,,,,,,,,
1720515212,107,0,4303.846191,4291.153809,4287.179688,4297.436035,4290.512695,4291.282227,4298.333496,4291.025879,4285.769043,4298.974121,4466.922852,4493.333496,4373.077148,4422.179688,,,,,,,,,,,,,,,,,,,,,,,,,,,,,,,,,,,,,,,,,,,,,,,,,,,,,,,,,,,,,,,,,,,,,,
1720515212,108,0,4292.94873,4291.794922,4275.641113,4293.589844,4290.128418,4288.205078,4294.230957,4290,4278.846191,4290,4461.153809,4472.563965,4362.94873,4415.769043,0.404664,0.484197,0.248705,0.192964,0.140397,0.473697,0.341481,0.161693,0.118051,0.049653,0.081543,0.075473,0.137908,0.065565,0.114271,0.314947,0.143427,0.066736,0.110881,0.059145,0.223704,0.240527,0.126966,0.128421,0.09233,0.073489,0.242718,0.234927,0.071342,0.025065,0.277109,0.224738,0.158788,0.104979,0.058866,0.182807,0.09801,0.174954,0.090962,0.068744,0.110439,0.055738,0.134858,0.058219,0.079709,6.115689,2.395037,1.316693,0.427804,0.261212,0.234926,0.856751,0.450693,0.350565,0.254209,0.348872,0.826477,0.518682,0.301897,0.38092,0.475679,1.068154,0.226947,0.241141,0.149918,0.700931,1.291093,0.424562,0.254646,0.194399
1720515212,109,0,4297.05127,4293.077148,4283.461426,4295.384766,4291.282227,4289.871582,4297.05127,4292.563965,4281.153809,4297.94873,4461.153809,4481.282227,4364.871582,4417.436035,,,,,,,,,,,,,,,,,,,,,,,,,,,,,,,,,,,,,,,,,,,,,,,,,,,,,,,,,,,,,,,,,,,,,,
1720515212,110,0,4299.743652,4291.538574,4284.358887,4293.974121,4291.538574,4290.128418,4300.128418,4291.794922,4281.794922,4305.769043,4461.538574,4487.179688,4369.230957,4419.615234,,,,,,,,,,,,,,,,,,,,,,,,,,,,,,,,,,,,,,,,,,,,,,,,,,,,,,,,,,,,,,,,,,,,,,
1720515212,111,0,4300.128418,4295.512695,4282.436035,4292.692383,4292.563965,4291.666504,4301.282227,4288.333496,4278.077148,4296.794922,4457.820313,4482.307617,4366.794922,4422.05127,,,,,,,,,,,,,,,,,,,,,,,,,,,,,,,,,,,,,,,,,,,,,,,,,,,,,,,,,,,,,,,,,,,,,,
1720515212,112,0,4306.153809,4301.666504,4286.410156,4293.717773,4294.743652,4291.922852,4300.512695,4287.94873,4277.436035,4289.615234,4458.077148,4492.692383,4367.307617,4426.666504,,,,,,,,,,,,,,,,,,,,,,,,,,,,,,,,,,,,,,,,,,,,,,,,,,,,,,,,,,,,,,,,,,,,,,
1720515212,113,0,4305.897461,4302.563965,4284.615234,4295,4297.179688,4291.282227,4296.794922,4290.256348,4278.589844,4288.205078,4462.179688,4495.128418,4368.333496,4428.974121,,,,,,,,,,,,,,,,,,,,,,,,,,,,,,,,,,,,,,,,,,,,,,,,,,,,,,,,,,,,,,,,,,,,,,
1720515212,114,0,4299.743652,4296.794922,4282.94873,4295,4296.538574,4290.769043,4293.717773,4288.717773,4278.205078,4288.077148,4464.230957,4485.384766,4364.615234,4427.436035,,,,,,,,,,,,,,,,,,,,,,,,,,,,,,,,,,,,,,,,,,,,,,,,,,,,,,,,,,,,,,,,,,,,,,
1720515212,115,0,4297.179688,4288.717773,4283.205078,4293.461426,4291.282227,4288.846191,4292.436035,4284.230957,4276.794922,4286.153809,4460.641113,4482.94873,4362.307617,4423.461426,,,,,,,,,,,,,,,,,,,,,,,,,,,,,,,,,,,,,,,,,,,,,,,,,,,,,,,,,,,,,,,,,,,,,,
1720515212,116,0,4291.025879,4287.563965,4276.153809,4293.717773,4290.641113,4288.461426,4291.922852,4284.358887,4277.692383,4283.846191,4461.025879,4477.436035,4363.077148,4414.230957,,,,,,,,,,,,,,,,,,,,,,,,,,,,,,,,,,,,,,,,,,,,,,,,,,,,,,,,,,,,,,,,,,,,,,
1720515212,117,0,4284.871582,4289.230957,4275.256348,4294.487305,4293.077148,4289.358887,4290.769043,4287.307617,4276.794922,4283.589844,4461.666504,4468.717773,4363.205078,4406.153809,,,,,,,,,,,,,,,,,,,,,,,,,,,,,,,,,,,,,,,,,,,,,,,,,,,,,,,,,,,,,,,,,,,,,,
1720515212,118,0,4293.333496,4289.358887,4283.333496,4295,4292.179688,4290.641113,4292.94873,4288.846191,4278.717773,4292.820313,4461.410156,4480.641113,4369.615234,4411.410156,,,,,,,,,,,,,,,,,,,,,,,,,,,,,,,,,,,,,,,,,,,,,,,,,,,,,,,,,,,,,,,,,,,,,,
1720515212,119,0,4293.333496,4290.128418,4276.666504,4294.871582,4291.282227,4286.666504,4292.820313,4287.563965,4278.846191,4287.307617,4460.512695,4475.128418,4366.538574,4412.563965,,,,,,,,,,,,,,,,,,,,,,,,,,,,,,,,,,,,,,,,,,,,,,,,,,,,,,,,,,,,,,,,,,,,,,
1720515212,120,0,4282.94873,4288.205078,4271.666504,4293.589844,4290,4279.871582,4287.05127,4284.358887,4275.128418,4271.922852,4454.615234,4459.230957,4356.538574,4403.333496,,,,,,,,,,,,,,,,,,,,,,,,,,,,,,,,,,,,,,,,,,,,,,,,,,,,,,,,,,,,,,,,,,,,,,
1720515212,121,0,4286.282227,4286.282227,4277.05127,4293.717773,4287.307617,4281.922852,4286.666504,4283.589844,4277.05127,4279.358887,4454.615234,4466.666504,4364.230957,4405.128418,,,,,,,,,,,,,,,,,,,,,,,,,,,,,,,,,,,,,,,,,,,,,,,,,,,,,,,,,,,,,,,,,,,,,,
1720515212,122,0,4296.922852,4292.179688,4281.666504,4295.769043,4289.487305,4289.230957,4293.077148,4286.666504,4280.128418,4291.410156,4465.128418,4476.922852,4371.153809,4419.871582,,,,,,,,,,,,,,,,,,,,,,,,,,,,,,,,,,,,,,,,,,,,,,,,,,,,,,,,,,,,,,,,,,,,,,
1720515212,123,0,4299.358887,4297.436035,4284.871582,4296.025879,4294.871582,4288.461426,4294.871582,4288.205078,4279.615234,4287.94873,4469.871582,4481.666504,4366.025879,4425.128418,,,,,,,,,,,,,,,,,,,,,,,,,,,,,,,,,,,,,,,,,,,,,,,,,,,,,,,,,,,,,,,,,,,,,,
1720515212,124,0,4290.512695,4293.461426,4280.128418,4294.487305,4295.384766,4285.256348,4290.641113,4285.128418,4275.512695,4273.589844,4455.641113,4475.769043,4360.769043,4412.307617,0.406186,0.61593,0.308022,0.195194,0.129976,0.425727,0.391827,0.188505,0.133348,0.048077,0.085836,0.082134,0.156796,0.07757,0.109185,0.375555,0.164827,0.09126,0.112253,0.06013,0.214571,0.28881,0.129564,0.133534,0.092848,0.068275,0.320988,0.257451,0.075221,0.029773,0.231434,0.224634,0.179662,0.097785,0.063553,0.175946,0.126583,0.161094,0.086149,0.067147,0.148793,0.050251,0.133576,0.047107,0.080707,7.626444,2.866482,1.438075,0.476193,0.266868,0.283587,1.051359,0.498416,0.324994,0.219934,0.376986,1.116309,0.562163,0.323405,0.329552,0.410385,1.213626,0.24072,0.237049,0.139985,0.55413,1.557038,0.440562,0.236519,0.171871
1720515212,125,0,4287.179688,4288.205078,4278.589844,4293.461426,4290.512695,4289.230957,4288.461426,4281.282227,4273.077148,4265.384766,4444.102539,4471.025879,4354.230957,4406.282227,,,,,,,,,,,,,,,,,,,,,,,,,,,,,,,,,,,,,,,,,,,,,,,,,,,,,,,,,,,,,,,,,,,,,,
1720515212,126,0,4291.282227,4287.307617,4281.025879,4293.461426,4291.153809,4288.461426,4287.94873,4277.820313,4272.05127,4265,4444.230957,4471.025879,4346.282227,4410.641113,,,,,,,,,,,,,,,,,,,,,,,,,,,,,,,,,,,,,,,,,,,,,,,,,,,,,,,,,,,,,,,,,,,,,,
1720515212,127,0,4289.102539,4284.230957,4277.692383,4292.05127,4292.179688,4281.794922,4285,4275.897461,4269.615234,4262.179688,4441.794922,4467.563965,4345.769043,4408.717773,,,,,,,,,,,,,,,,,,,,,,,,,,,,,,,,,,,,,,,,,,,,,,,,,,,,,,,,,,,,,,,,,,,,,,
1720515212,0,0,4285.128418,4279.487305,4276.922852,4290.256348,4288.461426,4279.487305,4283.333496,4278.461426,4269.743652,4263.846191,4441.153809,4464.358887,4350.897461,4402.563965,,,,,,,,,,,,,,,,,,,,,,,,,,,,,,,,,,,,,,,,,,,,,,,,,,,,,,,,,,,,,,,,,,,,,,
1720515212,1,0,4292.179688,4283.333496,4281.153809,4293.846191,4292.94873,4284.871582,4287.820313,4282.94873,4274.743652,4276.025879,4448.974121,4469.358887,4355.128418,4404.358887,,,,,,,,,,,,,,,,,,,,,,,,,,,,,,,,,,,,,,,,,,,,,,,,,,,,,,,,,,,,,,,,,,,,,,
1720515212,2,0,4300.384766,4292.179688,4281.153809,4298.846191,4300.128418,4288.205078,4292.05127,4282.307617,4276.666504,4281.794922,4455.256348,4475.384766,4357.179688,4412.692383,,,,,,,,,,,,,,,,,,,,,,,,,,,,,,,,,,,,,,,,,,,,,,,,,,,,,,,,,,,,,,,,,,,,,,
1720515212,3,0,4298.333496,4288.333496,4283.333496,4296.794922,4292.563965,4279.615234,4288.077148,4279.743652,4275.641113,4272.820313,4449.871582,4471.410156,4355,4410.897461,,,,,,,,,,,,,,,,,,,,,,,,,,,,,,,,,,,,,,,,,,,,,,,,,,,,,,,,,,,,,,,,,,,,,,
1720515212,4,0,4291.666504,4279.615234,4280.897461,4293.333496,4286.282227,4274.102539,4283.077148,4278.333496,4276.025879,4269.102539,4443.974121,4461.282227,4354.230957,4400.512695,,,,,,,,,,,,,,,,,,,,,,,,,,,,,,,,,,,,,,,,,,,,,,,,,,,,,,,,,,,,,,,,,,,,,,
1720515212,5,0,4281.922852,4284.102539,4268.717773,4295.512695,4293.333496,4279.871582,4284.358887,4276.538574,4273.461426,4269.743652,4446.922852,4448.077148,4352.179688,4398.333496,,,,,,,,,,,,,,,,,,,,,,,,,,,,,,,,,,,,,,,,,,,,,,,,,,,,,,,,,,,,,,,,,,,,,,
1720515212,6,0,4287.94873,4288.589844,4277.436035,4297.05127,4293.974121,4282.563965,4289.615234,4280.256348,4275,4271.538574,4448.589844,4461.666504,4350.897461,4406.410156,,,,,,,,,,,,,,,,,,,,,,,,,,,,,,,,,,,,,,,,,,,,,,,,,,,,,,,,,,,,,,,,,,,,,,
1720515212,7,0,4301.794922,4286.410156,4287.563965,4295.384766,4291.153809,4282.692383,4290.384766,4284.871582,4279.358887,4278.461426,4449.615234,4480.897461,4361.153809,4410.897461,,,,,,,,,,,,,,,,,,,,,,,,,,,,,,,,,,,,,,,,,,,,,,,,,,,,,,,,,,,,,,,,,,,,,,
1720515212,8,0,4296.922852,4287.563965,4280.897461,4295.384766,4293.974121,4284.230957,4286.153809,4282.563965,4277.563965,4277.179688,4455.512695,4474.230957,4367.94873,4407.820313,,,,,,,,,,,,,,,,,,,,,,,,,,,,,,,,,,,,,,,,,,,,,,,,,,,,,,,,,,,,,,,,,,,,,,
1720515212,9,0,4292.05127,4285.641113,4281.153809,4295.769043,4292.05127,4280.256348,4286.153809,4282.307617,4276.282227,4275.512695,4455.128418,4475.897461,4360.128418,4407.820313,,,,,,,,,,,,,,,,,,,,,,,,,,,,,,,,,,,,,,,,,,,,,,,,,,,,,,,,,,,,,,,,,,,,,,
1720515212,10,0,4292.179688,4281.666504,4278.077148,4295.769043,4291.794922,4277.179688,4290.769043,4285.256348,4277.436035,4278.717773,4450,4476.410156,4356.025879,4407.692383,,,,,,,,,,,,,,,,,,,,,,,,,,,,,,,,,,,,,,,,,,,,,,,,,,,,,,,,,,,,,,,,,,,,,,
1720515212,11,0,4287.307617,4281.794922,4275.384766,4294.743652,4294.487305,4280.641113,4289.871582,4284.615234,4277.692383,4274.615234,4446.538574,4467.94873,4358.461426,4406.666504,,,,,,,,,,,,,,,,,,,,,,,,,,,,,,,,,,,,,,,,,,,,,,,,,,,,,,,,,,,,,,,,,,,,,,
1720515212,12,0,4285.769043,4279.102539,4276.922852,4294.743652,4291.666504,4278.846191,4284.871582,4279.871582,4276.025879,4265.128418,4440.128418,4469.615234,4352.94873,4403.589844,0.385897,0.785868,0.359693,0.195593,0.128201,0.377718,0.489352,0.235229,0.150686,0.054489,0.090605,0.086775,0.162129,0.088979,0.105401,0.445777,0.182881,0.126651,0.110499,0.06317,0.208394,0.333381,0.142331,0.136869,0.096961,0.074084,0.398598,0.264632,0.077392,0.036811,0.180913,0.206724,0.184048,0.087997,0.070109,0.154126,0.166991,0.141873,0.08156,0.068818,0.201651,0.042949,0.124095,0.037592,0.083705,8.241458,3.007732,1.418087,0.482989,0.266153,0.356485,1.22105,0.511235,0.287399,0.200202,0.401672,1.409787,0.589717,0.341905,0.297745,0.385429,1.289352,0.247323,0.224232,0.140432,0.437317,1.849697,0.44872,0.219721,0.158232
1720515212,13,0,4287.307617,4273.205078,4277.436035,4296.794922,4288.205078,4274.230957,4284.871582,4276.538574,4272.307617,4258.077148,4438.846191,4468.717773,4345.384766,4399.487305,,,,,,,,,,,,,,,,,,,,,,,,,,,,,,,,,,,,,,,,,,,,,,,,,,,,,,,,,,,,,,,,,,,,,,
1720515212,14,0,4283.974121,4272.820313,4278.205078,4297.05127,4290.256348,4278.077148,4288.974121,4278.846191,4273.333496,4259.358887,4446.922852,4459.615234,4347.94873,4399.230957,,,,,,,,,,,,,,,,,,,,,,,,,,,,,,,,,,,,,,,,,,,,,,,,,,,,,,,,,,,,,,,,,,,,,,
1720515212,15,0,4278.589844,4274.743652,4273.333496,4294.358887,4289.871582,4280.128418,4289.102539,4280.769043,4279.358887,4266.282227,4444.102539,4451.025879,4347.94873,4391.282227,,,,,,,,,,,,,,,,,,,,,,,,,,,,,,,,,,,,,,,,,,,,,,,,,,,,,,,,,,,,,,,,,,,,,,
1720515212,16,0,4277.692383,4277.179688,4266.922852,4293.589844,4285.641113,4274.615234,4287.179688,4279.230957,4278.846191,4265.384766,4433.205078,4447.692383,4341.922852,4384.230957,,,,,,,,,,,,,,,,,,,,,,,,,,,,,,,,,,,,,,,,,,,,,,,,,,,,,,,,,,,,,,,,,,,,,,
1720515212,17,0,4282.436035,4283.077148,4270,4294.743652,4286.025879,4273.846191,4285.897461,4277.692383,4272.94873,4258.077148,4431.025879,4449.871582,4343.333496,4393.205078,,,,,,,,,,,,,,,,,,,,,,,,,,,,,,,,,,,,,,,,,,,,,,,,,,,,,,,,,,,,,,,,,,,,,,
1720515212,18,0,4294.615234,4286.153809,4276.538574,4293.974121,4290.128418,4278.974121,4284.230957,4277.94873,4272.179688,4264.230957,4435,4457.563965,4351.922852,4401.538574,,,,,,,,,,,,,,,,,,,,,,,,,,,,,,,,,,,,,,,,,,,,,,,,,,,,,,,,,,,,,,,,,,,,,,
1720515212,19,0,4296.025879,4284.230957,4271.922852,4293.974121,4290.512695,4280.128418,4283.717773,4279.230957,4275.897461,4276.153809,4440.384766,4456.794922,4355.256348,4398.333496,,,,,,,,,,,,,,,,,,,,,,,,,,,,,,,,,,,,,,,,,,,,,,,,,,,,,,,,,,,,,,,,,,,,,,
1720515212,20,0,4288.974121,4284.615234,4276.922852,4296.153809,4289.743652,4281.153809,4288.589844,4282.94873,4282.179688,4279.102539,4447.179688,4463.846191,4354.871582,4401.025879,,,,,,,,,,,,,,,,,,,,,,,,,,,,,,,,,,,,,,,,,,,,,,,,,,,,,,,,,,,,,,,,,,,,,,
1720515212,21,0,4286.666504,4283.077148,4282.692383,4295.897461,4290.512695,4282.692383,4290.641113,4282.05127,4280.512695,4273.589844,4444.743652,4470.256348,4350.769043,4399.487305,,,,,,,,,,,,,,,,,,,,,,,,,,,,,,,,,,,,,,,,,,,,,,,,,,,,,,,,,,,,,,,,,,,,,,
1720515212,22,0,4283.461426,4275.769043,4273.205078,4294.230957,4289.358887,4279.358887,4285.641113,4275,4270.897461,4260.256348,4435.897461,4456.794922,4341.410156,4384.230957,,,,,,,,,,,,,,,,,,,,,,,,,,,,,,,,,,,,,,,,,,,,,,,,,,,,,,,,,,,,,,,,,,,,,,
1720515212,23,0,4288.461426,4273.846191,4274.358887,4294.871582,4286.794922,4277.820313,4283.333496,4277.05127,4273.077148,4259.487305,4443.461426,4466.282227,4348.974121,4393.077148,,,,,,,,,,,,,,,,,,,,,,,,,,,,,,,,,,,,,,,,,,,,,,,,,,,,,,,,,,,,,,,,,,,,,,
1720515212,24,0,4296.025879,4279.871582,4277.05127,4296.922852,4286.538574,4279.230957,4283.333496,4280,4279.487305,4273.461426,4457.692383,4480.128418,4363.461426,4416.153809,,,,,,,,,,,,,,,,,,,,,,,,,,,,,,,,,,,,,,,,,,,,,,,,,,,,,,,,,,,,,,,,,,,,,,
1720515212,25,0,4289.743652,4281.153809,4275,4296.153809,4288.974121,4276.538574,4280.897461,4274.871582,4274.230957,4277.692383,4453.333496,4466.410156,4355.769043,4412.179688,,,,,,,,,,,,,,,,,,,,,,,,,,,,,,,,,,,,,,,,,,,,,,,,,,,,,,,,,,,,,,,,,,,,,,
1720515212,26,0,4285.897461,4278.077148,4276.666504,4295.512695,4289.615234,4275.256348,4280.256348,4271.538574,4270.512695,4272.692383,4439.615234,4458.333496,4343.974121,4398.205078,,,,,,,,,,,,,,,,,,,,,,,,,,,,,,,,,,,,,,,,,,,,,,,,,,,,,,,,,,,,,,,,,,,,,,
1720515212,27,0,4290.769043,4282.692383,4277.563965,4296.794922,4287.05127,4278.205078,4283.846191,4273.589844,4274.743652,4273.205078,4437.307617,4462.563965,4347.563965,4398.333496,,,,,,,,,,,,,,,,,,,,,,,,,,,,,,,,,,,,,,,,,,,,,,,,,,,,,,,,,,,,,,,,,,,,,,
1720515213,28,0,4296.025879,4288.717773,4278.846191,4296.666504,4286.794922,4279.230957,4285.897461,4278.077148,4277.820313,4280.897461,4446.410156,4466.538574,4352.692383,4405.256348,0.370419,0.942729,0.398896,0.196785,0.13206,0.342232,0.607831,0.289471,0.16374,0.06603,0.093867,0.086699,0.152971,0.097359,0.104368,0.52459,0.196256,0.160114,0.104088,0.067306,0.207313,0.358829,0.156589,0.136689,0.102926,0.085846,0.455566,0.260673,0.078239,0.044526,0.138063,0.177887,0.172597,0.079891,0.077035,0.127652,0.210203,0.121264,0.078346,0.072459,0.259735,0.039043,0.107642,0.030335,0.086094,7.81238,2.782011,1.254398,0.446192,0.25606,0.453169,1.306722,0.488201,0.250531,0.193583,0.436675,1.644962,0.578626,0.35724,0.284443,0.41834,1.285955,0.241679,0.209565,0.146636,0.383251,2.088976,0.452801,0.211712,0.151529
1720515213,29,0,4299.487305,4283.846191,4283.461426,4294.615234,4286.666504,4279.230957,4284.743652,4279.615234,4278.461426,4285.769043,4445.256348,4467.94873,4351.025879,4406.282227,,,,,,,,,,,,,,,,,,,,,,,,,,,,,,,,,,,,,,,,,,,,,,,,,,,,,,,,,,,,,,,,,,,,,,
1720515213,30,0,4294.615234,4277.820313,4278.974121,4293.974121,4287.179688,4277.05127,4283.717773,4276.538574,4278.205078,4279.358887,4433.974121,4458.846191,4349.358887,4399.871582,,,,,,,,,,,,,,,,,,,,,,,,,,,,,,,,,,,,,,,,,,,,,,,,,,,,,,,,,,,,,,,,,,,,,,
1720515213,31,0,4286.410156,4280,4274.230957,4296.282227,4286.794922,4273.461426,4280.641113,4273.846191,4277.820313,4274.358887,4432.820313,4453.589844,4348.589844,4396.025879,,,,,,,,,,,,,,,,,,,,,,,,,,,,,,,,,,,,,,,,,,,,,,,,,,,,,,,,,,,,,,,,,,,,,,
1720515213,32,0,4288.461426,4279.871582,4282.307617,4295.512695,4281.666504,4275.256348,4279.487305,4276.025879,4282.563965,4282.820313,4442.94873,4468.333496,4347.563965,4396.794922,,,,,,,,,,,,,,,,,,,,,,,,,,,,,,,,,,,,,,,,,,,,,,,,,,,,,,,,,,,,,,,,,,,,,,
1720515213,33,0,4285,4280,4277.436035,4294.230957,4282.307617,4275.897461,4281.410156,4277.94873,4285.769043,4275.384766,4442.307617,4458.589844,4337.692383,4388.589844,,,,,,,,,,,,,,,,,,,,,,,,,,,,,,,,,,,,,,,,,,,,,,,,,,,,,,,,,,,,,,,,,,,,,,
1720515213,34,0,4281.282227,4283.077148,4273.077148,4294.487305,4289.358887,4274.743652,4283.205078,4278.205078,4286.794922,4262.692383,4438.205078,4447.307617,4339.743652,4387.563965,,,,,,,,,,,,,,,,,,,,,,,,,,,,,,,,,,,,,,,,,,,,,,,,,,,,,,,,,,,,,,,,,,,,,,
1720515213,35,0,4285.769043,4276.410156,4274.230957,4287.179688,4288.205078,4275.128418,4279.871582,4273.461426,4283.717773,4265,4441.025879,4457.179688,4349.615234,4392.307617,,,,,,,,,,,,,,,,,,,,,,,,,,,,,,,,,,,,,,,,,,,,,,,,,,,,,,,,,,,,,,,,,,,,,,
1720515213,36,0,4281.794922,4267.94873,4266.794922,4282.820313,4282.94873,4273.205078,4275.256348,4266.153809,4278.205078,4256.922852,4435.384766,4445.512695,4334.615234,4381.025879,,,,,,,,,,,,,,,,,,,,,,,,,,,,,,,,,,,,,,,,,,,,,,,,,,,,,,,,,,,,,,,,,,,,,,
1720515213,37,0,4282.563965,4274.358887,4272.307617,4291.666504,4284.102539,4274.230957,4282.436035,4272.436035,4285.128418,4253.461426,4429.743652,4447.94873,4329.743652,4383.333496,,,,,,,,,,,,,,,,,,,,,,,,,,,,,,,,,,,,,,,,,,,,,,,,,,,,,,,,,,,,,,,,,,,,,,
1720515213,38,0,4291.153809,4283.589844,4279.871582,4296.794922,4285.128418,4279.487305,4289.487305,4280.897461,4291.666504,4263.846191,4432.436035,4470.128418,4347.563965,4399.487305,,,,,,,,,,,,,,,,,,,,,,,,,,,,,,,,,,,,,,,,,,,,,,,,,,,,,,,,,,,,,,,,,,,,,,
1720515213,39,0,4291.410156,4281.538574,4278.077148,4294.487305,4284.743652,4278.589844,4287.436035,4277.563965,4285,4263.205078,4434.743652,4469.102539,4343.974121,4395.769043,,,,,,,,,,,,,,,,,,,,,,,,,,,,,,,,,,,,,,,,,,,,,,,,,,,,,,,,,,,,,,,,,,,,,,
1720515213,40,0,4290.897461,4281.666504,4280,4296.794922,4288.974121,4276.025879,4285.641113,4277.179688,4283.205078,4262.307617,4440.256348,4463.717773,4335,4393.461426,,,,,,,,,,,,,,,,,,,,,,,,,,,,,,,,,,,,,,,,,,,,,,,,,,,,,,,,,,,,,,,,,,,,,,
1720515213,41,0,4291.922852,4287.94873,4282.179688,4299.230957,4293.461426,4281.282227,4288.589844,4282.563965,4288.205078,4268.846191,4447.05127,4467.436035,4346.794922,4405.769043,,,,,,,,,,,,,,,,,,,,,,,,,,,,,,,,,,,,,,,,,,,,,,,,,,,,,,,,,,,,,,,,,,,,,,
1720515213,42,0,4294.743652,4288.846191,4281.794922,4299.615234,4291.025879,4284.487305,4290.128418,4279.615234,4287.94873,4266.922852,4450.897461,4473.717773,4353.717773,4412.94873,,,,,,,,,,,,,,,,,,,,,,,,,,,,,,,,,,,,,,,,,,,,,,,,,,,,,,,,,,,,,,,,,,,,,,
1720515213,43,0,4300.769043,4287.436035,4282.05127,4305.256348,4289.487305,4281.410156,4284.358887,4276.538574,4285.769043,4263.333496,4455.512695,4482.692383,4352.94873,4418.077148,,,,,,,,,,,,,,,,,,,,,,,,,,,,,,,,,,,,,,,,,,,,,,,,,,,,,,,,,,,,,,,,,,,,,,
1720515213,44,0,4303.717773,4289.230957,4279.358887,4305.641113,4292.05127,4278.846191,4279.230957,4281.153809,4286.666504,4268.974121,4461.282227,4487.05127,4363.333496,4428.461426,0.383177,1.03843,0.426679,0.201275,0.138207,0.332886,0.717679,0.347055,0.168721,0.078775,0.100137,0.08288,0.132395,0.102086,0.1063,0.598018,0.203539,0.180911,0.092266,0.071023,0.207577,0.355361,0.165376,0.132463,0.108829,0.094632,0.474613,0.251374,0.078862,0.051474,0.109324,0.147693,0.150626,0.07741,0.08247,0.106829,0.244659,0.103743,0.077661,0.075634,0.307908,0.042688,0.087192,0.026027,0.085722,6.521453,2.285261,0.995808,0.385171,0.238075,0.565512,1.286605,0.441145,0.229397,0.195158,0.503734,1.779831,0.522576,0.374971,0.284224,0.511092,1.224056,0.225202,0.202355,0.152999,0.413313,2.20526,0.468641,0.216118,0.148726
1720515213,45,0,4303.974121,4289.871582,4276.410156,4297.820313,4290.512695,4277.307617,4281.282227,4283.077148,4290.256348,4281.666504,4463.846191,4482.436035,4372.820313,4431.538574,,,,,,,,,,,,,,,,,,,,,,,,,,,,,,,,,,,,,,,,,,,,,,,,,,,,,,,,,,,,,,,,,,,,,,
1720515213,46,0,4307.179688,4288.589844,4280.769043,4295,4286.282227,4277.307617,4284.487305,4282.307617,4297.307617,4295.128418,4466.025879,4485.256348,4374.615234,4429.743652,,,,,,,,,,,,,,,,,,,,,,,,,,,,,,,,,,,,,,,,,,,,,,,,,,,,,,,,,,,,,,,,,,,,,,
1720515213,47,0,4304.871582,4287.436035,4279.230957,4297.820313,4287.563965,4278.589844,4281.538574,4284.615234,4294.230957,4286.153809,4464.871582,4480.769043,4366.666504,4424.743652,,,,,,,,,,,,,,,,,,,,,,,,,,,,,,,,,,,,,,,,,,,,,,,,,,,,,,,,,,,,,,,,,,,,,,
1720515213,48,0,4295.384766,4281.153809,4279.102539,4295.769043,4287.692383,4281.025879,4282.692383,4285.897461,4285.128418,4265.384766,4453.717773,4472.436035,4353.589844,4413.461426,,,,,,,,,,,,,,,,,,,,,,,,,,,,,,,,,,,,,,,,,,,,,,,,,,,,,,,,,,,,,,,,,,,,,,
1720515213,49,0,4290.641113,4277.307617,4281.794922,4292.820313,4286.538574,4284.615234,4289.615234,4283.333496,4284.230957,4263.333496,4444.102539,4477.94873,4351.025879,4405.512695,,,,,,,,,,,,,,,,,,,,,,,,,,,,,,,,,,,,,,,,,,,,,,,,,,,,,,,,,,,,,,,,,,,,,,
1720515213,50,0,4287.436035,4279.743652,4272.436035,4293.717773,4288.333496,4283.205078,4288.974121,4279.871582,4282.179688,4260.769043,4445.897461,4466.282227,4349.743652,4398.717773,,,,,,,,,,,,,,,,,,,,,,,,,,,,,,,,,,,,,,,,,,,,,,,,,,,,,,,,,,,,,,,,,,,,,,
1720515213,51,0,4285.897461,4279.487305,4272.563965,4293.461426,4288.205078,4280,4286.025879,4279.615234,4282.94873,4258.333496,4448.589844,4455.512695,4346.794922,4396.410156,,,,,,,,,,,,,,,,,,,,,,,,,,,,,,,,,,,,,,,,,,,,,,,,,,,,,,,,,,,,,,,,,,,,,,
1720515213,52,0,4287.05127,4281.153809,4277.94873,4292.307617,4287.307617,4280.641113,4288.077148,4282.179688,4286.922852,4265.128418,4439.743652,4460.897461,4347.820313,4395.128418,,,,,,,,,,,,,,,,,,,,,,,,,,,,,,,,,,,,,,,,,,,,,,,,,,,,,,,,,,,,,,,,,,,,,,
1720515213,53,0,4284.230957,4281.922852,4275.769043,4293.974121,4286.538574,4280,4288.205078,4281.410156,4282.820313,4263.974121,4435.897461,4460.256348,4345.256348,4389.487305,,,,,,,,,,,,,,,,,,,,,,,,,,,,,,,,,,,,,,,,,,,,,,,,,,,,,,,,,,,,,,,,,,,,,,
1720515213,54,0,4281.410156,4275.512695,4278.077148,4295.641113,4284.871582,4278.333496,4283.974121,4278.717773,4282.05127,4260.641113,4447.436035,4460.256348,4343.846191,4391.153809,,,,,,,,,,,,,,,,,,,,,,,,,,,,,,,,,,,,,,,,,,,,,,,,,,,,,,,,,,,,,,,,,,,,,,
1720515213,55,0,4280.897461,4277.692383,4278.333496,4295.384766,4287.692383,4281.025879,4279.615234,4279.871582,4288.205078,4261.282227,4448.717773,4459.743652,4345.897461,4394.871582,,,,,,,,,,,,,,,,,,,,,,,,,,,,,,,,,,,,,,,,,,,,,,,,,,,,,,,,,,,,,,,,,,,,,,
1720515213,56,0,4285.256348,4288.589844,4276.410156,4293.846191,4292.179688,4282.563965,4280.512695,4280.256348,4286.410156,4260.384766,4438.846191,4458.589844,4347.307617,4392.05127,,,,,,,,,,,,,,,,,,,,,,,,,,,,,,,,,,,,,,,,,,,,,,,,,,,,,,,,,,,,,,,,,,,,,,
1720515213,57,0,4289.487305,4287.05127,4280.897461,4292.820313,4292.05127,4280,4284.871582,4278.333496,4279.487305,4260.512695,4435.512695,4461.282227,4346.538574,4386.282227,,,,,,,,,,,,,,,,,,,,,,,,,,,,,,,,,,,,,,,,,,,,,,,,,,,,,,,,,,,,,,,,,,,,,,
1720515213,58,0,4286.410156,4282.307617,4283.974121,4290.897461,4289.358887,4280.769043,4287.307617,4280.897461,4281.922852,4261.153809,4439.871582,4466.153809,4346.666504,4387.307617,,,,,,,,,,,,,,,,,,,,,,,,,,,,,,,,,,,,,,,,,,,,,,,,,,,,,,,,,,,,,,,,,,,,,,
1720515213,59,0,4283.333496,4283.333496,4283.205078,4286.666504,4288.333496,4282.436035,4288.333496,4286.666504,4289.615234,4258.461426,4450.769043,4476.282227,4350,4396.794922,,,,,,,,,,,,,,,,,,,,,,,,,,,,,,,,,,,,,,,,,,,,,,,,,,,,,,,,,,,,,,,,,,,,,,
1720515213,60,0,4290.512695,4280,4286.922852,4284.743652,4288.205078,4283.461426,4291.410156,4292.563965,4295.641113,4265,4462.820313,4494.230957,4359.871582,4403.717773,0.441899,1.042231,0.447556,0.211452,0.144396,0.345066,0.792454,0.404881,0.166635,0.089167,0.113264,0.078936,0.108022,0.104906,0.110399,0.644866,0.201259,0.184977,0.077072,0.072673,0.203465,0.324042,0.165511,0.126291,0.113033,0.093891,0.448332,0.240496,0.080099,0.056744,0.093783,0.122599,0.126964,0.082132,0.084825,0.099483,0.259452,0.092456,0.079699,0.076184,0.33217,0.055462,0.066536,0.025369,0.082196,4.854674,1.702528,0.722526,0.328893,0.217566,0.686088,1.172713,0.386557,0.234521,0.199793,0.622505,1.804895,0.438565,0.401076,0.291184,0.657485,1.132396,0.203462,0.20924,0.156048,0.533134,2.154957,0.50137,0.232704,0.149245
1720515213,61,0,4288.461426,4275.769043,4279.102539,4283.717773,4284.102539,4283.846191,4287.820313,4293.205078,4291.794922,4267.05127,4459.743652,4481.538574,4359.102539,4392.307617,,,,,,,,,,,,,,,,,,,,,,,,,,,,,,,,,,,,,,,,,,,,,,,,,,,,,,,,,,,,,,,,,,,,,,
1720515213,62,0,4281.282227,4277.307617,4272.436035,4277.692383,4277.307617,4279.743652,4283.333496,4286.666504,4284.615234,4253.333496,4446.153809,4460.128418,4342.436035,4383.717773,,,,,,,,,,,,,,,,,,,,,,,,,,,,,,,,,,,,,,,,,,,,,,,,,,,,,,,,,,,,,,,,,,,,,,
1720515213,63,0,4291.410156,4280.641113,4283.461426,4278.717773,4279.358887,4278.974121,4288.077148,4282.563965,4286.666504,4254.102539,4445.641113,4478.077148,4335.512695,4395.512695,,,,,,,,,,,,,,,,,,,,,,,,,,,,,,,,,,,,,,,,,,,,,,,,,,,,,,,,,,,,,,,,,,,,,,
1720515213,64,0,4293.974121,4286.025879,4282.436035,4290.769043,4289.871582,4284.102539,4292.563965,4284.487305,4286.025879,4263.461426,4451.025879,4481.282227,4335.256348,4399.615234,,,,,,,,,,,,,,,,,,,,,,,,,,,,,,,,,,,,,,,,,,,,,,,,,,,,,,,,,,,,,,,,,,,,,,
1720515213,65,0,4286.538574,4287.436035,4278.846191,4291.410156,4292.563965,4286.282227,4291.794922,4286.794922,4282.05127,4264.487305,4447.179688,4467.692383,4330.641113,4398.589844,,,,,,,,,,,,,,,,,,,,,,,,,,,,,,,,,,,,,,,,,,,,,,,,,,,,,,,,,,,,,,,,,,,,,,
1720515213,66,0,4286.922852,4281.922852,4283.077148,4281.153809,4287.179688,4281.538574,4290.512695,4284.615234,4281.666504,4262.820313,4441.538574,4470.384766,4327.692383,4399.487305,,,,,,,,,,,,,,,,,,,,,,,,,,,,,,,,,,,,,,,,,,,,,,,,,,,,,,,,,,,,,,,,,,,,,,
1720515213,67,0,4289.871582,4283.461426,4283.461426,4283.974121,4288.461426,4278.846191,4289.871582,4283.077148,4283.077148,4263.589844,4445.256348,4472.820313,4327.307617,4397.05127,,,,,,,,,,,,,,,,,,,,,,,,,,,,,,,,,,,,,,,,,,,,,,,,,,,,,,,,,,,,,,,,,,,,,,
1720515213,68,0,4294.871582,4296.410156,4284.743652,4295.256348,4297.436035,4283.333496,4289.615234,4285.256348,4287.307617,4269.871582,4454.487305,4479.871582,4331.666504,4403.589844,,,,,,,,,,,,,,,,,,,,,,,,,,,,,,,,,,,,,,,,,,,,,,,,,,,,,,,,,,,,,,,,,,,,,,
1720515213,69,0,4296.666504,4305.256348,4283.461426,4295.897461,4297.179688,4284.358887,4288.333496,4283.333496,4285.384766,4270.769043,4452.179688,4481.538574,4331.282227,4407.563965,,,,,,,,,,,,,,,,,,,,,,,,,,,,,,,,,,,,,,,,,,,,,,,,,,,,,,,,,,,,,,,,,,,,,,
1720515213,70,0,4294.871582,4304.102539,4280.769043,4290.256348,4286.153809,4278.846191,4289.487305,4281.410156,4279.743652,4266.538574,4442.94873,4471.410156,4327.179688,4401.153809,,,,,,,,,,,,,,,,,,,,,,,,,,,,,,,,,,,,,,,,,,,,,,,,,,,,,,,,,,,,,,,,,,,,,,
1720515213,71,0,4291.538574,4301.922852,4281.538574,4287.179688,4281.666504,4276.922852,4290.384766,4280.384766,4282.94873,4261.666504,4437.94873,4468.077148,4328.333496,4399.102539,,,,,,,,,,,,,,,,,,,,,,,,,,,,,,,,,,,,,,,,,,,,,,,,,,,,,,,,,,,,,,,,,,,,,,
1720515213,72,0,4288.461426,4302.436035,4283.589844,4286.794922,4285,4280.128418,4284.871582,4277.692383,4286.410156,4255.384766,4441.538574,4470.897461,4325.641113,4403.077148,,,,,,,,,,,,,,,,,,,,,,,,,,,,,,,,,,,,,,,,,,,,,,,,,,,,,,,,,,,,,,,,,,,,,,
1720515213,73,0,4292.94873,4301.794922,4281.282227,4291.282227,4285.512695,4281.666504,4282.563965,4277.692383,4283.205078,4253.077148,4448.589844,4465,4320.769043,4400.256348,,,,,,,,,,,,,,,,,,,,,,,,,,,,,,,,,,,,,,,,,,,,,,,,,,,,,,,,,,,,,,,,,,,,,,
1720515213,74,0,4302.563965,4302.692383,4279.487305,4297.179688,4286.666504,4281.922852,4289.487305,4281.025879,4283.717773,4260.641113,4452.820313,4468.205078,4327.436035,4400.128418,,,,,,,,,,,,,,,,,,,,,,,,,,,,,,,,,,,,,,,,,,,,,,,,,,,,,,,,,,,,,,,,,,,,,,
1720515213,75,0,4294.615234,4304.615234,4278.333496,4295.512695,4292.436035,4281.666504,4287.820313,4281.153809,4284.615234,4263.333496,4450.641113,4470.384766,4331.922852,4403.974121,,,,,,,,,,,,,,,,,,,,,,,,,,,,,,,,,,,,,,,,,,,,,,,,,,,,,,,,,,,,,,,,,,,,,,
1720515213,76,0,4281.922852,4302.436035,4278.077148,4289.871582,4292.179688,4280.128418,4280.384766,4278.974121,4283.589844,4255.897461,4443.205078,4460.256348,4327.436035,4402.05127,0.550545,0.951971,0.462785,0.22708,0.149435,0.367871,0.815685,0.450841,0.160437,0.095133,0.13476,0.080598,0.088668,0.107762,0.114786,0.656775,0.190456,0.172953,0.061811,0.071298,0.19123,0.274014,0.154254,0.120073,0.114046,0.086659,0.383539,0.229009,0.08201,0.060038,0.086132,0.105174,0.109789,0.091785,0.083679,0.106684,0.249333,0.088184,0.082964,0.073698,0.326513,0.07493,0.049388,0.028357,0.077258,3.307563,1.208578,0.50484,0.30268,0.20194,0.825376,1.001357,0.339448,0.262735,0.204445,0.824667,1.739197,0.352938,0.434582,0.301461,0.852373,1.02891,0.184036,0.231419,0.15693,0.778163,1.945088,0.540832,0.257066,0.155784
1720515213,77,0,4290.256348,4300.384766,4281.282227,4290.769043,4286.794922,4279.358887,4283.717773,4280.769043,4288.461426,4259.102539,4442.692383,4467.563965,4333.974121,4403.846191,,,,,,,,,,,,,,,,,,,,,,,,,,,,,,,,,,,,,,,,,,,,,,,,,,,,,,,,,,,,,,,,,,,,,,
1720515213,78,0,4291.538574,4300.897461,4276.794922,4290.128418,4287.563965,4279.871582,4286.922852,4280.128418,4287.436035,4261.794922,4445.641113,4462.692383,4338.974121,4402.179688,,,,,,,,,,,,,,,,,,,,,,,,,,,,,,,,,,,,,,,,,,,,,,,,,,,,,,,,,,,,,,,,,,,,,,
1720515213,79,0,4281.410156,4295.128418,4274.230957,4283.077148,4291.922852,4279.615234,4282.563965,4279.102539,4283.846191,4256.922852,4445.897461,4449.871582,4334.102539,4401.153809,,,,,,,,,,,,,,,,,,,,,,,,,,,,,,,,,,,,,,,,,,,,,,,,,,,,,,,,,,,,,,,,,,,,,,
1720515213,80,0,4280.641113,4290.512695,4273.205078,4280.512695,4291.282227,4277.820313,4280.384766,4280.256348,4286.794922,4263.333496,4445.641113,4457.820313,4336.410156,4401.538574,,,,,,,,,,,,,,,,,,,,,,,,,,,,,,,,,,,,,,,,,,,,,,,,,,,,,,,,,,,,,,,,,,,,,,
1720515213,81,0,4281.410156,4292.307617,4270.256348,4279.871582,4285.641113,4275.897461,4279.487305,4276.410156,4285.769043,4271.153809,4440.128418,4457.436035,4335.897461,4392.05127,,,,,,,,,,,,,,,,,,,,,,,,,,,,,,,,,,,,,,,,,,,,,,,,,,,,,,,,,,,,,,,,,,,,,,
1720515213,82,0,4283.077148,4289.871582,4274.743652,4279.102539,4285.641113,4277.94873,4278.846191,4273.974121,4282.179688,4271.794922,4432.820313,4449.871582,4335.384766,4387.307617,,,,,,,,,,,,,,,,,,,,,,,,,,,,,,,,,,,,,,,,,,,,,,,,,,,,,,,,,,,,,,,,,,,,,,
1720515213,83,0,4286.666504,4288.717773,4276.282227,4282.94873,4291.922852,4280.641113,4281.794922,4277.563965,4281.410156,4272.436035,4435.641113,4453.333496,4341.282227,4392.307617,,,,,,,,,,,,,,,,,,,,,,,,,,,,,,,,,,,,,,,,,,,,,,,,,,,,,,,,,,,,,,,,,,,,,,
1720515213,84,0,4287.692383,4293.077148,4275.256348,4288.205078,4291.282227,4279.230957,4285,4281.410156,4281.794922,4272.692383,4445.769043,4462.179688,4338.717773,4399.358887,,,,,,,,,,,,,,,,,,,,,,,,,,,,,,,,,,,,,,,,,,,,,,,,,,,,,,,,,,,,,,,,,,,,,,
1720515213,85,0,4288.974121,4293.461426,4279.358887,4289.230957,4289.102539,4277.94873,4285.512695,4280.897461,4281.794922,4272.820313,4445.897461,4464.615234,4336.666504,4402.436035,,,,,,,,,,,,,,,,,,,,,,,,,,,,,,,,,,,,,,,,,,,,,,,,,,,,,,,,,,,,,,,,,,,,,,
1720515213,86,0,4288.846191,4295.128418,4280.897461,4292.692383,4295.384766,4279.615234,4287.05127,4279.743652,4283.846191,4276.538574,4442.307617,4465.384766,4341.282227,4401.025879,,,,,,,,,,,,,,,,,,,,,,,,,,,,,,,,,,,,,,,,,,,,,,,,,,,,,,,,,,,,,,,,,,,,,,
1720515213,87,0,4286.666504,4300.769043,4279.358887,4296.410156,4296.538574,4278.717773,4285.128418,4278.333496,4282.820313,4276.153809,4442.692383,4466.282227,4336.025879,4399.487305,,,,,,,,,,,,,,,,,,,,,,,,,,,,,,,,,,,,,,,,,,,,,,,,,,,,,,,,,,,,,,,,,,,,,,
1720515213,88,0,4289.615234,4299.743652,4280.256348,4293.974121,4290.384766,4277.94873,4279.615234,4275.384766,4280.769043,4275.897461,4441.282227,4465.128418,4331.794922,4401.025879,,,,,,,,,,,,,,,,,,,,,,,,,,,,,,,,,,,,,,,,,,,,,,,,,,,,,,,,,,,,,,,,,,,,,,
1720515213,89,0,4287.692383,4295.128418,4271.410156,4290.256348,4290.256348,4278.205078,4277.94873,4274.230957,4281.025879,4280,4441.794922,4459.871582,4338.333496,4402.307617,,,,,,,,,,,,,,,,,,,,,,,,,,,,,,,,,,,,,,,,,,,,,,,,,,,,,,,,,,,,,,,,,,,,,,
1720515213,90,0,4284.102539,4290.128418,4269.230957,4285.769043,4286.410156,4272.820313,4278.589844,4272.94873,4284.743652,4282.692383,4447.05127,4458.974121,4338.589844,4400.384766,,,,,,,,,,,,,,,,,,,,,,,,,,,,,,,,,,,,,,,,,,,,,,,,,,,,,,,,,,,,,,,,,,,,,,
1720515213,91,0,4290.897461,4285.384766,4281.538574,4280.128418,4276.794922,4271.282227,4279.871582,4276.025879,4291.538574,4286.922852,4448.589844,4472.94873,4339.230957,4401.666504,,,,,,,,,,,,,,,,,,,,,,,,,,,,,,,,,,,,,,,,,,,,,,,,,,,,,,,,,,,,,,,,,,,,,,
1720515213,92,0,4288.461426,4289.487305,4275.512695,4280.897461,4280.256348,4280.128418,4281.794922,4280.256348,4286.666504,4286.538574,4448.461426,4467.820313,4343.077148,4400.897461,0.707295,0.798102,0.468337,0.244636,0.152272,0.391299,0.79061,0.46983,0.15369,0.096701,0.16297,0.091721,0.080074,0.111081,0.117309,0.634072,0.181186,0.148931,0.04993,0.067323,0.173924,0.219641,0.132827,0.114104,0.110982,0.076928,0.297282,0.213117,0.083895,0.061554,0.083624,0.094772,0.103746,0.101838,0.080041,0.122341,0.217691,0.089208,0.085448,0.069697,0.297632,0.097089,0.038119,0.034805,0.073978,2.267471,0.8998,0.378966,0.317245,0.197185,1.006843,0.823902,0.308198,0.301159,0.209418,1.139648,1.621249,0.287206,0.468071,0.313239,1.093781,0.93135,0.174141,0.264184,0.159648,1.201123,1.643052,0.567793,0.282874,0.171325
1720515213,93,0,4287.179688,4296.794922,4270.384766,4289.102539,4287.94873,4284.230957,4285.256348,4281.794922,4281.282227,4284.615234,4455.384766,4464.871582,4342.820313,4407.307617,,,,,,,,,,,,,,,,,,,,,,,,,,,,,,,,,,,,,,,,,,,,,,,,,,,,,,,,,,,,,,,,,,,,,,
1720515213,94,0,4297.692383,4298.974121,4277.05127,4295.897461,4286.538574,4280.769043,4287.692383,4283.589844,4285.256348,4292.179688,4458.589844,4481.410156,4348.717773,4417.94873,,,,,,,,,,,,,,,,,,,,,,,,,,,,,,,,,,,,,,,,,,,,,,,,,,,,,,,,,,,,,,,,,,,,,,
1720515213,95,0,4297.05127,4300.128418,4275.512695,4295.769043,4289.615234,4281.025879,4287.563965,4285.256348,4285,4292.436035,4452.179688,4481.922852,4350.769043,4415.769043,,,,,,,,,,,,,,,,,,,,,,,,,,,,,,,,,,,,,,,,,,,,,,,,,,,,,,,,,,,,,,,,,,,,,,
1720515213,96,0,4298.205078,4301.538574,4275.897461,4293.589844,4293.589844,4284.102539,4285.897461,4282.563965,4279.871582,4284.615234,4451.538574,4476.794922,4340.512695,4412.436035,,,,,,,,,,,,,,,,,,,,,,,,,,,,,,,,,,,,,,,,,,,,,,,,,,,,,,,,,,,,,,,,,,,,,,
1720515213,97,0,4305.256348,4301.666504,4280,4293.205078,4289.871582,4283.333496,4281.025879,4275.384766,4278.333496,4280.897461,4455.512695,4476.282227,4335.256348,4416.025879,,,,,,,,,,,,,,,,,,,,,,,,,,,,,,,,,,,,,,,,,,,,,,,,,,,,,,,,,,,,,,,,,,,,,,
1720515213,98,0,4305.512695,4302.563965,4282.563965,4296.025879,4287.436035,4280.128418,4280.384766,4276.282227,4280.641113,4280,4453.846191,4477.692383,4344.615234,4420.128418,,,,,,,,,,,,,,,,,,,,,,,,,,,,,,,,,,,,,,,,,,,,,,,,,,,,,,,,,,,,,,,,,,,,,,
1720515213,99,0,4304.615234,4304.230957,4282.436035,4297.563965,4289.102539,4280,4282.05127,4282.05127,4281.410156,4285.256348,4456.025879,4483.974121,4356.410156,4421.922852,,,,,,,,,,,,,,,,,,,,,,,,,,,,,,,,,,,,,,,,,,,,,,,,,,,,,,,,,,,,,,,,,,,,,,
1720515213,100,0,4302.820313,4302.94873,4277.820313,4294.230957,4286.410156,4278.974121,4278.077148,4278.974121,4281.794922,4291.153809,4461.410156,4481.153809,4358.205078,4420.256348,,,,,,,,,,,,,,,,,,,,,,,,,,,,,,,,,,,,,,,,,,,,,,,,,,,,,,,,,,,,,,,,,,,,,,
1720515213,101,0,4300.769043,4300.384766,4276.794922,4292.179688,4284.743652,4278.333496,4279.615234,4277.820313,4285.256348,4293.077148,4467.179688,4474.615234,4359.102539,4423.974121,,,,,,,,,,,,,,,,,,,,,,,,,,,,,,,,,,,,,,,,,,,,,,,,,,,,,,,,,,,,,,,,,,,,,,
1720515213,102,0,4302.94873,4301.538574,4283.461426,4295.641113,4288.717773,4280.512695,4287.820313,4284.358887,4288.974121,4299.871582,4471.282227,4485.897461,4365.641113,4434.358887,,,,,,,,,,,,,,,,,,,,,,,,,,,,,,,,,,,,,,,,,,,,,,,,,,,,,,,,,,,,,,,,,,,,,,
1720515213,103,0,4299.487305,4301.410156,4280.641113,4301.666504,4289.615234,4279.487305,4284.358887,4283.077148,4283.846191,4302.179688,4463.846191,4486.538574,4363.461426,4429.102539,,,,,,,,,,,,,,,,,,,,,,,,,,,,,,,,,,,,,,,,,,,,,,,,,,,,,,,,,,,,,,,,,,,,,,
1720515213,104,0,4290.641113,4298.333496,4273.461426,4302.307617,4286.282227,4277.05127,4276.794922,4278.205078,4277.820313,4293.077148,4450.512695,4463.205078,4348.589844,4409.871582,,,,,,,,,,,,,,,,,,,,,,,,,,,,,,,,,,,,,,,,,,,,,,,,,,,,,,,,,,,,,,,,,,,,,,
1720515213,105,0,4293.077148,4299.871582,4278.846191,4296.153809,4286.153809,4280.128418,4283.077148,4282.307617,4282.820313,4295.128418,4449.102539,4471.538574,4347.692383,4411.410156,,,,,,,,,,,,,,,,,,,,,,,,,,,,,,,,,,,,,,,,,,,,,,,,,,,,,,,,,,,,,,,,,,,,,,
1720515213,106,0,4295.256348,4300.512695,4277.94873,4293.717773,4287.436035,4285.641113,4289.102539,4282.94873,4284.743652,4298.461426,4451.538574,4484.230957,4357.05127,4418.846191,,,,,,,,,,,,,,,,,,,,,,,,,,,,,,,,,,,,,,,,,,,,,,,,,,,,,,,,,,,,,,,,,,,,,,
1720515213,107,0,4286.666504,4291.282227,4273.205078,4295.641113,4283.974121,4283.205078,4283.846191,4280.384766,4280.769043,4290.769043,4445.128418,4468.077148,4348.077148,4406.794922,,,,,,,,,,,,,,,,,,,,,,,,,,,,,,,,,,,,,,,,,,,,,,,,,,,,,,,,,,,,,,,,,,,,,,
1720515213,108,0,4282.179688,4286.282227,4277.179688,4295.641113,4279.743652,4277.563965,4280.512695,4281.153809,4280.641113,4289.743652,4445.897461,4463.461426,4335.641113,4398.589844,0.890604,0.632959,0.456772,0.258192,0.151996,0.421874,0.739803,0.449636,0.149522,0.095348,0.192632,0.113029,0.082535,0.113219,0.115972,0.58059,0.18816,0.122059,0.043507,0.063044,0.154667,0.176544,0.111636,0.106952,0.104331,0.071056,0.213156,0.19182,0.084131,0.061705,0.08755,0.092165,0.108411,0.107612,0.075556,0.140889,0.176349,0.09317,0.086376,0.066079,0.259046,0.118304,0.032906,0.044401,0.074898,1.794691,0.77534,0.336103,0.362685,0.203775,1.242251,0.690522,0.293967,0.334692,0.217316,1.573159,1.49461,0.251504,0.491374,0.325527,1.353987,0.858711,0.17795,0.297923,0.167374,1.831063,1.34689,0.56363,0.302529,0.19541
1720515213,109,0,4286.025879,4294.230957,4279.615234,4296.794922,4283.333496,4278.205078,4283.461426,4281.153809,4284.102539,4293.205078,4451.153809,4473.077148,4341.153809,4405.128418,,,,,,,,,,,,,,,,,,,,,,,,,,,,,,,,,,,,,,,,,,,,,,,,,,,,,,,,,,,,,,,,,,,,,,
1720515213,110,0,4291.666504,4301.922852,4277.307617,4299.615234,4288.717773,4279.871582,4283.846191,4282.179688,4287.820313,4295.256348,4448.974121,4474.615234,4351.538574,4408.846191,,,,,,,,,,,,,,,,,,,,,,,,,,,,,,,,,,,,,,,,,,,,,,,,,,,,,,,,,,,,,,,,,,,,,,
1720515213,111,0,4287.820313,4300.512695,4271.153809,4296.538574,4287.820313,4275.641113,4278.077148,4280.769043,4285.128418,4297.179688,4448.717773,4466.794922,4350.384766,4403.205078,,,,,,,,,,,,,,,,,,,,,,,,,,,,,,,,,,,,,,,,,,,,,,,,,,,,,,,,,,,,,,,,,,,,,,
1720515213,112,0,4282.05127,4292.307617,4268.846191,4293.333496,4286.922852,4273.461426,4273.846191,4273.974121,4280.256348,4293.589844,4450.769043,4460.384766,4345.384766,4397.436035,,,,,,,,,,,,,,,,,,,,,,,,,,,,,,,,,,,,,,,,,,,,,,,,,,,,,,,,,,,,,,,,,,,,,,
1720515213,113,0,4288.846191,4290.641113,4272.436035,4296.282227,4289.102539,4279.358887,4276.922852,4274.743652,4281.794922,4287.94873,4450.256348,4463.846191,4343.846191,4397.692383,,,,,,,,,,,,,,,,,,,,,,,,,,,,,,,,,,,,,,,,,,,,,,,,,,,,,,,,,,,,,,,,,,,,,,
1720515213,114,0,4292.692383,4294.358887,4272.436035,4297.05127,4285.128418,4281.666504,4278.077148,4280.897461,4281.410156,4289.102539,4448.077148,4468.461426,4343.333496,4400.641113,,,,,,,,,,,,,,,,,,,,,,,,,,,,,,,,,,,,,,,,,,,,,,,,,,,,,,,,,,,,,,,,,,,,,,
1720515213,115,0,4287.436035,4292.307617,4270.384766,4296.538574,4283.333496,4279.230957,4273.717773,4277.179688,4276.922852,4287.436035,4447.94873,4465.256348,4341.922852,4401.410156,,,,,,,,,,,,,,,,,,,,,,,,,,,,,,,,,,,,,,,,,,,,,,,,,,,,,,,,,,,,,,,,,,,,,,
1720515213,116,0,4292.563965,4291.025879,4275.897461,4297.820313,4287.692383,4281.410156,4276.794922,4273.717773,4279.358887,4284.230957,4451.794922,4466.922852,4340.128418,4402.692383,,,,,,,,,,,,,,,,,,,,,,,,,,,,,,,,,,,,,,,,,,,,,,,,,,,,,,,,,,,,,,,,,,,,,,
1720515213,117,0,4295.512695,4293.077148,4272.563965,4296.153809,4288.974121,4284.487305,4283.717773,4277.179688,4280.128418,4287.179688,4451.153809,4467.05127,4336.538574,4402.563965,,,,,,,,,,,,,,,,,,,,,,,,,,,,,,,,,,,,,,,,,,,,,,,,,,,,,,,,,,,,,,,,,,,,,,
1720515213,118,0,4283.846191,4291.153809,4264.230957,4297.563965,4287.436035,4281.410156,4283.974121,4279.230957,4276.153809,4282.563965,4440.512695,4458.205078,4326.922852,4395.641113,,,,,,,,,,,,,,,,,,,,,,,,,,,,,,,,,,,,,,,,,,,,,,,,,,,,,,,,,,,,,,,,,,,,,,
1720515213,119,0,4283.205078,4290.897461,4275.128418,4302.05127,4286.922852,4279.358887,4284.102539,4282.94873,4283.077148,4281.794922,4439.743652,4471.538574,4326.025879,4395.641113,,,,,,,,,,,,,,,,,,,,,,,,,,,,,,,,,,,,,,,,,,,,,,,,,,,,,,,,,,,,,,,,,,,,,,
1720515213,120,0,4288.077148,4295,4275,4299.743652,4286.538574,4281.794922,4285,4286.410156,4288.077148,4291.410156,4452.307617,4480.641113,4336.794922,4399.230957,,,,,,,,,,,,,,,,,,,,,,,,,,,,,,,,,,,,,,,,,,,,,,,,,,,,,,,,,,,,,,,,,,,,,,
1720515213,121,0,4285.897461,4293.589844,4266.794922,4295.384766,4284.743652,4282.94873,4281.153809,4284.230957,4281.666504,4291.025879,4451.922852,4465.769043,4340.256348,4400.128418,,,,,,,,,,,,,,,,,,,,,,,,,,,,,,,,,,,,,,,,,,,,,,,,,,,,,,,,,,,,,,,,,,,,,,
1720515213,122,0,4286.282227,4291.153809,4272.05127,4295.641113,4283.589844,4281.153809,4279.230957,4280,4278.333496,4283.717773,4441.410156,4462.179688,4335.641113,4403.589844,,,,,,,,,,,,,,,,,,,,,,,,,,,,,,,,,,,,,,,,,,,,,,,,,,,,,,,,,,,,,,,,,,,,,,
1720515213,123,0,4286.410156,4295.512695,4272.179688,4298.205078,4286.153809,4282.307617,4281.794922,4280.897461,4280.897461,4284.487305,4445.384766,4467.436035,4336.922852,4408.205078,,,,,,,,,,,,,,,,,,,,,,,,,,,,,,,,,,,,,,,,,,,,,,,,,,,,,,,,,,,,,,,,,,,,,,
1720515213,124,0,4291.153809,4295.128418,4271.666504,4301.666504,4287.436035,4284.615234,4284.487305,4286.410156,4283.461426,4293.333496,4456.922852,4472.692383,4342.05127,4414.487305,1.087389,0.50099,0.423413,0.261266,0.148471,0.481969,0.691692,0.393611,0.150167,0.092927,0.216848,0.141354,0.093078,0.111742,0.110108,0.529534,0.223403,0.107336,0.04339,0.061564,0.135569,0.154998,0.105271,0.097872,0.096255,0.068286,0.149106,0.166043,0.081077,0.060892,0.097401,0.099097,0.121956,0.106619,0.071563,0.159593,0.139234,0.099342,0.086291,0.063889,0.22511,0.137207,0.032328,0.056269,0.080377,1.674264,0.768044,0.336649,0.415022,0.21573,1.510945,0.627297,0.292655,0.353613,0.22901,2.086908,1.385814,0.247061,0.495289,0.33644,1.604465,0.829339,0.195993,0.321328,0.179786,2.618305,1.134431,0.524351,0.309123,0.222359
1720515213,125,0,4293.333496,4290.641113,4272.05127,4299.871582,4285.897461,4282.307617,4282.692383,4284.871582,4279.487305,4288.589844,4452.94873,4468.461426,4336.538574,4407.94873,,,,,,,,,,,,,,,,,,,,,,,,,,,,,,,,,,,,,,,,,,,,,,,,,,,,,,,,,,,,,,,,,,,,,,
1720515213,126,0,4287.05127,4289.358887,4269.102539,4297.05127,4285.897461,4278.461426,4275.384766,4273.974121,4273.077148,4271.025879,4440.128418,4455.128418,4327.94873,4393.846191,,,,,,,,,,,,,,,,,,,,,,,,,,,,,,,,,,,,,,,,,,,,,,,,,,,,,,,,,,,,,,,,,,,,,,
1720515213,127,0,4287.05127,4291.153809,4270.256348,4302.05127,4287.179688,4277.436035,4271.922852,4269.487305,4271.410156,4267.820313,4438.077148,4458.077148,4327.179688,4397.563965,,,,,,,,,,,,,,,,,,,,,,,,,,,,,,,,,,,,,,,,,,,,,,,,,,,,,,,,,,,,,,,,,,,,,,
1720515213,0,0,4292.563965,4297.820313,4275.769043,4307.692383,4290.128418,4278.717773,4273.974121,4273.461426,4272.692383,4275.128418,4447.05127,4471.922852,4334.743652,4409.487305,,,,,,,,,,,,,,,,,,,,,,,,,,,,,,,,,,,,,,,,,,,,,,,,,,,,,,,,,,,,,,,,,,,,,,
1720515213,1,0,4292.563965,4300.384766,4275.512695,4307.307617,4292.436035,4278.205078,4274.743652,4276.794922,4274.871582,4276.282227,4453.974121,4472.692383,4338.846191,4409.487305,,,,,,,,,,,,,,,,,,,,,,,,,,,,,,,,,,,,,,,,,,,,,,,,,,,,,,,,,,,,,,,,,,,,,,
1720515213,2,0,4288.333496,4291.794922,4272.307617,4302.436035,4286.153809,4278.205078,4277.820313,4281.410156,4277.94873,4279.615234,4452.94873,4466.538574,4334.358887,4406.153809,,,,,,,,,,,,,,,,,,,,,,,,,,,,,,,,,,,,,,,,,,,,,,,,,,,,,,,,,,,,,,,,,,,,,,
1720515213,3,0,4283.589844,4289.615234,4267.820313,4298.205078,4282.563965,4282.692383,4281.153809,4283.846191,4279.102539,4282.436035,4449.743652,4465.256348,4332.436035,4409.487305,,,,,,,,,,,,,,,,,,,,,,,,,,,,,,,,,,,,,,,,,,,,,,,,,,,,,,,,,,,,,,,,,,,,,,
1720515213,4,0,4283.589844,4297.94873,4267.820313,4300.384766,4291.025879,4285.641113,4279.615234,4281.538574,4277.436035,4272.179688,4453.846191,4467.05127,4335.128418,4411.922852,,,,,,,,,,,,,,,,,,,,,,,,,,,,,,,,,,,,,,,,,,,,,,,,,,,,,,,,,,,,,,,,,,,,,,
1720515213,5,0,4295,4302.563965,4281.153809,4307.436035,4295.128418,4286.282227,4280.512695,4284.871582,4282.820313,4277.436035,4462.563965,4482.692383,4343.846191,4423.205078,,,,,,,,,,,,,,,,,,,,,,,,,,,,,,,,,,,,,,,,,,,,,,,,,,,,,,,,,,,,,,,,,,,,,,
1720515213,6,0,4294.230957,4299.487305,4277.179688,4308.333496,4292.692383,4288.717773,4283.205078,4288.333496,4284.871582,4290.769043,4459.230957,4482.692383,4347.307617,4428.846191,,,,,,,,,,,,,,,,,,,,,,,,,,,,,,,,,,,,,,,,,,,,,,,,,,,,,,,,,,,,,,,,,,,,,,
1720515213,7,0,4281.666504,4292.692383,4264.871582,4300.384766,4291.666504,4290,4283.717773,4284.358887,4278.589844,4279.102539,4447.820313,4464.487305,4337.820313,4415.256348,,,,,,,,,,,,,,,,,,,,,,,,,,,,,,,,,,,,,,,,,,,,,,,,,,,,,,,,,,,,,,,,,,,,,,
1720515213,8,0,4287.94873,4289.871582,4271.538574,4298.077148,4294.743652,4289.102539,4286.025879,4285.128418,4279.102539,4268.717773,4445.128418,4470,4332.820313,4410.641113,,,,,,,,,,,,,,,,,,,,,,,,,,,,,,,,,,,,,,,,,,,,,,,,,,,,,,,,,,,,,,,,,,,,,,
1720515213,9,0,4296.922852,4294.743652,4278.333496,4302.94873,4297.820313,4289.743652,4284.102539,4285.384766,4280.897461,4273.205078,4447.94873,4480.256348,4336.410156,4418.461426,,,,,,,,,,,,,,,,,,,,,,,,,,,,,,,,,,,,,,,,,,,,,,,,,,,,,,,,,,,,,,,,,,,,,,
1720515213,10,0,4293.846191,4294.358887,4278.205078,4302.307617,4293.974121,4286.410156,4275.769043,4278.589844,4275.512695,4274.487305,4450.384766,4474.871582,4335,4418.717773,,,,,,,,,,,,,,,,,,,,,,,,,,,,,,,,,,,,,,,,,,,,,,,,,,,,,,,,,,,,,,,,,,,,,,
1720515213,11,0,4288.461426,4288.205078,4272.436035,4295.256348,4289.487305,4279.487305,4272.820313,4276.282227,4272.307617,4270,4447.436035,4462.94873,4328.589844,4406.282227,,,,,,,,,,,,,,,,,,,,,,,,,,,,,,,,,,,,,,,,,,,,,,,,,,,,,,,,,,,,,,,,,,,,,,
1720515213,12,0,4286.794922,4287.436035,4269.358887,4293.077148,4290.769043,4279.358887,4273.846191,4275.769043,4273.205078,4262.05127,4436.538574,4452.05127,4325.769043,4393.333496,1.28366,0.426899,0.370167,0.248975,0.14265,0.597674,0.665244,0.319028,0.15555,0.090598,0.230629,0.170906,0.106256,0.105254,0.100774,0.496848,0.288092,0.11923,0.048898,0.065026,0.1182,0.155194,0.124244,0.087483,0.089532,0.069336,0.111271,0.138984,0.073952,0.059505,0.110353,0.114979,0.1407,0.099488,0.068775,0.175019,0.116062,0.107955,0.085917,0.063098,0.202401,0.15492,0.036723,0.06824,0.088207,1.679371,0.802093,0.345915,0.449196,0.223552,1.759282,0.630078,0.299769,0.355604,0.241463,2.595051,1.297955,0.262751,0.474503,0.345248,1.800564,0.85323,0.229049,0.327484,0.193408,3.452114,1.030951,0.460119,0.299852,0.244149
1720515213,13,0,4286.410156,4289.358887,4270.384766,4295.897461,4289.615234,4282.05127,4269.358887,4270.641113,4271.666504,4256.410156,4428.333496,4449.230957,4322.563965,4386.922852,,,,,,,,,,,,,,,,,,,,,,,,,,,,,,,,,,,,,,,,,,,,,,,,,,,,,,,,,,,,,,,,,,,,,,
1720515213,14,0,4282.179688,4285.897461,4268.846191,4293.205078,4284.230957,4280,4263.846191,4266.794922,4270.769043,4257.179688,4428.589844,4452.05127,4316.794922,4383.589844,,,,,,,,,,,,,,,,,,,,,,,,,,,,,,,,,,,,,,,,,,,,,,,,,,,,,,,,,,,,,,,,,,,,,,
1720515213,15,0,4278.589844,4278.461426,4266.538574,4285.384766,4282.563965,4277.179688,4262.692383,4268.333496,4272.692383,4257.692383,4432.05127,4451.410156,4317.307617,4383.077148,,,,,,,,,,,,,,,,,,,,,,,,,,,,,,,,,,,,,,,,,,,,,,,,,,,,,,,,,,,,,,,,,,,,,,
1720515213,16,0,4279.871582,4271.922852,4269.230957,4280.769043,4280.128418,4279.102539,4265.769043,4273.077148,4274.487305,4255.384766,4434.743652,4451.794922,4321.153809,4384.615234,,,,,,,,,,,,,,,,,,,,,,,,,,,,,,,,,,,,,,,,,,,,,,,,,,,,,,,,,,,,,,,,,,,,,,
1720515213,17,0,4282.05127,4272.307617,4267.307617,4286.922852,4278.717773,4283.333496,4274.615234,4280.384766,4277.436035,4256.794922,4439.615234,4455.384766,4322.692383,4388.717773,,,,,,,,,,,,,,,,,,,,,,,,,,,,,,,,,,,,,,,,,,,,,,,,,,,,,,,,,,,,,,,,,,,,,,
1720515213,18,0,4280.641113,4281.410156,4264.487305,4295,4285.769043,4287.436035,4282.94873,4283.974121,4279.230957,4260.256348,4447.436035,4456.410156,4326.153809,4394.230957,,,,,,,,,,,,,,,,,,,,,,,,,,,,,,,,,,,,,,,,,,,,,,,,,,,,,,,,,,,,,,,,,,,,,,
1720515213,19,0,4290.384766,4283.077148,4276.666504,4294.743652,4290.641113,4292.563965,4286.282227,4284.102539,4281.538574,4270.897461,4450.128418,4470.897461,4336.410156,4404.102539,,,,,,,,,,,,,,,,,,,,,,,,,,,,,,,,,,,,,,,,,,,,,,,,,,,,,,,,,,,,,,,,,,,,,,
1720515213,20,0,4296.153809,4279.487305,4275,4296.025879,4291.538574,4293.333496,4283.974121,4286.025879,4283.333496,4277.179688,4449.615234,4471.410156,4339.102539,4407.436035,,,,,,,,,,,,,,,,,,,,,,,,,,,,,,,,,,,,,,,,,,,,,,,,,,,,,,,,,,,,,,,,,,,,,,
1720515213,21,0,4283.205078,4282.179688,4266.153809,4299.102539,4291.666504,4289.230957,4279.871582,4283.717773,4278.461426,4262.563965,4445.384766,4451.922852,4328.846191,4399.102539,,,,,,,,,,,,,,,,,,,,,,,,,,,,,,,,,,,,,,,,,,,,,,,,,,,,,,,,,,,,,,,,,,,,,,
1720515213,22,0,4280.128418,4282.94873,4272.436035,4296.025879,4287.436035,4287.05127,4280.256348,4279.615234,4273.846191,4253.589844,4439.102539,4458.461426,4327.307617,4396.922852,,,,,,,,,,,,,,,,,,,,,,,,,,,,,,,,,,,,,,,,,,,,,,,,,,,,,,,,,,,,,,,,,,,,,,
1720515213,23,0,4288.333496,4283.077148,4270.384766,4295.641113,4286.538574,4287.179688,4279.615234,4278.077148,4275,4256.153809,4442.820313,4464.230957,4336.538574,4401.538574,,,,,,,,,,,,,,,,,,,,,,,,,,,,,,,,,,,,,,,,,,,,,,,,,,,,,,,,,,,,,,,,,,,,,,
1720515213,24,0,4298.077148,4290.256348,4269.230957,4304.615234,4290.384766,4288.717773,4276.025879,4277.179688,4277.179688,4254.743652,4451.666504,4458.589844,4342.692383,4406.666504,,,,,,,,,,,,,,,,,,,,,,,,,,,,,,,,,,,,,,,,,,,,,,,,,,,,,,,,,,,,,,,,,,,,,,
1720515213,25,0,4299.615234,4295.512695,4274.871582,4306.666504,4290.769043,4288.461426,4276.922852,4279.487305,4275.897461,4251.922852,4448.846191,4465.512695,4337.820313,4407.307617,,,,,,,,,,,,,,,,,,,,,,,,,,,,,,,,,,,,,,,,,,,,,,,,,,,,,,,,,,,,,,,,,,,,,,
1720515213,26,0,4288.205078,4284.230957,4272.563965,4296.410156,4285.769043,4285.384766,4276.794922,4281.410156,4271.666504,4247.563965,4437.05127,4465.384766,4326.153809,4404.230957,,,,,,,,,,,,,,,,,,,,,,,,,,,,,,,,,,,,,,,,,,,,,,,,,,,,,,,,,,,,,,,,,,,,,,
1720515213,27,0,4285.128418,4273.846191,4270.769043,4293.333496,4282.563965,4286.666504,4276.410156,4280.512695,4273.461426,4248.589844,4439.102539,4462.563965,4325.128418,4408.846191,,,,,,,,,,,,,,,,,,,,,,,,,,,,,,,,,,,,,,,,,,,,,,,,,,,,,,,,,,,,,,,,,,,,,,
1720515214,28,0,4289.487305,4278.974121,4273.717773,4296.794922,4286.538574,4292.05127,4282.307617,4282.179688,4279.743652,4254.230957,4449.871582,4468.077148,4331.538574,4412.307617,1.461623,0.407274,0.305662,0.220572,0.136233,0.773747,0.658347,0.248718,0.163259,0.088678,0.232729,0.194253,0.11701,0.094346,0.09081,0.487844,0.368293,0.164054,0.057928,0.073406,0.102944,0.169381,0.169209,0.078013,0.086053,0.070967,0.095319,0.118072,0.063321,0.05792,0.12266,0.140073,0.161714,0.089735,0.067474,0.182437,0.111781,0.119725,0.085581,0.063152,0.186229,0.173152,0.047641,0.077325,0.09516,1.643684,0.823392,0.348461,0.450483,0.22057,1.92371,0.657723,0.312761,0.344773,0.249765,2.98136,1.200923,0.283099,0.429112,0.353698,1.903462,0.907853,0.278828,0.316034,0.204023,4.162793,0.993722,0.390248,0.277215,0.25455
1720515214,29,0,4286.922852,4282.820313,4272.436035,4296.282227,4292.436035,4292.692383,4287.307617,4286.794922,4280.512695,4254.487305,4448.846191,4465.384766,4330,4405.769043,,,,,,,,,,,,,,,,,,,,,,,,,,,,,,,,,,,,,,,,,,,,,,,,,,,,,,,,,,,,,,,,,,,,,,
1720515214,30,0,4285.512695,4276.153809,4272.94873,4294.358887,4291.025879,4291.282227,4288.205078,4288.974121,4279.358887,4252.692383,4440.641113,4461.410156,4327.563965,4400.128418,,,,,,,,,,,,,,,,,,,,,,,,,,,,,,,,,,,,,,,,,,,,,,,,,,,,,,,,,,,,,,,,,,,,,,
1720515214,31,0,4286.153809,4267.05127,4272.820313,4291.282227,4284.102539,4292.179688,4288.717773,4287.436035,4280.384766,4252.692383,4436.922852,4466.410156,4326.922852,4397.307617,,,,,,,,,,,,,,,,,,,,,,,,,,,,,,,,,,,,,,,,,,,,,,,,,,,,,,,,,,,,,,,,,,,,,,
1720515214,32,0,4278.589844,4268.205078,4268.077148,4289.871582,4285.128418,4290.641113,4286.538574,4284.358887,4278.461426,4248.846191,4436.794922,4460.769043,4318.846191,4394.615234,,,,,,,,,,,,,,,,,,,,,,,,,,,,,,,,,,,,,,,,,,,,,,,,,,,,,,,,,,,,,,,,,,,,,,
1720515214,33,0,4281.025879,4276.025879,4273.974121,4293.846191,4291.410156,4289.487305,4284.615234,4285,4277.05127,4252.563965,4441.025879,4462.94873,4321.794922,4401.282227,,,,,,,,,,,,,,,,,,,,,,,,,,,,,,,,,,,,,,,,,,,,,,,,,,,,,,,,,,,,,,,,,,,,,,
1720515214,34,0,4290.641113,4282.563965,4277.436035,4296.410156,4294.615234,4287.179688,4284.102539,4288.589844,4279.230957,4261.538574,4450.256348,4475.256348,4340.128418,4410.256348,,,,,,,,,,,,,,,,,,,,,,,,,,,,,,,,,,,,,,,,,,,,,,,,,,,,,,,,,,,,,,,,,,,,,,
1720515214,35,0,4289.358887,4282.307617,4273.333496,4294.487305,4292.307617,4281.282227,4280.256348,4286.153809,4280.128418,4259.615234,4449.358887,4470.769043,4346.153809,4411.025879,,,,,,,,,,,,,,,,,,,,,,,,,,,,,,,,,,,,,,,,,,,,,,,,,,,,,,,,,,,,,,,,,,,,,,
1720515214,36,0,4284.487305,4276.025879,4272.820313,4292.307617,4286.922852,4282.563965,4277.563965,4280.384766,4278.589844,4254.102539,4440.769043,4466.153809,4337.692383,4410.128418,,,,,,,,,,,,,,,,,,,,,,,,,,,,,,,,,,,,,,,,,,,,,,,,,,,,,,,,,,,,,,,,,,,,,,
1720515214,37,0,4277.820313,4276.666504,4270.256348,4290.512695,4286.025879,4290.256348,4280,4280.512695,4277.05127,4240.897461,4439.615234,4459.615234,4327.179688,4404.230957,,,,,,,,,,,,,,,,,,,,,,,,,,,,,,,,,,,,,,,,,,,,,,,,,,,,,,,,,,,,,,,,,,,,,,
1720515214,38,0,4275.641113,4281.794922,4270.641113,4290.897461,4289.230957,4290.641113,4282.563965,4283.717773,4276.153809,4226.922852,4438.846191,4454.102539,4323.077148,4399.871582,,,,,,,,,,,,,,,,,,,,,,,,,,,,,,,,,,,,,,,,,,,,,,,,,,,,,,,,,,,,,,,,,,,,,,
1720515214,39,0,4280.641113,4283.717773,4272.820313,4291.794922,4289.871582,4287.692383,4283.589844,4282.820313,4275.384766,4228.846191,4433.846191,4461.410156,4329.358887,4402.820313,,,,,,,,,,,,,,,,,,,,,,,,,,,,,,,,,,,,,,,,,,,,,,,,,,,,,,,,,,,,,,,,,,,,,,
1720515214,40,0,4281.666504,4282.436035,4273.846191,4291.025879,4289.358887,4289.743652,4285.769043,4281.922852,4277.436035,4231.025879,4437.436035,4468.205078,4332.820313,4403.589844,,,,,,,,,,,,,,,,,,,,,,,,,,,,,,,,,,,,,,,,,,,,,,,,,,,,,,,,,,,,,,,,,,,,,,
1720515214,41,0,4280,4283.846191,4272.820313,4294.230957,4289.871582,4291.025879,4285,4282.820313,4278.333496,4225.769043,4445.897461,4468.717773,4330.641113,4405.512695,,,,,,,,,,,,,,,,,,,,,,,,,,,,,,,,,,,,,,,,,,,,,,,,,,,,,,,,,,,,,,,,,,,,,,
1720515214,42,0,4281.153809,4284.871582,4269.743652,4291.666504,4285.897461,4290,4280.256348,4281.153809,4274.358887,4228.461426,4446.410156,4467.307617,4338.589844,4409.358887,,,,,,,,,,,,,,,,,,,,,,,,,,,,,,,,,,,,,,,,,,,,,,,,,,,,,,,,,,,,,,,,,,,,,,
1720515214,43,0,4283.077148,4278.077148,4271.153809,4283.077148,4281.538574,4290.512695,4281.794922,4281.922852,4277.692383,4240.769043,4447.94873,4467.05127,4347.692383,4410.641113,,,,,,,,,,,,,,,,,,,,,,,,,,,,,,,,,,,,,,,,,,,,,,,,,,,,,,,,,,,,,,,,,,,,,,
1720515214,44,0,4281.666504,4273.461426,4274.487305,4283.333496,4286.025879,4290.256348,4283.974121,4286.153809,4286.538574,4246.794922,4448.333496,4464.230957,4340.897461,4408.974121,1.595069,0.418051,0.240376,0.181683,0.131679,0.986519,0.653852,0.200036,0.170252,0.087268,0.227575,0.205454,0.121888,0.081457,0.083996,0.505902,0.444576,0.233869,0.068107,0.084695,0.095229,0.187277,0.229948,0.072092,0.085839,0.074781,0.095551,0.111943,0.051129,0.056355,0.134607,0.182559,0.183296,0.082285,0.067503,0.180692,0.134453,0.134582,0.08573,0.06344,0.168181,0.195859,0.064466,0.081271,0.098793,1.499987,0.818249,0.343392,0.418545,0.207751,1.964335,0.667732,0.328464,0.330026,0.250991,3.160245,1.071882,0.297488,0.36538,0.364102,1.877681,0.95415,0.341755,0.293984,0.209666,4.618701,0.965251,0.331197,0.250409,0.253108
1720515214,45,0,4279.358887,4276.922852,4269.487305,4286.153809,4289.871582,4288.333496,4280.256348,4285,4279.743652,4241.153809,4440.128418,4462.05127,4333.846191,4406.666504,,,,,,,,,,,,,,,,,,,,,,,,,,,,,,,,,,,,,,,,,,,,,,,,,,,,,,,,,,,,,,,,,,,,,,
1720515214,46,0,4280.641113,4284.102539,4265,4286.282227,4289.230957,4289.102539,4282.179688,4282.692383,4273.461426,4234.743652,4439.230957,4462.94873,4339.230957,4409.615234,,,,,,,,,,,,,,,,,,,,,,,,,,,,,,,,,,,,,,,,,,,,,,,,,,,,,,,,,,,,,,,,,,,,,,
1720515214,47,0,4290.256348,4287.179688,4277.436035,4291.282227,4290.256348,4293.333496,4286.794922,4287.05127,4284.871582,4244.871582,4447.820313,4476.153809,4350.512695,4418.717773,,,,,,,,,,,,,,,,,,,,,,,,,,,,,,,,,,,,,,,,,,,,,,,,,,,,,,,,,,,,,,,,,,,,,,
1720515214,48,0,4288.717773,4282.307617,4275.897461,4295.897461,4293.846191,4294.743652,4283.205078,4283.589844,4283.717773,4247.820313,4446.025879,4476.922852,4351.282227,4416.666504,,,,,,,,,,,,,,,,,,,,,,,,,,,,,,,,,,,,,,,,,,,,,,,,,,,,,,,,,,,,,,,,,,,,,,
1720515214,49,0,4276.922852,4277.563965,4264.102539,4293.205078,4295,4290.769043,4277.94873,4272.94873,4268.333496,4227.436035,4437.307617,4453.974121,4337.820313,4405.384766,,,,,,,,,,,,,,,,,,,,,,,,,,,,,,,,,,,,,,,,,,,,,,,,,,,,,,,,,,,,,,,,,,,,,,
1720515214,50,0,4288.333496,4280.384766,4271.922852,4295.128418,4292.820313,4287.820313,4279.102539,4275.128418,4270.897461,4224.358887,4440.897461,4459.358887,4335.641113,4411.410156,,,,,,,,,,,,,,,,,,,,,,,,,,,,,,,,,,,,,,,,,,,,,,,,,,,,,,,,,,,,,,,,,,,,,,
1720515214,51,0,4299.743652,4288.717773,4272.692383,4299.230957,4290.128418,4288.589844,4278.461426,4276.922852,4276.666504,4232.563965,4444.358887,4474.871582,4344.871582,4419.871582,,,,,,,,,,,,,,,,,,,,,,,,,,,,,,,,,,,,,,,,,,,,,,,,,,,,,,,,,,,,,,,,,,,,,,
1720515214,52,0,4295.128418,4290.897461,4267.692383,4296.538574,4287.692383,4288.077148,4274.871582,4269.743652,4271.282227,4228.333496,4445.512695,4471.282227,4345.256348,4419.487305,,,,,,,,,,,,,,,,,,,,,,,,,,,,,,,,,,,,,,,,,,,,,,,,,,,,,,,,,,,,,,,,,,,,,,
1720515214,53,0,4296.538574,4288.333496,4272.05127,4296.538574,4286.666504,4287.692383,4277.563965,4272.820313,4273.589844,4232.563965,4452.563965,4473.077148,4347.05127,4426.153809,,,,,,,,,,,,,,,,,,,,,,,,,,,,,,,,,,,,,,,,,,,,,,,,,,,,,,,,,,,,,,,,,,,,,,
1720515214,54,0,4296.025879,4291.025879,4273.333496,4298.717773,4288.589844,4285.384766,4282.307617,4279.871582,4278.846191,4239.871582,4454.102539,4473.461426,4352.307617,4426.282227,,,,,,,,,,,,,,,,,,,,,,,,,,,,,,,,,,,,,,,,,,,,,,,,,,,,,,,,,,,,,,,,,,,,,,
1720515214,55,0,4290.384766,4290.769043,4273.333496,4296.282227,4288.333496,4280.641113,4283.333496,4278.461426,4278.461426,4235.769043,4448.077148,4465.128418,4347.436035,4411.794922,,,,,,,,,,,,,,,,,,,,,,,,,,,,,,,,,,,,,,,,,,,,,,,,,,,,,,,,,,,,,,,,,,,,,,
1720515214,56,0,4291.153809,4281.025879,4272.436035,4291.666504,4286.153809,4283.589844,4283.846191,4281.538574,4280.512695,4235.128418,4439.615234,4460.256348,4341.153809,4402.307617,,,,,,,,,,,,,,,,,,,,,,,,,,,,,,,,,,,,,,,,,,,,,,,,,,,,,,,,,,,,,,,,,,,,,,
1720515214,57,0,4289.230957,4274.615234,4267.820313,4291.025879,4287.05127,4288.974121,4287.179688,4287.436035,4281.922852,4238.077148,4436.282227,4458.846191,4341.922852,4403.461426,,,,,,,,,,,,,,,,,,,,,,,,,,,,,,,,,,,,,,,,,,,,,,,,,,,,,,,,,,,,,,,,,,,,,,
1720515214,58,0,4283.333496,4280.769043,4271.025879,4294.615234,4289.358887,4290.512695,4289.743652,4285.256348,4278.461426,4235,4440.512695,4460.641113,4344.102539,4402.94873,,,,,,,,,,,,,,,,,,,,,,,,,,,,,,,,,,,,,,,,,,,,,,,,,,,,,,,,,,,,,,,,,,,,,,
1720515214,59,0,4287.820313,4285.512695,4278.461426,4296.153809,4289.102539,4293.333496,4290.128418,4283.461426,4276.025879,4238.461426,4444.230957,4468.974121,4345.128418,4400.897461,,,,,,,,,,,,,,,,,,,,,,,,,,,,,,,,,,,,,,,,,,,,,,,,,,,,,,,,,,,,,,,,,,,,,,
1720515214,60,0,4287.307617,4283.589844,4272.307617,4294.743652,4290.897461,4296.922852,4289.615234,4283.461426,4274.230957,4239.487305,4442.820313,4463.717773,4343.974121,4399.615234,1.651131,0.430211,0.183076,0.141988,0.131409,1.179942,0.63522,0.178199,0.174602,0.087475,0.220207,0.201806,0.119332,0.069341,0.083461,0.537167,0.491653,0.305431,0.077109,0.095974,0.103186,0.203583,0.28623,0.070753,0.087268,0.082723,0.112307,0.121103,0.039887,0.054938,0.153067,0.257602,0.204593,0.080835,0.06806,0.174945,0.195609,0.150072,0.086586,0.063617,0.141453,0.228553,0.084174,0.079058,0.098083,1.271226,0.797334,0.338508,0.363183,0.191874,1.885098,0.652698,0.340693,0.318503,0.246207,3.105224,0.923126,0.302233,0.292217,0.378083,1.751386,0.966084,0.407876,0.271263,0.210751,4.774349,0.92259,0.291976,0.228656,0.244423
1720515214,61,0,4281.666504,4284.615234,4271.922852,4293.974121,4290.897461,4293.461426,4284.102539,4277.179688,4272.820313,4232.307617,4442.307617,4456.922852,4341.282227,4400.384766,,,,,,,,,,,,,,,,,,,,,,,,,,,,,,,,,,,,,,,,,,,,,,,,,,,,,,,,,,,,,,,,,,,,,,
1720515214,62,0,4288.974121,4291.025879,4274.615234,4296.153809,4291.025879,4288.717773,4280.256348,4272.179688,4274.487305,4235,4449.871582,4464.871582,4346.025879,4410.769043,,,,,,,,,,,,,,,,,,,,,,,,,,,,,,,,,,,,,,,,,,,,,,,,,,,,,,,,,,,,,,,,,,,,,,
1720515214,63,0,4297.563965,4294.743652,4270.769043,4298.589844,4295.384766,4290,4283.461426,4275.256348,4274.487305,4241.153809,4453.717773,4470.256348,4352.179688,4420.897461,,,,,,,,,,,,,,,,,,,,,,,,,,,,,,,,,,,,,,,,,,,,,,,,,,,,,,,,,,,,,,,,,,,,,,
1720515214,64,0,4298.461426,4291.794922,4273.717773,4298.717773,4294.102539,4289.743652,4283.846191,4277.563965,4271.922852,4239.743652,4449.615234,4475.769043,4350.769043,4421.282227,,,,,,,,,,,,,,,,,,,,,,,,,,,,,,,,,,,,,,,,,,,,,,,,,,,,,,,,,,,,,,,,,,,,,,
1720515214,65,0,4294.743652,4288.589844,4273.461426,4297.436035,4287.307617,4284.102539,4276.922852,4275.897461,4271.025879,4233.589844,4442.05127,4475.384766,4347.820313,4414.615234,,,,,,,,,,,,,,,,,,,,,,,,,,,,,,,,,,,,,,,,,,,,,,,,,,,,,,,,,,,,,,,,,,,,,,
1720515214,66,0,4291.538574,4287.436035,4270.897461,4296.538574,4285.128418,4280.256348,4276.922852,4278.717773,4274.487305,4230.512695,4443.077148,4470.384766,4344.871582,4410.897461,,,,,,,,,,,,,,,,,,,,,,,,,,,,,,,,,,,,,,,,,,,,,,,,,,,,,,,,,,,,,,,,,,,,,,
1720515214,67,0,4291.282227,4287.692383,4271.282227,4296.922852,4285.641113,4284.871582,4284.871582,4285.256348,4278.205078,4235.512695,4449.743652,4469.871582,4342.436035,4413.077148,,,,,,,,,,,,,,,,,,,,,,,,,,,,,,,,,,,,,,,,,,,,,,,,,,,,,,,,,,,,,,,,,,,,,,
1720515214,68,0,4287.436035,4285.128418,4270.641113,4293.717773,4283.589844,4288.717773,4282.692383,4283.974121,4276.666504,4239.743652,4441.153809,4464.230957,4339.743652,4408.717773,,,,,,,,,,,,,,,,,,,,,,,,,,,,,,,,,,,,,,,,,,,,,,,,,,,,,,,,,,,,,,,,,,,,,,
1720515214,69,0,4282.820313,4280.128418,4269.615234,4289.743652,4285.256348,4286.153809,4277.94873,4280,4274.102539,4236.282227,4429.102539,4459.615234,4339.871582,4400.128418,,,,,,,,,,,,,,,,,,,,,,,,,,,,,,,,,,,,,,,,,,,,,,,,,,,,,,,,,,,,,,,,,,,,,,
1720515214,70,0,4285.897461,4282.05127,4266.794922,4291.666504,4290.256348,4285.512695,4284.615234,4282.563965,4276.025879,4232.692383,4438.846191,4463.461426,4342.692383,4400.512695,,,,,,,,,,,,,,,,,,,,,,,,,,,,,,,,,,,,,,,,,,,,,,,,,,,,,,,,,,,,,,,,,,,,,,
1720515214,71,0,4290,4283.717773,4265.769043,4294.871582,4289.871582,4289.102539,4286.538574,4284.358887,4274.230957,4233.974121,4454.102539,4467.563965,4344.102539,4404.743652,,,,,,,,,,,,,,,,,,,,,,,,,,,,,,,,,,,,,,,,,,,,,,,,,,,,,,,,,,,,,,,,,,,,,,
1720515214,72,0,4284.102539,4278.717773,4271.410156,4294.358887,4285.769043,4291.794922,4280.256348,4280.384766,4268.974121,4233.205078,4449.102539,4467.820313,4342.692383,4399.871582,,,,,,,,,,,,,,,,,,,,,,,,,,,,,,,,,,,,,,,,,,,,,,,,,,,,,,,,,,,,,,,,,,,,,,
1720515214,73,0,4285.256348,4281.153809,4275.384766,4295.384766,4289.871582,4292.94873,4283.333496,4278.717773,4270.256348,4233.461426,4444.487305,4466.538574,4341.153809,4398.077148,,,,,,,,,,,,,,,,,,,,,,,,,,,,,,,,,,,,,,,,,,,,,,,,,,,,,,,,,,,,,,,,,,,,,,
1720515214,74,0,4294.615234,4292.820313,4269.871582,4298.846191,4297.563965,4293.077148,4290.769043,4282.692383,4274.871582,4237.307617,4459.743652,4470.384766,4352.563965,4410.641113,,,,,,,,,,,,,,,,,,,,,,,,,,,,,,,,,,,,,,,,,,,,,,,,,,,,,,,,,,,,,,,,,,,,,,
1720515214,75,0,4294.358887,4291.153809,4274.230957,4296.666504,4292.692383,4289.358887,4290,4285.897461,4277.436035,4240.897461,4467.05127,4486.538574,4366.794922,4420.897461,,,,,,,,,,,,,,,,,,,,,,,,,,,,,,,,,,,,,,,,,,,,,,,,,,,,,,,,,,,,,,,,,,,,,,
1720515214,76,0,4294.230957,4282.307617,4278.461426,4293.589844,4285.897461,4288.333496,4288.205078,4284.615234,4276.666504,4240.769043,4455.256348,4489.102539,4362.179688,4417.94873,1.608787,0.42597,0.141316,0.112451,0.136966,1.297556,0.595706,0.175871,0.177245,0.09136,0.215642,0.184056,0.109914,0.060112,0.08987,0.578095,0.49822,0.353113,0.084066,0.104615,0.126666,0.214656,0.317858,0.073046,0.088341,0.099391,0.148099,0.140797,0.031528,0.053855,0.184901,0.372654,0.224708,0.085901,0.067816,0.174602,0.299356,0.160537,0.087676,0.063684,0.107855,0.274272,0.102287,0.071123,0.093841,0.998941,0.800999,0.342385,0.298889,0.1814,1.732742,0.620976,0.343049,0.3123,0.239084,2.853625,0.782366,0.299532,0.224123,0.394302,1.562778,0.931535,0.460322,0.25705,0.210209,4.664261,0.877214,0.276134,0.218993,0.234211
1720515214,77,0,4296.922852,4285.256348,4270.512695,4295.384766,4289.230957,4292.179688,4288.333496,4283.461426,4272.563965,4231.282227,4447.692383,4468.205078,4346.282227,4409.487305,,,,,,,,,,,,,,,,,,,,,,,,,,,,,,,,,,,,,,,,,,,,,,,,,,,,,,,,,,,,,,,,,,,,,,
1720515214,78,0,4294.102539,4286.922852,4272.05127,4294.871582,4287.692383,4293.461426,4288.205078,4284.102539,4273.846191,4224.358887,4447.820313,4470.641113,4344.871582,4408.846191,,,,,,,,,,,,,,,,,,,,,,,,,,,,,,,,,,,,,,,,,,,,,,,,,,,,,,,,,,,,,,,,,,,,,,
1720515214,79,0,4285.384766,4278.974121,4273.077148,4291.153809,4283.077148,4291.025879,4287.436035,4284.230957,4276.922852,4226.538574,4444.487305,4480.641113,4346.153809,4408.846191,,,,,,,,,,,,,,,,,,,,,,,,,,,,,,,,,,,,,,,,,,,,,,,,,,,,,,,,,,,,,,,,,,,,,,
1720515214,80,0,4284.102539,4274.358887,4271.666504,4291.153809,4286.666504,4290.769043,4288.461426,4285.384766,4274.358887,4229.358887,4446.282227,4470.512695,4338.974121,4400.128418,,,,,,,,,,,,,,,,,,,,,,,,,,,,,,,,,,,,,,,,,,,,,,,,,,,,,,,,,,,,,,,,,,,,,,
1720515214,81,0,4293.077148,4280,4276.922852,4294.615234,4287.94873,4291.794922,4289.743652,4285.769043,4276.025879,4235.512695,4449.871582,4470.128418,4343.077148,4396.794922,,,,,,,,,,,,,,,,,,,,,,,,,,,,,,,,,,,,,,,,,,,,,,,,,,,,,,,,,,,,,,,,,,,,,,
1720515214,82,0,4291.410156,4286.410156,4272.563965,4295.256348,4284.487305,4291.922852,4285.384766,4281.538574,4279.102539,4236.282227,4446.410156,4472.307617,4347.94873,4401.666504,,,,,,,,,,,,,,,,,,,,,,,,,,,,,,,,,,,,,,,,,,,,,,,,,,,,,,,,,,,,,,,,,,,,,,
1720515214,83,0,4291.410156,4287.436035,4270.641113,4294.102539,4283.333496,4292.692383,4282.179688,4280.769043,4275.897461,4234.102539,4449.358887,4472.820313,4345,4407.692383,,,,,,,,,,,,,,,,,,,,,,,,,,,,,,,,,,,,,,,,,,,,,,,,,,,,,,,,,,,,,,,,,,,,,,
1720515214,84,0,4297.820313,4287.436035,4279.615234,4294.615234,4281.153809,4292.563965,4287.307617,4283.717773,4273.589844,4238.461426,4456.922852,4476.922852,4350.128418,4408.974121,,,,,,,,,,,,,,,,,,,,,,,,,,,,,,,,,,,,,,,,,,,,,,,,,,,,,,,,,,,,,,,,,,,,,,
1720515214,85,0,4294.358887,4285.897461,4275.256348,4295.641113,4278.077148,4290.897461,4291.666504,4285.128418,4276.153809,4239.743652,4449.871582,4471.282227,4354.743652,4402.307617,,,,,,,,,,,,,,,,,,,,,,,,,,,,,,,,,,,,,,,,,,,,,,,,,,,,,,,,,,,,,,,,,,,,,,
1720515214,86,0,4292.179688,4284.615234,4270.641113,4295.897461,4280.897461,4290.897461,4289.230957,4283.461426,4275.769043,4235.128418,4442.307617,4469.102539,4345.128418,4398.589844,,,,,,,,,,,,,,,,,,,,,,,,,,,,,,,,,,,,,,,,,,,,,,,,,,,,,,,,,,,,,,,,,,,,,,
1720515214,87,0,4294.743652,4283.589844,4280.512695,4293.333496,4284.102539,4291.794922,4284.743652,4278.205078,4273.461426,4233.205078,4443.589844,4474.102539,4336.794922,4400.512695,,,,,,,,,,,,,,,,,,,,,,,,,,,,,,,,,,,,,,,,,,,,,,,,,,,,,,,,,,,,,,,,,,,,,,
1720515214,88,0,4285.384766,4283.077148,4274.487305,4297.692383,4282.307617,4292.05127,4283.333496,4277.692383,4274.230957,4227.436035,4435.769043,4462.179688,4335.128418,4395.769043,,,,,,,,,,,,,,,,,,,,,,,,,,,,,,,,,,,,,,,,,,,,,,,,,,,,,,,,,,,,,,,,,,,,,,
1720515214,89,0,4281.282227,4285.897461,4265.512695,4307.820313,4282.05127,4294.615234,4286.410156,4284.487305,4277.179688,4226.922852,4433.717773,4458.717773,4338.846191,4397.563965,,,,,,,,,,,,,,,,,,,,,,,,,,,,,,,,,,,,,,,,,,,,,,,,,,,,,,,,,,,,,,,,,,,,,,
1720515214,90,0,4290.897461,4285.897461,4271.282227,4305.769043,4283.205078,4295.512695,4288.461426,4286.025879,4278.333496,4239.487305,4451.153809,4475.512695,4349.102539,4409.871582,,,,,,,,,,,,,,,,,,,,,,,,,,,,,,,,,,,,,,,,,,,,,,,,,,,,,,,,,,,,,,,,,,,,,,
1720515214,91,0,4289.871582,4282.436035,4269.871582,4297.820313,4280.256348,4290.641113,4284.615234,4281.538574,4276.282227,4240.512695,4451.666504,4469.871582,4345.256348,4405.641113,,,,,,,,,,,,,,,,,,,,,,,,,,,,,,,,,,,,,,,,,,,,,,,,,,,,,,,,,,,,,,,,,,,,,,
1720515214,92,0,4291.794922,4281.794922,4267.436035,4303.461426,4274.871582,4286.410156,4281.922852,4281.153809,4276.794922,4240.641113,4435.128418,4465.128418,4336.794922,4396.922852,1.470611,0.41356,0.118414,0.100446,0.148,1.297237,0.55158,0.17881,0.180807,0.100346,0.208577,0.15579,0.095965,0.054209,0.101238,0.624754,0.472247,0.36029,0.089208,0.10888,0.157463,0.221825,0.314281,0.076916,0.08783,0.125765,0.20091,0.167144,0.026974,0.053039,0.229769,0.517903,0.244054,0.09468,0.065826,0.183948,0.437014,0.163933,0.088018,0.063923,0.075316,0.330394,0.115096,0.059684,0.088738,0.729309,0.872996,0.363459,0.241036,0.182403,1.552072,0.590327,0.337484,0.308454,0.233248,2.457978,0.684713,0.290633,0.177114,0.407926,1.367828,0.861312,0.486335,0.258619,0.211896,4.357463,0.879486,0.285686,0.224595,0.226166
1720515214,93,0,4298.205078,4282.820313,4268.461426,4308.974121,4272.307617,4288.589844,4281.153809,4282.179688,4275.512695,4247.563965,4434.615234,4470.769043,4340.256348,4402.05127,,,,,,,,,,,,,,,,,,,,,,,,,,,,,,,,,,,,,,,,,,,,,,,,,,,,,,,,,,,,,,,,,,,,,,
1720515214,94,0,4290.256348,4279.230957,4267.436035,4302.179688,4271.153809,4290.641113,4282.563965,4279.871582,4270,4239.871582,4442.179688,4465.128418,4341.282227,4403.077148,,,,,,,,,,,,,,,,,,,,,,,,,,,,,,,,,,,,,,,,,,,,,,,,,,,,,,,,,,,,,,,,,,,,,,
1720515214,95,0,4288.205078,4277.307617,4271.153809,4304.102539,4270.641113,4288.589844,4287.563965,4279.615234,4271.282227,4234.743652,4445.384766,4467.563965,4339.102539,4402.692383,,,,,,,,,,,,,,,,,,,,,,,,,,,,,,,,,,,,,,,,,,,,,,,,,,,,,,,,,,,,,,,,,,,,,,
1720515214,96,0,4294.102539,4276.794922,4273.333496,4308.846191,4271.025879,4288.333496,4286.794922,4279.615234,4274.102539,4240.641113,4442.05127,4469.102539,4338.846191,4402.692383,,,,,,,,,,,,,,,,,,,,,,,,,,,,,,,,,,,,,,,,,,,,,,,,,,,,,,,,,,,,,,,,,,,,,,
1720515214,97,0,4286.666504,4271.410156,4269.615234,4300.256348,4266.538574,4289.871582,4278.974121,4278.589844,4269.358887,4235,4426.922852,4459.871582,4328.974121,4389.487305,,,,,,,,,,,,,,,,,,,,,,,,,,,,,,,,,,,,,,,,,,,,,,,,,,,,,,,,,,,,,,,,,,,,,,
1720515214,98,0,4280.897461,4273.205078,4269.871582,4299.230957,4267.307617,4292.179688,4282.820313,4280.384766,4269.102539,4228.461426,4424.615234,4463.333496,4326.794922,4386.025879,,,,,,,,,,,,,,,,,,,,,,,,,,,,,,,,,,,,,,,,,,,,,,,,,,,,,,,,,,,,,,,,,,,,,,
1720515214,99,0,4288.461426,4283.717773,4271.538574,4308.717773,4274.358887,4294.102539,4289.487305,4282.820313,4275.641113,4238.974121,4443.589844,4476.153809,4343.717773,4401.153809,,,,,,,,,,,,,,,,,,,,,,,,,,,,,,,,,,,,,,,,,,,,,,,,,,,,,,,,,,,,,,,,,,,,,,
1720515214,100,0,4290.128418,4285.769043,4270.128418,4309.358887,4274.615234,4293.846191,4283.461426,4283.589844,4273.974121,4245.512695,4449.230957,4471.666504,4346.922852,4403.333496,,,,,,,,,,,,,,,,,,,,,,,,,,,,,,,,,,,,,,,,,,,,,,,,,,,,,,,,,,,,,,,,,,,,,,
1720515214,101,0,4287.179688,4284.102539,4274.871582,4308.717773,4273.205078,4291.410156,4282.563965,4283.717773,4271.410156,4243.333496,4439.615234,4466.794922,4341.410156,4397.05127,,,,,,,,,,,,,,,,,,,,,,,,,,,,,,,,,,,,,,,,,,,,,,,,,,,,,,,,,,,,,,,,,,,,,,
1720515214,102,0,4286.410156,4286.666504,4275.897461,4309.358887,4275.256348,4288.846191,4286.666504,4282.563965,4272.820313,4243.974121,4438.974121,4467.563965,4343.589844,4396.666504,,,,,,,,,,,,,,,,,,,,,,,,,,,,,,,,,,,,,,,,,,,,,,,,,,,,,,,,,,,,,,,,,,,,,,
1720515214,103,0,4290.512695,4282.820313,4276.922852,4302.563965,4272.94873,4289.230957,4284.102539,4283.589844,4275.128418,4247.436035,4446.025879,4471.666504,4340.256348,4400.769043,,,,,,,,,,,,,,,,,,,,,,,,,,,,,,,,,,,,,,,,,,,,,,,,,,,,,,,,,,,,,,,,,,,,,,
1720515214,104,0,4297.307617,4277.820313,4280.641113,4300,4268.974121,4290.641113,4285.769043,4288.589844,4278.589844,4259.230957,4454.230957,4485.512695,4342.436035,4408.846191,,,,,,,,,,,,,,,,,,,,,,,,,,,,,,,,,,,,,,,,,,,,,,,,,,,,,,,,,,,,,,,,,,,,,,
1720515214,105,0,4292.179688,4283.717773,4272.94873,4305.256348,4270.769043,4291.410156,4290.128418,4286.794922,4276.538574,4264.230957,4454.871582,4479.615234,4351.666504,4408.333496,,,,,,,,,,,,,,,,,,,,,,,,,,,,,,,,,,,,,,,,,,,,,,,,,,,,,,,,,,,,,,,,,,,,,,
1720515214,106,0,4285.256348,4283.333496,4269.615234,4305.512695,4270.256348,4289.871582,4286.794922,4280.897461,4272.94873,4255.897461,4444.871582,4466.538574,4346.922852,4398.846191,,,,,,,,,,,,,,,,,,,,,,,,,,,,,,,,,,,,,,,,,,,,,,,,,,,,,,,,,,,,,,,,,,,,,,
1720515214,107,0,4289.743652,4278.461426,4274.487305,4305.897461,4270.769043,4292.05127,4283.589844,4282.179688,4272.436035,4251.794922,4440.128418,4469.487305,4341.025879,4398.461426,,,,,,,,,,,,,,,,,,,,,,,,,,,,,,,,,,,,,,,,,,,,,,,,,,,,,,,,,,,,,,,,,,,,,,
1720515214,108,0,4289.615234,4283.077148,4275.512695,4309.358887,4277.692383,4295.256348,4287.307617,4285.128418,4271.666504,4257.436035,4440.769043,4475.256348,4343.717773,4398.974121,1.271001,0.407241,0.119208,0.106352,0.161259,1.184748,0.52602,0.177114,0.186826,0.113849,0.197857,0.122566,0.08069,0.050611,0.113695,0.670413,0.433269,0.323821,0.093185,0.108389,0.185188,0.231371,0.279202,0.080326,0.085735,0.158852,0.262086,0.19517,0.025991,0.05221,0.281436,0.664384,0.262471,0.102964,0.062352,0.201206,0.586393,0.164293,0.086404,0.064502,0.050907,0.387536,0.120865,0.047912,0.085537,0.522734,1.025535,0.40402,0.201697,0.19437,1.381562,0.574016,0.342728,0.304169,0.23182,2.00985,0.648386,0.282216,0.162394,0.411559,1.198555,0.78251,0.490578,0.279009,0.21725,3.947042,0.964156,0.329679,0.242489,0.219883
1720515214,109,0,4286.025879,4284.871582,4276.410156,4307.820313,4277.820313,4294.487305,4288.717773,4285.512695,4273.205078,4265.512695,4441.153809,4479.102539,4342.179688,4394.743652,,,,,,,,,,,,,,,,,,,,,,,,,,,,,,,,,,,,,,,,,,,,,,,,,,,,,,,,,,,,,,,,,,,,,,
1720515214,110,0,4290.256348,4283.077148,4274.487305,4306.794922,4274.743652,4295.128418,4285.384766,4285.128418,4276.025879,4264.230957,4446.922852,4475.256348,4339.358887,4396.794922,,,,,,,,,,,,,,,,,,,,,,,,,,,,,,,,,,,,,,,,,,,,,,,,,,,,,,,,,,,,,,,,,,,,,,
1720515214,111,0,4294.102539,4286.666504,4273.717773,4308.846191,4275.384766,4296.282227,4282.820313,4282.563965,4275.128418,4255.641113,4447.307617,4472.436035,4340.512695,4400.384766,,,,,,,,,,,,,,,,,,,,,,,,,,,,,,,,,,,,,,,,,,,,,,,,,,,,,,,,,,,,,,,,,,,,,,
1720515214,112,0,4297.436035,4289.230957,4276.410156,4309.487305,4276.282227,4298.846191,4283.589844,4282.94873,4272.563965,4254.487305,4443.589844,4482.436035,4342.563965,4403.333496,,,,,,,,,,,,,,,,,,,,,,,,,,,,,,,,,,,,,,,,,,,,,,,,,,,,,,,,,,,,,,,,,,,,,,
1720515214,113,0,4299.230957,4291.666504,4274.102539,4310.641113,4276.922852,4298.717773,4285.769043,4287.179688,4273.461426,4261.153809,4446.410156,4486.025879,4346.794922,4407.179688,,,,,,,,,,,,,,,,,,,,,,,,,,,,,,,,,,,,,,,,,,,,,,,,,,,,,,,,,,,,,,,,,,,,,,
1720515214,114,0,4296.922852,4293.461426,4273.589844,4311.538574,4278.589844,4296.025879,4287.820313,4287.179688,4273.974121,4263.717773,4450.384766,4478.461426,4349.487305,4408.461426,,,,,,,,,,,,,,,,,,,,,,,,,,,,,,,,,,,,,,,,,,,,,,,,,,,,,,,,,,,,,,,,,,,,,,
1720515214,115,0,4301.794922,4290.641113,4279.487305,4307.692383,4278.077148,4295.769043,4288.589844,4285.256348,4274.230957,4262.05127,4445.384766,4485.897461,4347.05127,4408.333496,,,,,,,,,,,,,,,,,,,,,,,,,,,,,,,,,,,,,,,,,,,,,,,,,,,,,,,,,,,,,,,,,,,,,,
1720515214,116,0,4299.230957,4288.205078,4272.307617,4302.307617,4274.743652,4295.384766,4282.179688,4282.94873,4271.153809,4254.743652,4436.410156,4482.563965,4337.820313,4397.94873,,,,,,,,,,,,,,,,,,,,,,,,,,,,,,,,,,,,,,,,,,,,,,,,,,,,,,,,,,,,,,,,,,,,,,
1720515214,117,0,4287.94873,4288.205078,4266.666504,4303.974121,4274.615234,4296.025879,4279.615234,4278.333496,4269.487305,4246.153809,4435.769043,4466.282227,4330,4387.05127,,,,,,,,,,,,,,,,,,,,,,,,,,,,,,,,,,,,,,,,,,,,,,,,,,,,,,,,,,,,,,,,,,,,,,
1720515214,118,0,4289.871582,4290,4276.282227,4308.717773,4276.922852,4298.974121,4286.153809,4280,4278.846191,4255.769043,4444.358887,4479.615234,4341.025879,4396.794922,,,,,,,,,,,,,,,,,,,,,,,,,,,,,,,,,,,,,,,,,,,,,,,,,,,,,,,,,,,,,,,,,,,,,,
1720515214,119,0,4293.077148,4293.974121,4277.179688,4309.230957,4276.922852,4299.487305,4284.871582,4283.846191,4281.025879,4257.692383,4443.974121,4486.153809,4349.487305,4405.128418,,,,,,,,,,,,,,,,,,,,,,,,,,,,,,,,,,,,,,,,,,,,,,,,,,,,,,,,,,,,,,,,,,,,,,
1720515214,120,0,4291.153809,4292.436035,4275,4307.436035,4273.846191,4294.358887,4278.333496,4280.641113,4271.922852,4244.102539,4432.563965,4468.461426,4335.384766,4391.794922,,,,,,,,,,,,,,,,,,,,,,,,,,,,,,,,,,,,,,,,,,,,,,,,,,,,,,,,,,,,,,,,,,,,,,
1720515214,121,0,4294.102539,4292.307617,4276.666504,4308.846191,4273.205078,4292.94873,4277.94873,4279.358887,4272.307617,4245.512695,4434.230957,4468.077148,4332.179688,4387.05127,,,,,,,,,,,,,,,,,,,,,,,,,,,,,,,,,,,,,,,,,,,,,,,,,,,,,,,,,,,,,,,,,,,,,,
1720515214,122,0,4298.974121,4301.922852,4275.641113,4310.384766,4276.794922,4293.717773,4277.820313,4281.794922,4276.538574,4251.282227,4439.871582,4476.794922,4343.846191,4398.461426,,,,,,,,,,,,,,,,,,,,,,,,,,,,,,,,,,,,,,,,,,,,,,,,,,,,,,,,,,,,,,,,,,,,,,
1720515214,123,0,4300.128418,4304.487305,4273.333496,4309.102539,4275.384766,4289.102539,4274.743652,4280.897461,4273.077148,4243.077148,4436.666504,4471.666504,4344.358887,4401.538574,,,,,,,,,,,,,,,,,,,,,,,,,,,,,,,,,,,,,,,,,,,,,,,,,,,,,,,,,,,,,,,,,,,,,,
1720515214,124,0,4295.256348,4296.538574,4269.615234,4309.230957,4270.256348,4285.897461,4273.589844,4282.179688,4271.666504,4234.615234,4437.692383,4465.769043,4343.077148,4396.666504,1.052735,0.413007,0.148043,0.124121,0.172411,0.997153,0.528955,0.170807,0.194426,0.128845,0.182195,0.091343,0.066562,0.047885,0.123168,0.701523,0.397231,0.257608,0.095788,0.104059,0.198046,0.248503,0.226883,0.081704,0.08268,0.189836,0.317129,0.219319,0.027703,0.051127,0.32683,0.772149,0.276623,0.106773,0.058836,0.215457,0.713426,0.166914,0.081489,0.065246,0.038583,0.431567,0.119929,0.038851,0.085306,0.381177,1.217886,0.460291,0.184547,0.210615,1.221823,0.572985,0.380979,0.296919,0.237066,1.578715,0.656925,0.285513,0.181514,0.400117,1.067485,0.714505,0.491292,0.314046,0.224694,3.47376,1.117646,0.413486,0.265598,0.212706
1720515214,125,0,4294.230957,4293.846191,4271.025879,4310.384766,4271.794922,4286.794922,4274.358887,4281.922852,4272.692383,4237.436035,4442.436035,4472.179688,4349.358887,4397.179688,,,,,,,,,,,,,,,,,,,,,,,,,,,,,,,,,,,,,,,,,,,,,,,,,,,,,,,,,,,,,,,,,,,,,,
1720515214,126,0,4297.563965,4299.102539,4275.641113,4311.282227,4277.820313,4289.358887,4274.871582,4277.820313,4270.512695,4239.487305,4443.205078,4478.077148,4346.538574,4400.512695,,,,,,,,,,,,,,,,,,,,,,,,,,,,,,,,,,,,,,,,,,,,,,,,,,,,,,,,,,,,,,,,,,,,,,
1720515214,127,0,4293.974121,4297.94873,4274.743652,4310.384766,4275.384766,4288.333496,4275.512695,4277.307617,4268.333496,4235.128418,4436.538574,4476.025879,4336.282227,4395.512695,,,,,,,,,,,,,,,,,,,,,,,,,,,,,,,,,,,,,,,,,,,,,,,,,,,,,,,,,,,,,,,,,,,,,,
1720515214,0,0,4289.230957,4288.461426,4269.358887,4308.717773,4268.974121,4287.692383,4278.589844,4276.794922,4266.153809,4229.358887,4426.153809,4471.025879,4332.820313,4386.025879,,,,,,,,,,,,,,,,,,,,,,,,,,,,,,,,,,,,,,,,,,,,,,,,,,,,,,,,,,,,,,,,,,,,,,
1720515214,1,0,4293.974121,4290.256348,4268.333496,4308.974121,4273.589844,4293.589844,4284.230957,4276.153809,4267.692383,4231.538574,4427.692383,4471.282227,4337.179688,4385.897461,,,,,,,,,,,,,,,,,,,,,,,,,,,,,,,,,,,,,,,,,,,,,,,,,,,,,,,,,,,,,,,,,,,,,,
1720515214,2,0,4299.615234,4300,4271.410156,4313.077148,4282.692383,4295.512695,4283.461426,4278.589844,4271.025879,4239.487305,4437.820313,4473.333496,4344.743652,4393.846191,,,,,,,,,,,,,,,,,,,,,,,,,,,,,,,,,,,,,,,,,,,,,,,,,,,,,,,,,,,,,,,,,,,,,,
1720515214,3,0,4297.05127,4296.282227,4275.897461,4313.333496,4280.256348,4290.897461,4277.436035,4277.94873,4271.153809,4233.461426,4435.897461,4470.641113,4341.025879,4394.615234,,,,,,,,,,,,,,,,,,,,,,,,,,,,,,,,,,,,,,,,,,,,,,,,,,,,,,,,,,,,,,,,,,,,,,
1720515214,4,0,4293.974121,4290,4278.077148,4308.974121,4273.461426,4288.974121,4276.282227,4276.153809,4269.743652,4218.974121,4429.230957,4468.974121,4328.974121,4389.230957,,,,,,,,,,,,,,,,,,,,,,,,,,,,,,,,,,,,,,,,,,,,,,,,,,,,,,,,,,,,,,,,,,,,,,
1720515214,5,0,4293.077148,4296.794922,4271.666504,4307.563965,4276.025879,4291.794922,4277.94873,4279.102539,4269.230957,4213.077148,4435.897461,4470.384766,4330.769043,4393.333496,,,,,,,,,,,,,,,,,,,,,,,,,,,,,,,,,,,,,,,,,,,,,,,,,,,,,,,,,,,,,,,,,,,,,,
1720515214,6,0,4304.102539,4301.794922,4277.05127,4310.128418,4280.897461,4292.05127,4280.512695,4287.563965,4274.230957,4228.974121,4452.94873,4491.794922,4344.871582,4410.512695,,,,,,,,,,,,,,,,,,,,,,,,,,,,,,,,,,,,,,,,,,,,,,,,,,,,,,,,,,,,,,,,,,,,,,
1720515214,7,0,4313.974121,4300.128418,4283.846191,4313.205078,4282.05127,4288.205078,4281.794922,4286.794922,4275.641113,4243.461426,4454.743652,4502.692383,4348.589844,4416.025879,,,,,,,,,,,,,,,,,,,,,,,,,,,,,,,,,,,,,,,,,,,,,,,,,,,,,,,,,,,,,,,,,,,,,,
1720515214,8,0,4298.077148,4297.692383,4275.128418,4312.179688,4280.897461,4282.820313,4276.794922,4276.922852,4268.717773,4227.05127,4436.922852,4476.410156,4339.743652,4401.410156,,,,,,,,,,,,,,,,,,,,,,,,,,,,,,,,,,,,,,,,,,,,,,,,,,,,,,,,,,,,,,,,,,,,,,
1720515214,9,0,4288.461426,4290.641113,4272.436035,4310.512695,4273.717773,4280.512695,4275.897461,4277.692383,4269.615234,4222.05127,4430.769043,4472.05127,4341.025879,4393.846191,,,,,,,,,,,,,,,,,,,,,,,,,,,,,,,,,,,,,,,,,,,,,,,,,,,,,,,,,,,,,,,,,,,,,,
1720515214,10,0,4293.974121,4287.94873,4273.589844,4308.846191,4269.102539,4281.410156,4279.871582,4280.641113,4272.820313,4240.512695,4437.436035,4484.358887,4341.922852,4391.794922,,,,,,,,,,,,,,,,,,,,,,,,,,,,,,,,,,,,,,,,,,,,,,,,,,,,,,,,,,,,,,,,,,,,,,
1720515214,11,0,4290.128418,4286.922852,4270.128418,4302.179688,4272.692383,4281.538574,4278.974121,4277.05127,4269.358887,4237.94873,4435.769043,4475.512695,4333.077148,4384.358887,,,,,,,,,,,,,,,,,,,,,,,,,,,,,,,,,,,,,,,,,,,,,,,,,,,,,,,,,,,,,,,,,,,,,,
1720515214,12,0,4284.871582,4279.487305,4272.307617,4296.922852,4274.615234,4285.512695,4277.179688,4277.307617,4267.820313,4223.461426,4434.871582,4473.589844,4330.512695,4383.846191,0.850574,0.425279,0.206822,0.143456,0.17821,0.778013,0.554212,0.167731,0.200844,0.14071,0.166552,0.068581,0.05563,0.044894,0.126799,0.697634,0.369625,0.184751,0.096608,0.097408,0.190545,0.274024,0.175611,0.08031,0.07931,0.209916,0.351514,0.233577,0.030757,0.049806,0.357503,0.807578,0.280539,0.103347,0.057461,0.217308,0.784496,0.173096,0.072781,0.065908,0.03618,0.448906,0.11375,0.034142,0.086983,0.30667,1.373072,0.521749,0.185849,0.223231,1.063369,0.577579,0.463533,0.28565,0.250777,1.204083,0.678913,0.307227,0.222442,0.375395,0.95504,0.659305,0.509465,0.3541,0.23163,2.935027,1.287138,0.531199,0.2858,0.203753
1720515214,13,0,4283.974121,4277.692383,4272.563965,4297.05127,4272.179688,4288.717773,4279.871582,4279.743652,4267.05127,4222.563965,4441.922852,4478.846191,4333.333496,4385.256348,,,,,,,,,,,,,,,,,,,,,,,,,,,,,,,,,,,,,,,,,,,,,,,,,,,,,,,,,,,,,,,,,,,,,,
1720515214,14,0,4280.769043,4285,4265.384766,4297.563965,4273.717773,4285,4281.922852,4280.897461,4267.94873,4218.205078,4439.871582,4471.794922,4331.025879,4383.333496,,,,,,,,,,,,,,,,,,,,,,,,,,,,,,,,,,,,,,,,,,,,,,,,,,,,,,,,,,,,,,,,,,,,,,
1720515214,15,0,4282.05127,4285.384766,4268.589844,4297.436035,4275,4281.410156,4281.282227,4282.563965,4271.153809,4214.743652,4435.512695,4474.871582,4329.230957,4389.102539,,,,,,,,,,,,,,,,,,,,,,,,,,,,,,,,,,,,,,,,,,,,,,,,,,,,,,,,,,,,,,,,,,,,,,
1720515214,16,0,4285.128418,4278.077148,4271.922852,4296.794922,4269.358887,4279.487305,4279.487305,4280.384766,4271.025879,4218.974121,4438.589844,4482.05127,4332.307617,4393.717773,,,,,,,,,,,,,,,,,,,,,,,,,,,,,,,,,,,,,,,,,,,,,,,,,,,,,,,,,,,,,,,,,,,,,,
1720515214,17,0,4282.820313,4280.128418,4266.153809,4295.897461,4267.307617,4280,4276.410156,4276.025879,4269.230957,4213.333496,4439.487305,4471.282227,4335.512695,4391.666504,,,,,,,,,,,,,,,,,,,,,,,,,,,,,,,,,,,,,,,,,,,,,,,,,,,,,,,,,,,,,,,,,,,,,,
1720515214,18,0,4285.384766,4285.384766,4266.922852,4297.05127,4272.94873,4280.256348,4275.897461,4280.897461,4272.563965,4210.384766,4437.05127,4468.333496,4340.256348,4395.641113,,,,,,,,,,,,,,,,,,,,,,,,,,,,,,,,,,,,,,,,,,,,,,,,,,,,,,,,,,,,,,,,,,,,,,
1720515214,19,0,4282.179688,4281.282227,4266.922852,4293.974121,4272.692383,4276.153809,4276.025879,4283.333496,4273.333496,4214.743652,4430.897461,4467.94873,4338.461426,4392.307617,,,,,,,,,,,,,,,,,,,,,,,,,,,,,,,,,,,,,,,,,,,,,,,,,,,,,,,,,,,,,,,,,,,,,,
1720515214,20,0,4274.743652,4273.589844,4265,4289.358887,4264.487305,4274.743652,4273.077148,4277.436035,4269.102539,4205.769043,4425,4462.307617,4328.589844,4379.230957,,,,,,,,,,,,,,,,,,,,,,,,,,,,,,,,,,,,,,,,,,,,,,,,,,,,,,,,,,,,,,,,,,,,,,
1720515214,21,0,4282.05127,4272.563965,4267.05127,4292.820313,4264.615234,4279.358887,4271.410156,4277.820313,4269.487305,4196.410156,4426.922852,4466.538574,4327.820313,4382.05127,,,,,,,,,,,,,,,,,,,,,,,,,,,,,,,,,,,,,,,,,,,,,,,,,,,,,,,,,,,,,,,,,,,,,,
1720515214,22,0,4292.692383,4278.589844,4271.153809,4295.769043,4270.897461,4279.358887,4272.94873,4279.743652,4271.410156,4199.871582,4438.461426,4472.05127,4334.358887,4397.307617,,,,,,,,,,,,,,,,,,,,,,,,,,,,,,,,,,,,,,,,,,,,,,,,,,,,,,,,,,,,,,,,,,,,,,
1720515214,23,0,4294.358887,4283.589844,4272.307617,4293.205078,4269.358887,4276.025879,4273.846191,4276.538574,4270.128418,4200.512695,4443.974121,4475.769043,4334.615234,4401.153809,,,,,,,,,,,,,,,,,,,,,,,,,,,,,,,,,,,,,,,,,,,,,,,,,,,,,,,,,,,,,,,,,,,,,,
1720515214,24,0,4291.538574,4282.94873,4268.333496,4291.794922,4268.589844,4277.179688,4274.358887,4277.05127,4266.538574,4192.94873,4437.820313,4477.436035,4329.358887,4394.487305,,,,,,,,,,,,,,,,,,,,,,,,,,,,,,,,,,,,,,,,,,,,,,,,,,,,,,,,,,,,,,,,,,,,,,
1720515214,25,0,4293.589844,4283.717773,4269.358887,4293.589844,4272.436035,4279.358887,4276.794922,4277.820313,4263.846191,4193.589844,4435.512695,4475,4329.487305,4393.717773,,,,,,,,,,,,,,,,,,,,,,,,,,,,,,,,,,,,,,,,,,,,,,,,,,,,,,,,,,,,,,,,,,,,,,
1720515214,26,0,4295.769043,4283.205078,4271.538574,4295.641113,4273.589844,4278.205078,4276.282227,4273.205078,4265.641113,4200.769043,4433.589844,4467.179688,4327.563965,4393.461426,,,,,,,,,,,,,,,,,,,,,,,,,,,,,,,,,,,,,,,,,,,,,,,,,,,,,,,,,,,,,,,,,,,,,,
1720515214,27,0,4292.820313,4276.153809,4270.512695,4295.384766,4272.179688,4276.922852,4271.666504,4273.333496,4270.256348,4205,4430.641113,4466.153809,4321.666504,4388.333496,,,,,,,,,,,,,,,,,,,,,,,,,,,,,,,,,,,,,,,,,,,,,,,,,,,,,,,,,,,,,,,,,,,,,,
1720515215,28,0,4292.563965,4274.615234,4272.179688,4294.358887,4274.102539,4280.512695,4271.922852,4280.128418,4273.205078,4210.384766,4440,4477.436035,4327.820313,4390.384766,0.680519,0.429235,0.290079,0.154698,0.177013,0.575009,0.582352,0.176086,0.202376,0.145596,0.155506,0.056478,0.048524,0.042406,0.123777,0.648917,0.346931,0.126184,0.095749,0.08989,0.168848,0.300435,0.138959,0.076428,0.07605,0.215302,0.355212,0.232984,0.034173,0.048352,0.365574,0.756554,0.266875,0.092463,0.060005,0.201775,0.780193,0.179007,0.060952,0.066263,0.04028,0.432531,0.104187,0.033507,0.088429,0.269992,1.416978,0.575513,0.195583,0.228281,0.89769,0.568952,0.582986,0.270281,0.273689,0.903364,0.683482,0.341616,0.26454,0.345184,0.836186,0.604159,0.553236,0.387205,0.236936,2.322438,1.404004,0.661874,0.296276,0.195652
1720515215,29,0,4296.794922,4282.05127,4274.102539,4294.743652,4278.717773,4287.179688,4281.410156,4285.897461,4274.102539,4216.538574,4450.512695,4485.128418,4336.794922,4396.282227,,,,,,,,,,,,,,,,,,,,,,,,,,,,,,,,,,,,,,,,,,,,,,,,,,,,,,,,,,,,,,,,,,,,,,
1720515215,30,0,4296.282227,4281.025879,4268.846191,4295,4281.025879,4287.307617,4284.230957,4287.692383,4276.410156,4215.256348,4442.692383,4477.94873,4332.94873,4391.153809,,,,,,,,,,,,,,,,,,,,,,,,,,,,,,,,,,,,,,,,,,,,,,,,,,,,,,,,,,,,,,,,,,,,,,
1720515215,31,0,4291.153809,4275.641113,4266.794922,4292.820313,4278.461426,4282.307617,4279.743652,4285.512695,4276.794922,4211.282227,4432.436035,4472.692383,4328.846191,4384.743652,,,,,,,,,,,,,,,,,,,,,,,,,,,,,,,,,,,,,,,,,,,,,,,,,,,,,,,,,,,,,,,,,,,,,,
1720515215,32,0,4295.769043,4277.94873,4273.077148,4293.974121,4277.563965,4282.307617,4286.410156,4285.641113,4275.641113,4215.256348,4440.897461,4482.820313,4332.436035,4389.615234,,,,,,,,,,,,,,,,,,,,,,,,,,,,,,,,,,,,,,,,,,,,,,,,,,,,,,,,,,,,,,,,,,,,,,
1720515215,33,0,4296.666504,4284.230957,4268.461426,4296.794922,4283.461426,4283.846191,4290.384766,4282.820313,4272.94873,4213.974121,4450,4477.179688,4334.102539,4391.538574,,,,,,,,,,,,,,,,,,,,,,,,,,,,,,,,,,,,,,,,,,,,,,,,,,,,,,,,,,,,,,,,,,,,,,
1720515215,34,0,4292.05127,4288.205078,4266.666504,4294.230957,4281.922852,4282.563965,4283.205078,4279.230957,4273.077148,4211.153809,4445.128418,4470,4332.563965,4388.717773,,,,,,,,,,,,,,,,,,,,,,,,,,,,,,,,,,,,,,,,,,,,,,,,,,,,,,,,,,,,,,,,,,,,,,
1720515215,35,0,4300.512695,4288.589844,4272.94873,4298.077148,4272.563965,4283.589844,4282.05127,4282.179688,4278.974121,4220.384766,4445.897461,4484.358887,4337.94873,4392.820313,,,,,,,,,,,,,,,,,,,,,,,,,,,,,,,,,,,,,,,,,,,,,,,,,,,,,,,,,,,,,,,,,,,,,,
1720515215,36,0,4304.230957,4286.025879,4270.512695,4302.692383,4275.256348,4283.589844,4285.384766,4280.897461,4277.307617,4217.179688,4450.897461,4485.769043,4339.358887,4394.615234,,,,,,,,,,,,,,,,,,,,,,,,,,,,,,,,,,,,,,,,,,,,,,,,,,,,,,,,,,,,,,,,,,,,,,
1720515215,37,0,4304.358887,4286.666504,4275,4300.512695,4281.025879,4283.717773,4283.077148,4278.974121,4273.589844,4208.205078,4446.282227,4484.358887,4336.153809,4396.025879,,,,,,,,,,,,,,,,,,,,,,,,,,,,,,,,,,,,,,,,,,,,,,,,,,,,,,,,,,,,,,,,,,,,,,
1720515215,38,0,4307.692383,4288.717773,4279.615234,4301.794922,4277.692383,4282.820313,4278.077148,4280.256348,4276.538574,4214.358887,4444.871582,4488.717773,4338.846191,4397.94873,,,,,,,,,,,,,,,,,,,,,,,,,,,,,,,,,,,,,,,,,,,,,,,,,,,,,,,,,,,,,,,,,,,,,,
1720515215,39,0,4304.487305,4286.410156,4270.769043,4304.487305,4273.846191,4277.563965,4278.333496,4277.820313,4278.589844,4218.205078,4449.358887,4480.769043,4340.256348,4397.563965,,,,,,,,,,,,,,,,,,,,,,,,,,,,,,,,,,,,,,,,,,,,,,,,,,,,,,,,,,,,,,,,,,,,,,
1720515215,40,0,4301.538574,4284.743652,4269.102539,4299.487305,4273.974121,4278.205078,4283.077148,4278.077148,4277.436035,4213.461426,4446.922852,4479.102539,4340.128418,4400.897461,,,,,,,,,,,,,,,,,,,,,,,,,,,,,,,,,,,,,,,,,,,,,,,,,,,,,,,,,,,,,,,,,,,,,,
1720515215,41,0,4303.846191,4285.641113,4275.641113,4294.487305,4274.743652,4284.358887,4281.538574,4281.794922,4275.897461,4212.307617,4444.358887,4486.794922,4345.128418,4402.307617,,,,,,,,,,,,,,,,,,,,,,,,,,,,,,,,,,,,,,,,,,,,,,,,,,,,,,,,,,,,,,,,,,,,,,
1720515215,42,0,4302.820313,4280.384766,4275.512695,4296.410156,4273.846191,4281.025879,4275.256348,4280.512695,4274.102539,4214.487305,4447.307617,4484.358887,4342.820313,4397.692383,,,,,,,,,,,,,,,,,,,,,,,,,,,,,,,,,,,,,,,,,,,,,,,,,,,,,,,,,,,,,,,,,,,,,,
1720515215,43,0,4301.410156,4271.794922,4274.743652,4295.512695,4272.05127,4277.820313,4276.794922,4278.974121,4275.384766,4214.871582,4446.282227,4484.102539,4331.282227,4396.153809,,,,,,,,,,,,,,,,,,,,,,,,,,,,,,,,,,,,,,,,,,,,,,,,,,,,,,,,,,,,,,,,,,,,,,
1720515215,44,0,4301.410156,4271.538574,4271.794922,4296.025879,4272.436035,4286.282227,4285.512695,4284.615234,4279.743652,4214.743652,4447.05127,4483.589844,4331.538574,4398.077148,0.544213,0.410888,0.384106,0.152754,0.169849,0.41687,0.592691,0.198566,0.195426,0.142762,0.155077,0.053075,0.045487,0.041827,0.115743,0.555339,0.319224,0.092608,0.093951,0.08242,0.145646,0.315579,0.120409,0.071297,0.073193,0.209229,0.330034,0.217744,0.037488,0.046671,0.355178,0.633202,0.233301,0.076919,0.066556,0.171195,0.702946,0.178372,0.047743,0.06635,0.046281,0.38591,0.092152,0.035249,0.087869,0.286146,1.31644,0.610042,0.202568,0.229578,0.739341,0.52848,0.712817,0.251792,0.304967,0.684995,0.644741,0.376989,0.289375,0.321802,0.701313,0.537114,0.609765,0.403766,0.24159,1.673537,1.41674,0.777742,0.295184,0.193886
1720515215,45,0,4293.333496,4275.897461,4265.384766,4297.307617,4274.230957,4288.205078,4286.538574,4282.563965,4276.666504,4211.666504,4452.820313,4467.820313,4336.282227,4392.436035,,,,,,,,,,,,,,,,,,,,,,,,,,,,,,,,,,,,,,,,,,,,,,,,,,,,,,,,,,,,,,,,,,,,,,
1720515215,46,0,4289.358887,4272.307617,4270,4296.025879,4272.179688,4279.358887,4281.666504,4275.897461,4271.410156,4211.410156,4446.922852,4468.846191,4331.282227,4386.025879,,,,,,,,,,,,,,,,,,,,,,,,,,,,,,,,,,,,,,,,,,,,,,,,,,,,,,,,,,,,,,,,,,,,,,
1720515215,47,0,4297.820313,4270.384766,4272.820313,4302.436035,4270.256348,4278.717773,4278.846191,4276.410156,4272.820313,4209.358887,4432.436035,4476.922852,4329.743652,4384.743652,,,,,,,,,,,,,,,,,,,,,,,,,,,,,,,,,,,,,,,,,,,,,,,,,,,,,,,,,,,,,,,,,,,,,,
1720515215,48,0,4305.897461,4278.205078,4270.512695,4311.025879,4271.922852,4281.922852,4275.769043,4277.563965,4275.384766,4205.128418,4435.128418,4469.743652,4333.717773,4386.794922,,,,,,,,,,,,,,,,,,,,,,,,,,,,,,,,,,,,,,,,,,,,,,,,,,,,,,,,,,,,,,,,,,,,,,
1720515215,49,0,4306.153809,4284.615234,4272.692383,4312.94873,4274.871582,4281.794922,4276.153809,4278.333496,4276.282227,4212.820313,4451.410156,4473.333496,4338.974121,4393.461426,,,,,,,,,,,,,,,,,,,,,,,,,,,,,,,,,,,,,,,,,,,,,,,,,,,,,,,,,,,,,,,,,,,,,,
1720515215,50,0,4303.974121,4283.333496,4273.589844,4313.077148,4277.05127,4280,4277.436035,4279.871582,4277.692383,4220.512695,4452.692383,4482.563965,4341.410156,4398.974121,,,,,,,,,,,,,,,,,,,,,,,,,,,,,,,,,,,,,,,,,,,,,,,,,,,,,,,,,,,,,,,,,,,,,,
