Timestamp,EEG.Counter,EEG.Interpolated,EEG.AF3,EEG.F7,EEG.F3,EEG.FC5,EEG.T7,EEG.P7,EEG.O1,EEG.O2,EEG.P8,EEG.T8,EEG.FC6,EEG.F4,EEG.F8,EEG.AF4,POW.AF3.Theta,POW.AF3.Alpha,POW.AF3.BetaL,POW.AF3.BetaH,POW.AF3.Gamma,POW.F7.Theta,POW.F7.Alpha,POW.F7.BetaL,POW.F7.BetaH,POW.F7.Gamma,POW.F3.Theta,POW.F3.Alpha,POW.F3.BetaL,POW.F3.BetaH,POW.F3.Gamma,POW.FC5.Theta,POW.FC5.Alpha,POW.FC5.BetaL,POW.FC5.BetaH,POW.FC5.Gamma,POW.T7.Theta,POW.T7.Alpha,POW.T7.BetaL,POW.T7.BetaH,POW.T7.Gamma,POW.P7.Theta,POW.P7.Alpha,POW.P7.BetaL,POW.P7.BetaH,POW.P7.Gamma,POW.O1.Theta,POW.O1.Alpha,POW.O1.BetaL,POW.O1.BetaH,POW.O1.Gamma,POW.O2.Theta,POW.O2.Alpha,POW.O2.BetaL,POW.O2.BetaH,POW.O2.Gamma,POW.P8.Theta,POW.P8.Alpha,POW.P8.BetaL,POW.P8.BetaH,POW.P8.Gamma,POW.T8.Theta,POW.T8.Alpha,POW.T8.BetaL,POW.T8.BetaH,POW.T8.Gamma,POW.FC6.Theta,POW.FC6.Alpha,POW.FC6.BetaL,POW.FC6.BetaH,POW.FC6.Gamma,POW.F4.Theta,POW.F4.Alpha,POW.F4.BetaL,POW.F4.BetaH,POW.F4.Gamma,POW.F8.Theta,POW.F8.Alpha,POW.F8.BetaL,POW.F8.BetaH,POW.F8.Gamma,POW.AF4.Theta,POW.AF4.Alpha,POW.AF4.BetaL,POW.AF4.BetaH,POW.AF4.Gamma
1720078137,27,0,4059.871826,4210.384766,4303.589844,4255.384766,4354.230957,4396.538574,4397.436035,4371.282227,4351.538574,4290.897461,4296.282227,4410.256348,4255.897461,3930,,,,,,,,,,,,,,,,,,,,,,,,,,,,,,,,,,,,,,,,,,,,,,,,,,,,,,,,,,,,,,,,,,,,,,
1720078137,28,0,4067.307617,4216.153809,4308.333496,4260,4351.922852,4391.025879,4400.897461,4369.743652,4353.077148,4296.410156,4301.025879,4414.871582,4262.94873,3941.153809,,,,,,,,,,,,,,,,,,,,,,,,,,,,,,,,,,,,,,,,,,,,,,,,,,,,,,,,,,,,,,,,,,,,,,
1720078137,29,0,4067.692383,4218.717773,4311.282227,4266.025879,4355,4395.384766,4410.384766,4374.743652,4359.230957,4303.333496,4313.205078,4425,4269.230957,3940.512939,,,,,,,,,,,,,,,,,,,,,,,,,,,,,,,,,,,,,,,,,,,,,,,,,,,,,,,,,,,,,,,,,,,,,,
1720078137,30,0,4058.718018,4209.358887,4308.589844,4259.358887,4350.769043,4392.307617,4403.974121,4372.94873,4353.077148,4296.922852,4301.922852,4427.436035,4257.94873,3929.230713,,,,,,,,,,,,,,,,,,,,,,,,,,,,,,,,,,,,,,,,,,,,,,,,,,,,,,,,,,,,,,,,,,,,,,
1720078137,31,0,4067.05127,4201.410156,4313.461426,4252.563965,4348.077148,4384.230957,4398.846191,4370,4347.179688,4287.692383,4289.487305,4429.743652,4247.179688,3926.923096,,,,,,,,,,,,,,,,,,,,,,,,,,,,,,,,,,,,,,,,,,,,,,,,,,,,,,,,,,,,,,,,,,,,,,
1720078137,32,0,4076.025635,4203.589844,4321.794922,4250.384766,4353.717773,4387.179688,4407.179688,4370,4352.179688,4283.974121,4290.641113,4432.307617,4250.384766,3936.153809,,,,,,,,,,,,,,,,,,,,,,,,,,,,,,,,,,,,,,,,,,,,,,,,,,,,,,,,,,,,,,,,,,,,,,
1720078137,33,0,4064.615479,4203.205078,4325.256348,4248.974121,4354.871582,4390.128418,4410,4367.307617,4349.230957,4279.102539,4285.128418,4432.307617,4249.615234,3928.718018,,,,,,,,,,,,,,,,,,,,,,,,,,,,,,,,,,,,,,,,,,,,,,,,,,,,,,,,,,,,,,,,,,,,,,
1720078137,34,0,4059.871826,4201.025879,4329.743652,4254.615234,4352.563965,4389.102539,4406.666504,4364.230957,4338.589844,4275.512695,4275.512695,4436.538574,4241.410156,3912.564209,9.866167,1.597307,2.265112,0.938694,0.691067,14.085177,3.071635,1.883137,0.572631,0.224192,3.341473,1.469719,1.967499,0.896758,0.366704,12.92172,0.835206,1.314049,0.41082,0.235339,0.561694,0.407433,0.207784,0.173246,0.083771,0.438648,0.526441,0.454124,0.271684,0.147563,1.013554,0.635498,0.43945,0.275935,0.17004,1.160672,0.939891,0.695436,0.373822,0.165082,1.216971,0.402355,0.670806,0.389767,0.157511,0.972045,0.527029,0.801717,0.521718,0.181362,2.588595,0.793044,1.111963,0.819213,0.390281,9.980726,2.124913,0.98595,0.855502,0.396057,2.763191,0.654005,1.05533,0.762544,0.342725,66.84919,27.064804,4.420671,4.745804,2.046399
1720078137,35,0,4074.102539,4201.410156,4333.333496,4260.641113,4351.666504,4391.794922,4410.641113,4366.025879,4341.794922,4276.922852,4277.94873,4443.461426,4241.410156,3919.358887,,,,,,,,,,,,,,,,,,,,,,,,,,,,,,,,,,,,,,,,,,,,,,,,,,,,,,,,,,,,,,,,,,,,,,
1720078137,36,0,4080.769287,4200.641113,4333.974121,4261.666504,4351.410156,4393.461426,4413.846191,4371.538574,4355.256348,4280.897461,4288.333496,4444.615234,4246.922852,3936.666748,,,,,,,,,,,,,,,,,,,,,,,,,,,,,,,,,,,,,,,,,,,,,,,,,,,,,,,,,,,,,,,,,,,,,,
1720078137,37,0,4073.718018,4204.102539,4333.717773,4260.512695,4355.256348,4391.538574,4412.05127,4370.897461,4351.666504,4281.666504,4292.179688,4442.307617,4245.256348,3935.897461,,,,,,,,,,,,,,,,,,,,,,,,,,,,,,,,,,,,,,,,,,,,,,,,,,,,,,,,,,,,,,,,,,,,,,
1720078137,38,0,4080.256348,4215.641113,4338.333496,4263.333496,4359.230957,4390.256348,4411.794922,4367.820313,4341.153809,4280.641113,4289.358887,4446.538574,4242.436035,3929.615479,,,,,,,,,,,,,,,,,,,,,,,,,,,,,,,,,,,,,,,,,,,,,,,,,,,,,,,,,,,,,,,,,,,,,,
1720078137,39,0,4093.205078,4221.666504,4345.641113,4267.563965,4357.94873,4387.820313,4410.769043,4369.487305,4345.256348,4282.436035,4289.230957,4450.256348,4244.230957,3928.461426,,,,,,,,,,,,,,,,,,,,,,,,,,,,,,,,,,,,,,,,,,,,,,,,,,,,,,,,,,,,,,,,,,,,,,
1720078137,40,0,4091.666748,4218.717773,4342.94873,4271.666504,4358.461426,4386.538574,4407.563965,4370.256348,4351.025879,4283.846191,4294.743652,4447.436035,4246.794922,3925,,,,,,,,,,,,,,,,,,,,,,,,,,,,,,,,,,,,,,,,,,,,,,,,,,,,,,,,,,,,,,,,,,,,,,
1720078137,41,0,4086.923096,4220.769043,4330.641113,4275.897461,4358.974121,4387.307617,4407.05127,4366.794922,4347.05127,4281.538574,4293.974121,4443.461426,4245.256348,3931.025635,,,,,,,,,,,,,,,,,,,,,,,,,,,,,,,,,,,,,,,,,,,,,,,,,,,,,,,,,,,,,,,,,,,,,,
1720078137,42,0,4092.435791,4230,4325.256348,4277.563965,4357.05127,4387.563965,4408.717773,4368.589844,4348.333496,4283.461426,4292.307617,4446.410156,4246.153809,3943.718018,,,,,,,,,,,,,,,,,,,,,,,,,,,,,,,,,,,,,,,,,,,,,,,,,,,,,,,,,,,,,,,,,,,,,,
1720078137,43,0,4094.230713,4235,4330.897461,4281.922852,4361.922852,4391.666504,4412.05127,4374.743652,4358.461426,4294.487305,4295.897461,4455.769043,4250.512695,3943.846191,,,,,,,,,,,,,,,,,,,,,,,,,,,,,,,,,,,,,,,,,,,,,,,,,,,,,,,,,,,,,,,,,,,,,,
1720078137,44,0,4084.743652,4227.94873,4327.820313,4276.666504,4366.538574,4395.769043,4415.256348,4374.743652,4357.563965,4293.846191,4296.282227,4454.487305,4248.461426,3939.358887,,,,,,,,,,,,,,,,,,,,,,,,,,,,,,,,,,,,,,,,,,,,,,,,,,,,,,,,,,,,,,,,,,,,,,
1720078137,45,0,4080.641113,4218.974121,4319.743652,4267.94873,4361.794922,4395.641113,4416.153809,4375.897461,4351.153809,4284.871582,4295.897461,4445.512695,4246.794922,3938.589844,,,,,,,,,,,,,,,,,,,,,,,,,,,,,,,,,,,,,,,,,,,,,,,,,,,,,,,,,,,,,,,,,,,,,,
1720078137,46,0,4075.641113,4218.205078,4318.205078,4268.974121,4356.666504,4395,4415,4377.820313,4350.641113,4283.205078,4294.487305,4443.974121,4247.563965,3940,,,,,,,,,,,,,,,,,,,,,,,,,,,,,,,,,,,,,,,,,,,,,,,,,,,,,,,,,,,,,,,,,,,,,,
1720078137,47,0,4068.076904,4219.743652,4319.102539,4272.692383,4358.205078,4390.641113,4414.743652,4377.563965,4354.743652,4289.487305,4298.333496,4449.871582,4251.025879,3953.076904,,,,,,,,,,,,,,,,,,,,,,,,,,,,,,,,,,,,,,,,,,,,,,,,,,,,,,,,,,,,,,,,,,,,,,
1720078137,48,0,4062.564209,4218.461426,4309.615234,4268.333496,4355.769043,4383.333496,4411.410156,4372.692383,4353.717773,4290.128418,4301.410156,4441.282227,4253.333496,3959.230713,,,,,,,,,,,,,,,,,,,,,,,,,,,,,,,,,,,,,,,,,,,,,,,,,,,,,,,,,,,,,,,,,,,,,,
1720078137,49,0,4042.179443,4212.179688,4294.615234,4256.538574,4348.846191,4385.128418,4408.461426,4367.692383,4344.743652,4282.307617,4294.358887,4423.974121,4246.666504,3946.666748,,,,,,,,,,,,,,,,,,,,,,,,,,,,,,,,,,,,,,,,,,,,,,,,,,,,,,,,,,,,,,,,,,,,,,
1720078137,50,0,4036.281982,4212.436035,4294.102539,4257.179688,4352.820313,4392.94873,4413.333496,4374.615234,4346.153809,4284.230957,4295.384766,4427.692383,4245.897461,3943.718018,7.60643,1.338289,1.915585,0.818428,0.559698,9.505365,2.52728,2.090748,0.492138,0.208111,4.089625,1.634179,2.061022,0.754911,0.322672,10.000864,0.951095,1.613254,0.421861,0.210107,0.612855,0.459673,0.261753,0.169152,0.081138,0.421565,0.48615,0.451153,0.306199,0.15474,0.988016,0.567458,0.4621,0.281732,0.167176,1.048809,0.793565,0.717427,0.361742,0.154999,0.861626,0.349774,0.778855,0.382148,0.164864,0.915184,0.639779,0.882633,0.491953,0.170406,2.606241,0.887583,1.204992,0.741758,0.362869,10.883225,2.150757,1.185743,0.841466,0.369579,2.890574,0.883864,1.188807,0.708337,0.321087,70.905106,28.846785,4.600102,5.048126,1.915504
1720078137,51,0,4066.025635,4228.205078,4299.230957,4264.871582,4359.230957,4390.128418,4411.153809,4376.922852,4350.897461,4288.333496,4298.205078,4430.256348,4249.615234,3950,,,,,,,,,,,,,,,,,,,,,,,,,,,,,,,,,,,,,,,,,,,,,,,,,,,,,,,,,,,,,,,,,,,,,,
1720078137,52,0,4077.05127,4244.487305,4292.563965,4266.282227,4353.717773,4380.641113,4397.94873,4362.820313,4343.589844,4280.897461,4282.307617,4409.230957,4234.615234,3943.589844,,,,,,,,,,,,,,,,,,,,,,,,,,,,,,,,,,,,,,,,,,,,,,,,,,,,,,,,,,,,,,,,,,,,,,
1720078137,53,0,4058.076904,4248.205078,4290.641113,4270.897461,4350.641113,4380.256348,4393.461426,4356.666504,4338.205078,4275.256348,4269.358887,4400.256348,4213.974121,3938.589844,,,,,,,,,,,,,,,,,,,,,,,,,,,,,,,,,,,,,,,,,,,,,,,,,,,,,,,,,,,,,,,,,,,,,,
1720078137,54,0,4057.05127,4248.974121,4301.025879,4274.871582,4354.615234,4381.410156,4398.077148,4362.94873,4342.179688,4280.256348,4274.102539,4417.94873,4214.358887,3943.589844,,,,,,,,,,,,,,,,,,,,,,,,,,,,,,,,,,,,,,,,,,,,,,,,,,,,,,,,,,,,,,,,,,,,,,
1720078137,55,0,4060.769287,4251.922852,4298.461426,4267.307617,4348.077148,4374.615234,4396.922852,4359.358887,4342.179688,4281.922852,4276.410156,4420.769043,4218.974121,3942.179443,,,,,,,,,,,,,,,,,,,,,,,,,,,,,,,,,,,,,,,,,,,,,,,,,,,,,,,,,,,,,,,,,,,,,,
1720078137,56,0,4042.179443,4245.256348,4280.897461,4259.230957,4338.974121,4373.589844,4392.179688,4356.153809,4339.615234,4276.922852,4271.794922,4404.743652,4209.615234,3942.307617,,,,,,,,,,,,,,,,,,,,,,,,,,,,,,,,,,,,,,,,,,,,,,,,,,,,,,,,,,,,,,,,,,,,,,
1720078137,57,0,4031.153809,4234.102539,4274.871582,4262.436035,4341.410156,4378.077148,4389.230957,4359.743652,4341.282227,4276.922852,4263.974121,4401.410156,4199.871582,3936.153809,,,,,,,,,,,,,,,,,,,,,,,,,,,,,,,,,,,,,,,,,,,,,,,,,,,,,,,,,,,,,,,,,,,,,,
1720078137,58,0,4038.461426,4235.769043,4284.487305,4262.179688,4342.820313,4375.512695,4387.820313,4354.871582,4339.102539,4277.179688,4262.692383,4408.461426,4203.974121,3924.230713,,,,,,,,,,,,,,,,,,,,,,,,,,,,,,,,,,,,,,,,,,,,,,,,,,,,,,,,,,,,,,,,,,,,,,
1720078137,59,0,4044.230713,4246.794922,4295.384766,4265.641113,4342.307617,4376.025879,4393.461426,4357.692383,4344.615234,4284.743652,4285,4422.563965,4222.820313,3945.128174,,,,,,,,,,,,,,,,,,,,,,,,,,,,,,,,,,,,,,,,,,,,,,,,,,,,,,,,,,,,,,,,,,,,,,
1720078137,60,0,4044.743652,4250.897461,4296.538574,4273.077148,4345.256348,4385,4398.846191,4368.461426,4357.307617,4294.615234,4298.077148,4430.512695,4232.179688,3970.512939,,,,,,,,,,,,,,,,,,,,,,,,,,,,,,,,,,,,,,,,,,,,,,,,,,,,,,,,,,,,,,,,,,,,,,
1720078137,61,0,4041.794922,4245.897461,4294.487305,4267.94873,4344.358887,4384.615234,4396.153809,4365.256348,4353.717773,4293.846191,4283.974121,4424.615234,4222.436035,3962.692383,,,,,,,,,,,,,,,,,,,,,,,,,,,,,,,,,,,,,,,,,,,,,,,,,,,,,,,,,,,,,,,,,,,,,,
1720078137,62,0,4040,4246.025879,4295,4262.820313,4342.05127,4378.205078,4393.077148,4357.05127,4340.128418,4286.282227,4281.153809,4418.589844,4218.461426,3951.410156,,,,,,,,,,,,,,,,,,,,,,,,,,,,,,,,,,,,,,,,,,,,,,,,,,,,,,,,,,,,,,,,,,,,,,
1720078137,63,0,4036.410156,4247.820313,4288.717773,4266.410156,4342.94873,4380.641113,4395.256348,4358.589844,4338.077148,4281.538574,4287.436035,4417.436035,4222.307617,3952.179443,,,,,,,,,,,,,,,,,,,,,,,,,,,,,,,,,,,,,,,,,,,,,,,,,,,,,,,,,,,,,,,,,,,,,,
1720078137,64,0,4020.128174,4238.461426,4277.563965,4266.922852,4341.025879,4381.922852,4397.179688,4360.897461,4336.794922,4277.436035,4277.307617,4415.384766,4215.128418,3945.512939,,,,,,,,,,,,,,,,,,,,,,,,,,,,,,,,,,,,,,,,,,,,,,,,,,,,,,,,,,,,,,,,,,,,,,
1720078137,65,0,4006.281982,4230.641113,4276.666504,4264.615234,4338.205078,4377.436035,4395.256348,4359.487305,4332.563965,4273.077148,4274.230957,4410.769043,4210.256348,3940.128174,,,,,,,,,,,,,,,,,,,,,,,,,,,,,,,,,,,,,,,,,,,,,,,,,,,,,,,,,,,,,,,,,,,,,,
1720078137,66,0,4011.153809,4233.461426,4281.153809,4268.205078,4339.615234,4377.179688,4394.871582,4364.615234,4341.666504,4278.846191,4286.666504,4415.769043,4218.461426,3942.435791,6.227244,1.369154,1.620288,0.784133,0.454019,7.570272,2.049781,2.195605,0.468984,0.196573,5.070052,1.781395,2.000204,0.647759,0.28708,7.342709,1.035785,1.757322,0.461738,0.198774,0.67201,0.475772,0.301529,0.17675,0.084081,0.435017,0.425514,0.461057,0.347329,0.162919,1.104544,0.527787,0.478763,0.291341,0.164704,1.094219,0.644721,0.759587,0.347214,0.15034,0.705833,0.311452,0.926513,0.379979,0.184854,0.977588,0.762902,0.947113,0.450014,0.174549,3.031657,1.007521,1.319734,0.681597,0.35234,11.753823,2.232643,1.54518,0.851353,0.350753,3.650738,1.219985,1.335954,0.658654,0.304936,69.880417,26.753229,4.420051,4.735659,1.722363
1720078137,67,0,4016.666748,4235.897461,4282.05127,4274.102539,4342.820313,4382.179688,4397.179688,4369.358887,4352.307617,4285.128418,4288.205078,4421.794922,4221.282227,3944.487061,,,,,,,,,,,,,,,,,,,,,,,,,,,,,,,,,,,,,,,,,,,,,,,,,,,,,,,,,,,,,,,,,,,,,,
1720078137,68,0,4006.281982,4232.307617,4278.333496,4275.769043,4343.846191,4383.205078,4395.384766,4362.05127,4346.153809,4283.205078,4276.282227,4409.615234,4215.128418,3941.153809,,,,,,,,,,,,,,,,,,,,,,,,,,,,,,,,,,,,,,,,,,,,,,,,,,,,,,,,,,,,,,,,,,,,,,
1720078137,69,0,3999.102539,4228.205078,4267.94873,4273.461426,4342.692383,4381.025879,4390.769043,4352.692383,4336.025879,4284.358887,4269.743652,4392.563965,4212.307617,3930.512939,,,,,,,,,,,,,,,,,,,,,,,,,,,,,,,,,,,,,,,,,,,,,,,,,,,,,,,,,,,,,,,,,,,,,,
1720078137,70,0,4007.179443,4228.717773,4262.94873,4277.05127,4342.436035,4379.102539,4388.974121,4353.974121,4338.333496,4289.102539,4275.769043,4398.077148,4216.794922,3926.153809,,,,,,,,,,,,,,,,,,,,,,,,,,,,,,,,,,,,,,,,,,,,,,,,,,,,,,,,,,,,,,,,,,,,,,
1720078137,71,0,4018.076904,4233.205078,4270.769043,4280.897461,4342.563965,4375.128418,4386.282227,4357.692383,4337.692383,4284.102539,4279.743652,4408.974121,4221.153809,3929.358887,,,,,,,,,,,,,,,,,,,,,,,,,,,,,,,,,,,,,,,,,,,,,,,,,,,,,,,,,,,,,,,,,,,,,,
1720078137,72,0,4018.333252,4228.846191,4273.974121,4271.794922,4338.974121,4372.563965,4379.615234,4354.487305,4326.922852,4276.025879,4268.589844,4399.102539,4218.205078,3927.820557,,,,,,,,,,,,,,,,,,,,,,,,,,,,,,,,,,,,,,,,,,,,,,,,,,,,,,,,,,,,,,,,,,,,,,
1720078137,73,0,4014.871826,4218.589844,4273.461426,4267.94873,4335.384766,4372.692383,4378.589844,4354.743652,4326.025879,4278.461426,4261.538574,4396.794922,4214.230957,3923.974365,,,,,,,,,,,,,,,,,,,,,,,,,,,,,,,,,,,,,,,,,,,,,,,,,,,,,,,,,,,,,,,,,,,,,,
1720078137,74,0,4022.307617,4223.589844,4278.589844,4277.692383,4338.717773,4373.717773,4380.897461,4356.666504,4333.461426,4278.461426,4265.641113,4411.538574,4213.205078,3925.128174,,,,,,,,,,,,,,,,,,,,,,,,,,,,,,,,,,,,,,,,,,,,,,,,,,,,,,,,,,,,,,,,,,,,,,
1720078137,75,0,4028.589844,4231.794922,4279.487305,4282.179688,4342.05127,4372.563965,4377.94873,4355.256348,4333.205078,4272.05127,4263.717773,4415.256348,4210.384766,3943.076904,,,,,,,,,,,,,,,,,,,,,,,,,,,,,,,,,,,,,,,,,,,,,,,,,,,,,,,,,,,,,,,,,,,,,,
1720078137,76,0,4029.230713,4232.94873,4284.102539,4288.077148,4343.589844,4372.05127,4380.128418,4362.563965,4338.077148,4278.974121,4268.461426,4417.05127,4219.102539,3985,,,,,,,,,,,,,,,,,,,,,,,,,,,,,,,,,,,,,,,,,,,,,,,,,,,,,,,,,,,,,,,,,,,,,,
1720078137,77,0,4032.692383,4235.641113,4298.077148,4296.794922,4347.307617,4377.307617,4388.461426,4371.153809,4347.179688,4287.94873,4277.94873,4430.769043,4224.102539,4011.923096,,,,,,,,,,,,,,,,,,,,,,,,,,,,,,,,,,,,,,,,,,,,,,,,,,,,,,,,,,,,,,,,,,,,,,
1720078137,78,0,4028.589844,4230.897461,4298.589844,4287.692383,4345.384766,4378.077148,4385.384766,4363.077148,4334.743652,4280.384766,4266.410156,4430.769043,4205.641113,3993.205078,,,,,,,,,,,,,,,,,,,,,,,,,,,,,,,,,,,,,,,,,,,,,,,,,,,,,,,,,,,,,,,,,,,,,,
1720078137,79,0,4028.589844,4223.974121,4288.717773,4275,4340,4372.05127,4377.179688,4352.436035,4323.717773,4272.05127,4259.358887,4423.717773,4205.769043,3988.846191,,,,,,,,,,,,,,,,,,,,,,,,,,,,,,,,,,,,,,,,,,,,,,,,,,,,,,,,,,,,,,,,,,,,,,
1720078137,80,0,4047.564209,4228.846191,4293.333496,4282.692383,4340.256348,4375.256348,4381.922852,4358.717773,4337.179688,4277.692383,4281.794922,4440.769043,4233.846191,4027.307617,,,,,,,,,,,,,,,,,,,,,,,,,,,,,,,,,,,,,,,,,,,,,,,,,,,,,,,,,,,,,,,,,,,,,,
1720078137,81,0,4072.94873,4236.922852,4314.102539,4295.384766,4344.487305,4384.615234,4392.563965,4368.589844,4346.538574,4286.410156,4304.102539,4468.717773,4250.384766,4063.461426,,,,,,,,,,,,,,,,,,,,,,,,,,,,,,,,,,,,,,,,,,,,,,,,,,,,,,,,,,,,,,,,,,,,,,
1720078137,82,0,4092.94873,4237.307617,4331.282227,4298.205078,4345.641113,4382.436035,4394.487305,4373.589844,4345.256348,4292.05127,4310.769043,4480.128418,4258.077148,4084.871826,6.319908,1.680268,1.412649,0.853878,0.380222,6.680267,1.801037,2.164439,0.523923,0.191492,6.055721,1.938911,1.809892,0.625898,0.259327,5.811742,1.088347,1.685251,0.534095,0.195711,0.711021,0.443168,0.311905,0.191548,0.09172,0.399714,0.356575,0.491009,0.385794,0.168819,1.221648,0.546862,0.479199,0.295143,0.159713,1.244257,0.553258,0.795697,0.333703,0.147482,0.737649,0.301429,1.068855,0.402589,0.211061,1.138698,0.878798,0.989062,0.418189,0.186029,3.772439,1.122422,1.441947,0.665628,0.354426,12.606743,2.410633,2.040714,0.904926,0.344422,5.005026,1.636366,1.46006,0.643746,0.290239,58.515366,21.474499,3.876048,3.92842,1.474095
1720078137,83,0,4103.974121,4236.666504,4332.94873,4297.179688,4344.358887,4379.615234,4395.897461,4378.589844,4352.05127,4294.358887,4313.974121,4480.384766,4264.102539,4094.615479,,,,,,,,,,,,,,,,,,,,,,,,,,,,,,,,,,,,,,,,,,,,,,,,,,,,,,,,,,,,,,,,,,,,,,
1720078137,84,0,4097.563965,4229.743652,4326.410156,4292.179688,4342.692383,4384.871582,4406.410156,4384.358887,4357.179688,4292.179688,4309.358887,4482.436035,4253.846191,4083.974365,,,,,,,,,,,,,,,,,,,,,,,,,,,,,,,,,,,,,,,,,,,,,,,,,,,,,,,,,,,,,,,,,,,,,,
1720078137,85,0,4086.153809,4218.205078,4320.256348,4283.077148,4341.153809,4384.230957,4411.153809,4387.563965,4350.769043,4291.410156,4299.743652,4481.410156,4245.897461,4065.384521,,,,,,,,,,,,,,,,,,,,,,,,,,,,,,,,,,,,,,,,,,,,,,,,,,,,,,,,,,,,,,,,,,,,,,
1720078137,86,0,4081.666748,4215,4313.077148,4274.871582,4342.179688,4380.897461,4401.538574,4383.461426,4347.179688,4292.692383,4296.153809,4474.487305,4251.538574,4060.769287,,,,,,,,,,,,,,,,,,,,,,,,,,,,,,,,,,,,,,,,,,,,,,,,,,,,,,,,,,,,,,,,,,,,,,
1720078137,87,0,4078.205078,4217.820313,4310.769043,4277.820313,4344.102539,4381.794922,4395.641113,4380,4349.743652,4294.102539,4296.794922,4473.717773,4252.307617,4061.794922,,,,,,,,,,,,,,,,,,,,,,,,,,,,,,,,,,,,,,,,,,,,,,,,,,,,,,,,,,,,,,,,,,,,,,
1720078137,88,0,4076.794922,4220.897461,4312.307617,4288.205078,4344.230957,4380.256348,4400.256348,4383.846191,4353.846191,4296.282227,4298.461426,4475.641113,4251.025879,4059.358887,,,,,,,,,,,,,,,,,,,,,,,,,,,,,,,,,,,,,,,,,,,,,,,,,,,,,,,,,,,,,,,,,,,,,,
1720078138,89,0,4053.076904,4217.436035,4301.794922,4283.974121,4338.589844,4372.436035,4398.461426,4381.153809,4353.205078,4293.333496,4294.358887,4464.615234,4247.692383,4055.641113,,,,,,,,,,,,,,,,,,,,,,,,,,,,,,,,,,,,,,,,,,,,,,,,,,,,,,,,,,,,,,,,,,,,,,
1720078138,90,0,4001.794922,4217.692383,4296.666504,4277.563965,4335.384766,4371.410156,4396.538574,4377.05127,4348.333496,4297.820313,4296.410156,4458.974121,4249.615234,4061.410156,,,,,,,,,,,,,,,,,,,,,,,,,,,,,,,,,,,,,,,,,,,,,,,,,,,,,,,,,,,,,,,,,,,,,,
1720078138,91,0,3967.820557,4224.743652,4307.563965,4286.282227,4339.358887,4377.179688,4405.512695,4387.307617,4347.820313,4306.666504,4304.743652,4467.307617,4260,4071.923096,,,,,,,,,,,,,,,,,,,,,,,,,,,,,,,,,,,,,,,,,,,,,,,,,,,,,,,,,,,,,,,,,,,,,,
1720078138,92,0,3965.128174,4222.307617,4305.256348,4289.102539,4338.333496,4376.666504,4411.153809,4395.769043,4352.692383,4298.205078,4298.974121,4467.05127,4259.743652,4066.666748,,,,,,,,,,,,,,,,,,,,,,,,,,,,,,,,,,,,,,,,,,,,,,,,,,,,,,,,,,,,,,,,,,,,,,
1720078138,93,0,3969.871826,4217.307617,4295.641113,4279.487305,4335,4373.205078,4408.974121,4388.333496,4357.307617,4293.974121,4292.692383,4464.743652,4256.922852,4057.307617,,,,,,,,,,,,,,,,,,,,,,,,,,,,,,,,,,,,,,,,,,,,,,,,,,,,,,,,,,,,,,,,,,,,,,
1720078138,94,0,3971.538574,4220,4298.077148,4277.563965,4338.589844,4373.717773,4403.717773,4380.256348,4354.230957,4305.512695,4295.897461,4464.102539,4262.436035,4053.589844,,,,,,,,,,,,,,,,,,,,,,,,,,,,,,,,,,,,,,,,,,,,,,,,,,,,,,,,,,,,,,,,,,,,,,
1720078138,95,0,3970.641113,4216.153809,4291.538574,4278.077148,4337.307617,4374.358887,4391.282227,4372.436035,4341.538574,4297.179688,4283.974121,4448.205078,4253.717773,4037.94873,,,,,,,,,,,,,,,,,,,,,,,,,,,,,,,,,,,,,,,,,,,,,,,,,,,,,,,,,,,,,,,,,,,,,,
1720078138,96,0,3969.743652,4209.358887,4278.717773,4272.692383,4331.025879,4371.410156,4378.589844,4359.102539,4332.94873,4278.846191,4268.461426,4432.692383,4240,4026.281982,,,,,,,,,,,,,,,,,,,,,,,,,,,,,,,,,,,,,,,,,,,,,,,,,,,,,,,,,,,,,,,,,,,,,,
1720078138,97,0,3989.102539,4221.282227,4287.820313,4277.692383,4336.922852,4369.230957,4380.897461,4355.256348,4340.769043,4290.128418,4281.025879,4443.333496,4251.922852,4045.512939,,,,,,,,,,,,,,,,,,,,,,,,,,,,,,,,,,,,,,,,,,,,,,,,,,,,,,,,,,,,,,,,,,,,,,
1720078138,98,0,4009.871826,4233.589844,4294.487305,4283.205078,4343.846191,4367.563965,4383.077148,4359.358887,4346.794922,4302.820313,4289.615234,4451.922852,4265.769043,4059.230713,6.674173,2.211492,1.338191,1.009187,0.350261,6.60601,1.787022,2.005979,0.642787,0.194022,6.788467,2.127965,1.555214,0.702675,0.238185,5.246359,1.117073,1.419818,0.627889,0.192049,0.71355,0.366129,0.289572,0.206,0.10129,0.365792,0.292466,0.525019,0.408551,0.169388,1.314538,0.63325,0.453145,0.28628,0.150532,1.428506,0.548523,0.804269,0.32553,0.144144,0.870844,0.324858,1.162846,0.462013,0.236377,1.326791,0.963448,1.007122,0.412757,0.196838,4.648634,1.206671,1.552696,0.701847,0.362194,13.155492,2.665286,2.584994,1.004763,0.352107,6.80043,2.08642,1.529409,0.677741,0.276386,45.30344,14.773175,3.172249,2.923977,1.210643
1720078138,99,0,4004.487061,4227.05127,4285.128418,4276.666504,4338.589844,4364.102539,4371.538574,4354.615234,4338.077148,4293.589844,4275.769043,4439.487305,4258.333496,4047.692383,,,,,,,,,,,,,,,,,,,,,,,,,,,,,,,,,,,,,,,,,,,,,,,,,,,,,,,,,,,,,,,,,,,,,,
1720078138,100,0,4008.589844,4229.743652,4289.102539,4280.512695,4337.05127,4364.487305,4371.666504,4355.769043,4335,4293.974121,4279.487305,4444.358887,4260.384766,4056.410156,,,,,,,,,,,,,,,,,,,,,,,,,,,,,,,,,,,,,,,,,,,,,,,,,,,,,,,,,,,,,,,,,,,,,,
1720078138,101,0,4032.820557,4246.410156,4301.282227,4294.358887,4343.589844,4367.692383,4383.461426,4364.743652,4340.512695,4301.666504,4296.922852,4464.615234,4274.743652,4078.846191,,,,,,,,,,,,,,,,,,,,,,,,,,,,,,,,,,,,,,,,,,,,,,,,,,,,,,,,,,,,,,,,,,,,,,
1720078138,102,0,4036.923096,4249.358887,4297.563965,4294.230957,4341.282227,4363.589844,4379.230957,4361.410156,4337.179688,4297.563965,4295.769043,4459.487305,4274.615234,4073.333252,,,,,,,,,,,,,,,,,,,,,,,,,,,,,,,,,,,,,,,,,,,,,,,,,,,,,,,,,,,,,,,,,,,,,,
1720078138,103,0,4028.846191,4244.230957,4291.282227,4287.05127,4332.179688,4354.871582,4369.743652,4355.256348,4330.769043,4295.128418,4288.205078,4440.512695,4274.230957,4062.05127,,,,,,,,,,,,,,,,,,,,,,,,,,,,,,,,,,,,,,,,,,,,,,,,,,,,,,,,,,,,,,,,,,,,,,
1720078138,104,0,4037.692383,4247.05127,4295.128418,4292.05127,4332.563965,4356.025879,4378.589844,4364.871582,4336.666504,4300.769043,4295.897461,4443.589844,4281.794922,4066.794922,,,,,,,,,,,,,,,,,,,,,,,,,,,,,,,,,,,,,,,,,,,,,,,,,,,,,,,,,,,,,,,,,,,,,,
1720078138,105,0,4045.384521,4246.282227,4297.179688,4293.077148,4334.102539,4365.384766,4388.077148,4373.974121,4341.666504,4299.487305,4295.128418,4453.205078,4273.717773,4064.487061,,,,,,,,,,,,,,,,,,,,,,,,,,,,,,,,,,,,,,,,,,,,,,,,,,,,,,,,,,,,,,,,,,,,,,
1720078138,106,0,4047.435791,4240.256348,4293.205078,4285.384766,4330,4367.820313,4386.153809,4370.128418,4336.410156,4293.077148,4280.641113,4448.205078,4262.94873,4062.692383,,,,,,,,,,,,,,,,,,,,,,,,,,,,,,,,,,,,,,,,,,,,,,,,,,,,,,,,,,,,,,,,,,,,,,
1720078138,107,0,4057.435791,4243.333496,4291.794922,4289.358887,4331.538574,4362.307617,4385.128418,4367.307617,4333.077148,4293.717773,4282.307617,4443.717773,4271.666504,4072.435791,,,,,,,,,,,,,,,,,,,,,,,,,,,,,,,,,,,,,,,,,,,,,,,,,,,,,,,,,,,,,,,,,,,,,,
1720078138,108,0,4068.205078,4256.794922,4297.307617,4298.589844,4340.641113,4368.717773,4391.282227,4377.179688,4344.102539,4306.538574,4300.384766,4452.692383,4284.487305,4077.94873,,,,,,,,,,,,,,,,,,,,,,,,,,,,,,,,,,,,,,,,,,,,,,,,,,,,,,,,,,,,,,,,,,,,,,
1720078138,109,0,4067.564209,4261.282227,4297.820313,4296.410156,4344.743652,4378.589844,4395.512695,4383.717773,4353.974121,4314.743652,4300.256348,4455.897461,4280.512695,4075.128174,,,,,,,,,,,,,,,,,,,,,,,,,,,,,,,,,,,,,,,,,,,,,,,,,,,,,,,,,,,,,,,,,,,,,,
1720078138,110,0,4063.076904,4252.820313,4291.153809,4293.974121,4343.589844,4378.589844,4392.563965,4377.179688,4346.794922,4301.025879,4280.128418,4442.94873,4266.794922,4068.589844,,,,,,,,,,,,,,,,,,,,,,,,,,,,,,,,,,,,,,,,,,,,,,,,,,,,,,,,,,,,,,,,,,,,,,
1720078138,111,0,4064.358887,4246.410156,4287.563965,4294.871582,4342.05127,4377.563965,4389.743652,4372.563965,4342.307617,4289.102539,4273.589844,4434.615234,4259.358887,4061.794922,,,,,,,,,,,,,,,,,,,,,,,,,,,,,,,,,,,,,,,,,,,,,,,,,,,,,,,,,,,,,,,,,,,,,,
1720078138,112,0,4077.05127,4253.846191,4294.743652,4295,4341.538574,4377.94873,4393.974121,4382.94873,4357.179688,4304.487305,4291.794922,4449.102539,4272.179688,4073.974365,,,,,,,,,,,,,,,,,,,,,,,,,,,,,,,,,,,,,,,,,,,,,,,,,,,,,,,,,,,,,,,,,,,,,,
1720078138,113,0,4100.256348,4270.256348,4314.102539,4304.487305,4349.615234,4378.205078,4404.358887,4397.307617,4370.384766,4326.922852,4312.436035,4474.358887,4296.025879,4106.025879,,,,,,,,,,,,,,,,,,,,,,,,,,,,,,,,,,,,,,,,,,,,,,,,,,,,,,,,,,,,,,,,,,,,,,
1720078138,114,0,4110.384766,4272.05127,4324.743652,4311.666504,4353.333496,4382.307617,4405.897461,4395.769043,4363.717773,4323.333496,4306.922852,4479.102539,4294.615234,4109.358887,7.262374,2.940438,1.36284,1.202221,0.364832,6.53037,1.900332,1.76373,0.783854,0.203687,7.076394,2.314598,1.308313,0.846946,0.223806,5.065332,1.123853,1.051837,0.724075,0.182069,0.680935,0.267514,0.24462,0.213502,0.109016,0.328944,0.241901,0.538575,0.404615,0.163341,1.335896,0.75215,0.40396,0.265183,0.138247,1.580233,0.599629,0.780936,0.328283,0.140194,1.010927,0.363918,1.179458,0.553773,0.255088,1.452935,0.992665,1.00269,0.437823,0.201098,5.351756,1.241405,1.635411,0.781693,0.369052,13.392721,2.887695,3.035433,1.130243,0.370765,8.392523,2.500963,1.534914,0.755104,0.265787,32.124882,8.655892,2.459481,2.071086,0.980592
1720078138,115,0,4105.512695,4264.230957,4319.743652,4307.820313,4344.230957,4384.102539,4396.922852,4385.641113,4353.974121,4308.461426,4290.769043,4472.179688,4276.922852,4091.794922,,,,,,,,,,,,,,,,,,,,,,,,,,,,,,,,,,,,,,,,,,,,,,,,,,,,,,,,,,,,,,,,,,,,,,
1720078138,116,0,4111.794922,4269.615234,4320,4308.974121,4344.487305,4378.717773,4398.589844,4388.077148,4357.692383,4312.820313,4297.692383,4481.794922,4281.410156,4101.282227,,,,,,,,,,,,,,,,,,,,,,,,,,,,,,,,,,,,,,,,,,,,,,,,,,,,,,,,,,,,,,,,,,,,,,
1720078138,117,0,4127.05127,4279.743652,4328.589844,4314.743652,4355.384766,4381.922852,4410.769043,4398.717773,4363.461426,4326.666504,4313.717773,4497.563965,4299.615234,4119.615234,,,,,,,,,,,,,,,,,,,,,,,,,,,,,,,,,,,,,,,,,,,,,,,,,,,,,,,,,,,,,,,,,,,,,,
1720078138,118,0,4125.769043,4271.794922,4329.358887,4313.077148,4355.769043,4387.692383,4411.922852,4399.230957,4360.384766,4327.179688,4313.846191,4498.589844,4296.666504,4116.922852,,,,,,,,,,,,,,,,,,,,,,,,,,,,,,,,,,,,,,,,,,,,,,,,,,,,,,,,,,,,,,,,,,,,,,
1720078138,119,0,4117.94873,4261.153809,4323.205078,4307.307617,4347.94873,4380.769043,4400.641113,4393.589844,4355.769043,4319.615234,4305,4489.358887,4282.179688,4106.794922,,,,,,,,,,,,,,,,,,,,,,,,,,,,,,,,,,,,,,,,,,,,,,,,,,,,,,,,,,,,,,,,,,,,,,
1720078138,120,0,4127.179688,4267.692383,4324.615234,4308.205078,4348.974121,4377.05127,4400.256348,4394.358887,4361.922852,4320.897461,4305.641113,4487.94873,4284.871582,4109.871582,,,,,,,,,,,,,,,,,,,,,,,,,,,,,,,,,,,,,,,,,,,,,,,,,,,,,,,,,,,,,,,,,,,,,,
1720078138,121,0,4139.230957,4277.820313,4336.282227,4318.333496,4352.563965,4381.922852,4411.538574,4397.94873,4368.205078,4328.077148,4311.666504,4496.538574,4295,4123.205078,,,,,,,,,,,,,,,,,,,,,,,,,,,,,,,,,,,,,,,,,,,,,,,,,,,,,,,,,,,,,,,,,,,,,,
1720078138,122,0,4147.307617,4281.666504,4346.410156,4327.692383,4353.589844,4384.102539,4414.358887,4396.666504,4362.05127,4327.563965,4314.743652,4503.461426,4297.307617,4136.282227,,,,,,,,,,,,,,,,,,,,,,,,,,,,,,,,,,,,,,,,,,,,,,,,,,,,,,,,,,,,,,,,,,,,,,
1720078138,123,0,4148.461426,4270.897461,4342.692383,4320.641113,4353.205078,4381.282227,4401.410156,4389.743652,4354.615234,4315.641113,4308.461426,4497.820313,4288.717773,4138.974121,,,,,,,,,,,,,,,,,,,,,,,,,,,,,,,,,,,,,,,,,,,,,,,,,,,,,,,,,,,,,,,,,,,,,,
1720078138,124,0,4146.410156,4259.102539,4341.794922,4310.256348,4354.358887,4378.461426,4391.666504,4387.179688,4359.871582,4311.666504,4303.333496,4494.743652,4282.436035,4140.512695,,,,,,,,,,,,,,,,,,,,,,,,,,,,,,,,,,,,,,,,,,,,,,,,,,,,,,,,,,,,,,,,,,,,,,
1720078138,125,0,4175.256348,4283.333496,4366.153809,4327.820313,4366.666504,4381.025879,4401.153809,4394.102539,4370.384766,4330.897461,4326.538574,4516.538574,4306.282227,4173.974121,,,,,,,,,,,,,,,,,,,,,,,,,,,,,,,,,,,,,,,,,,,,,,,,,,,,,,,,,,,,,,,,,,,,,,
1720078138,126,0,4218.333496,4318.077148,4386.666504,4354.102539,4381.666504,4391.666504,4412.820313,4404.615234,4374.615234,4346.153809,4348.333496,4537.94873,4332.05127,4214.871582,,,,,,,,,,,,,,,,,,,,,,,,,,,,,,,,,,,,,,,,,,,,,,,,,,,,,,,,,,,,,,,,,,,,,,
1720078138,127,0,4228.974121,4319.871582,4376.922852,4350.769043,4383.589844,4400.128418,4413.846191,4407.692383,4374.743652,4337.05127,4335.641113,4529.615234,4323.846191,4222.692383,,,,,,,,,,,,,,,,,,,,,,,,,,,,,,,,,,,,,,,,,,,,,,,,,,,,,,,,,,,,,,,,,,,,,,
1720078138,0,0,4235.897461,4320.769043,4371.666504,4342.820313,4378.717773,4397.820313,4412.307617,4405.256348,4373.717773,4325.897461,4322.692383,4521.410156,4307.436035,4226.666504,,,,,,,,,,,,,,,,,,,,,,,,,,,,,,,,,,,,,,,,,,,,,,,,,,,,,,,,,,,,,,,,,,,,,,
1720078138,1,0,4273.717773,4342.563965,4389.871582,4358.077148,4384.487305,4396.410156,4413.589844,4405.512695,4372.179688,4327.05127,4326.538574,4535.897461,4303.717773,4250.897461,,,,,,,,,,,,,,,,,,,,,,,,,,,,,,,,,,,,,,,,,,,,,,,,,,,,,,,,,,,,,,,,,,,,,,
1720078138,2,0,4306.666504,4358.333496,4402.436035,4375.897461,4392.563965,4400.256348,4414.615234,4404.615234,4372.820313,4327.820313,4323.077148,4538.717773,4297.563965,4267.692383,8.825652,3.878427,1.460941,1.384807,0.411469,5.6495,1.997455,1.493809,0.897279,0.216644,6.904955,2.426042,1.121096,1.00186,0.219079,4.704744,1.105963,0.699725,0.802908,0.166872,0.619711,0.175488,0.194225,0.211502,0.111761,0.317236,0.209394,0.512505,0.370932,0.151715,1.337296,0.852606,0.348451,0.23905,0.126557,1.693744,0.654477,0.740596,0.343941,0.137265,1.129779,0.395066,1.11654,0.657369,0.265036,1.477059,0.957091,0.977994,0.48454,0.198619,5.904253,1.23712,1.689308,0.885719,0.373896,13.237021,2.965628,3.264081,1.246318,0.394928,9.455061,2.799817,1.503554,0.855099,0.263503,23.824665,4.500433,1.924777,1.603728,0.820583
1720078138,3,0,4325.256348,4369.230957,4402.05127,4387.307617,4390.512695,4398.077148,4412.94873,4405.256348,4373.846191,4326.922852,4315.256348,4531.153809,4289.615234,4278.333496,,,,,,,,,,,,,,,,,,,,,,,,,,,,,,,,,,,,,,,,,,,,,,,,,,,,,,,,,,,,,,,,,,,,,,
1720078138,4,0,4346.282227,4382.179688,4402.820313,4396.410156,4388.974121,4395.897461,4412.05127,4406.538574,4369.615234,4322.436035,4315,4541.794922,4284.487305,4297.94873,,,,,,,,,,,,,,,,,,,,,,,,,,,,,,,,,,,,,,,,,,,,,,,,,,,,,,,,,,,,,,,,,,,,,,
1720078138,5,0,4360.512695,4389.743652,4404.743652,4400.641113,4390.256348,4402.820313,4412.563965,4401.538574,4363.077148,4314.230957,4311.410156,4519.102539,4277.05127,4311.538574,,,,,,,,,,,,,,,,,,,,,,,,,,,,,,,,,,,,,,,,,,,,,,,,,,,,,,,,,,,,,,,,,,,,,,
1720078138,6,0,4363.205078,4396.538574,4408.333496,4405,4391.410156,4403.717773,4413.846191,4397.692383,4362.05127,4311.153809,4303.077148,4445,4271.666504,4314.743652,,,,,,,,,,,,,,,,,,,,,,,,,,,,,,,,,,,,,,,,,,,,,,,,,,,,,,,,,,,,,,,,,,,,,,
1720078138,7,0,4360.897461,4400.256348,4412.820313,4411.282227,4393.461426,4401.794922,4419.102539,4404.230957,4365.128418,4312.179688,4297.94873,4403.205078,4265.128418,4322.179688,,,,,,,,,,,,,,,,,,,,,,,,,,,,,,,,,,,,,,,,,,,,,,,,,,,,,,,,,,,,,,,,,,,,,,
1720078138,8,0,4360.256348,4401.922852,4412.820313,4410.897461,4396.666504,4407.307617,4426.922852,4407.307617,4368.333496,4313.846191,4300.897461,4418.077148,4259.230957,4342.94873,,,,,,,,,,,,,,,,,,,,,,,,,,,,,,,,,,,,,,,,,,,,,,,,,,,,,,,,,,,,,,,,,,,,,,
1720078138,9,0,4364.358887,4410.128418,4413.333496,4412.05127,4397.179688,4409.871582,4427.94873,4405.128418,4368.333496,4317.436035,4304.743652,4425.384766,4259.615234,4367.692383,,,,,,,,,,,,,,,,,,,,,,,,,,,,,,,,,,,,,,,,,,,,,,,,,,,,,,,,,,,,,,,,,,,,,,
1720078138,10,0,4367.307617,4407.820313,4411.538574,4415.256348,4394.871582,4403.717773,4422.692383,4406.153809,4363.461426,4314.871582,4298.717773,4409.743652,4255.769043,4378.077148,,,,,,,,,,,,,,,,,,,,,,,,,,,,,,,,,,,,,,,,,,,,,,,,,,,,,,,,,,,,,,,,,,,,,,
1720078138,11,0,4371.153809,4399.871582,4406.794922,4413.205078,4394.102539,4402.436035,4417.820313,4400.897461,4357.179688,4305.641113,4294.743652,4399.871582,4255.769043,4381.666504,,,,,,,,,,,,,,,,,,,,,,,,,,,,,,,,,,,,,,,,,,,,,,,,,,,,,,,,,,,,,,,,,,,,,,
1720078138,12,0,4372.563965,4404.102539,4408.077148,4415.384766,4394.230957,4409.743652,4413.205078,4394.102539,4355.641113,4305.256348,4296.410156,4393.077148,4261.282227,4388.205078,,,,,,,,,,,,,,,,,,,,,,,,,,,,,,,,,,,,,,,,,,,,,,,,,,,,,,,,,,,,,,,,,,,,,,
1720078138,13,0,4372.307617,4402.692383,4412.05127,4418.333496,4394.102539,4412.692383,4414.230957,4400.256348,4362.05127,4312.436035,4295,4396.666504,4261.410156,4394.358887,,,,,,,,,,,,,,,,,,,,,,,,,,,,,,,,,,,,,,,,,,,,,,,,,,,,,,,,,,,,,,,,,,,,,,
1720078138,14,0,4378.846191,4395.897461,4412.692383,4415.769043,4391.538574,4407.692383,4418.205078,4410.256348,4371.282227,4313.974121,4294.871582,4424.102539,4263.461426,4405.512695,,,,,,,,,,,,,,,,,,,,,,,,,,,,,,,,,,,,,,,,,,,,,,,,,,,,,,,,,,,,,,,,,,,,,,
1720078138,15,0,4368.589844,4397.436035,4409.358887,4411.922852,4387.563965,4401.153809,4415.384766,4408.077148,4369.615234,4312.05127,4296.025879,4450.256348,4268.974121,4420.769043,,,,,,,,,,,,,,,,,,,,,,,,,,,,,,,,,,,,,,,,,,,,,,,,,,,,,,,,,,,,,,,,,,,,,,
1720078138,16,0,4329.487305,4398.333496,4405.128418,4406.538574,4389.230957,4399.871582,4410.384766,4397.692383,4357.692383,4309.102539,4292.436035,4447.94873,4262.307617,4426.538574,,,,,,,,,,,,,,,,,,,,,,,,,,,,,,,,,,,,,,,,,,,,,,,,,,,,,,,,,,,,,,,,,,,,,,
1720078138,17,0,4309.102539,4396.025879,4405,4402.94873,4395,4400,4411.538574,4395.128418,4358.974121,4308.974121,4290.256348,4437.820313,4255.512695,4434.358887,,,,,,,,,,,,,,,,,,,,,,,,,,,,,,,,,,,,,,,,,,,,,,,,,,,,,,,,,,,,,,,,,,,,,,
1720078138,18,0,4329.102539,4400.769043,4415.897461,4406.794922,4397.692383,4401.922852,4415,4400.897461,4371.025879,4317.820313,4298.205078,4448.077148,4268.077148,4462.05127,11.970398,5.09154,1.568193,1.518584,0.470437,4.802692,2.040496,1.266306,0.943556,0.228791,6.415238,2.394264,1.009713,1.109799,0.226414,4.039852,1.06899,0.454421,0.845954,0.152781,0.539453,0.113699,0.157216,0.200228,0.109156,0.356567,0.196929,0.446551,0.312521,0.137448,1.420698,0.902845,0.309002,0.2161,0.120951,1.845209,0.678281,0.703262,0.366398,0.138669,1.222958,0.405052,0.992654,0.739425,0.268457,1.404533,0.870525,0.931872,0.531023,0.196932,6.09537,1.227758,1.714271,0.981217,0.382863,12.784547,2.874016,3.220547,1.314678,0.421478,9.520598,2.936595,1.472317,0.945453,0.276315,20.73963,2.573595,1.646394,1.545259,0.739174
1720078138,19,0,4351.410156,4406.025879,4427.692383,4411.538574,4396.794922,4410.128418,4415.256348,4398.846191,4367.563965,4323.974121,4309.615234,4462.94873,4283.077148,4491.025879,,,,,,,,,,,,,,,,,,,,,,,,,,,,,,,,,,,,,,,,,,,,,,,,,,,,,,,,,,,,,,,,,,,,,,
1720078138,20,0,4355.256348,4402.563965,4426.794922,4406.153809,4396.025879,4412.820313,4415.384766,4390.897461,4354.230957,4315.512695,4307.05127,4462.820313,4281.794922,4499.615234,,,,,,,,,,,,,,,,,,,,,,,,,,,,,,,,,,,,,,,,,,,,,,,,,,,,,,,,,,,,,,,,,,,,,,
1720078138,21,0,4354.358887,4397.307617,4415.512695,4398.846191,4396.666504,4410.641113,4414.743652,4391.794922,4353.461426,4306.538574,4294.871582,4450.897461,4274.615234,4497.94873,,,,,,,,,,,,,,,,,,,,,,,,,,,,,,,,,,,,,,,,,,,,,,,,,,,,,,,,,,,,,,,,,,,,,,
1720078138,22,0,4354.487305,4392.820313,4404.358887,4397.820313,4394.102539,4412.436035,4414.358887,4396.922852,4359.102539,4309.358887,4289.871582,4441.025879,4273.461426,4501.538574,,,,,,,,,,,,,,,,,,,,,,,,,,,,,,,,,,,,,,,,,,,,,,,,,,,,,,,,,,,,,,,,,,,,,,
1720078138,23,0,4359.358887,4391.410156,4402.692383,4395.641113,4389.487305,4408.846191,4411.025879,4397.436035,4359.102539,4311.922852,4292.563965,4443.077148,4277.179688,4516.410156,,,,,,,,,,,,,,,,,,,,,,,,,,,,,,,,,,,,,,,,,,,,,,,,,,,,,,,,,,,,,,,,,,,,,,
1720078138,24,0,4376.282227,4396.410156,4407.179688,4394.871582,4389.487305,4397.820313,4402.436035,4393.717773,4358.077148,4309.871582,4294.358887,4444.615234,4280,4539.230957,,,,,,,,,,,,,,,,,,,,,,,,,,,,,,,,,,,,,,,,,,,,,,,,,,,,,,,,,,,,,,,,,,,,,,
1720078138,25,0,4395.897461,4405.384766,4414.487305,4406.153809,4397.94873,4400.641113,4403.077148,4390.128418,4355,4312.05127,4296.794922,4444.743652,4281.153809,4558.333496,,,,,,,,,,,,,,,,,,,,,,,,,,,,,,,,,,,,,,,,,,,,,,,,,,,,,,,,,,,,,,,,,,,,,,
1720078138,26,0,4400,4406.282227,4415.256348,4412.94873,4400.512695,4411.922852,4410.897461,4388.077148,4345.128418,4311.922852,4296.282227,4452.94873,4282.307617,4565.897461,,,,,,,,,,,,,,,,,,,,,,,,,,,,,,,,,,,,,,,,,,,,,,,,,,,,,,,,,,,,,,,,,,,,,,
1720078138,27,0,4391.282227,4397.436035,4401.410156,4398.974121,4390.384766,4411.153809,4413.589844,4390.384766,4338.205078,4308.205078,4289.230957,4455.256348,4278.717773,4565.897461,,,,,,,,,,,,,,,,,,,,,,,,,,,,,,,,,,,,,,,,,,,,,,,,,,,,,,,,,,,,,,,,,,,,,,
1720078138,28,0,4392.563965,4396.666504,4399.615234,4393.333496,4388.589844,4409.358887,4420.384766,4400.897461,4349.102539,4316.538574,4296.153809,4457.307617,4277.94873,4574.615234,,,,,,,,,,,,,,,,,,,,,,,,,,,,,,,,,,,,,,,,,,,,,,,,,,,,,,,,,,,,,,,,,,,,,,
1720078138,29,0,4401.153809,4399.871582,4410.256348,4402.820313,4396.666504,4414.871582,4432.05127,4415,4367.563965,4329.230957,4309.230957,4468.077148,4288.846191,4588.333496,,,,,,,,,,,,,,,,,,,,,,,,,,,,,,,,,,,,,,,,,,,,,,,,,,,,,,,,,,,,,,,,,,,,,,
1720078138,30,0,4397.307617,4393.974121,4401.666504,4395.384766,4391.282227,4410.128418,4425.769043,4418.589844,4374.487305,4330,4303.333496,4464.487305,4296.538574,4584.230957,,,,,,,,,,,,,,,,,,,,,,,,,,,,,,,,,,,,,,,,,,,,,,,,,,,,,,,,,,,,,,,,,,,,,,
1720078138,31,0,4396.666504,4396.538574,4387.179688,4384.358887,4376.025879,4396.153809,4407.563965,4410,4371.666504,4324.615234,4296.153809,4451.025879,4294.487305,4577.436035,,,,,,,,,,,,,,,,,,,,,,,,,,,,,,,,,,,,,,,,,,,,,,,,,,,,,,,,,,,,,,,,,,,,,,
1720078138,32,0,4415.897461,4413.974121,4395.641113,4393.077148,4381.410156,4392.05127,4400.128418,4401.538574,4368.717773,4325.128418,4305.512695,4453.589844,4293.077148,4588.717773,,,,,,,,,,,,,,,,,,,,,,,,,,,,,,,,,,,,,,,,,,,,,,,,,,,,,,,,,,,,,,,,,,,,,,
1720078138,33,0,4431.666504,4424.358887,4408.205078,4402.692383,4396.282227,4397.563965,4402.563965,4400.256348,4365.128418,4327.307617,4311.538574,4467.179688,4297.436035,4604.102539,,,,,,,,,,,,,,,,,,,,,,,,,,,,,,,,,,,,,,,,,,,,,,,,,,,,,,,,,,,,,,,,,,,,,,
1720078138,34,0,4427.692383,4424.871582,4409.230957,4399.102539,4392.307617,4397.94873,4399.615234,4397.436035,4353.077148,4321.410156,4303.205078,4472.179688,4299.743652,4608.333496,17.803625,6.56956,1.611025,1.58186,0.525251,3.855695,1.971243,1.081814,0.910619,0.241234,5.828978,2.191589,0.9565,1.137418,0.244272,3.394028,0.986237,0.339443,0.843082,0.148345,0.465096,0.094218,0.144749,0.18188,0.103902,0.45421,0.199599,0.359261,0.242304,0.124128,1.653824,0.883868,0.300591,0.202642,0.126553,2.072013,0.649654,0.681942,0.383228,0.147013,1.335598,0.38666,0.839617,0.769583,0.268964,1.279239,0.753904,0.861949,0.554288,0.207602,6.097145,1.244499,1.701305,1.033349,0.405011,12.267247,2.746161,2.898062,1.323779,0.454573,8.765862,2.917901,1.458529,0.994326,0.309911,20.997864,2.211499,1.589844,1.742112,0.718242
1720078138,35,0,4425.897461,4434.358887,4411.922852,4400.897461,4389.102539,4391.538574,4394.743652,4391.282227,4335,4312.05127,4298.846191,4472.820313,4299.102539,4605.769043,,,,,,,,,,,,,,,,,,,,,,,,,,,,,,,,,,,,,,,,,,,,,,,,,,,,,,,,,,,,,,,,,,,,,,
1720078138,36,0,4438.077148,4445.256348,4414.743652,4411.666504,4394.871582,4384.615234,4401.282227,4390.384766,4323.846191,4307.436035,4305.641113,4479.615234,4302.820313,4612.820313,,,,,,,,,,,,,,,,,,,,,,,,,,,,,,,,,,,,,,,,,,,,,,,,,,,,,,,,,,,,,,,,,,,,,,
1720078138,37,0,4446.666504,4445.641113,4418.333496,4411.666504,4396.153809,4386.410156,4411.282227,4395.128418,4325.897461,4314.102539,4318.846191,4497.94873,4316.153809,4637.94873,,,,,,,,,,,,,,,,,,,,,,,,,,,,,,,,,,,,,,,,,,,,,,,,,,,,,,,,,,,,,,,,,,,,,,
1720078138,38,0,4443.461426,4442.820313,4423.333496,4400.128418,4391.410156,4386.922852,4408.077148,4394.743652,4324.615234,4320.769043,4329.487305,4509.615234,4330.256348,4661.410156,,,,,,,,,,,,,,,,,,,,,,,,,,,,,,,,,,,,,,,,,,,,,,,,,,,,,,,,,,,,,,,,,,,,,,
1720078138,39,0,4446.410156,4444.230957,4423.333496,4394.743652,4390.256348,4378.589844,4400.256348,4391.666504,4317.307617,4321.410156,4331.153809,4505.256348,4333.589844,4669.743652,,,,,,,,,,,,,,,,,,,,,,,,,,,,,,,,,,,,,,,,,,,,,,,,,,,,,,,,,,,,,,,,,,,,,,
1720078138,40,0,4454.102539,4445.256348,4426.025879,4396.666504,4389.615234,4376.538574,4397.94873,4394.230957,4326.025879,4327.179688,4337.563965,4510.256348,4334.615234,4677.563965,,,,,,,,,,,,,,,,,,,,,,,,,,,,,,,,,,,,,,,,,,,,,,,,,,,,,,,,,,,,,,,,,,,,,,
1720078138,41,0,4457.179688,4442.820313,4430.256348,4394.871582,4384.743652,4380.769043,4399.871582,4400.897461,4344.871582,4342.563965,4353.461426,4525.512695,4349.743652,4700.256348,,,,,,,,,,,,,,,,,,,,,,,,,,,,,,,,,,,,,,,,,,,,,,,,,,,,,,,,,,,,,,,,,,,,,,
1720078138,42,0,4455.769043,4443.974121,4428.077148,4396.282227,4384.871582,4381.025879,4405.769043,4407.563965,4353.589844,4351.666504,4364.615234,4531.666504,4375,4724.743652,,,,,,,,,,,,,,,,,,,,,,,,,,,,,,,,,,,,,,,,,,,,,,,,,,,,,,,,,,,,,,,,,,,,,,
1720078138,43,0,4450,4443.333496,4420.769043,4399.230957,4389.743652,4382.179688,4413.077148,4414.230957,4352.307617,4347.563965,4355.512695,4524.102539,4380.256348,4727.436035,,,,,,,,,,,,,,,,,,,,,,,,,,,,,,,,,,,,,,,,,,,,,,,,,,,,,,,,,,,,,,,,,,,,,,
1720078138,44,0,4440.897461,4433.717773,4414.358887,4393.205078,4391.282227,4386.794922,4412.563965,4412.820313,4347.563965,4338.717773,4336.538574,4510.897461,4363.974121,4714.487305,,,,,,,,,,,,,,,,,,,,,,,,,,,,,,,,,,,,,,,,,,,,,,,,,,,,,,,,,,,,,,,,,,,,,,
1720078138,45,0,4427.436035,4426.666504,4410.769043,4387.436035,4386.025879,4384.102539,4406.666504,4404.102539,4342.05127,4330.384766,4331.153809,4502.179688,4361.410156,4712.179688,,,,,,,,,,,,,,,,,,,,,,,,,,,,,,,,,,,,,,,,,,,,,,,,,,,,,,,,,,,,,,,,,,,,,,
1720078138,46,0,4401.025879,4427.05127,4408.717773,4385.769043,4383.077148,4378.717773,4404.358887,4401.794922,4337.563965,4326.410156,4337.179688,4503.589844,4374.871582,4715.641113,,,,,,,,,,,,,,,,,,,,,,,,,,,,,,,,,,,,,,,,,,,,,,,,,,,,,,,,,,,,,,,,,,,,,,
1720078138,47,0,4368.717773,4423.461426,4404.358887,4380.256348,4384.230957,4381.666504,4406.025879,4404.358887,4336.410156,4327.179688,4338.461426,4505.128418,4383.333496,4706.666504,,,,,,,,,,,,,,,,,,,,,,,,,,,,,,,,,,,,,,,,,,,,,,,,,,,,,,,,,,,,,,,,,,,,,,
1720078138,48,0,4354.102539,4415.256348,4398.077148,4371.153809,4381.922852,4380.128418,4398.461426,4393.333496,4331.538574,4324.871582,4329.230957,4493.846191,4378.974121,4693.461426,,,,,,,,,,,,,,,,,,,,,,,,,,,,,,,,,,,,,,,,,,,,,,,,,,,,,,,,,,,,,,,,,,,,,,
1720078138,49,0,4356.282227,4417.307617,4396.538574,4370.384766,4382.436035,4373.589844,4387.692383,4382.307617,4324.358887,4324.102539,4321.922852,4486.025879,4372.179688,4688.077148,,,,,,,,,,,,,,,,,,,,,,,,,,,,,,,,,,,,,,,,,,,,,,,,,,,,,,,,,,,,,,,,,,,,,,
1720078138,50,0,4353.333496,4420.897461,4396.282227,4374.358887,4385.128418,4370.512695,4387.563965,4386.410156,4323.077148,4326.282227,4325.256348,4487.436035,4373.461426,4686.538574,26.182333,8.11829,1.552255,1.575884,0.567936,3.604847,1.800875,0.923425,0.813799,0.258806,5.311817,1.865777,0.93026,1.078381,0.268328,2.995767,0.859319,0.316393,0.794583,0.159986,0.429076,0.1138,0.156856,0.159513,0.100154,0.598565,0.209902,0.278262,0.1773,0.115183,2.013867,0.797926,0.328459,0.200636,0.144963,2.377176,0.578117,0.676217,0.383631,0.162431,1.439461,0.355058,0.684275,0.734894,0.269444,1.148454,0.636496,0.766608,0.543247,0.238681,5.75535,1.292982,1.636348,1.018985,0.444452,12.29355,2.881297,2.389317,1.310758,0.50673,7.398601,2.777566,1.445187,0.98315,0.364214,22.65502,2.450213,1.664974,1.975528,0.731868
1720078138,51,0,4350.897461,4415.641113,4390.128418,4373.461426,4385.512695,4373.589844,4392.307617,4391.922852,4331.282227,4327.307617,4330.384766,4487.94873,4378.974121,4687.436035,,,,,,,,,,,,,,,,,,,,,,,,,,,,,,,,,,,,,,,,,,,,,,,,,,,,,,,,,,,,,,,,,,,,,,
1720078138,52,0,4353.846191,4409.871582,4382.94873,4366.794922,4382.179688,4378.846191,4391.794922,4390.384766,4340,4329.358887,4325.256348,4481.153809,4373.205078,4683.077148,,,,,,,,,,,,,,,,,,,,,,,,,,,,,,,,,,,,,,,,,,,,,,,,,,,,,,,,,,,,,,,,,,,,,,
1720078138,53,0,4348.461426,4405.256348,4375.769043,4360.384766,4374.487305,4380.769043,4393.205078,4392.563965,4341.153809,4331.282227,4317.563965,4469.871582,4361.794922,4670.384766,,,,,,,,,,,,,,,,,,,,,,,,,,,,,,,,,,,,,,,,,,,,,,,,,,,,,,,,,,,,,,,,,,,,,,
1720078138,54,0,4342.307617,4402.94873,4375,4361.794922,4371.538574,4380.128418,4403.589844,4406.025879,4346.922852,4335.384766,4321.538574,4474.102539,4364.743652,4671.153809,,,,,,,,,,,,,,,,,,,,,,,,,,,,,,,,,,,,,,,,,,,,,,,,,,,,,,,,,,,,,,,,,,,,,,
1720078138,55,0,4342.307617,4397.307617,4375.769043,4357.179688,4371.794922,4378.846191,4408.589844,4411.922852,4351.025879,4336.282227,4325,4487.436035,4367.563965,4679.102539,,,,,,,,,,,,,,,,,,,,,,,,,,,,,,,,,,,,,,,,,,,,,,,,,,,,,,,,,,,,,,,,,,,,,,
1720078138,56,0,4328.205078,4379.487305,4363.846191,4335.769043,4362.94873,4376.153809,4401.666504,4403.461426,4345.256348,4327.307617,4317.179688,4481.025879,4360.641113,4675.384766,,,,,,,,,,,,,,,,,,,,,,,,,,,,,,,,,,,,,,,,,,,,,,,,,,,,,,,,,,,,,,,,,,,,,,
1720078138,57,0,4324.615234,4378.974121,4362.307617,4335.128418,4357.692383,4371.794922,4396.153809,4398.717773,4345.512695,4328.205078,4322.179688,4475.256348,4368.974121,4688.717773,,,,,,,,,,,,,,,,,,,,,,,,,,,,,,,,,,,,,,,,,,,,,,,,,,,,,,,,,,,,,,,,,,,,,,
1720078138,58,0,4351.794922,4405.256348,4384.102539,4362.692383,4370.384766,4374.615234,4394.743652,4397.94873,4353.461426,4343.846191,4338.589844,4492.436035,4387.05127,4712.05127,,,,,,,,,,,,,,,,,,,,,,,,,,,,,,,,,,,,,,,,,,,,,,,,,,,,,,,,,,,,,,,,,,,,,,
1720078138,59,0,4357.05127,4409.230957,4385.384766,4364.487305,4376.025879,4384.358887,4391.282227,4391.794922,4354.871582,4347.179688,4331.922852,4497.307617,4383.846191,4706.025879,,,,,,,,,,,,,,,,,,,,,,,,,,,,,,,,,,,,,,,,,,,,,,,,,,,,,,,,,,,,,,,,,,,,,,
1720078138,60,0,4331.153809,4384.487305,4360.897461,4340.769043,4368.846191,4385.769043,4387.436035,4385.384766,4352.820313,4335.769043,4314.102539,4474.871582,4368.846191,4693.461426,,,,,,,,,,,,,,,,,,,,,,,,,,,,,,,,,,,,,,,,,,,,,,,,,,,,,,,,,,,,,,,,,,,,,,
1720078138,61,0,4328.077148,4380.512695,4356.410156,4338.589844,4371.410156,4381.410156,4384.487305,4384.615234,4357.436035,4335.256348,4317.179688,4463.077148,4369.487305,4705,,,,,,,,,,,,,,,,,,,,,,,,,,,,,,,,,,,,,,,,,,,,,,,,,,,,,,,,,,,,,,,,,,,,,,
1720078138,62,0,4334.615234,4386.538574,4360,4345.384766,4370.641113,4380.769043,4378.974121,4383.974121,4361.153809,4339.102539,4323.974121,4465,4371.282227,4711.025879,,,,,,,,,,,,,,,,,,,,,,,,,,,,,,,,,,,,,,,,,,,,,,,,,,,,,,,,,,,,,,,,,,,,,,
1720078138,63,0,4322.563965,4376.282227,4350.512695,4338.461426,4361.922852,4378.846191,4378.846191,4388.717773,4367.94873,4337.307617,4317.307617,4461.794922,4365.641113,4705.384766,,,,,,,,,,,,,,,,,,,,,,,,,,,,,,,,,,,,,,,,,,,,,,,,,,,,,,,,,,,,,,,,,,,,,,
1720078138,64,0,4322.307617,4379.230957,4351.538574,4339.615234,4364.358887,4373.333496,4385.128418,4403.077148,4379.230957,4340.897461,4317.692383,4465.256348,4365.384766,4717.692383,,,,,,,,,,,,,,,,,,,,,,,,,,,,,,,,,,,,,,,,,,,,,,,,,,,,,,,,,,,,,,,,,,,,,,
1720078138,65,0,4327.692383,4384.743652,4348.461426,4341.666504,4364.871582,4374.743652,4388.461426,4410.384766,4382.179688,4345.384766,4320,4465,4365.769043,4727.436035,,,,,,,,,,,,,,,,,,,,,,,,,,,,,,,,,,,,,,,,,,,,,,,,,,,,,,,,,,,,,,,,,,,,,,
1720078138,66,0,4313.077148,4365.384766,4330.256348,4328.333496,4356.153809,4380,4387.307617,4403.589844,4378.717773,4343.974121,4313.205078,4449.358887,4364.230957,4715.769043,36.32682,9.384782,1.452757,1.526461,0.597617,4.381167,1.587092,0.773286,0.687463,0.284735,4.875767,1.496917,0.894161,0.955367,0.293996,3.002302,0.705743,0.328052,0.712248,0.188296,0.455788,0.159135,0.18548,0.136286,0.102025,0.755011,0.226131,0.226647,0.133267,0.112848,2.392868,0.678758,0.394226,0.208725,0.173192,2.644552,0.519453,0.67188,0.366656,0.182377,1.550325,0.383718,0.553388,0.649706,0.271597,1.024752,0.563807,0.652781,0.501317,0.288725,5.208171,1.352564,1.508209,0.938426,0.496049,13.474423,3.561311,1.840289,1.334108,0.58677,5.904838,2.571423,1.394475,0.915392,0.430332,23.312763,2.644364,1.764874,2.094047,0.761732
1720078138,67,0,4304.871582,4360,4325,4322.179688,4358.974121,4380.128418,4386.666504,4394.615234,4377.05127,4341.666504,4310.897461,4444.230957,4366.922852,4702.820313,,,,,,,,,,,,,,,,,,,,,,,,,,,,,,,,,,,,,,,,,,,,,,,,,,,,,,,,,,,,,,,,,,,,,,
1720078138,68,0,4306.794922,4375.512695,4321.666504,4327.94873,4365,4382.436035,4388.077148,4390.128418,4371.666504,4340.897461,4306.153809,4445.256348,4364.358887,4687.436035,,,,,,,,,,,,,,,,,,,,,,,,,,,,,,,,,,,,,,,,,,,,,,,,,,,,,,,,,,,,,,,,,,,,,,
1720078138,69,0,4295.897461,4368.589844,4297.820313,4322.692383,4358.846191,4385.512695,4385.641113,4376.153809,4355.128418,4326.538574,4282.563965,4420.256348,4341.538574,4658.717773,,,,,,,,,,,,,,,,,,,,,,,,,,,,,,,,,,,,,,,,,,,,,,,,,,,,,,,,,,,,,,,,,,,,,,
1720078138,70,0,4289.743652,4353.589844,4286.538574,4312.05127,4355.384766,4380.897461,4376.153809,4363.205078,4343.717773,4310.769043,4263.974121,4389.615234,4321.282227,4638.077148,,,,,,,,,,,,,,,,,,,,,,,,,,,,,,,,,,,,,,,,,,,,,,,,,,,,,,,,,,,,,,,,,,,,,,
1720078138,71,0,4301.282227,4360.769043,4304.615234,4318.846191,4358.205078,4377.179688,4371.666504,4372.436035,4357.179688,4320.256348,4277.436035,4390.641113,4334.743652,4647.05127,,,,,,,,,,,,,,,,,,,,,,,,,,,,,,,,,,,,,,,,,,,,,,,,,,,,,,,,,,,,,,,,,,,,,,
1720078138,72,0,4301.282227,4363.205078,4310.897461,4326.794922,4358.333496,4380.897461,4377.820313,4382.692383,4375,4337.05127,4293.461426,4399.743652,4354.615234,4656.153809,,,,,,,,,,,,,,,,,,,,,,,,,,,,,,,,,,,,,,,,,,,,,,,,,,,,,,,,,,,,,,,,,,,,,,
1720078138,73,0,4289.743652,4357.179688,4295,4317.692383,4357.179688,4379.871582,4383.846191,4383.717773,4377.692383,4338.461426,4286.025879,4393.589844,4346.794922,4641.922852,,,,,,,,,,,,,,,,,,,,,,,,,,,,,,,,,,,,,,,,,,,,,,,,,,,,,,,,,,,,,,,,,,,,,,
1720078138,74,0,4291.025879,4356.794922,4286.282227,4308.589844,4357.05127,4379.615234,4389.615234,4391.282227,4375.256348,4333.846191,4278.717773,4395,4337.05127,4628.974121,,,,,,,,,,,,,,,,,,,,,,,,,,,,,,,,,,,,,,,,,,,,,,,,,,,,,,,,,,,,,,,,,,,,,,
1720078138,75,0,4295.512695,4352.820313,4295.769043,4313.461426,4356.153809,4391.538574,4404.230957,4405.384766,4383.205078,4335.641113,4289.615234,4413.846191,4350.128418,4639.615234,,,,,,,,,,,,,,,,,,,,,,,,,,,,,,,,,,,,,,,,,,,,,,,,,,,,,,,,,,,,,,,,,,,,,,
1720078138,76,0,4295.769043,4352.94873,4312.05127,4321.153809,4357.820313,4399.230957,4413.461426,4414.102539,4395.384766,4341.922852,4301.538574,4429.487305,4363.717773,4662.563965,,,,,,,,,,,,,,,,,,,,,,,,,,,,,,,,,,,,,,,,,,,,,,,,,,,,,,,,,,,,,,,,,,,,,,
1720078138,77,0,4300.512695,4355.897461,4316.794922,4318.077148,4358.589844,4390.897461,4400.384766,4408.974121,4391.794922,4341.153809,4297.692383,4425,4357.436035,4670.769043,,,,,,,,,,,,,,,,,,,,,,,,,,,,,,,,,,,,,,,,,,,,,,,,,,,,,,,,,,,,,,,,,,,,,,
1720078138,78,0,4307.94873,4355.256348,4311.794922,4314.358887,4354.102539,4383.077148,4386.410156,4398.974121,4385.256348,4338.717773,4291.282227,4415.256348,4350.641113,4664.358887,,,,,,,,,,,,,,,,,,,,,,,,,,,,,,,,,,,,,,,,,,,,,,,,,,,,,,,,,,,,,,,,,,,,,,
1720078138,79,0,4309.487305,4358.333496,4314.102539,4320.384766,4354.358887,4385.641113,4389.358887,4396.538574,4392.436035,4345.641113,4297.436035,4416.666504,4357.436035,4664.615234,,,,,,,,,,,,,,,,,,,,,,,,,,,,,,,,,,,,,,,,,,,,,,,,,,,,,,,,,,,,,,,,,,,,,,
1720078138,80,0,4300,4355,4314.871582,4320.897461,4357.94873,4385.128418,4389.230957,4391.922852,4389.358887,4345.512695,4296.666504,4415.256348,4361.282227,4670.256348,,,,,,,,,,,,,,,,,,,,,,,,,,,,,,,,,,,,,,,,,,,,,,,,,,,,,,,,,,,,,,,,,,,,,,
1720078138,81,0,4287.307617,4340.128418,4302.307617,4312.820313,4357.307617,4380.128418,4383.589844,4381.153809,4371.410156,4331.794922,4282.692383,4409.615234,4351.666504,4662.179688,,,,,,,,,,,,,,,,,,,,,,,,,,,,,,,,,,,,,,,,,,,,,,,,,,,,,,,,,,,,,,,,,,,,,,
1720078138,82,0,4268.846191,4339.615234,4300.512695,4314.230957,4361.025879,4384.230957,4389.102539,4381.153809,4368.077148,4328.461426,4282.692383,4415.512695,4346.794922,4659.871582,46.48756,9.967901,1.414789,1.472045,0.617424,6.189357,1.39546,0.643572,0.569819,0.316985,4.481262,1.160673,0.834583,0.812919,0.317361,3.375304,0.560017,0.347625,0.617507,0.227547,0.534905,0.215372,0.223084,0.116057,0.11157,0.875202,0.244733,0.214584,0.119188,0.116654,2.643911,0.578337,0.489927,0.225072,0.204329,2.789718,0.547318,0.64783,0.339995,0.202199,1.604978,0.594365,0.4813,0.547172,0.274813,0.935377,0.589446,0.54752,0.444914,0.345792,4.49591,1.403479,1.330401,0.815907,0.547603,15.847043,4.825495,1.383916,1.432231,0.689622,4.804234,2.359438,1.284894,0.817375,0.494395,22.993568,2.696041,1.799944,2.046805,0.793958
1720078138,83,0,4226.794922,4345.897461,4308.461426,4317.692383,4366.153809,4394.487305,4397.179688,4385.128418,4371.153809,4330,4290.256348,4408.846191,4351.282227,4668.205078,,,,,,,,,,,,,,,,,,,,,,,,,,,,,,,,,,,,,,,,,,,,,,,,,,,,,,,,,,,,,,,,,,,,,,
1720078138,84,0,4177.563965,4333.717773,4299.871582,4311.025879,4362.94873,4399.102539,4398.589844,4381.922852,4367.563965,4323.846191,4286.538574,4379.743652,4351.794922,4660.128418,,,,,,,,,,,,,,,,,,,,,,,,,,,,,,,,,,,,,,,,,,,,,,,,,,,,,,,,,,,,,,,,,,,,,,
1720078138,85,0,4160.384766,4325.128418,4291.410156,4309.358887,4358.205078,4399.102539,4402.820313,4390.384766,4376.282227,4330.128418,4294.487305,4380.128418,4357.563965,4661.025879,,,,,,,,,,,,,,,,,,,,,,,,,,,,,,,,,,,,,,,,,,,,,,,,,,,,,,,,,,,,,,,,,,,,,,
1720078138,86,0,4163.717773,4325.641113,4291.794922,4306.794922,4354.230957,4391.153809,4402.307617,4404.743652,4384.743652,4340.769043,4306.666504,4400.512695,4363.846191,4673.077148,,,,,,,,,,,,,,,,,,,,,,,,,,,,,,,,,,,,,,,,,,,,,,,,,,,,,,,,,,,,,,,,,,,,,,
1720078138,87,0,4167.563965,4322.94873,4291.538574,4300.384766,4346.922852,4375.769043,4395.897461,4411.025879,4388.333496,4342.436035,4304.102539,4401.153809,4367.94873,4671.025879,,,,,,,,,,,,,,,,,,,,,,,,,,,,,,,,,,,,,,,,,,,,,,,,,,,,,,,,,,,,,,,,,,,,,,
1720078138,88,0,4185.128418,4328.974121,4306.538574,4309.743652,4347.563965,4372.94873,4400.256348,4419.615234,4402.307617,4352.820313,4319.230957,4412.563965,4388.974121,4676.922852,,,,,,,,,,,,,,,,,,,,,,,,,,,,,,,,,,,,,,,,,,,,,,,,,,,,,,,,,,,,,,,,,,,,,,
1720078139,89,0,4201.794922,4336.922852,4324.487305,4323.333496,4355,4381.666504,4403.974121,4422.94873,4403.333496,4363.333496,4341.666504,4433.717773,4409.743652,4693.717773,,,,,,,,,,,,,,,,,,,,,,,,,,,,,,,,,,,,,,,,,,,,,,,,,,,,,,,,,,,,,,,,,,,,,,
1720078139,90,0,4202.563965,4334.487305,4318.846191,4322.692383,4354.230957,4376.025879,4388.717773,4410.512695,4385.769043,4359.871582,4333.974121,4430.897461,4407.307617,4695.769043,,,,,,,,,,,,,,,,,,,,,,,,,,,,,,,,,,,,,,,,,,,,,,,,,,,,,,,,,,,,,,,,,,,,,,
1720078139,91,0,4205.641113,4333.077148,4307.94873,4322.436035,4351.153809,4363.589844,4375.512695,4398.077148,4379.615234,4356.410156,4325,4419.743652,4402.436035,4689.487305,,,,,,,,,,,,,,,,,,,,,,,,,,,,,,,,,,,,,,,,,,,,,,,,,,,,,,,,,,,,,,,,,,,,,,
1720078139,92,0,4211.666504,4333.974121,4310.897461,4323.974121,4351.410156,4368.846191,4380.897461,4395.641113,4381.922852,4353.974121,4327.179688,4422.436035,4407.05127,4685.769043,,,,,,,,,,,,,,,,,,,,,,,,,,,,,,,,,,,,,,,,,,,,,,,,,,,,,,,,,,,,,,,,,,,,,,
1720078139,93,0,4204.358887,4320.384766,4309.230957,4313.205078,4352.05127,4381.282227,4388.077148,4385,4372.179688,4344.102539,4318.333496,4419.358887,4399.743652,4666.794922,,,,,,,,,,,,,,,,,,,,,,,,,,,,,,,,,,,,,,,,,,,,,,,,,,,,,,,,,,,,,,,,,,,,,,
1720078139,94,0,4193.461426,4308.205078,4297.307617,4303.974121,4351.922852,4382.563965,4383.077148,4365.128418,4359.615234,4335.384766,4305.897461,4402.179688,4389.871582,4647.05127,,,,,,,,,,,,,,,,,,,,,,,,,,,,,,,,,,,,,,,,,,,,,,,,,,,,,,,,,,,,,,,,,,,,,,
1720078139,95,0,4195,4308.077148,4284.487305,4303.589844,4346.282227,4378.846191,4371.025879,4354.615234,4346.282227,4329.615234,4296.666504,4386.922852,4385.128418,4636.922852,,,,,,,,,,,,,,,,,,,,,,,,,,,,,,,,,,,,,,,,,,,,,,,,,,,,,,,,,,,,,,,,,,,,,,
1720078139,96,0,4202.692383,4307.563965,4278.077148,4300.641113,4340.897461,4379.871582,4370.384766,4363.077148,4337.179688,4321.410156,4288.333496,4385.897461,4379.230957,4625.384766,,,,,,,,,,,,,,,,,,,,,,,,,,,,,,,,,,,,,,,,,,,,,,,,,,,,,,,,,,,,,,,,,,,,,,
1720078139,97,0,4211.538574,4309.102539,4285.384766,4300.256348,4342.692383,4382.307617,4382.820313,4382.94873,4353.077148,4328.205078,4297.436035,4401.794922,4380.897461,4620.512695,,,,,,,,,,,,,,,,,,,,,,,,,,,,,,,,,,,,,,,,,,,,,,,,,,,,,,,,,,,,,,,,,,,,,,
1720078139,98,0,4217.94873,4305.769043,4288.846191,4303.077148,4340.641113,4374.487305,4385.769043,4395.384766,4376.666504,4344.871582,4309.358887,4410.897461,4387.307617,4615.512695,54.523441,9.574095,1.457728,1.44174,0.630884,8.751849,1.27136,0.543753,0.485576,0.350127,4.064708,0.897519,0.75606,0.693567,0.336985,3.983973,0.453744,0.374138,0.533388,0.270334,0.628953,0.269011,0.264727,0.101965,0.127584,0.953007,0.259064,0.239608,0.135792,0.123527,2.674611,0.542619,0.607409,0.249059,0.229346,2.71337,0.732715,0.611709,0.316676,0.217014,1.610615,1.097696,0.497604,0.460709,0.276687,0.870444,0.74846,0.472738,0.392614,0.392224,3.869267,1.444268,1.129681,0.68578,0.585913,19.118328,6.404345,1.100831,1.595451,0.795668,4.359456,2.173891,1.113127,0.721773,0.543988,21.51688,2.630077,1.71862,1.856603,0.813868
1720078139,99,0,4225.384766,4302.179688,4287.179688,4306.922852,4335.897461,4366.794922,4380.641113,4405.512695,4389.230957,4352.05127,4308.717773,4412.307617,4391.153809,4606.794922,,,,,,,,,,,,,,,,,,,,,,,,,,,,,,,,,,,,,,,,,,,,,,,,,,,,,,,,,,,,,,,,,,,,,,
1720078139,100,0,4236.153809,4310.256348,4295.384766,4310.512695,4338.205078,4365.769043,4380.256348,4413.846191,4397.563965,4355.256348,4316.282227,4422.05127,4396.025879,4610.256348,,,,,,,,,,,,,,,,,,,,,,,,,,,,,,,,,,,,,,,,,,,,,,,,,,,,,,,,,,,,,,,,,,,,,,
1720078139,101,0,4244.615234,4319.615234,4300.256348,4312.179688,4342.307617,4361.025879,4376.153809,4410.256348,4400.769043,4359.230957,4323.333496,4425.641113,4400,4613.077148,,,,,,,,,,,,,,,,,,,,,,,,,,,,,,,,,,,,,,,,,,,,,,,,,,,,,,,,,,,,,,,,,,,,,,
1720078139,102,0,4255.128418,4321.410156,4296.025879,4315.512695,4340.128418,4355.641113,4365,4397.05127,4391.794922,4358.589844,4316.538574,4420.512695,4396.922852,4601.410156,,,,,,,,,,,,,,,,,,,,,,,,,,,,,,,,,,,,,,,,,,,,,,,,,,,,,,,,,,,,,,,,,,,,,,
1720078139,103,0,4264.871582,4321.794922,4300.256348,4321.922852,4341.410156,4361.794922,4364.615234,4383.717773,4368.974121,4353.205078,4315.897461,4426.794922,4398.205078,4603.077148,,,,,,,,,,,,,,,,,,,,,,,,,,,,,,,,,,,,,,,,,,,,,,,,,,,,,,,,,,,,,,,,,,,,,,
1720078139,104,0,4265.641113,4325.256348,4309.358887,4327.307617,4349.615234,4375.769043,4377.179688,4376.922852,4346.410156,4348.846191,4323.461426,4437.436035,4409.102539,4617.436035,,,,,,,,,,,,,,,,,,,,,,,,,,,,,,,,,,,,,,,,,,,,,,,,,,,,,,,,,,,,,,,,,,,,,,
1720078139,105,0,4264.358887,4324.743652,4303.589844,4326.410156,4352.307617,4383.205078,4384.358887,4371.282227,4332.692383,4340.769043,4317.436035,4427.563965,4405.256348,4606.025879,,,,,,,,,,,,,,,,,,,,,,,,,,,,,,,,,,,,,,,,,,,,,,,,,,,,,,,,,,,,,,,,,,,,,,
1720078139,106,0,4275.128418,4327.179688,4299.615234,4326.025879,4350.256348,4382.307617,4384.615234,4366.922852,4331.794922,4335.256348,4308.846191,4417.307617,4394.358887,4581.922852,,,,,,,,,,,,,,,,,,,,,,,,,,,,,,,,,,,,,,,,,,,,,,,,,,,,,,,,,,,,,,,,,,,,,,
1720078139,107,0,4280.897461,4329.487305,4305.897461,4326.410156,4350.512695,4381.538574,4384.358887,4368.589844,4343.846191,4340.641113,4310.128418,4423.461426,4391.282227,4569.358887,,,,,,,,,,,,,,,,,,,,,,,,,,,,,,,,,,,,,,,,,,,,,,,,,,,,,,,,,,,,,,,,,,,,,,
1720078139,108,0,4279.230957,4325.512695,4310.641113,4325.256348,4348.846191,4380,4383.205078,4383.589844,4369.487305,4349.102539,4312.05127,4440.769043,4393.974121,4562.05127,,,,,,,,,,,,,,,,,,,,,,,,,,,,,,,,,,,,,,,,,,,,,,,,,,,,,,,,,,,,,,,,,,,,,,
1720078139,109,0,4287.820313,4323.717773,4310,4323.077148,4343.077148,4367.436035,4375.256348,4400.128418,4398.461426,4356.794922,4315.641113,4455.128418,4398.589844,4551.025879,,,,,,,,,,,,,,,,,,,,,,,,,,,,,,,,,,,,,,,,,,,,,,,,,,,,,,,,,,,,,,,,,,,,,,
1720078139,110,0,4292.94873,4325.897461,4305.384766,4322.692383,4340.384766,4355.256348,4364.743652,4403.461426,4407.820313,4359.871582,4313.846191,4444.487305,4393.974121,4530.256348,,,,,,,,,,,,,,,,,,,,,,,,,,,,,,,,,,,,,,,,,,,,,,,,,,,,,,,,,,,,,,,,,,,,,,
1720078139,111,0,4277.820313,4321.410156,4296.538574,4321.025879,4338.974121,4358.974121,4356.666504,4397.436035,4400.512695,4354.615234,4298.461426,4421.410156,4379.358887,4499.615234,,,,,,,,,,,,,,,,,,,,,,,,,,,,,,,,,,,,,,,,,,,,,,,,,,,,,,,,,,,,,,,,,,,,,,
1720078139,112,0,4261.794922,4312.307617,4285.512695,4313.717773,4337.179688,4364.615234,4348.077148,4389.743652,4391.282227,4346.153809,4283.205078,4407.820313,4371.025879,4472.692383,,,,,,,,,,,,,,,,,,,,,,,,,,,,,,,,,,,,,,,,,,,,,,,,,,,,,,,,,,,,,,,,,,,,,,
1720078139,113,0,4260.384766,4317.307617,4287.05127,4317.692383,4344.230957,4367.05127,4351.922852,4386.666504,4383.333496,4341.410156,4279.487305,4403.974121,4365.769043,4457.94873,,,,,,,,,,,,,,,,,,,,,,,,,,,,,,,,,,,,,,,,,,,,,,,,,,,,,,,,,,,,,,,,,,,,,,
1720078139,114,0,4244.230957,4325,4293.461426,4326.666504,4351.410156,4372.563965,4366.153809,4375.128418,4363.846191,4336.666504,4275.897461,4396.666504,4357.307617,4446.282227,58.742771,8.256413,1.578765,1.436772,0.637151,10.972526,1.212604,0.487408,0.436562,0.378037,3.688478,0.725164,0.673132,0.6188,0.353666,4.460713,0.394969,0.408802,0.473656,0.310526,0.691779,0.311265,0.304875,0.095246,0.145736,0.958385,0.266791,0.293564,0.173963,0.130229,2.442441,0.600953,0.743181,0.277216,0.241093,2.400884,1.169574,0.589285,0.301783,0.223031,1.550398,1.951773,0.590643,0.406527,0.274981,0.842185,1.054148,0.436622,0.35552,0.412431,3.43509,1.504692,0.937239,0.572865,0.601677,22.150805,7.827954,0.991917,1.759483,0.876383,4.467761,2.036738,0.913217,0.646338,0.571366,20.119289,2.53986,1.545736,1.585852,0.809411
1720078139,115,0,4214.230957,4325.128418,4293.205078,4325.512695,4352.307617,4379.487305,4374.358887,4358.205078,4341.794922,4331.025879,4273.974121,4394.743652,4363.974121,4438.205078,,,,,,,,,,,,,,,,,,,,,,,,,,,,,,,,,,,,,,,,,,,,,,,,,,,,,,,,,,,,,,,,,,,,,,
1720078139,116,0,4209.743652,4338.589844,4302.179688,4333.974121,4358.974121,4390.128418,4385.769043,4361.666504,4340.128418,4335.769043,4287.179688,4414.102539,4381.025879,4438.717773,,,,,,,,,,,,,,,,,,,,,,,,,,,,,,,,,,,,,,,,,,,,,,,,,,,,,,,,,,,,,,,,,,,,,,
1720078139,117,0,4213.205078,4346.025879,4309.487305,4342.179688,4361.666504,4395,4392.307617,4371.025879,4340.641113,4340,4296.282227,4424.358887,4380.512695,4430.641113,,,,,,,,,,,,,,,,,,,,,,,,,,,,,,,,,,,,,,,,,,,,,,,,,,,,,,,,,,,,,,,,,,,,,,
1720078139,118,0,4203.846191,4331.794922,4304.102539,4331.025879,4349.487305,4383.077148,4381.282227,4368.717773,4340.256348,4340.641113,4297.94873,4418.717773,4385.641113,4425.641113,,,,,,,,,,,,,,,,,,,,,,,,,,,,,,,,,,,,,,,,,,,,,,,,,,,,,,,,,,,,,,,,,,,,,,
1720078139,119,0,4210.128418,4326.666504,4302.820313,4324.102539,4341.538574,4370.384766,4371.538574,4372.692383,4360.512695,4350.512695,4305.769043,4424.358887,4400.897461,4430.512695,,,,,,,,,,,,,,,,,,,,,,,,,,,,,,,,,,,,,,,,,,,,,,,,,,,,,,,,,,,,,,,,,,,,,,
1720078139,120,0,4229.871582,4334.615234,4305.256348,4332.179688,4345.641113,4369.102539,4377.820313,4389.743652,4382.436035,4360.512695,4310.769043,4440,4396.153809,4419.871582,,,,,,,,,,,,,,,,,,,,,,,,,,,,,,,,,,,,,,,,,,,,,,,,,,,,,,,,,,,,,,,,,,,,,,
1720078139,121,0,4237.307617,4334.230957,4297.179688,4335.512695,4349.743652,4368.589844,4376.538574,4399.615234,4387.436035,4357.179688,4305.897461,4441.666504,4381.922852,4399.487305,,,,,,,,,,,,,,,,,,,,,,,,,,,,,,,,,,,,,,,,,,,,,,,,,,,,,,,,,,,,,,,,,,,,,,
1720078139,122,0,4239.743652,4330.769043,4288.205078,4332.436035,4346.282227,4367.563965,4363.333496,4399.743652,4387.692383,4349.358887,4296.922852,4431.922852,4377.563965,4385.256348,,,,,,,,,,,,,,,,,,,,,,,,,,,,,,,,,,,,,,,,,,,,,,,,,,,,,,,,,,,,,,,,,,,,,,
1720078139,123,0,4241.922852,4328.077148,4283.333496,4328.717773,4341.410156,4365,4360.256348,4397.563965,4387.563965,4346.538574,4287.692383,4422.692383,4370.641113,4363.974121,,,,,,,,,,,,,,,,,,,,,,,,,,,,,,,,,,,,,,,,,,,,,,,,,,,,,,,,,,,,,,,,,,,,,,
1720078139,124,0,4242.820313,4321.153809,4274.230957,4322.563965,4343.717773,4365.641113,4360.256348,4383.077148,4375.512695,4336.410156,4272.436035,4405.512695,4353.974121,4331.538574,,,,,,,,,,,,,,,,,,,,,,,,,,,,,,,,,,,,,,,,,,,,,,,,,,,,,,,,,,,,,,,,,,,,,,
1720078139,125,0,4254.358887,4321.025879,4272.692383,4326.538574,4350,4375.897461,4360.256348,4363.077148,4360.256348,4327.05127,4257.179688,4391.922852,4341.025879,4307.820313,,,,,,,,,,,,,,,,,,,,,,,,,,,,,,,,,,,,,,,,,,,,,,,,,,,,,,,,,,,,,,,,,,,,,,
1720078139,126,0,4267.436035,4326.410156,4282.94873,4335.384766,4354.102539,4384.871582,4367.179688,4358.077148,4347.692383,4329.871582,4254.615234,4394.743652,4337.05127,4298.461426,,,,,,,,,,,,,,,,,,,,,,,,,,,,,,,,,,,,,,,,,,,,,,,,,,,,,,,,,,,,,,,,,,,,,,
1720078139,127,0,4274.615234,4326.538574,4288.589844,4332.820313,4357.05127,4388.717773,4375.897461,4362.307617,4331.025879,4328.205078,4260.512695,4405.897461,4340.897461,4294.358887,,,,,,,,,,,,,,,,,,,,,,,,,,,,,,,,,,,,,,,,,,,,,,,,,,,,,,,,,,,,,,,,,,,,,,
1720078139,0,0,4291.282227,4330,4288.717773,4326.282227,4358.205078,4389.615234,4381.153809,4360.512695,4322.692383,4321.153809,4267.692383,4417.692383,4349.871582,4294.230957,,,,,,,,,,,,,,,,,,,,,,,,,,,,,,,,,,,,,,,,,,,,,,,,,,,,,,,,,,,,,,,,,,,,,,
1720078139,1,0,4305.641113,4332.563965,4289.230957,4327.692383,4352.94873,4385.512695,4380.128418,4359.230957,4327.563965,4322.563965,4269.615234,4422.307617,4353.077148,4292.692383,,,,,,,,,,,,,,,,,,,,,,,,,,,,,,,,,,,,,,,,,,,,,,,,,,,,,,,,,,,,,,,,,,,,,,
1720078139,2,0,4310.769043,4333.077148,4295.897461,4336.922852,4351.153809,4378.333496,4376.025879,4362.307617,4332.436035,4327.05127,4268.846191,4425.769043,4350.769043,4288.333496,59.208241,6.644463,1.832539,1.436735,0.630428,12.470368,1.183744,0.480078,0.40964,0.395666,3.466026,0.681466,0.604094,0.585806,0.368991,4.657227,0.38403,0.45024,0.439778,0.343244,0.686328,0.340166,0.33964,0.095606,0.160311,0.91812,0.279451,0.377668,0.222552,0.135635,2.038795,0.75566,0.911454,0.309132,0.238646,1.922302,2.007043,0.622941,0.29445,0.219348,1.460677,3.187001,0.719653,0.385805,0.269472,0.825957,1.502048,0.438393,0.334592,0.400527,3.288451,1.676868,0.786054,0.486465,0.593821,23.895611,8.702383,1.037295,1.836205,0.907681,4.720575,2.001992,0.743414,0.591359,0.575455,18.95768,2.623755,1.307568,1.305591,0.777539
1720078139,3,0,4325.384766,4338.077148,4308.205078,4343.589844,4356.794922,4375.128418,4369.871582,4361.025879,4332.94873,4327.307617,4272.563965,4433.077148,4355.512695,4288.974121,,,,,,,,,,,,,,,,,,,,,,,,,,,,,,,,,,,,,,,,,,,,,,,,,,,,,,,,,,,,,,,,,,,,,,
1720078139,4,0,4337.563965,4337.307617,4311.538574,4339.871582,4358.077148,4371.153809,4366.410156,4362.05127,4339.615234,4333.461426,4280.256348,4433.846191,4364.102539,4288.846191,,,,,,,,,,,,,,,,,,,,,,,,,,,,,,,,,,,,,,,,,,,,,,,,,,,,,,,,,,,,,,,,,,,,,,
1720078139,5,0,4334.871582,4331.922852,4303.205078,4333.333496,4352.05127,4362.179688,4356.666504,4367.692383,4353.846191,4341.666504,4281.922852,4428.589844,4364.358887,4279.743652,,,,,,,,,,,,,,,,,,,,,,,,,,,,,,,,,,,,,,,,,,,,,,,,,,,,,,,,,,,,,,,,,,,,,,
1720078139,6,0,4340.256348,4336.666504,4301.282227,4336.282227,4348.974121,4356.153809,4342.692383,4371.153809,4364.358887,4341.153809,4276.538574,4429.102539,4354.487305,4267.820313,,,,,,,,,,,,,,,,,,,,,,,,,,,,,,,,,,,,,,,,,,,,,,,,,,,,,,,,,,,,,,,,,,,,,,
1720078139,7,0,4353.333496,4346.410156,4304.743652,4345.128418,4353.205078,4356.282227,4338.333496,4372.436035,4370.256348,4342.436035,4276.538574,4434.487305,4348.846191,4259.102539,,,,,,,,,,,,,,,,,,,,,,,,,,,,,,,,,,,,,,,,,,,,,,,,,,,,,,,,,,,,,,,,,,,,,,
1720078139,8,0,4349.487305,4345.512695,4299.615234,4341.794922,4353.974121,4360.641113,4339.230957,4370.641113,4368.205078,4343.846191,4276.538574,4431.922852,4352.94873,4255.769043,,,,,,,,,,,,,,,,,,,,,,,,,,,,,,,,,,,,,,,,,,,,,,,,,,,,,,,,,,,,,,,,,,,,,,
1720078139,9,0,4336.922852,4333.461426,4289.102539,4329.487305,4349.230957,4368.717773,4339.487305,4362.563965,4359.102539,4332.563965,4261.538574,4414.102539,4347.820313,4246.922852,,,,,,,,,,,,,,,,,,,,,,,,,,,,,,,,,,,,,,,,,,,,,,,,,,,,,,,,,,,,,,,,,,,,,,
1720078139,10,0,4334.871582,4323.846191,4282.05127,4324.102539,4348.974121,4375.769043,4342.94873,4359.230957,4351.794922,4321.410156,4248.205078,4401.153809,4331.666504,4229.615234,,,,,,,,,,,,,,,,,,,,,,,,,,,,,,,,,,,,,,,,,,,,,,,,,,,,,,,,,,,,,,,,,,,,,,
1720078139,11,0,4344.102539,4329.871582,4281.410156,4327.94873,4353.717773,4377.820313,4352.307617,4365.384766,4348.077148,4329.871582,4257.820313,4412.692383,4332.307617,4228.077148,,,,,,,,,,,,,,,,,,,,,,,,,,,,,,,,,,,,,,,,,,,,,,,,,,,,,,,,,,,,,,,,,,,,,,
1720078139,12,0,4346.153809,4333.974121,4276.282227,4324.358887,4351.794922,4374.230957,4355.897461,4362.563965,4342.692383,4334.615234,4263.461426,4418.717773,4338.205078,4230.128418,,,,,,,,,,,,,,,,,,,,,,,,,,,,,,,,,,,,,,,,,,,,,,,,,,,,,,,,,,,,,,,,,,,,,,
1720078139,13,0,4338.205078,4321.538574,4263.205078,4314.871582,4341.282227,4364.230957,4353.974121,4352.563965,4337.692383,4328.589844,4252.692383,4405.641113,4333.589844,4217.179688,,,,,,,,,,,,,,,,,,,,,,,,,,,,,,,,,,,,,,,,,,,,,,,,,,,,,,,,,,,,,,,,,,,,,,
1720078139,14,0,4346.922852,4323.974121,4268.461426,4318.205078,4340.384766,4355.769043,4357.563965,4354.743652,4340.384766,4339.487305,4264.615234,4414.358887,4348.077148,4224.358887,,,,,,,,,,,,,,,,,,,,,,,,,,,,,,,,,,,,,,,,,,,,,,,,,,,,,,,,,,,,,,,,,,,,,,
1720078139,15,0,4366.922852,4344.615234,4289.102539,4331.410156,4347.179688,4355.897461,4354.743652,4356.410156,4342.179688,4350,4283.589844,4434.615234,4364.102539,4246.410156,,,,,,,,,,,,,,,,,,,,,,,,,,,,,,,,,,,,,,,,,,,,,,,,,,,,,,,,,,,,,,,,,,,,,,
1720078139,16,0,4369.358887,4345.769043,4296.153809,4334.102539,4344.487305,4353.461426,4342.436035,4346.153809,4336.922852,4337.94873,4277.820313,4432.94873,4352.94873,4244.102539,,,,,,,,,,,,,,,,,,,,,,,,,,,,,,,,,,,,,,,,,,,,,,,,,,,,,,,,,,,,,,,,,,,,,,
1720078139,17,0,4372.179688,4341.666504,4303.205078,4331.153809,4342.179688,4346.025879,4337.307617,4343.077148,4336.410156,4335.897461,4280,4434.871582,4356.794922,4237.307617,,,,,,,,,,,,,,,,,,,,,,,,,,,,,,,,,,,,,,,,,,,,,,,,,,,,,,,,,,,,,,,,,,,,,,
1720078139,18,0,4390.384766,4356.025879,4315,4337.820313,4350.384766,4349.871582,4340.384766,4348.461426,4340.641113,4344.358887,4291.538574,4444.615234,4370.256348,4229.487305,56.903965,5.527021,2.268211,1.416225,0.60465,12.288658,1.171564,0.509678,0.390406,0.400468,3.44058,0.813481,0.559758,0.574814,0.383265,4.357434,0.433591,0.490454,0.424358,0.364192,0.612612,0.371935,0.366909,0.102425,0.166597,0.827459,0.33568,0.523186,0.273271,0.140638,1.5605,0.988319,1.146859,0.345587,0.226992,1.405812,3.391608,0.779463,0.287595,0.208846,1.360469,4.873582,0.936946,0.388811,0.262118,0.823793,2.072064,0.491386,0.323205,0.362149,3.349551,2.08663,0.703782,0.422178,0.568199,23.450605,8.88172,1.257998,1.770757,0.883069,4.787373,2.161951,0.654708,0.5471,0.561176,18.868103,3.165873,1.069749,1.072695,0.72411
1720078139,19,0,4395.384766,4363.717773,4313.205078,4345.256348,4355.769043,4360.128418,4341.410156,4347.692383,4341.666504,4338.846191,4279.230957,4442.05127,4354.615234,4202.307617,,,,,,,,,,,,,,,,,,,,,,,,,,,,,,,,,,,,,,,,,,,,,,,,,,,,,,,,,,,,,,,,,,,,,,
1720078139,20,0,4379.102539,4352.05127,4301.153809,4337.436035,4355,4360,4339.102539,4348.333496,4342.179688,4335,4269.487305,4434.743652,4342.563965,4184.487305,,,,,,,,,,,,,,,,,,,,,,,,,,,,,,,,,,,,,,,,,,,,,,,,,,,,,,,,,,,,,,,,,,,,,,
1720078139,21,0,4361.025879,4339.743652,4283.077148,4322.436035,4352.563965,4356.794922,4335.641113,4350.384766,4342.692383,4333.589844,4263.461426,4418.077148,4340.641113,4180.641113,,,,,,,,,,,,,,,,,,,,,,,,,,,,,,,,,,,,,,,,,,,,,,,,,,,,,,,,,,,,,,,,,,,,,,
1720078139,22,0,4354.871582,4338.461426,4271.538574,4320.128418,4349.871582,4363.205078,4343.077148,4355.769043,4348.461426,4329.358887,4249.487305,4400.641113,4327.820313,4172.307617,,,,,,,,,,,,,,,,,,,,,,,,,,,,,,,,,,,,,,,,,,,,,,,,,,,,,,,,,,,,,,,,,,,,,,
1720078139,23,0,4358.589844,4338.717773,4274.102539,4327.436035,4348.589844,4370,4359.743652,4366.922852,4359.230957,4333.077148,4250.641113,4404.615234,4325,4168.333496,,,,,,,,,,,,,,,,,,,,,,,,,,,,,,,,,,,,,,,,,,,,,,,,,,,,,,,,,,,,,,,,,,,,,,
1720078139,24,0,4361.794922,4340.384766,4278.333496,4331.025879,4350.512695,4369.358887,4367.436035,4373.717773,4362.563965,4341.153809,4262.307617,4420.769043,4335.128418,4174.358887,,,,,,,,,,,,,,,,,,,,,,,,,,,,,,,,,,,,,,,,,,,,,,,,,,,,,,,,,,,,,,,,,,,,,,
1720078139,25,0,4364.743652,4344.358887,4279.358887,4332.436035,4351.794922,4369.743652,4370.384766,4375.769043,4360.384766,4342.307617,4267.563965,4429.615234,4337.563965,4176.794922,,,,,,,,,,,,,,,,,,,,,,,,,,,,,,,,,,,,,,,,,,,,,,,,,,,,,,,,,,,,,,,,,,,,,,
1720078139,26,0,4359.871582,4336.922852,4274.230957,4324.743652,4347.563965,4369.871582,4369.871582,4365.512695,4350.384766,4333.205078,4261.538574,4424.615234,4329.743652,4165.128418,,,,,,,,,,,,,,,,,,,,,,,,,,,,,,,,,,,,,,,,,,,,,,,,,,,,,,,,,,,,,,,,,,,,,,
1720078139,27,0,4348.333496,4325.769043,4261.922852,4315.384766,4341.282227,4360.641113,4355.897461,4344.358887,4330.256348,4323.717773,4249.615234,4413.333496,4323.333496,4151.282227,,,,,,,,,,,,,,,,,,,,,,,,,,,,,,,,,,,,,,,,,,,,,,,,,,,,,,,,,,,,,,,,,,,,,,
1720078139,28,0,4349.615234,4333.461426,4258.589844,4321.666504,4339.487305,4346.025879,4342.436035,4332.820313,4319.102539,4321.794922,4243.717773,4407.05127,4319.743652,4146.794922,,,,,,,,,,,,,,,,,,,,,,,,,,,,,,,,,,,,,,,,,,,,,,,,,,,,,,,,,,,,,,,,,,,,,,
1720078139,29,0,4365.641113,4348.846191,4271.794922,4332.05127,4341.410156,4337.307617,4340.641113,4335.128418,4322.692383,4324.358887,4250,4415.128418,4320.512695,4135.384766,,,,,,,,,,,,,,,,,,,,,,,,,,,,,,,,,,,,,,,,,,,,,,,,,,,,,,,,,,,,,,,,,,,,,,
1720078139,30,0,4377.692383,4349.743652,4287.692383,4336.538574,4345.512695,4340.512695,4339.358887,4339.102539,4328.205078,4331.794922,4266.538574,4433.205078,4335.384766,4123.846191,,,,,,,,,,,,,,,,,,,,,,,,,,,,,,,,,,,,,,,,,,,,,,,,,,,,,,,,,,,,,,,,,,,,,,
1720078139,31,0,4389.871582,4355.512695,4303.846191,4347.307617,4351.794922,4345.384766,4341.025879,4357.179688,4352.307617,4354.487305,4290.769043,4458.974121,4361.538574,4139.230957,,,,,,,,,,,,,,,,,,,,,,,,,,,,,,,,,,,,,,,,,,,,,,,,,,,,,,,,,,,,,,,,,,,,,,
1720078139,32,0,4395,4366.666504,4310.512695,4351.410156,4352.563965,4347.179688,4349.615234,4380.641113,4384.743652,4365.641113,4298.846191,4471.538574,4360.769043,4142.436035,,,,,,,,,,,,,,,,,,,,,,,,,,,,,,,,,,,,,,,,,,,,,,,,,,,,,,,,,,,,,,,,,,,,,,
1720078139,33,0,4373.461426,4350.512695,4296.153809,4335.769043,4349.102539,4362.307617,4360.897461,4381.666504,4386.922852,4349.487305,4277.820313,4455.512695,4332.94873,4109.102539,,,,,,,,,,,,,,,,,,,,,,,,,,,,,,,,,,,,,,,,,,,,,,,,,,,,,,,,,,,,,,,,,,,,,,
1720078139,34,0,4348.461426,4327.307617,4277.820313,4322.436035,4352.436035,4387.436035,4375.897461,4379.102539,4376.282227,4340.897461,4262.179688,4436.794922,4325.897461,4090,54.657463,5.453004,2.884048,1.359065,0.559328,10.739873,1.205155,0.552585,0.373507,0.393292,3.540758,1.183805,0.563276,0.566486,0.393829,3.639446,0.568136,0.51923,0.416212,0.370344,0.49708,0.430299,0.387543,0.11428,0.162819,0.722619,0.504641,0.76118,0.317057,0.146326,1.168728,1.30449,1.466561,0.384931,0.213251,1.000308,5.320849,1.13357,0.277636,0.196331,1.253291,7.135164,1.386786,0.408357,0.254929,0.814804,2.726507,0.61891,0.314611,0.310234,3.501499,2.856708,0.732035,0.375369,0.532201,20.632843,8.586185,1.683562,1.573971,0.813424,4.460585,2.667918,0.684166,0.506178,0.535339,19.277182,4.404669,0.895174,0.911887,0.658515
1720078139,35,0,4334.358887,4318.077148,4259.615234,4313.846191,4351.666504,4396.538574,4382.94873,4377.692383,4371.794922,4337.563965,4250.384766,4410.384766,4319.743652,4073.205078,,,,,,,,,,,,,,,,,,,,,,,,,,,,,,,,,,,,,,,,,,,,,,,,,,,,,,,,,,,,,,,,,,,,,,
1720078139,36,0,4323.589844,4310.128418,4241.666504,4301.922852,4342.820313,4386.025879,4378.589844,4362.94873,4355.128418,4320.256348,4225.641113,4379.743652,4291.025879,4037.94873,,,,,,,,,,,,,,,,,,,,,,,,,,,,,,,,,,,,,,,,,,,,,,,,,,,,,,,,,,,,,,,,,,,,,,
1720078139,37,0,4330.769043,4315,4242.94873,4305.641113,4339.358887,4368.589844,4372.692383,4354.487305,4342.307617,4316.410156,4224.743652,4385.128418,4288.974121,4039.230713,,,,,,,,,,,,,,,,,,,,,,,,,,,,,,,,,,,,,,,,,,,,,,,,,,,,,,,,,,,,,,,,,,,,,,
1720078139,38,0,4352.692383,4335.512695,4263.974121,4322.307617,4342.94873,4356.666504,4368.717773,4364.487305,4350.897461,4332.179688,4255.897461,4417.563965,4319.871582,4069.487061,,,,,,,,,,,,,,,,,,,,,,,,,,,,,,,,,,,,,,,,,,,,,,,,,,,,,,,,,,,,,,,,,,,,,,
1720078139,39,0,4357.563965,4336.666504,4273.589844,4323.333496,4343.077148,4354.102539,4361.666504,4362.436035,4346.282227,4329.487305,4269.230957,4432.563965,4328.846191,4073.589844,,,,,,,,,,,,,,,,,,,,,,,,,,,,,,,,,,,,,,,,,,,,,,,,,,,,,,,,,,,,,,,,,,,,,,
1720078139,40,0,4356.025879,4333.461426,4274.615234,4321.153809,4342.563965,4356.282227,4355.641113,4344.230957,4322.563965,4317.179688,4261.666504,4431.410156,4323.205078,4066.153809,,,,,,,,,,,,,,,,,,,,,,,,,,,,,,,,,,,,,,,,,,,,,,,,,,,,,,,,,,,,,,,,,,,,,,
1720078139,41,0,4377.692383,4356.025879,4293.589844,4338.077148,4350,4355.641113,4358.077148,4342.692383,4319.615234,4330,4272.179688,4444.102539,4337.179688,4080.128174,,,,,,,,,,,,,,,,,,,,,,,,,,,,,,,,,,,,,,,,,,,,,,,,,,,,,,,,,,,,,,,,,,,,,,
1720078139,42,0,4387.692383,4363.461426,4303.333496,4346.282227,4350.128418,4347.436035,4355.641113,4349.743652,4336.153809,4346.153809,4286.794922,4453.846191,4345.512695,4085.512939,,,,,,,,,,,,,,,,,,,,,,,,,,,,,,,,,,,,,,,,,,,,,,,,,,,,,,,,,,,,,,,,,,,,,,
1720078139,43,0,4365.641113,4347.179688,4286.282227,4331.794922,4340.384766,4337.94873,4342.692383,4348.077148,4348.205078,4341.538574,4274.615234,4436.922852,4330.641113,4057.564209,,,,,,,,,,,,,,,,,,,,,,,,,,,,,,,,,,,,,,,,,,,,,,,,,,,,,,,,,,,,,,,,,,,,,,
1720078139,44,0,4353.846191,4343.717773,4275.128418,4323.717773,4343.205078,4345.512695,4344.743652,4355,4356.794922,4334.871582,4260.256348,4417.94873,4318.205078,4036.666748,,,,,,,,,,,,,,,,,,,,,,,,,,,,,,,,,,,,,,,,,,,,,,,,,,,,,,,,,,,,,,,,,,,,,,
1720078139,45,0,4358.589844,4344.615234,4280.128418,4327.563965,4353.205078,4368.974121,4368.333496,4376.025879,4370.384766,4341.794922,4265.897461,4425,4324.487305,4037.692383,,,,,,,,,,,,,,,,,,,,,,,,,,,,,,,,,,,,,,,,,,,,,,,,,,,,,,,,,,,,,,,,,,,,,,
1720078139,46,0,4355.512695,4338.461426,4278.717773,4324.358887,4349.615234,4375.897461,4378.717773,4383.589844,4375.256348,4345.128418,4270.256348,4435.256348,4327.94873,4035.641113,,,,,,,,,,,,,,,,,,,,,,,,,,,,,,,,,,,,,,,,,,,,,,,,,,,,,,,,,,,,,,,,,,,,,,
1720078139,47,0,4350.256348,4334.102539,4272.692383,4319.487305,4339.230957,4367.820313,4372.307617,4373.974121,4366.153809,4335.512695,4264.615234,4427.307617,4317.05127,4031.538574,,,,,,,,,,,,,,,,,,,,,,,,,,,,,,,,,,,,,,,,,,,,,,,,,,,,,,,,,,,,,,,,,,,,,,
1720078139,48,0,4350.512695,4330.256348,4277.05127,4323.589844,4339.358887,4368.333496,4374.743652,4368.974121,4357.563965,4327.179688,4260.641113,4422.94873,4308.077148,4031.923096,,,,,,,,,,,,,,,,,,,,,,,,,,,,,,,,,,,,,,,,,,,,,,,,,,,,,,,,,,,,,,,,,,,,,,
1720078139,49,0,4342.436035,4321.538574,4276.922852,4324.743652,4340.384766,4367.563965,4376.025879,4364.487305,4352.563965,4323.077148,4258.461426,4422.820313,4307.307617,4023.205078,,,,,,,,,,,,,,,,,,,,,,,,,,,,,,,,,,,,,,,,,,,,,,,,,,,,,,,,,,,,,,,,,,,,,,
1720078139,50,0,4341.410156,4322.94873,4275.769043,4327.94873,4340,4358.846191,4365.128418,4357.179688,4341.410156,4322.307617,4259.615234,4423.589844,4313.589844,4019.615479,52.5462,6.414484,3.542956,1.260138,0.502218,8.080097,1.318806,0.571855,0.356956,0.377723,3.62922,1.836675,0.626853,0.552343,0.39581,2.661258,0.793696,0.518917,0.404092,0.36126,0.385327,0.528984,0.399315,0.128837,0.150659,0.598062,0.869079,1.070457,0.346918,0.152466,0.885521,1.763717,1.818771,0.422453,0.202452,0.781308,7.548051,1.731351,0.268426,0.18614,1.17568,9.983759,2.237882,0.437673,0.248236,0.816899,3.378813,0.849459,0.306439,0.258748,3.589581,3.982916,0.888443,0.348906,0.492156,16.228933,8.223915,2.27177,1.324457,0.721703,3.8631,3.584538,0.824842,0.468857,0.504572,19.5306,6.347643,0.837995,0.820847,0.589555
1720078139,51,0,4358.717773,4340.128418,4291.666504,4339.743652,4346.794922,4356.025879,4360.384766,4353.589844,4331.282227,4325.384766,4264.743652,4434.102539,4322.307617,4033.461426,,,,,,,,,,,,,,,,,,,,,,,,,,,,,,,,,,,,,,,,,,,,,,,,,,,,,,,,,,,,,,,,,,,,,,
1720078139,52,0,4366.666504,4350.384766,4305.384766,4345.769043,4350.384766,4357.05127,4357.563965,4347.179688,4325.769043,4319.615234,4265.641113,4437.436035,4322.05127,4035.897461,,,,,,,,,,,,,,,,,,,,,,,,,,,,,,,,,,,,,,,,,,,,,,,,,,,,,,,,,,,,,,,,,,,,,,
1720078139,53,0,4359.102539,4343.589844,4297.94873,4340.256348,4346.410156,4352.436035,4346.666504,4335.897461,4314.871582,4311.410156,4266.922852,4430.641113,4317.436035,4031.281982,,,,,,,,,,,,,,,,,,,,,,,,,,,,,,,,,,,,,,,,,,,,,,,,,,,,,,,,,,,,,,,,,,,,,,
1720078139,54,0,4357.820313,4340,4297.179688,4337.820313,4346.282227,4352.563965,4347.05127,4335.128418,4304.871582,4315,4280,4438.589844,4329.487305,4046.153809,,,,,,,,,,,,,,,,,,,,,,,,,,,,,,,,,,,,,,,,,,,,,,,,,,,,,,,,,,,,,,,,,,,,,,
1720078139,55,0,4371.282227,4356.794922,4315.897461,4349.743652,4351.410156,4359.871582,4361.025879,4340.512695,4302.179688,4316.794922,4291.666504,4454.743652,4341.794922,4065.128174,,,,,,,,,,,,,,,,,,,,,,,,,,,,,,,,,,,,,,,,,,,,,,,,,,,,,,,,,,,,,,,,,,,,,,
1720078139,56,0,4378.461426,4367.05127,4318.846191,4358.846191,4354.743652,4361.282227,4369.230957,4342.179688,4298.717773,4311.794922,4291.794922,4458.333496,4333.333496,4066.025635,,,,,,,,,,,,,,,,,,,,,,,,,,,,,,,,,,,,,,,,,,,,,,,,,,,,,,,,,,,,,,,,,,,,,,
1720078139,57,0,4373.461426,4359.102539,4312.692383,4356.922852,4355,4360.641113,4369.230957,4348.589844,4301.538574,4320.128418,4294.102539,4461.410156,4327.436035,4063.205078,,,,,,,,,,,,,,,,,,,,,,,,,,,,,,,,,,,,,,,,,,,,,,,,,,,,,,,,,,,,,,,,,,,,,,
1720078139,58,0,4367.94873,4354.871582,4317.307617,4351.794922,4352.307617,4360.641113,4369.230957,4358.077148,4312.436035,4329.743652,4292.94873,4466.410156,4327.94873,4062.435791,,,,,,,,,,,,,,,,,,,,,,,,,,,,,,,,,,,,,,,,,,,,,,,,,,,,,,,,,,,,,,,,,,,,,,
1720078139,59,0,4365.641113,4355.641113,4316.538574,4345.897461,4349.230957,4359.871582,4369.358887,4359.102539,4320.256348,4326.282227,4281.282227,4460.128418,4323.974121,4059.487061,,,,,,,,,,,,,,,,,,,,,,,,,,,,,,,,,,,,,,,,,,,,,,,,,,,,,,,,,,,,,,,,,,,,,,
1720078139,60,0,4367.05127,4356.922852,4307.820313,4342.179688,4352.179688,4358.717773,4365.897461,4357.436035,4323.974121,4327.05127,4278.205078,4452.692383,4321.794922,4062.307617,,,,,,,,,,,,,,,,,,,,,,,,,,,,,,,,,,,,,,,,,,,,,,,,,,,,,,,,,,,,,,,,,,,,,,
1720078139,61,0,4364.102539,4355.641113,4301.153809,4342.436035,4351.410156,4359.871582,4359.871582,4358.589844,4331.666504,4329.230957,4275.384766,4446.666504,4316.282227,4054.871826,,,,,,,,,,,,,,,,,,,,,,,,,,,,,,,,,,,,,,,,,,,,,,,,,,,,,,,,,,,,,,,,,,,,,,
1720078139,62,0,4355,4350.769043,4298.717773,4340.384766,4344.102539,4358.846191,4356.153809,4352.307617,4334.615234,4324.615234,4263.077148,4438.333496,4307.436035,4037.94873,,,,,,,,,,,,,,,,,,,,,,,,,,,,,,,,,,,,,,,,,,,,,,,,,,,,,,,,,,,,,,,,,,,,,,
1720078139,63,0,4351.025879,4348.077148,4302.307617,4336.025879,4344.871582,4355.512695,4353.846191,4342.05127,4332.692383,4327.436035,4265.256348,4436.666504,4314.102539,4041.281982,,,,,,,,,,,,,,,,,,,,,,,,,,,,,,,,,,,,,,,,,,,,,,,,,,,,,,,,,,,,,,,,,,,,,,
1720078139,64,0,4361.538574,4357.436035,4311.282227,4344.358887,4353.333496,4356.153809,4348.333496,4340.384766,4333.974121,4335.769043,4281.282227,4444.871582,4329.487305,4060.769287,,,,,,,,,,,,,,,,,,,,,,,,,,,,,,,,,,,,,,,,,,,,,,,,,,,,,,,,,,,,,,,,,,,,,,
1720078139,65,0,4370.897461,4364.615234,4314.871582,4356.025879,4356.025879,4357.307617,4342.563965,4341.153809,4332.179688,4332.692383,4282.820313,4451.025879,4328.846191,4064.358887,,,,,,,,,,,,,,,,,,,,,,,,,,,,,,,,,,,,,,,,,,,,,,,,,,,,,,,,,,,,,,,,,,,,,,
1720078139,66,0,4366.666504,4358.717773,4312.692383,4353.589844,4355.897461,4358.846191,4341.794922,4336.153809,4323.589844,4324.743652,4275.512695,4450.128418,4322.820313,4053.461426,51.849136,7.919106,4.058886,1.137927,0.444627,5.27343,1.565824,0.555582,0.344292,0.358583,3.554325,2.792928,0.746352,0.546916,0.384149,1.727493,1.109014,0.491113,0.386573,0.339773,0.308559,0.662311,0.400417,0.143481,0.134176,0.48287,1.504815,1.378247,0.364637,0.157773,0.730734,2.438999,2.113195,0.453407,0.19498,0.734245,9.621112,2.549598,0.27367,0.180414,1.152657,13.153877,3.556488,0.473094,0.240621,0.83291,3.909139,1.194072,0.300626,0.218112,3.478041,5.332297,1.163786,0.357702,0.451507,11.420252,8.147162,2.902423,1.140124,0.630977,3.092034,4.826496,1.038068,0.444073,0.47352,18.581064,8.703809,0.913669,0.788354,0.523888
1720078139,67,0,4367.94873,4359.230957,4318.846191,4352.179688,4359.102539,4363.205078,4348.589844,4336.025879,4322.563965,4326.410156,4279.743652,4451.922852,4328.077148,4053.846191,,,,,,,,,,,,,,,,,,,,,,,,,,,,,,,,,,,,,,,,,,,,,,,,,,,,,,,,,,,,,,,,,,,,,,
1720078139,68,0,4372.94873,4363.717773,4326.538574,4358.333496,4360.641113,4366.282227,4357.820313,4348.205078,4327.436035,4329.102539,4286.922852,4455.769043,4332.179688,4058.974365,,,,,,,,,,,,,,,,,,,,,,,,,,,,,,,,,,,,,,,,,,,,,,,,,,,,,,,,,,,,,,,,,,,,,,
1720078139,69,0,4366.153809,4357.307617,4321.282227,4358.333496,4355.641113,4364.230957,4360.897461,4359.358887,4327.563965,4325.641113,4287.05127,4456.410156,4328.717773,4055.769287,,,,,,,,,,,,,,,,,,,,,,,,,,,,,,,,,,,,,,,,,,,,,,,,,,,,,,,,,,,,,,,,,,,,,,
1720078139,70,0,4354.743652,4347.436035,4309.615234,4350.769043,4346.538574,4357.179688,4362.05127,4361.666504,4325.897461,4324.871582,4284.487305,4456.410156,4326.153809,4051.281982,,,,,,,,,,,,,,,,,,,,,,,,,,,,,,,,,,,,,,,,,,,,,,,,,,,,,,,,,,,,,,,,,,,,,,
1720078139,71,0,4349.230957,4342.436035,4307.05127,4345.897461,4340.384766,4353.333496,4365.256348,4361.025879,4325.128418,4325.384766,4276.538574,4449.743652,4320,4045.897461,,,,,,,,,,,,,,,,,,,,,,,,,,,,,,,,,,,,,,,,,,,,,,,,,,,,,,,,,,,,,,,,,,,,,,
1720078139,72,0,4344.743652,4338.333496,4310.512695,4341.153809,4339.871582,4354.102539,4362.820313,4358.589844,4329.487305,4326.025879,4268.333496,4438.974121,4309.615234,4035.384521,,,,,,,,,,,,,,,,,,,,,,,,,,,,,,,,,,,,,,,,,,,,,,,,,,,,,,,,,,,,,,,,,,,,,,
1720078139,73,0,4344.615234,4338.333496,4310.512695,4338.589844,4341.282227,4354.743652,4358.205078,4356.025879,4345.512695,4333.461426,4269.358887,4438.846191,4310.256348,4030.769287,,,,,,,,,,,,,,,,,,,,,,,,,,,,,,,,,,,,,,,,,,,,,,,,,,,,,,,,,,,,,,,,,,,,,,
1720078139,74,0,4349.615234,4345.641113,4307.179688,4345.641113,4343.077148,4356.794922,4357.94873,4352.692383,4356.666504,4340.897461,4272.05127,4439.487305,4317.179688,4036.153809,,,,,,,,,,,,,,,,,,,,,,,,,,,,,,,,,,,,,,,,,,,,,,,,,,,,,,,,,,,,,,,,,,,,,,
1720078139,75,0,4339.615234,4339.871582,4295.897461,4341.282227,4342.179688,4359.871582,4352.05127,4341.410156,4350.641113,4335.256348,4262.692383,4424.102539,4309.871582,4034.230713,,,,,,,,,,,,,,,,,,,,,,,,,,,,,,,,,,,,,,,,,,,,,,,,,,,,,,,,,,,,,,,,,,,,,,
1720078139,76,0,4329.743652,4331.282227,4291.282227,4327.94873,4343.589844,4358.461426,4344.743652,4332.692383,4348.974121,4331.666504,4257.820313,4420.897461,4302.820313,4030.384521,,,,,,,,,,,,,,,,,,,,,,,,,,,,,,,,,,,,,,,,,,,,,,,,,,,,,,,,,,,,,,,,,,,,,,
1720078139,77,0,4343.717773,4343.589844,4304.358887,4335.256348,4349.871582,4357.563965,4343.077148,4333.974121,4353.717773,4338.333496,4269.615234,4437.563965,4313.333496,4039.487061,,,,,,,,,,,,,,,,,,,,,,,,,,,,,,,,,,,,,,,,,,,,,,,,,,,,,,,,,,,,,,,,,,,,,,
1720078139,78,0,4351.153809,4355.128418,4306.666504,4345.256348,4349.102539,4358.589844,4341.153809,4337.307617,4350.641113,4335.256348,4270.512695,4441.538574,4312.436035,4045.769287,,,,,,,,,,,,,,,,,,,,,,,,,,,,,,,,,,,,,,,,,,,,,,,,,,,,,,,,,,,,,,,,,,,,,,
1720078139,79,0,4340.384766,4351.025879,4296.922852,4336.025879,4341.922852,4353.589844,4344.743652,4348.974121,4351.153809,4330.384766,4265.897461,4439.615234,4295.512695,4044.743652,,,,,,,,,,,,,,,,,,,,,,,,,,,,,,,,,,,,,,,,,,,,,,,,,,,,,,,,,,,,,,,,,,,,,,
1720078139,80,0,4347.436035,4354.358887,4302.820313,4334.743652,4343.461426,4352.307617,4358.205078,4367.820313,4352.692383,4334.615234,4278.077148,4451.153809,4294.871582,4052.564209,,,,,,,,,,,,,,,,,,,,,,,,,,,,,,,,,,,,,,,,,,,,,,,,,,,,,,,,,,,,,,,,,,,,,,
1720078139,81,0,4364.102539,4361.794922,4315.769043,4345.769043,4346.794922,4358.589844,4368.717773,4376.666504,4345.384766,4332.307617,4281.538574,4455.769043,4297.94873,4055.128174,,,,,,,,,,,,,,,,,,,,,,,,,,,,,,,,,,,,,,,,,,,,,,,,,,,,,,,,,,,,,,,,,,,,,,
1720078139,82,0,4352.563965,4353.205078,4312.179688,4339.102539,4341.282227,4360.128418,4370.384766,4374.615234,4348.205078,4322.179688,4264.743652,4444.743652,4282.307617,4037.05127,49.259899,9.266511,4.294937,1.033304,0.397847,2.915093,2.002315,0.533709,0.344857,0.341475,3.217252,4.035491,0.93081,0.578497,0.357967,1.009601,1.508708,0.469381,0.372137,0.311745,0.275745,0.801993,0.386639,0.15657,0.118314,0.385782,2.448801,1.602351,0.381104,0.161516,0.644725,3.372596,2.25143,0.474546,0.188065,0.78024,11.08288,3.428798,0.30951,0.178851,1.206668,16.145494,5.1488,0.518487,0.230719,0.852862,4.213546,1.613772,0.302951,0.193771,3.127162,6.698382,1.530277,0.425243,0.413232,7.249514,8.522034,3.491102,1.125539,0.557156,2.383557,6.18039,1.288969,0.448035,0.447085,16.043175,10.961853,1.131429,0.809215,0.468786
1720078139,83,0,4338.589844,4350.641113,4306.410156,4331.794922,4338.205078,4356.410156,4366.538574,4374.358887,4364.743652,4323.333496,4257.692383,4443.589844,4273.974121,4027.05127,,,,,,,,,,,,,,,,,,,,,,,,,,,,,,,,,,,,,,,,,,,,,,,,,,,,,,,,,,,,,,,,,,,,,,
1720078139,84,0,4346.153809,4361.794922,4313.205078,4342.179688,4341.538574,4353.974121,4360,4374.871582,4375.384766,4333.589844,4266.666504,4452.436035,4281.794922,4034.871826,,,,,,,,,,,,,,,,,,,,,,,,,,,,,,,,,,,,,,,,,,,,,,,,,,,,,,,,,,,,,,,,,,,,,,
1720078139,85,0,4348.461426,4359.358887,4320.128418,4347.436035,4342.820313,4354.615234,4361.538574,4375,4379.615234,4337.94873,4267.820313,4455.512695,4279.871582,4035.384521,,,,,,,,,,,,,,,,,,,,,,,,,,,,,,,,,,,,,,,,,,,,,,,,,,,,,,,,,,,,,,,,,,,,,,
1720078139,86,0,4333.974121,4349.358887,4314.102539,4338.333496,4342.436035,4357.436035,4366.538574,4370.512695,4383.205078,4337.820313,4263.077148,4450.384766,4275.256348,4027.05127,,,,,,,,,,,,,,,,,,,,,,,,,,,,,,,,,,,,,,,,,,,,,,,,,,,,,,,,,,,,,,,,,,,,,,
1720078139,87,0,4328.333496,4352.179688,4303.589844,4335.641113,4344.871582,4360.256348,4361.794922,4361.282227,4381.410156,4340.384766,4263.717773,4445,4281.538574,4024.871826,,,,,,,,,,,,,,,,,,,,,,,,,,,,,,,,,,,,,,,,,,,,,,,,,,,,,,,,,,,,,,,,,,,,,,
1720078139,88,0,4332.820313,4352.436035,4299.615234,4340.641113,4350.641113,4363.077148,4354.743652,4353.333496,4374.102539,4340.384766,4262.05127,4440.256348,4279.743652,4022.94873,,,,,,,,,,,,,,,,,,,,,,,,,,,,,,,,,,,,,,,,,,,,,,,,,,,,,,,,,,,,,,,,,,,,,,
1720078140,89,0,4322.179688,4334.358887,4290.512695,4331.794922,4352.692383,4368.461426,4355.384766,4347.179688,4366.410156,4331.794922,4256.153809,4433.589844,4272.05127,4014.487061,,,,,,,,,,,,,,,,,,,,,,,,,,,,,,,,,,,,,,,,,,,,,,,,,,,,,,,,,,,,,,,,,,,,,,
1720078140,90,0,4313.717773,4326.538574,4283.077148,4320.897461,4349.102539,4369.230957,4360.769043,4352.05127,4365.128418,4330.641113,4260.512695,4439.358887,4276.922852,4019.487061,,,,,,,,,,,,,,,,,,,,,,,,,,,,,,,,,,,,,,,,,,,,,,,,,,,,,,,,,,,,,,,,,,,,,,
1720078140,91,0,4325.384766,4340.641113,4293.333496,4329.487305,4343.589844,4363.077148,4361.538574,4365.641113,4366.538574,4338.461426,4272.307617,4457.307617,4280,4032.820557,,,,,,,,,,,,,,,,,,,,,,,,,,,,,,,,,,,,,,,,,,,,,,,,,,,,,,,,,,,,,,,,,,,,,,
1720078140,92,0,4334.230957,4343.846191,4304.358887,4336.538574,4342.563965,4356.922852,4360.256348,4373.717773,4367.436035,4339.230957,4277.820313,4472.94873,4280.897461,4035.128174,,,,,,,,,,,,,,,,,,,,,,,,,,,,,,,,,,,,,,,,,,,,,,,,,,,,,,,,,,,,,,,,,,,,,,
1720078140,93,0,4331.538574,4336.538574,4307.307617,4331.922852,4344.871582,4352.307617,4366.153809,4384.358887,4375.128418,4338.461426,4287.94873,4486.025879,4293.846191,4042.435791,,,,,,,,,,,,,,,,,,,,,,,,,,,,,,,,,,,,,,,,,,,,,,,,,,,,,,,,,,,,,,,,,,,,,,
1720078140,94,0,4329.358887,4339.871582,4311.538574,4331.410156,4343.205078,4348.846191,4373.589844,4397.94873,4383.974121,4342.820313,4296.282227,4492.05127,4298.589844,4052.307617,,,,,,,,,,,,,,,,,,,,,,,,,,,,,,,,,,,,,,,,,,,,,,,,,,,,,,,,,,,,,,,,,,,,,,
1720078140,95,0,4327.563965,4338.205078,4313.846191,4334.615234,4341.410156,4352.05127,4372.436035,4397.563965,4387.436035,4347.307617,4286.282227,4488.077148,4290.641113,4048.333252,,,,,,,,,,,,,,,,,,,,,,,,,,,,,,,,,,,,,,,,,,,,,,,,,,,,,,,,,,,,,,,,,,,,,,
1720078140,96,0,4321.410156,4324.743652,4309.358887,4330.769043,4343.205078,4357.307617,4367.179688,4384.615234,4390.641113,4349.102539,4275.384766,4482.563965,4288.077148,4046.538574,,,,,,,,,,,,,,,,,,,,,,,,,,,,,,,,,,,,,,,,,,,,,,,,,,,,,,,,,,,,,,,,,,,,,,
1720078140,97,0,4319.102539,4325.384766,4310.512695,4328.077148,4344.230957,4354.487305,4361.025879,4374.230957,4390.384766,4350.128418,4280.128418,4480.256348,4287.307617,4058.333252,,,,,,,,,,,,,,,,,,,,,,,,,,,,,,,,,,,,,,,,,,,,,,,,,,,,,,,,,,,,,,,,,,,,,,
1720078140,98,0,4325.897461,4341.025879,4315.384766,4335.512695,4343.333496,4353.205078,4355.769043,4367.692383,4382.05127,4349.487305,4286.410156,4482.436035,4285.897461,4073.461426,45.762524,9.955646,4.206048,0.982268,0.368464,1.457384,2.629712,0.540393,0.363799,0.332168,2.684012,5.447268,1.191654,0.662652,0.3228,0.597322,1.967332,0.492977,0.37134,0.285179,0.277238,0.917135,0.355039,0.16739,0.106929,0.327583,3.627242,1.695633,0.409025,0.163548,0.622274,4.500096,2.171263,0.484564,0.17894,0.826255,11.656965,4.097149,0.383526,0.179294,1.384121,18.355213,6.613441,0.579098,0.218513,0.88336,4.241168,2.019731,0.317606,0.186098,2.609032,7.848653,1.932906,0.563422,0.380112,4.328707,9.198457,3.964289,1.30489,0.503794,1.80559,7.377369,1.541169,0.492666,0.430061,12.463837,12.605191,1.473077,0.882945,0.431846
1720078140,99,0,4333.846191,4347.820313,4313.589844,4346.025879,4344.487305,4356.282227,4354.743652,4361.922852,4374.487305,4349.871582,4286.025879,4484.615234,4291.025879,4087.307617,,,,,,,,,,,,,,,,,,,,,,,,,,,,,,,,,,,,,,,,,,,,,,,,,,,,,,,,,,,,,,,,,,,,,,
1720078140,100,0,4328.846191,4341.794922,4308.846191,4339.871582,4349.102539,4358.077148,4353.846191,4351.666504,4371.922852,4350.897461,4287.307617,4476.922852,4297.307617,4089.743652,,,,,,,,,,,,,,,,,,,,,,,,,,,,,,,,,,,,,,,,,,,,,,,,,,,,,,,,,,,,,,,,,,,,,,
1720078140,101,0,4322.94873,4337.563965,4303.589844,4324.615234,4351.538574,4363.846191,4349.102539,4341.282227,4367.94873,4350.897461,4292.563965,4464.871582,4305.641113,4080.512939,,,,,,,,,,,,,,,,,,,,,,,,,,,,,,,,,,,,,,,,,,,,,,,,,,,,,,,,,,,,,,,,,,,,,,
1720078140,102,0,4325.769043,4340.512695,4297.692383,4323.717773,4351.666504,4368.333496,4344.871582,4337.94873,4362.05127,4348.589844,4295.512695,4460.641113,4311.922852,4076.281982,,,,,,,,,,,,,,,,,,,,,,,,,,,,,,,,,,,,,,,,,,,,,,,,,,,,,,,,,,,,,,,,,,,,,,
1720078140,103,0,4326.282227,4342.820313,4293.717773,4327.692383,4351.282227,4363.205078,4348.717773,4341.538574,4365,4350,4295.769043,4463.077148,4309.230957,4076.666748,,,,,,,,,,,,,,,,,,,,,,,,,,,,,,,,,,,,,,,,,,,,,,,,,,,,,,,,,,,,,,,,,,,,,,
1720078140,104,0,4328.589844,4340,4296.282227,4324.358887,4347.307617,4355.512695,4354.871582,4351.282227,4376.025879,4362.05127,4303.461426,4467.820313,4314.615234,4078.846191,,,,,,,,,,,,,,,,,,,,,,,,,,,,,,,,,,,,,,,,,,,,,,,,,,,,,,,,,,,,,,,,,,,,,,
1720078140,105,0,4335.512695,4338.589844,4297.692383,4324.871582,4341.025879,4352.563965,4357.563965,4362.94873,4385,4368.461426,4315,4473.974121,4324.487305,4083.589844,,,,,,,,,,,,,,,,,,,,,,,,,,,,,,,,,,,,,,,,,,,,,,,,,,,,,,,,,,,,,,,,,,,,,,
1720078140,106,0,4332.692383,4337.563965,4295.128418,4326.025879,4340.897461,4352.05127,4360.384766,4373.077148,4387.692383,4362.692383,4311.410156,4476.410156,4315.384766,4076.025635,,,,,,,,,,,,,,,,,,,,,,,,,,,,,,,,,,,,,,,,,,,,,,,,,,,,,,,,,,,,,,,,,,,,,,
1720078140,107,0,4322.307617,4335,4295,4323.974121,4343.077148,4346.794922,4359.358887,4380.128418,4386.538574,4355.256348,4297.94873,4470.641113,4301.410156,4059.102539,,,,,,,,,,,,,,,,,,,,,,,,,,,,,,,,,,,,,,,,,,,,,,,,,,,,,,,,,,,,,,,,,,,,,,
1720078140,108,0,4321.153809,4337.692383,4296.282227,4326.025879,4340.128418,4338.974121,4352.692383,4376.666504,4382.94873,4347.05127,4290.384766,4457.179688,4293.846191,4046.666748,,,,,,,,,,,,,,,,,,,,,,,,,,,,,,,,,,,,,,,,,,,,,,,,,,,,,,,,,,,,,,,,,,,,,,
1720078140,109,0,4328.461426,4345.128418,4299.230957,4329.230957,4341.922852,4342.820313,4354.230957,4372.692383,4381.666504,4343.333496,4287.05127,4452.94873,4288.846191,4045.128174,,,,,,,,,,,,,,,,,,,,,,,,,,,,,,,,,,,,,,,,,,,,,,,,,,,,,,,,,,,,,,,,,,,,,,
1720078140,110,0,4325.897461,4347.563965,4298.974121,4328.846191,4350.128418,4355.512695,4361.922852,4378.077148,4383.205078,4346.282227,4284.743652,4462.820313,4292.05127,4048.076904,,,,,,,,,,,,,,,,,,,,,,,,,,,,,,,,,,,,,,,,,,,,,,,,,,,,,,,,,,,,,,,,,,,,,,
1720078140,111,0,4309.102539,4344.743652,4293.077148,4329.102539,4354.230957,4359.615234,4358.205078,4370.128418,4375.128418,4344.487305,4281.794922,4463.333496,4290.769043,4042.820557,,,,,,,,,,,,,,,,,,,,,,,,,,,,,,,,,,,,,,,,,,,,,,,,,,,,,,,,,,,,,,,,,,,,,,
1720078140,112,0,4303.205078,4352.05127,4295,4332.307617,4358.205078,4361.153809,4350.256348,4347.05127,4356.153809,4337.436035,4277.563965,4459.871582,4280.384766,4035.769287,,,,,,,,,,,,,,,,,,,,,,,,,,,,,,,,,,,,,,,,,,,,,,,,,,,,,,,,,,,,,,,,,,,,,,
1720078140,113,0,4320,4368.589844,4310.128418,4343.717773,4365.512695,4368.077148,4349.358887,4337.94873,4340.641113,4335.128418,4281.922852,4471.153809,4286.410156,4044.487061,,,,,,,,,,,,,,,,,,,,,,,,,,,,,,,,,,,,,,,,,,,,,,,,,,,,,,,,,,,,,,,,,,,,,,
1720078140,114,0,4321.538574,4366.282227,4313.461426,4342.05127,4364.358887,4366.025879,4349.487305,4333.846191,4329.871582,4329.743652,4282.307617,4472.820313,4290,4045.769287,38.968651,9.990576,3.808343,0.987015,0.359109,0.83068,3.36819,0.589258,0.396818,0.334406,2.091971,6.818042,1.510639,0.785308,0.289169,0.451167,2.436015,0.575949,0.385564,0.26735,0.294141,0.987324,0.30903,0.174109,0.101556,0.308479,4.819661,1.645101,0.45217,0.163805,0.609373,5.658705,1.890823,0.483581,0.167245,0.808362,11.371585,4.320755,0.485061,0.17918,1.701483,19.28175,7.496216,0.651056,0.205257,0.913188,4.001391,2.294529,0.343023,0.191857,2.019993,8.567645,2.281916,0.757173,0.355881,2.618297,9.815901,4.256868,1.605729,0.465915,1.390399,8.14858,1.743428,0.573735,0.425775,8.774405,13.258914,1.881235,0.997508,0.418391
1720078140,115,0,4296.538574,4345.128418,4293.717773,4320.128418,4350.897461,4356.153809,4348.589844,4322.94873,4320,4318.333496,4266.538574,4450.384766,4265.897461,4023.205078,,,,,,,,,,,,,,,,,,,,,,,,,,,,,,,,,,,,,,,,,,,,,,,,,,,,,,,,,,,,,,,,,,,,,,
1720078140,116,0,4292.179688,4341.922852,4290.641113,4317.436035,4349.230957,4358.461426,4358.974121,4334.230957,4325.897461,4322.563965,4270,4453.205078,4262.94873,4021.923096,,,,,,,,,,,,,,,,,,,,,,,,,,,,,,,,,,,,,,,,,,,,,,,,,,,,,,,,,,,,,,,,,,,,,,
1720078140,117,0,4314.615234,4356.538574,4311.282227,4335.769043,4362.436035,4370.384766,4382.05127,4373.461426,4358.333496,4342.436035,4298.333496,4487.307617,4292.692383,4047.692383,,,,,,,,,,,,,,,,,,,,,,,,,,,,,,,,,,,,,,,,,,,,,,,,,,,,,,,,,,,,,,,,,,,,,,
1720078140,118,0,4319.487305,4360.512695,4318.205078,4341.153809,4361.410156,4366.153809,4392.179688,4403.589844,4392.05127,4356.922852,4305.384766,4502.563965,4298.974121,4056.794922,,,,,,,,,,,,,,,,,,,,,,,,,,,,,,,,,,,,,,,,,,,,,,,,,,,,,,,,,,,,,,,,,,,,,,
1720078140,119,0,4308.589844,4354.615234,4307.94873,4332.563965,4348.846191,4349.871582,4380.128418,4408.077148,4407.05127,4358.974121,4293.846191,4496.153809,4287.179688,4048.205078,,,,,,,,,,,,,,,,,,,,,,,,,,,,,,,,,,,,,,,,,,,,,,,,,,,,,,,,,,,,,,,,,,,,,,
1720078140,120,0,4309.871582,4352.820313,4301.538574,4329.615234,4344.358887,4346.153809,4368.974121,4397.179688,4406.538574,4360.128418,4295.384766,4487.563965,4293.333496,4041.538574,,,,,,,,,,,,,,,,,,,,,,,,,,,,,,,,,,,,,,,,,,,,,,,,,,,,,,,,,,,,,,,,,,,,,,
1720078140,121,0,4318.205078,4354.230957,4299.615234,4332.179688,4344.615234,4350,4365.769043,4382.692383,4394.358887,4360.641113,4298.717773,4476.025879,4300,4043.333252,,,,,,,,,,,,,,,,,,,,,,,,,,,,,,,,,,,,,,,,,,,,,,,,,,,,,,,,,,,,,,,,,,,,,,
1720078140,122,0,4316.794922,4352.94873,4293.461426,4334.358887,4341.538574,4353.077148,4360.641113,4371.666504,4380.897461,4352.307617,4289.615234,4464.487305,4289.615234,4040.256348,,,,,,,,,,,,,,,,,,,,,,,,,,,,,,,,,,,,,,,,,,,,,,,,,,,,,,,,,,,,,,,,,,,,,,
1720078140,123,0,4305.128418,4345.769043,4286.666504,4330.256348,4341.538574,4360.897461,4356.025879,4364.102539,4372.94873,4342.307617,4280.641113,4459.487305,4276.282227,4025,,,,,,,,,,,,,,,,,,,,,,,,,,,,,,,,,,,,,,,,,,,,,,,,,,,,,,,,,,,,,,,,,,,,,,
1720078140,124,0,4299.358887,4337.820313,4282.563965,4321.153809,4345.897461,4367.563965,4357.692383,4353.589844,4359.871582,4339.487305,4285.897461,4460.512695,4278.717773,4022.05127,,,,,,,,,,,,,,,,,,,,,,,,,,,,,,,,,,,,,,,,,,,,,,,,,,,,,,,,,,,,,,,,,,,,,,
1720078140,125,0,4308.205078,4341.153809,4288.077148,4322.563965,4351.410156,4367.820313,4355.897461,4335.384766,4340.897461,4338.589844,4297.436035,4461.282227,4291.922852,4035.512939,,,,,,,,,,,,,,,,,,,,,,,,,,,,,,,,,,,,,,,,,,,,,,,,,,,,,,,,,,,,,,,,,,,,,,
1720078140,126,0,4319.871582,4355.512695,4299.230957,4333.461426,4357.307617,4365,4352.179688,4323.205078,4330.256348,4334.358887,4296.794922,4457.179688,4292.179688,4034.230713,,,,,,,,,,,,,,,,,,,,,,,,,,,,,,,,,,,,,,,,,,,,,,,,,,,,,,,,,,,,,,,,,,,,,,
1720078140,127,0,4320.769043,4358.333496,4300.384766,4342.307617,4358.846191,4359.871582,4354.358887,4329.230957,4334.871582,4334.743652,4292.436035,4452.179688,4286.410156,4026.410156,,,,,,,,,,,,,,,,,,,,,,,,,,,,,,,,,,,,,,,,,,,,,,,,,,,,,,,,,,,,,,,,,,,,,,
1720078140,0,0,4315,4348.333496,4295,4342.692383,4356.794922,4355.769043,4357.179688,4343.717773,4350.897461,4341.922852,4298.589844,4456.025879,4296.922852,4034.358887,,,,,,,,,,,,,,,,,,,,,,,,,,,,,,,,,,,,,,,,,,,,,,,,,,,,,,,,,,,,,,,,,,,,,,
1720078140,1,0,4312.179688,4345.769043,4294.487305,4339.102539,4354.230957,4358.589844,4361.538574,4358.077148,4370.128418,4344.615234,4300.128418,4465.641113,4297.563965,4035.769287,,,,,,,,,,,,,,,,,,,,,,,,,,,,,,,,,,,,,,,,,,,,,,,,,,,,,,,,,,,,,,,,,,,,,,
1720078140,2,0,4309.871582,4346.282227,4298.077148,4339.230957,4349.743652,4357.179688,4363.461426,4373.205078,4385.256348,4345.512695,4296.282227,4470.256348,4281.025879,4026.025635,30.649174,9.502392,3.210462,1.010479,0.367299,0.725477,4.058052,0.667013,0.433059,0.348922,1.560254,7.89997,1.829366,0.905629,0.267301,0.428976,2.842983,0.699081,0.404504,0.262058,0.309194,1.013531,0.259303,0.174578,0.10115,0.332751,5.731308,1.47432,0.502091,0.161956,0.622105,6.619081,1.494804,0.472175,0.155394,0.747813,10.632844,4.041936,0.587954,0.176862,2.124153,18.767649,7.526793,0.719242,0.192633,0.951651,3.573169,2.352886,0.373045,0.205622,1.463756,8.73829,2.483784,0.962066,0.343982,1.685805,10.065344,4.337525,1.9008,0.435629,1.121928,8.317625,1.853955,0.667071,0.434534,5.741563,12.825176,2.249956,1.120548,0.427281
1720078140,3,0,4311.794922,4344.743652,4304.743652,4344.358887,4343.589844,4351.794922,4362.692383,4384.102539,4396.538574,4354.487305,4303.717773,4472.307617,4282.563965,4026.410156,,,,,,,,,,,,,,,,,,,,,,,,,,,,,,,,,,,,,,,,,,,,,,,,,,,,,,,,,,,,,,,,,,,,,,
1720078140,4,0,4318.589844,4347.692383,4312.820313,4349.871582,4342.692383,4358.589844,4370.641113,4386.282227,4403.333496,4359.871582,4310.641113,4476.153809,4295.769043,4035.384521,,,,,,,,,,,,,,,,,,,,,,,,,,,,,,,,,,,,,,,,,,,,,,,,,,,,,,,,,,,,,,,,,,,,,,
1720078140,5,0,4320.256348,4347.692383,4315.897461,4351.282227,4345.897461,4368.461426,4384.871582,4387.94873,4401.410156,4355.384766,4311.538574,4481.538574,4295.512695,4038.589844,,,,,,,,,,,,,,,,,,,,,,,,,,,,,,,,,,,,,,,,,,,,,,,,,,,,,,,,,,,,,,,,,,,,,,
1720078140,6,0,4314.487305,4341.025879,4313.589844,4349.487305,4344.615234,4366.794922,4385.512695,4386.153809,4388.205078,4349.615234,4311.025879,4481.410156,4287.94873,4029.358887,,,,,,,,,,,,,,,,,,,,,,,,,,,,,,,,,,,,,,,,,,,,,,,,,,,,,,,,,,,,,,,,,,,,,,
1720078140,7,0,4310.769043,4336.538574,4309.102539,4347.436035,4345,4364.102539,4374.743652,4372.692383,4367.692383,4341.153809,4300.256348,4467.94873,4281.794922,4014.487061,,,,,,,,,,,,,,,,,,,,,,,,,,,,,,,,,,,,,,,,,,,,,,,,,,,,,,,,,,,,,,,,,,,,,,
1720078140,8,0,4306.025879,4331.282227,4301.666504,4344.871582,4347.94873,4368.846191,4372.179688,4360.384766,4352.436035,4328.846191,4286.410156,4452.436035,4276.922852,4002.179443,,,,,,,,,,,,,,,,,,,,,,,,,,,,,,,,,,,,,,,,,,,,,,,,,,,,,,,,,,,,,,,,,,,,,,
1720078140,9,0,4295.641113,4323.846191,4290.256348,4338.589844,4347.179688,4367.94873,4368.717773,4355.128418,4345.384766,4321.153809,4283.589844,4445,4271.538574,3997.05127,,,,,,,,,,,,,,,,,,,,,,,,,,,,,,,,,,,,,,,,,,,,,,,,,,,,,,,,,,,,,,,,,,,,,,
1720078140,10,0,4293.205078,4324.743652,4283.077148,4339.102539,4349.871582,4364.358887,4361.025879,4349.230957,4347.563965,4329.743652,4292.05127,4444.487305,4271.922852,4000.769287,,,,,,,,,,,,,,,,,,,,,,,,,,,,,,,,,,,,,,,,,,,,,,,,,,,,,,,,,,,,,,,,,,,,,,
1720078140,11,0,4300.384766,4328.589844,4283.333496,4348.461426,4356.666504,4366.410156,4356.282227,4341.410156,4355.128418,4343.717773,4298.589844,4442.436035,4281.153809,4006.025635,,,,,,,,,,,,,,,,,,,,,,,,,,,,,,,,,,,,,,,,,,,,,,,,,,,,,,,,,,,,,,,,,,,,,,
1720078140,12,0,4293.846191,4325.384766,4278.846191,4346.410156,4355.256348,4362.820313,4347.94873,4336.410156,4356.153809,4343.205078,4289.615234,4433.077148,4276.410156,3997.05127,,,,,,,,,,,,,,,,,,,,,,,,,,,,,,,,,,,,,,,,,,,,,,,,,,,,,,,,,,,,,,,,,,,,,,
1720078140,13,0,4275.641113,4322.563965,4273.717773,4339.102539,4350,4349.615234,4339.102539,4345.641113,4363.974121,4341.666504,4283.589844,4431.025879,4263.589844,3984.871826,,,,,,,,,,,,,,,,,,,,,,,,,,,,,,,,,,,,,,,,,,,,,,,,,,,,,,,,,,,,,,,,,,,,,,
1720078140,14,0,4266.794922,4329.871582,4282.436035,4349.743652,4349.871582,4340,4342.820313,4362.820313,4382.692383,4349.102539,4298.205078,4443.333496,4273.461426,3992.692383,,,,,,,,,,,,,,,,,,,,,,,,,,,,,,,,,,,,,,,,,,,,,,,,,,,,,,,,,,,,,,,,,,,,,,
1720078140,15,0,4266.538574,4333.974121,4293.846191,4360.128418,4349.615234,4342.94873,4351.282227,4371.666504,4387.307617,4347.820313,4305,4455.128418,4279.615234,3998.589844,,,,,,,,,,,,,,,,,,,,,,,,,,,,,,,,,,,,,,,,,,,,,,,,,,,,,,,,,,,,,,,,,,,,,,
1720078140,16,0,4268.205078,4326.922852,4294.230957,4356.794922,4351.025879,4354.487305,4353.461426,4369.230957,4373.333496,4337.563965,4295,4461.922852,4265.512695,3993.718018,,,,,,,,,,,,,,,,,,,,,,,,,,,,,,,,,,,,,,,,,,,,,,,,,,,,,,,,,,,,,,,,,,,,,,
1720078140,17,0,4270.897461,4322.692383,4291.410156,4352.563965,4353.717773,4369.871582,4359.487305,4362.307617,4363.717773,4330,4288.333496,4460.769043,4260.384766,3995.769287,,,,,,,,,,,,,,,,,,,,,,,,,,,,,,,,,,,,,,,,,,,,,,,,,,,,,,,,,,,,,,,,,,,,,,
1720078140,18,0,4273.974121,4326.282227,4292.820313,4349.102539,4353.717773,4383.333496,4373.717773,4361.794922,4363.077148,4324.871582,4285.384766,4450.641113,4263.333496,3998.461426,21.506008,8.663349,2.558416,1.003788,0.38847,0.957399,4.51352,0.735418,0.460453,0.372338,1.174456,8.453681,2.05417,0.975394,0.262546,0.435051,3.103824,0.811303,0.41449,0.268962,0.316335,1.015507,0.217528,0.168937,0.102938,0.375231,6.117836,1.234355,0.542987,0.157267,0.628957,7.157248,1.087293,0.4528,0.145827,0.680918,10.099132,3.401495,0.667569,0.172117,2.51758,17.220341,6.786027,0.765815,0.182009,1.002696,3.094311,2.189075,0.401596,0.219841,1.033975,8.374108,2.478108,1.12155,0.343758,1.30486,9.823771,4.188437,2.081786,0.40835,1.049843,7.872354,1.854788,0.740792,0.451498,3.818097,11.512403,2.462939,1.21223,0.449723
1720078140,19,0,4281.282227,4330.256348,4294.871582,4346.282227,4352.179688,4389.615234,4385.641113,4373.846191,4366.282227,4330.641113,4291.922852,4454.358887,4269.743652,4000.256348,,,,,,,,,,,,,,,,,,,,,,,,,,,,,,,,,,,,,,,,,,,,,,,,,,,,,,,,,,,,,,,,,,,,,,
1720078140,20,0,4294.871582,4333.974121,4298.461426,4350.641113,4350.641113,4389.102539,4391.794922,4380.769043,4371.794922,4345.512695,4311.025879,4469.615234,4286.282227,4009.230713,,,,,,,,,,,,,,,,,,,,,,,,,,,,,,,,,,,,,,,,,,,,,,,,,,,,,,,,,,,,,,,,,,,,,,
1720078140,21,0,4302.94873,4337.436035,4304.102539,4353.846191,4348.846191,4376.410156,4385.384766,4365.384766,4366.794922,4345.128418,4315.256348,4468.333496,4291.153809,4018.333252,,,,,,,,,,,,,,,,,,,,,,,,,,,,,,,,,,,,,,,,,,,,,,,,,,,,,,,,,,,,,,,,,,,,,,
1720078140,22,0,4306.666504,4340.384766,4306.794922,4353.205078,4353.717773,4360.641113,4370.897461,4348.974121,4350.769043,4340.512695,4306.794922,4463.077148,4287.436035,4020.512939,,,,,,,,,,,,,,,,,,,,,,,,,,,,,,,,,,,,,,,,,,,,,,,,,,,,,,,,,,,,,,,,,,,,,,
1720078140,23,0,4313.589844,4346.922852,4303.589844,4361.538574,4358.717773,4353.846191,4358.333496,4342.307617,4339.102539,4347.94873,4312.05127,4469.230957,4292.94873,4022.692383,,,,,,,,,,,,,,,,,,,,,,,,,,,,,,,,,,,,,,,,,,,,,,,,,,,,,,,,,,,,,,,,,,,,,,
1720078140,24,0,4314.102539,4347.94873,4296.794922,4365.256348,4352.307617,4348.461426,4346.153809,4337.179688,4342.05127,4352.05127,4318.205078,4470.128418,4293.461426,4024.230713,,,,,,,,,,,,,,,,,,,,,,,,,,,,,,,,,,,,,,,,,,,,,,,,,,,,,,,,,,,,,,,,,,,,,,
1720078140,25,0,4311.410156,4343.333496,4296.025879,4359.230957,4346.666504,4338.974121,4336.538574,4342.179688,4355.641113,4351.153809,4314.102539,4468.205078,4288.717773,4022.94873,,,,,,,,,,,,,,,,,,,,,,,,,,,,,,,,,,,,,,,,,,,,,,,,,,,,,,,,,,,,,,,,,,,,,,
1720078140,26,0,4311.922852,4346.025879,4300.897461,4362.05127,4353.717773,4336.153809,4334.743652,4353.589844,4366.153809,4349.102539,4310.256348,4469.487305,4287.307617,4022.692383,,,,,,,,,,,,,,,,,,,,,,,,,,,,,,,,,,,,,,,,,,,,,,,,,,,,,,,,,,,,,,,,,,,,,,
1720078140,27,0,4311.922852,4350.897461,4300.641113,4369.102539,4359.358887,4346.153809,4333.589844,4356.922852,4372.05127,4343.589844,4307.692383,4462.179688,4281.922852,4021.025635,,,,,,,,,,,,,,,,,,,,,,,,,,,,,,,,,,,,,,,,,,,,,,,,,,,,,,,,,,,,,,,,,,,,,,
1720078140,28,0,4302.307617,4340.256348,4296.794922,4364.487305,4358.589844,4365.128418,4337.94873,4358.077148,4373.077148,4337.820313,4299.102539,4449.102539,4270.256348,4010.128174,,,,,,,,,,,,,,,,,,,,,,,,,,,,,,,,,,,,,,,,,,,,,,,,,,,,,,,,,,,,,,,,,,,,,,
1720078140,29,0,4287.05127,4325.384766,4290.512695,4353.846191,4358.589844,4383.461426,4361.794922,4368.333496,4371.282227,4334.615234,4290,4446.538574,4263.077148,3997.307617,,,,,,,,,,,,,,,,,,,,,,,,,,,,,,,,,,,,,,,,,,,,,,,,,,,,,,,,,,,,,,,,,,,,,,
1720078140,30,0,4288.461426,4330.128418,4283.333496,4356.538574,4358.461426,4391.153809,4382.307617,4378.589844,4370.897461,4336.282227,4293.461426,4449.743652,4265.512695,3999.615479,,,,,,,,,,,,,,,,,,,,,,,,,,,,,,,,,,,,,,,,,,,,,,,,,,,,,,,,,,,,,,,,,,,,,,
1720078140,31,0,4297.820313,4338.974121,4276.794922,4358.461426,4357.05127,4389.358887,4383.077148,4377.179688,4369.358887,4334.871582,4296.025879,4440.641113,4266.794922,4002.692383,,,,,,,,,,,,,,,,,,,,,,,,,,,,,,,,,,,,,,,,,,,,,,,,,,,,,,,,,,,,,,,,,,,,,,
1720078140,32,0,4299.615234,4334.102539,4279.230957,4354.102539,4357.94873,4386.922852,4380.256348,4371.922852,4362.820313,4327.05127,4287.692383,4437.94873,4260.128418,3994.358887,,,,,,,,,,,,,,,,,,,,,,,,,,,,,,,,,,,,,,,,,,,,,,,,,,,,,,,,,,,,,,,,,,,,,,
1720078140,33,0,4309.358887,4335.769043,4294.230957,4357.820313,4357.307617,4380.256348,4378.205078,4373.333496,4361.025879,4325,4285.512695,4455.256348,4254.615234,3994.102539,,,,,,,,,,,,,,,,,,,,,,,,,,,,,,,,,,,,,,,,,,,,,,,,,,,,,,,,,,,,,,,,,,,,,,
1720078140,34,0,4335,4355,4312.692383,4369.487305,4357.307617,4374.487305,4376.666504,4375,4359.230957,4338.333496,4301.666504,4475.512695,4266.153809,4011.794922,12.904386,7.606115,1.983011,0.941698,0.417382,1.345274,4.580779,0.751706,0.470197,0.396803,1.059988,8.333385,2.101807,0.963721,0.272771,0.456551,3.148282,0.85795,0.407247,0.284271,0.332886,1.022438,0.191859,0.159598,0.104192,0.424642,5.903279,0.970545,0.561102,0.14932,0.67542,7.168012,0.736153,0.432549,0.139569,0.651944,10.400188,2.600333,0.715207,0.166428,2.743269,15.511138,5.596833,0.779323,0.172971,1.08288,2.715477,1.864255,0.422757,0.226132,0.79995,7.598257,2.252227,1.190099,0.348849,1.443506,9.185282,3.797502,2.104424,0.383162,1.248164,6.946662,1.743072,0.768352,0.467301,3.340072,9.65416,2.424842,1.240492,0.471714
1720078140,35,0,4355.769043,4370.512695,4329.743652,4378.717773,4363.461426,4373.846191,4376.538574,4368.205078,4346.666504,4351.025879,4319.743652,4487.94873,4285.384766,4033.076904,,,,,,,,,,,,,,,,,,,,,,,,,,,,,,,,,,,,,,,,,,,,,,,,,,,,,,,,,,,,,,,,,,,,,,
1720078140,36,0,4361.922852,4370.769043,4340.897461,4383.461426,4366.153809,4366.922852,4370.641113,4359.743652,4337.563965,4353.717773,4326.025879,4494.871582,4293.589844,4042.435791,,,,,,,,,,,,,,,,,,,,,,,,,,,,,,,,,,,,,,,,,,,,,,,,,,,,,,,,,,,,,,,,,,,,,,
1720078140,37,0,4358.205078,4367.692383,4342.820313,4386.282227,4360.256348,4356.025879,4359.615234,4355.897461,4347.179688,4353.589844,4323.461426,4495,4286.794922,4039.871826,,,,,,,,,,,,,,,,,,,,,,,,,,,,,,,,,,,,,,,,,,,,,,,,,,,,,,,,,,,,,,,,,,,,,,
1720078140,38,0,4352.05127,4369.487305,4337.179688,4383.205078,4362.563965,4357.563965,4356.922852,4359.743652,4367.179688,4357.94873,4319.230957,4494.358887,4283.205078,4039.487061,,,,,,,,,,,,,,,,,,,,,,,,,,,,,,,,,,,,,,,,,,,,,,,,,,,,,,,,,,,,,,,,,,,,,,
1720078140,39,0,4349.102539,4368.461426,4329.230957,4375.897461,4371.410156,4370.512695,4359.102539,4371.025879,4383.077148,4361.538574,4318.717773,4495.256348,4284.743652,4042.692383,,,,,,,,,,,,,,,,,,,,,,,,,,,,,,,,,,,,,,,,,,,,,,,,,,,,,,,,,,,,,,,,,,,,,,
1720078140,40,0,4341.794922,4361.538574,4325.769043,4368.333496,4366.282227,4381.282227,4365.128418,4382.307617,4390.384766,4351.410156,4311.410156,4485.512695,4271.025879,4032.05127,,,,,,,,,,,,,,,,,,,,,,,,,,,,,,,,,,,,,,,,,,,,,,,,,,,,,,,,,,,,,,,,,,,,,,
1720078140,41,0,4330.897461,4354.487305,4325,4365.641113,4361.025879,4389.871582,4384.871582,4391.666504,4394.230957,4337.820313,4297.307617,4477.692383,4256.666504,4016.666748,,,,,,,,,,,,,,,,,,,,,,,,,,,,,,,,,,,,,,,,,,,,,,,,,,,,,,,,,,,,,,,,,,,,,,
1720078140,42,0,4324.743652,4346.025879,4317.563965,4363.974121,4365.128418,4403.461426,4407.436035,4407.692383,4401.410156,4338.205078,4298.461426,4482.820313,4259.871582,4015.769287,,,,,,,,,,,,,,,,,,,,,,,,,,,,,,,,,,,,,,,,,,,,,,,,,,,,,,,,,,,,,,,,,,,,,,
1720078140,43,0,4317.563965,4339.102539,4302.820313,4355.512695,4361.153809,4408.077148,4411.410156,4413.205078,4403.205078,4345.256348,4308.717773,4479.871582,4264.743652,4020.512939,,,,,,,,,,,,,,,,,,,,,,,,,,,,,,,,,,,,,,,,,,,,,,,,,,,,,,,,,,,,,,,,,,,,,,
1720078140,44,0,4310.256348,4338.205078,4292.563965,4350.384766,4354.487305,4398.077148,4396.153809,4397.436035,4387.436035,4336.025879,4306.025879,4466.794922,4260,4018.846191,,,,,,,,,,,,,,,,,,,,,,,,,,,,,,,,,,,,,,,,,,,,,,,,,,,,,,,,,,,,,,,,,,,,,,
1720078140,45,0,4311.410156,4337.05127,4290.128418,4353.333496,4357.179688,4385.897461,4378.461426,4376.538574,4367.307617,4331.153809,4300.256348,4461.794922,4262.307617,4019.743652,,,,,,,,,,,,,,,,,,,,,,,,,,,,,,,,,,,,,,,,,,,,,,,,,,,,,,,,,,,,,,,,,,,,,,
1720078140,46,0,4323.205078,4336.666504,4295.128418,4357.179688,4357.179688,4379.230957,4374.102539,4355.384766,4362.05127,4366.538574,4304.871582,4465.512695,4272.563965,4027.435791,,,,,,,,,,,,,,,,,,,,,,,,,,,,,,,,,,,,,,,,,,,,,,,,,,,,,,,,,,,,,,,,,,,,,,
1720078140,47,0,4341.153809,4350.384766,4310.256348,4365.897461,4354.871582,4375.897461,4379.358887,4339.487305,4370.769043,4411.282227,4312.179688,4477.436035,4280.769043,4037.820557,,,,,,,,,,,,,,,,,,,,,,,,,,,,,,,,,,,,,,,,,,,,,,,,,,,,,,,,,,,,,,,,,,,,,,
1720078140,48,0,4350.384766,4362.692383,4320.769043,4375.384766,4361.922852,4372.05127,4376.794922,4337.436035,4372.436035,4420.384766,4317.820313,4489.743652,4288.205078,4045.512939,,,,,,,,,,,,,,,,,,,,,,,,,,,,,,,,,,,,,,,,,,,,,,,,,,,,,,,,,,,,,,,,,,,,,,
1720078140,49,0,4355.256348,4361.794922,4321.410156,4376.922852,4364.102539,4366.794922,4367.436035,4339.358887,4366.153809,4415.512695,4326.282227,4493.846191,4294.615234,4055,,,,,,,,,,,,,,,,,,,,,,,,,,,,,,,,,,,,,,,,,,,,,,,,,,,,,,,,,,,,,,,,,,,,,,
1720078140,50,0,4370.512695,4371.153809,4332.436035,4386.153809,4362.436035,4362.692383,4368.461426,4339.102539,4371.025879,4426.410156,4339.230957,4503.077148,4308.077148,4070.512939,6.684116,6.413229,1.518895,0.825996,0.447266,1.70441,4.212358,0.696908,0.460748,0.412523,1.148299,7.55847,1.928003,0.871666,0.289037,0.470625,2.954316,0.808064,0.383759,0.302,0.345295,1.059088,0.182367,0.150094,0.103553,0.455839,5.250998,0.720431,0.552285,0.139122,0.737549,6.790315,0.491503,0.420611,0.136568,0.669841,11.893188,1.848993,0.739994,0.162824,2.726893,14.566,4.395665,0.762469,0.165414,1.18855,2.543547,1.4981,0.433936,0.219505,0.797045,6.592745,1.856464,1.154238,0.352188,1.988117,8.330395,3.200197,1.979221,0.359124,1.707764,5.761973,1.540872,0.741724,0.473887,3.787784,7.621001,2.136306,1.197199,0.480322
1720078140,51,0,4378.461426,4383.461426,4346.794922,4400.769043,4369.871582,4365.769043,4374.487305,4339.487305,4373.333496,4427.436035,4343.589844,4510.641113,4314.102539,4071.410156,,,,,,,,,,,,,,,,,,,,,,,,,,,,,,,,,,,,,,,,,,,,,,,,,,,,,,,,,,,,,,,,,,,,,,
1720078140,52,0,4373.077148,4376.538574,4345.128418,4400.641113,4376.410156,4374.487305,4375.128418,4339.615234,4355.512695,4409.102539,4345.256348,4500.897461,4301.666504,4060.128174,,,,,,,,,,,,,,,,,,,,,,,,,,,,,,,,,,,,,,,,,,,,,,,,,,,,,,,,,,,,,,,,,,,,,,
1720078140,53,0,4369.102539,4370.384766,4336.922852,4395.641113,4376.666504,4384.102539,4381.025879,4338.333496,4343.589844,4399.615234,4355.128418,4489.743652,4295.512695,4060.384521,,,,,,,,,,,,,,,,,,,,,,,,,,,,,,,,,,,,,,,,,,,,,,,,,,,,,,,,,,,,,,,,,,,,,,
1720078140,54,0,4358.717773,4372.820313,4328.846191,4388.846191,4375.256348,4390.256348,4386.538574,4333.974121,4347.94873,4397.179688,4355.769043,4481.794922,4294.743652,4055.769287,,,,,,,,,,,,,,,,,,,,,,,,,,,,,,,,,,,,,,,,,,,,,,,,,,,,,,,,,,,,,,,,,,,,,,
1720078140,55,0,4338.589844,4360.897461,4312.94873,4373.333496,4370.641113,4388.717773,4379.871582,4325.769043,4345.256348,4391.538574,4337.179688,4466.538574,4281.282227,4033.076904,,,,,,,,,,,,,,,,,,,,,,,,,,,,,,,,,,,,,,,,,,,,,,,,,,,,,,,,,,,,,,,,,,,,,,
1720078140,56,0,4328.077148,4349.230957,4300.256348,4368.461426,4365.256348,4385.512695,4372.94873,4324.358887,4342.94873,4390.128418,4327.820313,4455,4272.179688,4026.410156,,,,,,,,,,,,,,,,,,,,,,,,,,,,,,,,,,,,,,,,,,,,,,,,,,,,,,,,,,,,,,,,,,,,,,
1720078140,57,0,4327.307617,4355.512695,4301.794922,4375.897461,4364.615234,4381.922852,4369.871582,4328.589844,4355.256348,4398.974121,4337.179688,4457.05127,4281.410156,4039.615479,,,,,,,,,,,,,,,,,,,,,,,,,,,,,,,,,,,,,,,,,,,,,,,,,,,,,,,,,,,,,,,,,,,,,,
1720078140,58,0,4321.410156,4357.692383,4300.769043,4367.94873,4363.589844,4374.743652,4361.410156,4325.256348,4360.384766,4402.307617,4340.384766,4459.102539,4285.256348,4040.512939,,,,,,,,,,,,,,,,,,,,,,,,,,,,,,,,,,,,,,,,,,,,,,,,,,,,,,,,,,,,,,,,,,,,,,
