Timestamp,EEG.Counter,EEG.Interpolated,EEG.AF3,EEG.F7,EEG.F3,EEG.FC5,EEG.T7,EEG.P7,EEG.O1,EEG.O2,EEG.P8,EEG.T8,EEG.FC6,EEG.F4,EEG.F8,EEG.AF4,POW.AF3.Theta,POW.AF3.Alpha,POW.AF3.BetaL,POW.AF3.BetaH,POW.AF3.Gamma,POW.F7.Theta,POW.F7.Alpha,POW.F7.BetaL,POW.F7.BetaH,POW.F7.Gamma,POW.F3.Theta,POW.F3.Alpha,POW.F3.BetaL,POW.F3.BetaH,POW.F3.Gamma,POW.FC5.Theta,POW.FC5.Alpha,POW.FC5.BetaL,POW.FC5.BetaH,POW.FC5.Gamma,POW.T7.Theta,POW.T7.Alpha,POW.T7.BetaL,POW.T7.BetaH,POW.T7.Gamma,POW.P7.Theta,POW.P7.Alpha,POW.P7.BetaL,POW.P7.BetaH,POW.P7.Gamma,POW.O1.Theta,POW.O1.Alpha,POW.O1.BetaL,POW.O1.BetaH,POW.O1.Gamma,POW.O2.Theta,POW.O2.Alpha,POW.O2.BetaL,POW.O2.BetaH,POW.O2.Gamma,POW.P8.Theta,POW.P8.Alpha,POW.P8.BetaL,POW.P8.BetaH,POW.P8.Gamma,POW.T8.Theta,POW.T8.Alpha,POW.T8.BetaL,POW.T8.BetaH,POW.T8.Gamma,POW.FC6.Theta,POW.FC6.Alpha,POW.FC6.BetaL,POW.FC6.BetaH,POW.FC6.Gamma,POW.F4.Theta,POW.F4.Alpha,POW.F4.BetaL,POW.F4.BetaH,POW.F4.Gamma,POW.F8.Theta,POW.F8.Alpha,POW.F8.BetaL,POW.F8.BetaH,POW.F8.Gamma,POW.AF4.Theta,POW.AF4.Alpha,POW.AF4.BetaL,POW.AF4.BetaH,POW.AF4.Gamma
1720085420,105,0,4281.794922,4336.153809,4325.769043,4397.436035,4261.794922,4268.077148,4184.615234,4285.641113,4317.436035,4170.512695,4364.615234,4468.846191,4357.563965,4403.846191,,,,,,,,,,,,,,,,,,,,,,,,,,,,,,,,,,,,,,,,,,,,,,,,,,,,,,,,,,,,,,,,,,,,,,
1720085420,106,0,4267.179688,4330.512695,4318.589844,4393.077148,4264.615234,4279.615234,4190.512695,4289.487305,4317.307617,4171.538574,4372.436035,4459.102539,4361.410156,4399.102539,31.867222,6.293679,2.224512,1.76863,0.90257,13.77377,2.792373,2.045194,1.046462,0.854272,6.787827,1.385839,1.879246,1.25876,0.904106,6.228427,4.972951,2.22262,1.591161,1.015247,1.655358,0.558668,0.478438,0.422007,0.390308,2.479667,0.62845,0.897586,0.379308,0.207595,1.545926,1.115352,1.22705,0.698905,0.547203,4.31782,2.210224,1.145313,0.861895,0.885396,31.524378,3.569785,2.328979,0.995385,1.083208,53.689247,14.261604,12.104104,3.152889,2.530291,16.01792,5.974281,3.231553,2.447127,2.434856,11.951551,5.789048,1.716308,1.272881,1.539577,8.8262,2.292832,1.879732,1.178359,0.827714,35.204021,8.345532,2.837152,1.042114,1.260529
1720085420,107,0,4257.94873,4327.436035,4306.282227,4401.025879,4260.641113,4284.230957,4191.538574,4285.769043,4307.692383,4166.666504,4378.461426,4449.358887,4367.692383,4383.717773,,,,,,,,,,,,,,,,,,,,,,,,,,,,,,,,,,,,,,,,,,,,,,,,,,,,,,,,,,,,,,,,,,,,,,
1720085420,108,0,4258.461426,4327.563965,4295.512695,4406.025879,4258.846191,4282.563965,4186.153809,4275.769043,4302.05127,4172.94873,4371.410156,4442.94873,4366.282227,4372.692383,,,,,,,,,,,,,,,,,,,,,,,,,,,,,,,,,,,,,,,,,,,,,,,,,,,,,,,,,,,,,,,,,,,,,,
1720085420,109,0,4261.794922,4330,4299.615234,4399.487305,4271.282227,4291.282227,4188.846191,4276.794922,4307.94873,4190.128418,4374.358887,4443.205078,4373.846191,4389.871582,,,,,,,,,,,,,,,,,,,,,,,,,,,,,,,,,,,,,,,,,,,,,,,,,,,,,,,,,,,,,,,,,,,,,,
1720085420,110,0,4261.538574,4334.871582,4311.282227,4407.94873,4276.410156,4294.487305,4191.794922,4281.922852,4307.436035,4195.384766,4387.307617,4443.974121,4386.153809,4399.102539,,,,,,,,,,,,,,,,,,,,,,,,,,,,,,,,,,,,,,,,,,,,,,,,,,,,,,,,,,,,,,,,,,,,,,
1720085420,111,0,4263.846191,4337.692383,4314.743652,4417.820313,4266.153809,4284.615234,4179.487305,4276.666504,4293.974121,4189.358887,4381.410156,4438.717773,4381.025879,4382.436035,,,,,,,,,,,,,,,,,,,,,,,,,,,,,,,,,,,,,,,,,,,,,,,,,,,,,,,,,,,,,,,,,,,,,,
1720085420,112,0,4272.05127,4336.794922,4314.487305,4413.333496,4256.153809,4277.94873,4168.717773,4273.333496,4292.563965,4195,4366.666504,4440.769043,4377.179688,4388.846191,,,,,,,,,,,,,,,,,,,,,,,,,,,,,,,,,,,,,,,,,,,,,,,,,,,,,,,,,,,,,,,,,,,,,,
1720085420,113,0,4282.94873,4343.846191,4318.461426,4411.666504,4249.615234,4276.794922,4176.538574,4278.461426,4306.153809,4208.717773,4367.436035,4448.461426,4383.333496,4408.589844,,,,,,,,,,,,,,,,,,,,,,,,,,,,,,,,,,,,,,,,,,,,,,,,,,,,,,,,,,,,,,,,,,,,,,
1720085420,114,0,4282.94873,4347.307617,4313.974121,4410.128418,4248.589844,4274.358887,4183.974121,4282.563965,4311.922852,4213.461426,4377.94873,4446.538574,4384.230957,4395.769043,,,,,,,,,,,,,,,,,,,,,,,,,,,,,,,,,,,,,,,,,,,,,,,,,,,,,,,,,,,,,,,,,,,,,,
1720085420,115,0,4274.743652,4338.077148,4302.94873,4406.025879,4256.794922,4274.102539,4183.846191,4283.333496,4307.436035,4218.589844,4389.487305,4444.102539,4385.897461,4377.05127,,,,,,,,,,,,,,,,,,,,,,,,,,,,,,,,,,,,,,,,,,,,,,,,,,,,,,,,,,,,,,,,,,,,,,
1720085420,116,0,4262.94873,4327.307617,4296.666504,4396.538574,4260.897461,4277.05127,4188.205078,4279.743652,4299.871582,4218.846191,4384.358887,4441.538574,4380.512695,4380.512695,,,,,,,,,,,,,,,,,,,,,,,,,,,,,,,,,,,,,,,,,,,,,,,,,,,,,,,,,,,,,,,,,,,,,,
1720085420,117,0,4248.974121,4321.922852,4294.102539,4384.102539,4256.922852,4282.820313,4197.94873,4276.153809,4292.820313,4208.077148,4365.769043,4428.461426,4363.077148,4379.230957,,,,,,,,,,,,,,,,,,,,,,,,,,,,,,,,,,,,,,,,,,,,,,,,,,,,,,,,,,,,,,,,,,,,,,
1720085420,118,0,4252.05127,4330.769043,4294.871582,4394.871582,4266.666504,4293.846191,4206.922852,4282.94873,4299.358887,4216.025879,4355,4418.589844,4362.820313,4368.589844,,,,,,,,,,,,,,,,,,,,,,,,,,,,,,,,,,,,,,,,,,,,,,,,,,,,,,,,,,,,,,,,,,,,,,
1720085420,119,0,4250.641113,4329.743652,4280.641113,4401.025879,4276.282227,4295,4197.94873,4278.589844,4296.025879,4224.743652,4340.384766,4406.153809,4358.461426,4352.05127,,,,,,,,,,,,,,,,,,,,,,,,,,,,,,,,,,,,,,,,,,,,,,,,,,,,,,,,,,,,,,,,,,,,,,
1720085420,120,0,4213.589844,4299.871582,4245.384766,4365.897461,4263.589844,4279.615234,4168.589844,4246.794922,4261.794922,4191.538574,4306.153809,4368.589844,4322.563965,4317.94873,,,,,,,,,,,,,,,,,,,,,,,,,,,,,,,,,,,,,,,,,,,,,,,,,,,,,,,,,,,,,,,,,,,,,,
1720085420,121,0,4203.589844,4292.94873,4234.230957,4350.512695,4258.974121,4273.077148,4164.487305,4238.461426,4248.589844,4173.333496,4303.846191,4357.436035,4312.692383,4307.692383,,,,,,,,,,,,,,,,,,,,,,,,,,,,,,,,,,,,,,,,,,,,,,,,,,,,,,,,,,,,,,,,,,,,,,
1720085420,122,0,4257.307617,4337.05127,4275.384766,4402.179688,4275,4280.769043,4197.179688,4278.205078,4285.641113,4222.307617,4369.615234,4415,4360.641113,4350.641113,29.076193,6.544333,2.37565,1.570849,1.000685,13.001163,2.617614,2.332732,0.912265,0.940131,5.054393,1.368306,1.892011,1.064025,0.967192,5.704894,4.140561,2.594659,1.559786,1.107401,1.633093,0.616398,0.577736,0.422612,0.40818,2.017981,0.677199,1.322909,0.418197,0.238163,1.448653,1.16128,1.598461,0.672745,0.60947,4.279615,2.180864,1.489196,0.844553,0.887204,33.702076,4.029461,2.701479,0.884077,1.121926,48.588364,15.605289,10.128192,2.749645,2.46677,9.56582,4.148654,2.386159,2.1331,2.403144,10.816963,6.458767,1.46122,1.09642,1.559461,8.113016,2.107928,1.545043,1.166913,0.812128,32.73317,7.980965,2.354769,0.939955,1.232842
1720085420,123,0,4280.897461,4355.769043,4306.282227,4431.538574,4272.820313,4278.333496,4210.384766,4298.846191,4310.641113,4262.563965,4417.692383,4458.589844,4396.410156,4378.717773,,,,,,,,,,,,,,,,,,,,,,,,,,,,,,,,,,,,,,,,,,,,,,,,,,,,,,,,,,,,,,,,,,,,,,
1720085420,124,0,4255.512695,4327.05127,4284.743652,4390.384766,4254.487305,4265.256348,4193.717773,4281.410156,4297.05127,4247.692383,4403.589844,4442.179688,4384.871582,4362.692383,,,,,,,,,,,,,,,,,,,,,,,,,,,,,,,,,,,,,,,,,,,,,,,,,,,,,,,,,,,,,,,,,,,,,,
1720085420,125,0,4259.358887,4324.102539,4273.205078,4364.743652,4257.692383,4258.717773,4193.589844,4281.025879,4293.333496,4245.897461,4393.974121,4437.820313,4377.94873,4356.538574,,,,,,,,,,,,,,,,,,,,,,,,,,,,,,,,,,,,,,,,,,,,,,,,,,,,,,,,,,,,,,,,,,,,,,
1720085420,126,0,4267.05127,4334.487305,4288.717773,4382.436035,4268.077148,4261.538574,4210.384766,4296.025879,4307.94873,4263.205078,4400.641113,4457.692383,4387.436035,4366.794922,,,,,,,,,,,,,,,,,,,,,,,,,,,,,,,,,,,,,,,,,,,,,,,,,,,,,,,,,,,,,,,,,,,,,,
1720085420,127,0,4248.077148,4326.538574,4289.358887,4388.717773,4263.461426,4267.05127,4218.974121,4300,4314.102539,4259.743652,4398.974121,4456.025879,4388.974121,4362.692383,,,,,,,,,,,,,,,,,,,,,,,,,,,,,,,,,,,,,,,,,,,,,,,,,,,,,,,,,,,,,,,,,,,,,,
1720085420,0,0,4241.666504,4320,4277.307617,4378.589844,4260,4266.153809,4220,4294.615234,4304.743652,4252.94873,4396.922852,4434.871582,4380.512695,4341.153809,,,,,,,,,,,,,,,,,,,,,,,,,,,,,,,,,,,,,,,,,,,,,,,,,,,,,,,,,,,,,,,,,,,,,,
1720085420,1,0,4245.512695,4316.153809,4273.974121,4378.205078,4261.538574,4260.769043,4215.384766,4284.487305,4286.538574,4252.05127,4381.538574,4419.743652,4365.128418,4321.666504,,,,,,,,,,,,,,,,,,,,,,,,,,,,,,,,,,,,,,,,,,,,,,,,,,,,,,,,,,,,,,,,,,,,,,
1720085420,2,0,4245.512695,4317.692383,4280.769043,4387.563965,4263.589844,4268.846191,4213.846191,4277.563965,4275.641113,4242.563965,4358.461426,4422.94873,4359.487305,4330.128418,,,,,,,,,,,,,,,,,,,,,,,,,,,,,,,,,,,,,,,,,,,,,,,,,,,,,,,,,,,,,,,,,,,,,,
1720085420,3,0,4255.897461,4330,4299.102539,4389.743652,4265.897461,4282.436035,4223.589844,4279.487305,4274.743652,4239.230957,4369.743652,4438.589844,4372.820313,4358.077148,,,,,,,,,,,,,,,,,,,,,,,,,,,,,,,,,,,,,,,,,,,,,,,,,,,,,,,,,,,,,,,,,,,,,,
1720085420,4,0,4269.871582,4335.769043,4319.615234,4377.820313,4264.487305,4282.563965,4233.077148,4281.153809,4275.128418,4244.615234,4396.282227,4451.153809,4382.307617,4377.05127,,,,,,,,,,,,,,,,,,,,,,,,,,,,,,,,,,,,,,,,,,,,,,,,,,,,,,,,,,,,,,,,,,,,,,
1720085420,5,0,4277.94873,4338.333496,4327.692383,4369.615234,4265.256348,4279.102539,4234.615234,4281.025879,4275.128418,4242.179688,4404.615234,4468.333496,4384.743652,4393.974121,,,,,,,,,,,,,,,,,,,,,,,,,,,,,,,,,,,,,,,,,,,,,,,,,,,,,,,,,,,,,,,,,,,,,,
1720085420,6,0,4283.333496,4344.102539,4320.512695,4372.820313,4268.077148,4280.769043,4230.128418,4281.282227,4276.794922,4242.436035,4393.974121,4477.692383,4384.102539,4402.820313,,,,,,,,,,,,,,,,,,,,,,,,,,,,,,,,,,,,,,,,,,,,,,,,,,,,,,,,,,,,,,,,,,,,,,
1720085420,7,0,4282.436035,4333.589844,4311.025879,4370.641113,4266.025879,4280.512695,4229.102539,4280.384766,4283.589844,4260.128418,4383.717773,4469.871582,4378.846191,4383.974121,,,,,,,,,,,,,,,,,,,,,,,,,,,,,,,,,,,,,,,,,,,,,,,,,,,,,,,,,,,,,,,,,,,,,,
1720085420,8,0,4286.922852,4322.05127,4317.307617,4362.05127,4265.897461,4274.230957,4231.025879,4286.922852,4293.974121,4277.692383,4400,4470.128418,4384.615234,4368.974121,,,,,,,,,,,,,,,,,,,,,,,,,,,,,,,,,,,,,,,,,,,,,,,,,,,,,,,,,,,,,,,,,,,,,,
1720085420,9,0,4305.384766,4327.307617,4336.153809,4353.717773,4271.153809,4265.897461,4233.077148,4298.077148,4301.666504,4286.538574,4420.128418,4476.794922,4398.846191,4388.077148,,,,,,,,,,,,,,,,,,,,,,,,,,,,,,,,,,,,,,,,,,,,,,,,,,,,,,,,,,,,,,,,,,,,,,
1720085420,10,0,4304.230957,4316.282227,4335.641113,4334.743652,4269.102539,4264.102539,4237.307617,4296.410156,4295.512695,4281.025879,4414.102539,4466.153809,4395.769043,4401.922852,23.689901,6.062254,2.517005,1.309364,1.09457,10.997625,2.285206,2.653044,0.773323,1.032315,3.683841,1.32667,1.965354,0.932312,1.032198,4.983729,3.007234,2.919918,1.572647,1.240414,1.560155,0.719316,0.722134,0.421338,0.416048,1.511693,0.770293,2.054274,0.436217,0.263734,1.510333,1.201584,2.051273,0.65106,0.66057,3.994829,2.185524,1.802921,0.817971,0.867746,31.525976,4.303904,3.00998,0.745738,1.08616,43.995132,18.279522,8.160424,2.434195,2.40698,6.814729,3.588125,2.20925,2.011113,2.439213,10.042601,6.755928,1.257081,0.928835,1.571305,7.234473,1.907401,1.277015,1.210893,0.857723,27.440111,6.910261,1.987041,0.848996,1.215013
1720085420,11,0,4278.717773,4297.563965,4311.794922,4315,4261.794922,4270.512695,4242.94873,4285.769043,4281.922852,4266.153809,4403.461426,4449.743652,4375.256348,4386.666504,,,,,,,,,,,,,,,,,,,,,,,,,,,,,,,,,,,,,,,,,,,,,,,,,,,,,,,,,,,,,,,,,,,,,,
1720085420,12,0,4263.461426,4299.102539,4288.589844,4312.307617,4263.717773,4280.128418,4248.077148,4281.153809,4278.333496,4268.333496,4391.282227,4444.358887,4359.743652,4381.153809,,,,,,,,,,,,,,,,,,,,,,,,,,,,,,,,,,,,,,,,,,,,,,,,,,,,,,,,,,,,,,,,,,,,,,
1720085420,13,0,4261.410156,4298.717773,4277.05127,4321.025879,4263.974121,4290.128418,4248.461426,4280.641113,4278.333496,4280.512695,4373.589844,4442.563965,4358.461426,4388.974121,,,,,,,,,,,,,,,,,,,,,,,,,,,,,,,,,,,,,,,,,,,,,,,,,,,,,,,,,,,,,,,,,,,,,,
1720085420,14,0,4262.307617,4291.538574,4279.230957,4328.589844,4260.769043,4298.974121,4251.538574,4276.025879,4267.179688,4267.94873,4385.384766,4442.94873,4362.94873,4383.717773,,,,,,,,,,,,,,,,,,,,,,,,,,,,,,,,,,,,,,,,,,,,,,,,,,,,,,,,,,,,,,,,,,,,,,
1720085420,15,0,4273.205078,4299.871582,4290.512695,4327.307617,4268.461426,4297.820313,4257.307617,4274.102539,4258.077148,4249.871582,4397.692383,4445.256348,4355.769043,4376.025879,,,,,,,,,,,,,,,,,,,,,,,,,,,,,,,,,,,,,,,,,,,,,,,,,,,,,,,,,,,,,,,,,,,,,,
1720085420,16,0,4293.077148,4310.897461,4303.077148,4322.94873,4273.077148,4289.230957,4257.94873,4276.282227,4269.102539,4260,4387.692383,4450.128418,4351.153809,4384.230957,,,,,,,,,,,,,,,,,,,,,,,,,,,,,,,,,,,,,,,,,,,,,,,,,,,,,,,,,,,,,,,,,,,,,,
1720085420,17,0,4298.589844,4309.230957,4313.589844,4322.820313,4263.205078,4276.153809,4262.820313,4278.974121,4281.153809,4274.871582,4406.538574,4463.461426,4361.666504,4400.769043,,,,,,,,,,,,,,,,,,,,,,,,,,,,,,,,,,,,,,,,,,,,,,,,,,,,,,,,,,,,,,,,,,,,,,
1720085420,18,0,4295.897461,4308.077148,4325.128418,4328.205078,4260.512695,4265.641113,4275,4283.974121,4282.94873,4280,4437.179688,4479.487305,4367.820313,4413.846191,,,,,,,,,,,,,,,,,,,,,,,,,,,,,,,,,,,,,,,,,,,,,,,,,,,,,,,,,,,,,,,,,,,,,,
1720085420,19,0,4300,4309.743652,4328.717773,4329.487305,4263.205078,4262.179688,4275.512695,4283.974121,4279.230957,4280.897461,4421.922852,4478.589844,4359.358887,4411.282227,,,,,,,,,,,,,,,,,,,,,,,,,,,,,,,,,,,,,,,,,,,,,,,,,,,,,,,,,,,,,,,,,,,,,,
1720085420,20,0,4297.563965,4307.436035,4316.538574,4324.871582,4256.153809,4264.743652,4261.282227,4273.846191,4268.717773,4267.307617,4392.94873,4458.717773,4341.282227,4390.128418,,,,,,,,,,,,,,,,,,,,,,,,,,,,,,,,,,,,,,,,,,,,,,,,,,,,,,,,,,,,,,,,,,,,,,
1720085420,21,0,4294.615234,4307.820313,4308.846191,4331.282227,4260.128418,4276.153809,4263.205078,4270.384766,4268.717773,4260.769043,4397.692383,4459.230957,4333.333496,4389.358887,,,,,,,,,,,,,,,,,,,,,,,,,,,,,,,,,,,,,,,,,,,,,,,,,,,,,,,,,,,,,,,,,,,,,,
1720085420,22,0,4305.384766,4311.410156,4315,4338.846191,4274.743652,4284.871582,4276.794922,4278.077148,4281.153809,4280.897461,4403.974121,4487.436035,4341.538574,4417.436035,,,,,,,,,,,,,,,,,,,,,,,,,,,,,,,,,,,,,,,,,,,,,,,,,,,,,,,,,,,,,,,,,,,,,,
1720085420,23,0,4307.179688,4312.05127,4309.615234,4328.333496,4271.794922,4280.769043,4275.641113,4281.282227,4283.589844,4295.897461,4388.974121,4497.692383,4343.333496,4420.641113,,,,,,,,,,,,,,,,,,,,,,,,,,,,,,,,,,,,,,,,,,,,,,,,,,,,,,,,,,,,,,,,,,,,,,
1720085420,24,0,4293.461426,4308.717773,4291.794922,4313.589844,4261.794922,4279.230957,4271.153809,4277.820313,4278.077148,4285.128418,4376.410156,4481.282227,4328.205078,4392.307617,,,,,,,,,,,,,,,,,,,,,,,,,,,,,,,,,,,,,,,,,,,,,,,,,,,,,,,,,,,,,,,,,,,,,,
1720085420,25,0,4292.94873,4306.922852,4293.461426,4309.871582,4258.717773,4282.94873,4276.153809,4281.538574,4285.512695,4275.512695,4380.128418,4469.358887,4316.794922,4376.922852,,,,,,,,,,,,,,,,,,,,,,,,,,,,,,,,,,,,,,,,,,,,,,,,,,,,,,,,,,,,,,,,,,,,,,
1720085420,26,0,4309.743652,4307.692383,4310.128418,4307.94873,4253.077148,4276.025879,4281.153809,4291.025879,4295.384766,4284.871582,4397.05127,4476.666504,4324.102539,4382.563965,17.272369,5.074008,2.624384,1.044115,1.147503,8.030533,1.874783,2.902164,0.656469,1.099489,3.025545,1.294911,2.089144,0.902751,1.076536,4.336711,1.909021,3.079256,1.651322,1.382766,1.468777,0.836551,0.88921,0.411169,0.409019,1.089996,0.899469,3.084171,0.423283,0.277431,1.763427,1.227807,2.533972,0.630695,0.687432,3.465225,2.214417,1.974835,0.777353,0.833867,25.73365,4.340276,3.110934,0.604459,0.988623,41.404831,22.019157,6.738731,2.336769,2.394951,6.135956,3.705537,2.522642,1.987878,2.506931,9.544005,6.516705,1.208736,0.808777,1.561024,6.385414,1.801257,1.145489,1.293215,0.939425,20.958399,5.39755,1.822598,0.78461,1.190876
1720085420,27,0,4329.743652,4313.205078,4321.794922,4315.769043,4244.358887,4259.615234,4284.230957,4299.743652,4297.179688,4299.871582,4422.179688,4498.589844,4340.384766,4396.025879,,,,,,,,,,,,,,,,,,,,,,,,,,,,,,,,,,,,,,,,,,,,,,,,,,,,,,,,,,,,,,,,,,,,,,
1720085420,28,0,4345.128418,4323.974121,4332.436035,4342.179688,4243.589844,4247.94873,4290.897461,4304.487305,4303.461426,4309.230957,4445.512695,4515.897461,4349.615234,4406.794922,,,,,,,,,,,,,,,,,,,,,,,,,,,,,,,,,,,,,,,,,,,,,,,,,,,,,,,,,,,,,,,,,,,,,,
1720085420,29,0,4344.102539,4327.94873,4335.897461,4352.94873,4242.307617,4243.974121,4291.410156,4303.461426,4302.820313,4308.717773,4439.230957,4507.692383,4339.871582,4397.692383,,,,,,,,,,,,,,,,,,,,,,,,,,,,,,,,,,,,,,,,,,,,,,,,,,,,,,,,,,,,,,,,,,,,,,
1720085420,30,0,4343.589844,4331.153809,4337.05127,4340.897461,4244.615234,4251.666504,4282.820313,4295.897461,4299.871582,4312.436035,4412.692383,4493.077148,4331.922852,4387.436035,,,,,,,,,,,,,,,,,,,,,,,,,,,,,,,,,,,,,,,,,,,,,,,,,,,,,,,,,,,,,,,,,,,,,,
1720085420,31,0,4359.743652,4342.307617,4343.333496,4338.589844,4257.05127,4263.205078,4276.794922,4286.025879,4303.077148,4321.922852,4400.128418,4490.512695,4336.922852,4389.615234,,,,,,,,,,,,,,,,,,,,,,,,,,,,,,,,,,,,,,,,,,,,,,,,,,,,,,,,,,,,,,,,,,,,,,
1720085420,32,0,4365.128418,4345.256348,4341.153809,4347.692383,4266.282227,4268.717773,4273.589844,4277.94873,4299.615234,4323.717773,4411.666504,4486.282227,4340.897461,4390.641113,,,,,,,,,,,,,,,,,,,,,,,,,,,,,,,,,,,,,,,,,,,,,,,,,,,,,,,,,,,,,,,,,,,,,,
1720085421,33,0,4356.922852,4339.487305,4333.589844,4344.102539,4270.641113,4276.538574,4273.333496,4272.94873,4295.769043,4319.358887,4430.641113,4476.666504,4340,4389.871582,,,,,,,,,,,,,,,,,,,,,,,,,,,,,,,,,,,,,,,,,,,,,,,,,,,,,,,,,,,,,,,,,,,,,,
1720085421,34,0,4363.846191,4341.922852,4339.102539,4340.512695,4273.846191,4287.05127,4283.077148,4278.974121,4303.077148,4317.307617,4429.743652,4475.512695,4339.743652,4388.333496,,,,,,,,,,,,,,,,,,,,,,,,,,,,,,,,,,,,,,,,,,,,,,,,,,,,,,,,,,,,,,,,,,,,,,
1720085421,35,0,4377.05127,4340.256348,4344.230957,4347.820313,4271.538574,4285.641113,4290.641113,4287.563965,4298.717773,4309.230957,4411.794922,4478.717773,4337.692383,4377.94873,,,,,,,,,,,,,,,,,,,,,,,,,,,,,,,,,,,,,,,,,,,,,,,,,,,,,,,,,,,,,,,,,,,,,,
1720085421,36,0,4368.846191,4324.358887,4327.820313,4333.974121,4259.487305,4278.846191,4289.743652,4288.205078,4283.461426,4302.563965,4407.179688,4471.538574,4330.641113,4366.538574,,,,,,,,,,,,,,,,,,,,,,,,,,,,,,,,,,,,,,,,,,,,,,,,,,,,,,,,,,,,,,,,,,,,,,
1720085421,37,0,4353.974121,4322.820313,4312.307617,4319.871582,4253.589844,4285.128418,4298.205078,4294.358887,4291.153809,4314.615234,4420.384766,4472.179688,4335.769043,4369.743652,,,,,,,,,,,,,,,,,,,,,,,,,,,,,,,,,,,,,,,,,,,,,,,,,,,,,,,,,,,,,,,,,,,,,,
1720085421,38,0,4365.641113,4346.282227,4321.282227,4350.769043,4262.179688,4294.102539,4316.538574,4312.179688,4312.692383,4331.153809,4437.05127,4497.436035,4356.794922,4381.538574,,,,,,,,,,,,,,,,,,,,,,,,,,,,,,,,,,,,,,,,,,,,,,,,,,,,,,,,,,,,,,,,,,,,,,
1720085421,39,0,4378.974121,4352.563965,4334.487305,4376.282227,4262.179688,4286.282227,4318.461426,4323.589844,4321.922852,4332.692383,4451.666504,4513.205078,4368.846191,4385.128418,,,,,,,,,,,,,,,,,,,,,,,,,,,,,,,,,,,,,,,,,,,,,,,,,,,,,,,,,,,,,,,,,,,,,,
1720085421,40,0,4363.205078,4330.256348,4326.282227,4355.769043,4248.974121,4274.358887,4300.128418,4312.179688,4315.897461,4327.563965,4454.358887,4491.666504,4361.025879,4378.974121,,,,,,,,,,,,,,,,,,,,,,,,,,,,,,,,,,,,,,,,,,,,,,,,,,,,,,,,,,,,,,,,,,,,,,
1720085421,41,0,4352.436035,4322.692383,4313.589844,4340.384766,4246.922852,4274.871582,4288.077148,4293.846191,4308.589844,4332.820313,4445.897461,4467.563965,4353.461426,4377.307617,,,,,,,,,,,,,,,,,,,,,,,,,,,,,,,,,,,,,,,,,,,,,,,,,,,,,,,,,,,,,,,,,,,,,,
1720085421,42,0,4370.512695,4341.025879,4321.538574,4355.128418,4264.871582,4280.769043,4294.743652,4293.461426,4316.153809,4346.794922,4443.974121,4477.94873,4361.538574,4383.974121,12.258764,4.037753,2.704024,0.834086,1.143414,5.229738,1.504527,2.989,0.577728,1.12157,3.297281,1.355413,2.222782,0.995083,1.087864,4.021836,1.112097,2.998193,1.792254,1.504481,1.370979,0.934277,1.051067,0.389975,0.38706,0.862848,1.081722,4.272198,0.37617,0.276477,2.178205,1.240531,2.975259,0.607456,0.688353,2.869148,2.213269,1.957418,0.719259,0.79632,18.000219,4.170527,2.951112,0.487677,0.869941,40.959412,25.664774,5.975187,2.433709,2.416465,6.276871,4.102258,3.106934,2.019366,2.575868,9.617491,5.865332,1.515596,0.759726,1.523229,5.764109,1.938943,1.195264,1.384105,1.026124,15.362058,3.878064,1.933581,0.775099,1.157385
1720085421,43,0,4376.153809,4347.436035,4318.974121,4355.897461,4272.820313,4281.794922,4297.563965,4298.461426,4315.769043,4342.307617,4437.563965,4479.871582,4354.615234,4372.307617,,,,,,,,,,,,,,,,,,,,,,,,,,,,,,,,,,,,,,,,,,,,,,,,,,,,,,,,,,,,,,,,,,,,,,
1720085421,44,0,4356.153809,4335.769043,4296.025879,4338.333496,4263.717773,4282.179688,4286.922852,4286.153809,4293.205078,4318.974121,4409.871582,4445.769043,4324.230957,4348.461426,,,,,,,,,,,,,,,,,,,,,,,,,,,,,,,,,,,,,,,,,,,,,,,,,,,,,,,,,,,,,,,,,,,,,,
1720085421,45,0,4353.846191,4333.846191,4301.666504,4344.230957,4265.384766,4289.615234,4294.615234,4284.743652,4284.871582,4315.512695,4398.461426,4442.692383,4324.743652,4351.538574,,,,,,,,,,,,,,,,,,,,,,,,,,,,,,,,,,,,,,,,,,,,,,,,,,,,,,,,,,,,,,,,,,,,,,
1720085421,46,0,4374.487305,4339.743652,4327.94873,4365.256348,4276.282227,4301.794922,4321.666504,4308.846191,4298.461426,4331.410156,4419.230957,4480.384766,4358.461426,4371.922852,,,,,,,,,,,,,,,,,,,,,,,,,,,,,,,,,,,,,,,,,,,,,,,,,,,,,,,,,,,,,,,,,,,,,,
1720085421,47,0,4384.358887,4340.769043,4326.153809,4359.487305,4273.717773,4306.025879,4331.282227,4323.974121,4307.05127,4338.974121,4431.666504,4490.512695,4371.025879,4378.333496,,,,,,,,,,,,,,,,,,,,,,,,,,,,,,,,,,,,,,,,,,,,,,,,,,,,,,,,,,,,,,,,,,,,,,
1720085421,48,0,4378.846191,4340.512695,4310.256348,4337.307617,4261.410156,4293.589844,4325.641113,4322.436035,4313.589844,4347.820313,4412.692383,4473.205078,4360.384766,4375.128418,,,,,,,,,,,,,,,,,,,,,,,,,,,,,,,,,,,,,,,,,,,,,,,,,,,,,,,,,,,,,,,,,,,,,,
1720085421,49,0,4380,4345.256348,4311.025879,4340.897461,4259.615234,4280.641113,4326.666504,4326.410156,4324.615234,4357.94873,4391.922852,4472.05127,4363.846191,4377.820313,,,,,,,,,,,,,,,,,,,,,,,,,,,,,,,,,,,,,,,,,,,,,,,,,,,,,,,,,,,,,,,,,,,,,,
1720085421,50,0,4371.282227,4336.153809,4304.487305,4339.230957,4260.641113,4278.974121,4322.179688,4330.641113,4325.641113,4341.794922,4391.538574,4470.512695,4362.307617,4374.487305,,,,,,,,,,,,,,,,,,,,,,,,,,,,,,,,,,,,,,,,,,,,,,,,,,,,,,,,,,,,,,,,,,,,,,
1720085421,51,0,4342.05127,4316.025879,4284.743652,4316.922852,4255.128418,4278.589844,4307.820313,4325.384766,4321.666504,4315.512695,4394.871582,4461.025879,4345.641113,4366.666504,,,,,,,,,,,,,,,,,,,,,,,,,,,,,,,,,,,,,,,,,,,,,,,,,,,,,,,,,,,,,,,,,,,,,,
1720085421,52,0,4343.205078,4325.769043,4292.436035,4343.333496,4264.102539,4280.641113,4316.666504,4327.563965,4329.615234,4326.794922,4407.307617,4478.077148,4356.410156,4376.025879,,,,,,,,,,,,,,,,,,,,,,,,,,,,,,,,,,,,,,,,,,,,,,,,,,,,,,,,,,,,,,,,,,,,,,
1720085421,53,0,4366.025879,4341.538574,4310.256348,4376.410156,4281.666504,4290,4330.384766,4329.487305,4332.179688,4348.589844,4416.922852,4487.820313,4372.820313,4379.487305,,,,,,,,,,,,,,,,,,,,,,,,,,,,,,,,,,,,,,,,,,,,,,,,,,,,,,,,,,,,,,,,,,,,,,
1720085421,54,0,4354.102539,4316.025879,4296.538574,4340.897461,4283.205078,4295.512695,4317.692383,4313.077148,4312.94873,4330.769043,4398.846191,4449.871582,4350.897461,4352.05127,,,,,,,,,,,,,,,,,,,,,,,,,,,,,,,,,,,,,,,,,,,,,,,,,,,,,,,,,,,,,,,,,,,,,,
1720085421,55,0,4336.153809,4290.897461,4273.717773,4307.820313,4282.436035,4295.384766,4311.025879,4297.179688,4294.743652,4304.615234,4370.641113,4414.358887,4325,4326.282227,,,,,,,,,,,,,,,,,,,,,,,,,,,,,,,,,,,,,,,,,,,,,,,,,,,,,,,,,,,,,,,,,,,,,,
1720085421,56,0,4346.282227,4302.94873,4273.205078,4327.563965,4289.230957,4299.102539,4320.512695,4296.025879,4291.794922,4310.128418,4355,4418.077148,4323.333496,4330,,,,,,,,,,,,,,,,,,,,,,,,,,,,,,,,,,,,,,,,,,,,,,,,,,,,,,,,,,,,,,,,,,,,,,
1720085421,57,0,4349.358887,4308.461426,4278.461426,4335.256348,4285.769043,4296.025879,4315.769043,4292.94873,4289.487305,4314.358887,4357.820313,4433.333496,4319.743652,4342.179688,,,,,,,,,,,,,,,,,,,,,,,,,,,,,,,,,,,,,,,,,,,,,,,,,,,,,,,,,,,,,,,,,,,,,,
1720085421,58,0,4347.692383,4300.897461,4287.05127,4322.307617,4275.641113,4286.922852,4311.282227,4293.205078,4290,4307.820313,4380.384766,4450.384766,4324.487305,4354.487305,9.956992,3.40098,2.786705,0.715298,1.091595,3.249874,1.285634,2.875716,0.535736,1.095374,4.449196,1.640029,2.338971,1.190244,1.066753,4.086792,0.726351,2.685086,1.960977,1.58333,1.277542,0.991585,1.184222,0.359343,0.355429,0.873804,1.347107,5.392644,0.305356,0.263136,2.573203,1.240141,3.284051,0.575653,0.670108,2.270881,2.140754,1.804545,0.640619,0.761498,10.686899,3.911675,2.611403,0.409408,0.772161,39.973663,27.627432,5.55898,2.559088,2.407421,6.751027,4.672328,3.885784,2.114126,2.617189,10.208444,5.14375,2.352056,0.770889,1.460796,5.571106,2.398129,1.433459,1.442309,1.08987,11.922475,2.777974,2.341878,0.838784,1.121997
1720085421,59,0,4366.282227,4306.410156,4308.846191,4330.897461,4278.077148,4288.846191,4324.871582,4312.436035,4305.769043,4331.025879,4408.589844,4469.230957,4353.717773,4369.615234,,,,,,,,,,,,,,,,,,,,,,,,,,,,,,,,,,,,,,,,,,,,,,,,,,,,,,,,,,,,,,,,,,,,,,
1720085421,60,0,4366.153809,4300.641113,4304.358887,4330.384766,4277.436035,4291.025879,4325.384766,4321.538574,4317.94873,4351.410156,4400.897461,4453.974121,4353.461426,4356.538574,,,,,,,,,,,,,,,,,,,,,,,,,,,,,,,,,,,,,,,,,,,,,,,,,,,,,,,,,,,,,,,,,,,,,,
1720085421,61,0,4339.615234,4286.538574,4266.794922,4310.128418,4270.897461,4286.282227,4315.641113,4308.589844,4305.897461,4330.897461,4374.743652,4423.717773,4323.077148,4322.436035,,,,,,,,,,,,,,,,,,,,,,,,,,,,,,,,,,,,,,,,,,,,,,,,,,,,,,,,,,,,,,,,,,,,,,
1720085421,62,0,4329.871582,4290,4254.102539,4302.307617,4283.333496,4295.641113,4323.974121,4309.487305,4296.025879,4321.666504,4367.436035,4425.641113,4316.153809,4319.102539,,,,,,,,,,,,,,,,,,,,,,,,,,,,,,,,,,,,,,,,,,,,,,,,,,,,,,,,,,,,,,,,,,,,,,
1720085421,63,0,4338.461426,4288.717773,4269.871582,4306.922852,4295.384766,4313.974121,4327.692383,4314.358887,4299.871582,4340,4364.871582,4433.717773,4319.358887,4339.230957,,,,,,,,,,,,,,,,,,,,,,,,,,,,,,,,,,,,,,,,,,,,,,,,,,,,,,,,,,,,,,,,,,,,,,
1720085421,64,0,4344.743652,4278.077148,4278.077148,4310.128418,4287.179688,4312.94873,4317.307617,4299.102539,4296.794922,4338.846191,4364.615234,4422.307617,4312.05127,4336.153809,,,,,,,,,,,,,,,,,,,,,,,,,,,,,,,,,,,,,,,,,,,,,,,,,,,,,,,,,,,,,,,,,,,,,,
1720085421,65,0,4353.589844,4282.692383,4281.666504,4309.102539,4282.436035,4304.743652,4318.717773,4293.589844,4292.436035,4334.102539,4375.897461,4421.025879,4318.333496,4320.897461,,,,,,,,,,,,,,,,,,,,,,,,,,,,,,,,,,,,,,,,,,,,,,,,,,,,,,,,,,,,,,,,,,,,,,
1720085421,66,0,4371.794922,4298.461426,4297.179688,4316.666504,4293.205078,4313.589844,4338.461426,4315.897461,4299.358887,4356.794922,4391.666504,4445.897461,4338.974121,4339.102539,,,,,,,,,,,,,,,,,,,,,,,,,,,,,,,,,,,,,,,,,,,,,,,,,,,,,,,,,,,,,,,,,,,,,,
1720085421,67,0,4382.563965,4308.077148,4307.94873,4323.077148,4298.974121,4321.282227,4353.846191,4330.256348,4304.871582,4363.717773,4410.641113,4469.743652,4350.256348,4369.358887,,,,,,,,,,,,,,,,,,,,,,,,,,,,,,,,,,,,,,,,,,,,,,,,,,,,,,,,,,,,,,,,,,,,,,
1720085421,68,0,4376.794922,4301.410156,4305.256348,4316.794922,4289.871582,4311.410156,4349.102539,4320,4290.384766,4343.461426,4418.717773,4468.461426,4349.743652,4372.436035,,,,,,,,,,,,,,,,,,,,,,,,,,,,,,,,,,,,,,,,,,,,,,,,,,,,,,,,,,,,,,,,,,,,,,
1720085421,69,0,4378.846191,4294.102539,4315.128418,4317.94873,4285,4304.615234,4345.897461,4315.769043,4280.512695,4346.282227,4401.410156,4461.666504,4351.153809,4370.641113,,,,,,,,,,,,,,,,,,,,,,,,,,,,,,,,,,,,,,,,,,,,,,,,,,,,,,,,,,,,,,,,,,,,,,
1720085421,70,0,4393.589844,4303.846191,4333.461426,4327.307617,4294.358887,4312.94873,4358.846191,4328.205078,4293.205078,4374.230957,4383.589844,4469.743652,4355.128418,4374.615234,,,,,,,,,,,,,,,,,,,,,,,,,,,,,,,,,,,,,,,,,,,,,,,,,,,,,,,,,,,,,,,,,,,,,,
1720085421,71,0,4391.666504,4302.563965,4319.230957,4319.230957,4300.512695,4317.179688,4357.820313,4323.461426,4297.563965,4380.384766,4384.615234,4463.846191,4343.077148,4364.358887,,,,,,,,,,,,,,,,,,,,,,,,,,,,,,,,,,,,,,,,,,,,,,,,,,,,,,,,,,,,,,,,,,,,,,
1720085421,72,0,4372.820313,4280.256348,4285.897461,4308.205078,4290,4311.794922,4333.333496,4299.102539,4281.922852,4362.436035,4402.179688,4438.589844,4332.05127,4354.615234,,,,,,,,,,,,,,,,,,,,,,,,,,,,,,,,,,,,,,,,,,,,,,,,,,,,,,,,,,,,,,,,,,,,,,
1720085421,73,0,4362.820313,4271.025879,4274.358887,4313.974121,4284.358887,4308.461426,4318.077148,4289.743652,4276.794922,4363.589844,4411.153809,4426.538574,4343.717773,4361.153809,,,,,,,,,,,,,,,,,,,,,,,,,,,,,,,,,,,,,,,,,,,,,,,,,,,,,,,,,,,,,,,,,,,,,,
1720085421,74,0,4362.820313,4278.589844,4277.692383,4311.282227,4299.743652,4307.820313,4321.025879,4296.025879,4288.717773,4383.205078,4386.153809,4420.641113,4351.666504,4360.384766,9.957147,3.348902,2.914289,0.694777,1.017824,2.352198,1.270413,2.592767,0.513826,1.032201,6.094353,2.232034,2.451901,1.436904,1.022748,4.412995,0.704734,2.222272,2.098259,1.610417,1.17314,1.024209,1.281259,0.324712,0.321903,1.093029,1.71796,6.214326,0.233005,0.243561,2.716959,1.237922,3.397499,0.53352,0.642116,1.708796,2.029875,1.665432,0.548427,0.727998,5.394156,3.722202,2.278794,0.372285,0.717353,36.918224,26.737684,5.076255,2.526703,2.298932,7.161,5.493962,4.840173,2.287924,2.588766,10.958247,4.693938,3.760648,0.824307,1.386021,5.746036,3.122893,1.844204,1.447372,1.115249,10.463129,2.333569,2.998037,0.978932,1.094772
1720085421,75,0,4373.461426,4289.230957,4287.692383,4307.563965,4310.641113,4312.94873,4319.487305,4295,4286.538574,4382.94873,4359.102539,4410.641113,4347.179688,4350.512695,,,,,,,,,,,,,,,,,,,,,,,,,,,,,,,,,,,,,,,,,,,,,,,,,,,,,,,,,,,,,,,,,,,,,,
1720085421,76,0,4381.922852,4295.256348,4294.871582,4313.077148,4298.974121,4313.333496,4312.692383,4292.436035,4270.512695,4360.256348,4353.461426,4408.846191,4337.436035,4344.743652,,,,,,,,,,,,,,,,,,,,,,,,,,,,,,,,,,,,,,,,,,,,,,,,,,,,,,,,,,,,,,,,,,,,,,
1720085421,77,0,4366.922852,4285.641113,4265.769043,4302.820313,4274.871582,4297.563965,4306.794922,4293.077148,4259.230957,4336.025879,4342.436035,4403.846191,4314.358887,4337.436035,,,,,,,,,,,,,,,,,,,,,,,,,,,,,,,,,,,,,,,,,,,,,,,,,,,,,,,,,,,,,,,,,,,,,,
1720085421,78,0,4351.153809,4274.487305,4232.307617,4297.94873,4263.589844,4288.589844,4309.487305,4296.025879,4259.871582,4330,4348.717773,4402.436035,4306.410156,4341.282227,,,,,,,,,,,,,,,,,,,,,,,,,,,,,,,,,,,,,,,,,,,,,,,,,,,,,,,,,,,,,,,,,,,,,,
1720085421,79,0,4354.230957,4276.538574,4244.102539,4304.358887,4270.384766,4307.436035,4324.615234,4306.025879,4276.410156,4343.717773,4388.717773,4418.333496,4331.794922,4354.615234,,,,,,,,,,,,,,,,,,,,,,,,,,,,,,,,,,,,,,,,,,,,,,,,,,,,,,,,,,,,,,,,,,,,,,
1720085421,80,0,4363.974121,4282.563965,4276.025879,4290.256348,4282.563965,4323.974121,4330,4313.333496,4291.538574,4363.333496,4407.820313,4436.025879,4357.05127,4369.358887,,,,,,,,,,,,,,,,,,,,,,,,,,,,,,,,,,,,,,,,,,,,,,,,,,,,,,,,,,,,,,,,,,,,,,
1720085421,81,0,4374.230957,4288.717773,4290.256348,4276.794922,4288.205078,4313.589844,4316.282227,4309.743652,4290.641113,4381.666504,4397.692383,4449.743652,4371.794922,4392.307617,,,,,,,,,,,,,,,,,,,,,,,,,,,,,,,,,,,,,,,,,,,,,,,,,,,,,,,,,,,,,,,,,,,,,,
1720085421,82,0,4386.410156,4298.974121,4291.794922,4295.512695,4282.563965,4300.512695,4305.256348,4305.641113,4291.666504,4400,4392.94873,4461.922852,4378.974121,4393.974121,,,,,,,,,,,,,,,,,,,,,,,,,,,,,,,,,,,,,,,,,,,,,,,,,,,,,,,,,,,,,,,,,,,,,,
1720085421,83,0,4382.307617,4296.794922,4288.077148,4308.589844,4281.794922,4303.461426,4307.05127,4307.307617,4295.897461,4399.102539,4405.128418,4461.025879,4370.256348,4368.461426,,,,,,,,,,,,,,,,,,,,,,,,,,,,,,,,,,,,,,,,,,,,,,,,,,,,,,,,,,,,,,,,,,,,,,
1720085421,84,0,4357.307617,4280,4272.307617,4293.974121,4290.384766,4310,4308.333496,4302.307617,4277.05127,4370.769043,4419.871582,4444.743652,4361.666504,4359.615234,,,,,,,,,,,,,,,,,,,,,,,,,,,,,,,,,,,,,,,,,,,,,,,,,,,,,,,,,,,,,,,,,,,,,,
1720085421,85,0,4342.307617,4276.282227,4269.358887,4291.410156,4289.487305,4310.384766,4315.897461,4302.436035,4275.897461,4371.282227,4413.589844,4441.794922,4367.307617,4368.077148,,,,,,,,,,,,,,,,,,,,,,,,,,,,,,,,,,,,,,,,,,,,,,,,,,,,,,,,,,,,,,,,,,,,,,
1720085421,86,0,4355.256348,4292.692383,4297.436035,4316.538574,4281.153809,4307.436035,4336.153809,4325,4336.922852,4410.641113,4396.282227,4465.256348,4374.358887,4368.461426,,,,,,,,,,,,,,,,,,,,,,,,,,,,,,,,,,,,,,,,,,,,,,,,,,,,,,,,,,,,,,,,,,,,,,
1720085421,87,0,4367.436035,4302.94873,4317.307617,4337.94873,4281.282227,4307.820313,4340,4338.205078,4382.820313,4416.922852,4405.128418,4480.256348,4373.846191,4367.820313,,,,,,,,,,,,,,,,,,,,,,,,,,,,,,,,,,,,,,,,,,,,,,,,,,,,,,,,,,,,,,,,,,,,,,
1720085421,88,0,4351.282227,4293.461426,4295.641113,4325.256348,4283.333496,4310.384766,4320.769043,4321.153809,4364.487305,4388.589844,4424.615234,4460.641113,4369.871582,4366.794922,,,,,,,,,,,,,,,,,,,,,,,,,,,,,,,,,,,,,,,,,,,,,,,,,,,,,,,,,,,,,,,,,,,,,,
1720085421,89,0,4331.538574,4285.641113,4268.717773,4301.794922,4279.487305,4312.692383,4308.333496,4304.871582,4352.307617,4383.333496,4413.205078,4439.230957,4372.94873,4367.307617,,,,,,,,,,,,,,,,,,,,,,,,,,,,,,,,,,,,,,,,,,,,,,,,,,,,,,,,,,,,,,,,,,,,,,
1720085421,90,0,4331.666504,4294.487305,4271.410156,4310.384766,4279.358887,4312.563965,4308.205078,4302.179688,4362.307617,4389.615234,4398.717773,4443.846191,4385.641113,4373.205078,11.244898,3.742785,3.123054,0.760891,0.950509,2.320608,1.423215,2.23142,0.497869,0.953716,7.784973,3.074389,2.617556,1.682835,0.970785,4.65954,0.901237,1.739358,2.156304,1.596201,1.030409,1.068578,1.354278,0.292719,0.294544,1.4059,2.163415,6.593282,0.185147,0.224845,2.564798,1.251425,3.323295,0.490321,0.612701,1.353075,1.983194,1.716121,0.462767,0.691704,2.505295,3.678228,2.160082,0.372102,0.701533,30.328812,22.890577,4.325029,2.26899,2.07206,7.292286,6.471197,5.990374,2.563455,2.456089,11.562382,4.629797,5.583753,0.928243,1.323618,5.942797,3.898829,2.404949,1.424506,1.103433,10.009966,2.4076,3.785822,1.191828,1.082193
1720085421,91,0,4345.128418,4312.94873,4291.025879,4329.487305,4279.615234,4304.230957,4297.692383,4297.692383,4352.563965,4379.743652,4411.666504,4450.128418,4391.153809,4376.282227,,,,,,,,,,,,,,,,,,,,,,,,,,,,,,,,,,,,,,,,,,,,,,,,,,,,,,,,,,,,,,,,,,,,,,
1720085421,92,0,4353.717773,4310.769043,4302.820313,4317.563965,4263.077148,4286.922852,4276.794922,4289.102539,4338.077148,4375.897461,4409.230957,4441.922852,4374.871582,4373.205078,,,,,,,,,,,,,,,,,,,,,,,,,,,,,,,,,,,,,,,,,,,,,,,,,,,,,,,,,,,,,,,,,,,,,,
1720085421,93,0,4348.589844,4295.256348,4301.025879,4306.410156,4243.077148,4274.487305,4274.358887,4289.358887,4342.179688,4380.384766,4390.384766,4436.922852,4366.153809,4367.179688,,,,,,,,,,,,,,,,,,,,,,,,,,,,,,,,,,,,,,,,,,,,,,,,,,,,,,,,,,,,,,,,,,,,,,
1720085421,94,0,4346.282227,4303.205078,4299.743652,4324.102539,4248.717773,4275.769043,4294.358887,4303.205078,4354.871582,4386.025879,4405,4447.563965,4383.461426,4365.384766,,,,,,,,,,,,,,,,,,,,,,,,,,,,,,,,,,,,,,,,,,,,,,,,,,,,,,,,,,,,,,,,,,,,,,
1720085421,95,0,4336.538574,4303.205078,4284.743652,4322.820313,4266.025879,4282.436035,4308.333496,4312.307617,4359.487305,4391.538574,4404.102539,4443.717773,4377.563965,4364.102539,,,,,,,,,,,,,,,,,,,,,,,,,,,,,,,,,,,,,,,,,,,,,,,,,,,,,,,,,,,,,,,,,,,,,,
1720085421,96,0,4312.436035,4282.179688,4253.333496,4306.922852,4265.769043,4290,4308.205078,4307.179688,4354.102539,4391.538574,4366.153809,4421.666504,4350.641113,4359.102539,,,,,,,,,,,,,,,,,,,,,,,,,,,,,,,,,,,,,,,,,,,,,,,,,,,,,,,,,,,,,,,,,,,,,,
1720085421,97,0,4312.05127,4281.538574,4255,4322.563965,4261.538574,4300.384766,4314.615234,4311.922852,4357.563965,4396.153809,4380.384766,4426.922852,4365.769043,4353.717773,,,,,,,,,,,,,,,,,,,,,,,,,,,,,,,,,,,,,,,,,,,,,,,,,,,,,,,,,,,,,,,,,,,,,,
1720085421,98,0,4335.128418,4296.794922,4282.820313,4341.410156,4265,4305.384766,4324.487305,4325,4370.384766,4403.333496,4426.025879,4448.205078,4389.358887,4339.102539,,,,,,,,,,,,,,,,,,,,,,,,,,,,,,,,,,,,,,,,,,,,,,,,,,,,,,,,,,,,,,,,,,,,,,
1720085421,99,0,4343.205078,4303.205078,4292.179688,4339.358887,4265.384766,4302.436035,4318.717773,4320.128418,4364.358887,4390.769043,4419.871582,4448.205078,4376.025879,4327.692383,,,,,,,,,,,,,,,,,,,,,,,,,,,,,,,,,,,,,,,,,,,,,,,,,,,,,,,,,,,,,,,,,,,,,,
1720085421,100,0,4341.538574,4311.410156,4293.974121,4347.563965,4262.692383,4297.05127,4307.307617,4307.05127,4343.846191,4371.025879,4404.102539,4443.974121,4367.94873,4335.897461,,,,,,,,,,,,,,,,,,,,,,,,,,,,,,,,,,,,,,,,,,,,,,,,,,,,,,,,,,,,,,,,,,,,,,
1720085421,101,0,4336.153809,4309.102539,4291.666504,4355.256348,4262.179688,4295.769043,4305.641113,4305.256348,4344.615234,4371.025879,4430.128418,4453.077148,4372.692383,4346.153809,,,,,,,,,,,,,,,,,,,,,,,,,,,,,,,,,,,,,,,,,,,,,,,,,,,,,,,,,,,,,,,,,,,,,,
1720085421,102,0,4312.692383,4285.256348,4269.102539,4342.563965,4265.512695,4298.077148,4308.333496,4310.641113,4367.179688,4389.871582,4450.512695,4454.871582,4363.077148,4339.615234,,,,,,,,,,,,,,,,,,,,,,,,,,,,,,,,,,,,,,,,,,,,,,,,,,,,,,,,,,,,,,,,,,,,,,
1720085421,103,0,4295.641113,4274.487305,4255.641113,4341.922852,4275.128418,4297.307617,4311.666504,4318.461426,4383.077148,4408.077148,4425.256348,4440.897461,4352.692383,4324.615234,,,,,,,,,,,,,,,,,,,,,,,,,,,,,,,,,,,,,,,,,,,,,,,,,,,,,,,,,,,,,,,,,,,,,,
1720085421,104,0,4297.563965,4280.128418,4263.461426,4349.743652,4277.307617,4293.589844,4318.846191,4325.128418,4390.256348,4410.512695,4388.974121,4432.563965,4353.461426,4318.589844,,,,,,,,,,,,,,,,,,,,,,,,,,,,,,,,,,,,,,,,,,,,,,,,,,,,,,,,,,,,,,,,,,,,,,
1720085421,105,0,4291.794922,4277.820313,4262.436035,4343.589844,4267.179688,4294.487305,4330.128418,4328.461426,4396.538574,4405.641113,4395.897461,4437.05127,4353.974121,4322.179688,,,,,,,,,,,,,,,,,,,,,,,,,,,,,,,,,,,,,,,,,,,,,,,,,,,,,,,,,,,,,,,,,,,,,,
1720085421,106,0,4281.794922,4269.102539,4251.538574,4342.692383,4266.922852,4303.846191,4335.384766,4330.897461,4390.641113,4403.333496,4421.282227,4439.743652,4350.897461,4326.282227,11.878439,4.263639,3.368159,0.887879,0.905628,2.561613,1.655956,1.87767,0.481367,0.882652,9.095488,4.002638,2.840102,1.910156,0.924047,4.661158,1.184366,1.336788,2.122765,1.560707,0.875611,1.149953,1.434102,0.269787,0.280313,1.791806,2.603384,6.516358,0.174125,0.213439,2.262312,1.288439,3.131291,0.45457,0.587863,1.139591,2.096068,2.039777,0.400345,0.652386,1.48235,3.746148,2.323214,0.403285,0.703171,21.627506,17.276297,3.491313,1.892457,1.776203,6.969202,7.37108,7.155871,2.951298,2.220073,11.448138,4.898376,7.444489,1.104407,1.295835,5.923533,4.461594,3.028867,1.428156,1.065857,9.311484,2.699533,4.539219,1.456398,1.083804
1720085421,107,0,4276.922852,4260.897461,4241.410156,4346.666504,4279.230957,4312.179688,4331.538574,4325.128418,4372.692383,4389.102539,4410.512695,4428.589844,4340.769043,4321.794922,,,,,,,,,,,,,,,,,,,,,,,,,,,,,,,,,,,,,,,,,,,,,,,,,,,,,,,,,,,,,,,,,,,,,,
1720085421,108,0,4276.410156,4263.717773,4238.717773,4344.871582,4283.077148,4313.077148,4328.461426,4313.333496,4359.615234,4375.128418,4397.05127,4417.179688,4333.589844,4319.358887,,,,,,,,,,,,,,,,,,,,,,,,,,,,,,,,,,,,,,,,,,,,,,,,,,,,,,,,,,,,,,,,,,,,,,
1720085421,109,0,4284.102539,4274.743652,4245.128418,4343.333496,4272.692383,4304.358887,4321.922852,4307.563965,4346.922852,4368.846191,4402.94873,4416.538574,4335.897461,4323.717773,,,,,,,,,,,,,,,,,,,,,,,,,,,,,,,,,,,,,,,,,,,,,,,,,,,,,,,,,,,,,,,,,,,,,,
1720085421,110,0,4295.512695,4279.743652,4254.358887,4346.794922,4264.487305,4287.436035,4308.589844,4306.282227,4336.153809,4360.769043,4397.563965,4423.974121,4338.461426,4334.358887,,,,,,,,,,,,,,,,,,,,,,,,,,,,,,,,,,,,,,,,,,,,,,,,,,,,,,,,,,,,,,,,,,,,,,
1720085421,111,0,4301.922852,4282.563965,4263.974121,4359.487305,4265.128418,4274.743652,4302.563965,4307.820313,4344.230957,4362.820313,4392.820313,4433.974121,4342.436035,4354.358887,,,,,,,,,,,,,,,,,,,,,,,,,,,,,,,,,,,,,,,,,,,,,,,,,,,,,,,,,,,,,,,,,,,,,,
1720085421,112,0,4291.538574,4281.922852,4261.666504,4363.717773,4263.974121,4277.820313,4305.128418,4309.358887,4358.461426,4372.94873,4392.05127,4432.05127,4341.282227,4358.333496,,,,,,,,,,,,,,,,,,,,,,,,,,,,,,,,,,,,,,,,,,,,,,,,,,,,,,,,,,,,,,,,,,,,,,
1720085421,113,0,4276.794922,4270.384766,4246.410156,4350.384766,4259.230957,4288.717773,4305.641113,4308.461426,4360.128418,4372.563965,4385.512695,4423.461426,4337.436035,4347.94873,,,,,,,,,,,,,,,,,,,,,,,,,,,,,,,,,,,,,,,,,,,,,,,,,,,,,,,,,,,,,,,,,,,,,,
1720085421,114,0,4282.307617,4263.717773,4241.794922,4337.692383,4261.410156,4299.358887,4313.717773,4314.743652,4363.974121,4374.230957,4389.487305,4424.743652,4340.641113,4351.922852,,,,,,,,,,,,,,,,,,,,,,,,,,,,,,,,,,,,,,,,,,,,,,,,,,,,,,,,,,,,,,,,,,,,,,
1720085421,115,0,4295.512695,4267.179688,4245.897461,4335.384766,4273.846191,4315.256348,4332.820313,4326.922852,4376.025879,4384.871582,4397.179688,4433.717773,4338.589844,4358.205078,,,,,,,,,,,,,,,,,,,,,,,,,,,,,,,,,,,,,,,,,,,,,,,,,,,,,,,,,,,,,,,,,,,,,,
1720085421,116,0,4296.922852,4266.538574,4247.692383,4335.897461,4282.436035,4330.256348,4339.358887,4330.769043,4380.512695,4382.692383,4402.436035,4441.794922,4335.256348,4357.436035,,,,,,,,,,,,,,,,,,,,,,,,,,,,,,,,,,,,,,,,,,,,,,,,,,,,,,,,,,,,,,,,,,,,,,
1720085421,117,0,4298.717773,4261.282227,4260.769043,4338.589844,4277.179688,4326.794922,4331.538574,4326.794922,4374.102539,4371.282227,4413.205078,4449.358887,4342.436035,4365,,,,,,,,,,,,,,,,,,,,,,,,,,,,,,,,,,,,,,,,,,,,,,,,,,,,,,,,,,,,,,,,,,,,,,
1720085421,118,0,4306.794922,4257.563965,4276.410156,4342.05127,4271.794922,4313.589844,4324.358887,4323.846191,4365,4370.641113,4413.333496,4454.358887,4350.384766,4373.205078,,,,,,,,,,,,,,,,,,,,,,,,,,,,,,,,,,,,,,,,,,,,,,,,,,,,,,,,,,,,,,,,,,,,,,
1720085421,119,0,4315,4265.384766,4285.897461,4349.358887,4278.205078,4307.692383,4326.794922,4328.205078,4362.436035,4379.871582,4420,4468.077148,4363.333496,4384.358887,,,,,,,,,,,,,,,,,,,,,,,,,,,,,,,,,,,,,,,,,,,,,,,,,,,,,,,,,,,,,,,,,,,,,,
1720085421,120,0,4329.615234,4280,4305.769043,4362.820313,4281.153809,4298.333496,4326.794922,4336.666504,4365.897461,4387.179688,4449.487305,4492.436035,4385.769043,4410,,,,,,,,,,,,,,,,,,,,,,,,,,,,,,,,,,,,,,,,,,,,,,,,,,,,,,,,,,,,,,,,,,,,,,
1720085421,121,0,4334.615234,4274.230957,4316.410156,4355.256348,4267.692383,4283.205078,4313.974121,4331.538574,4359.358887,4379.230957,4449.743652,4495.512695,4385.641113,4410.256348,,,,,,,,,,,,,,,,,,,,,,,,,,,,,,,,,,,,,,,,,,,,,,,,,,,,,,,,,,,,,,,,,,,,,,
1720085421,122,0,4325.897461,4265.256348,4311.794922,4345.641113,4261.282227,4280.897461,4308.974121,4320.128418,4346.282227,4373.461426,4433.333496,4484.487305,4373.974121,4395.512695,10.932434,4.633573,3.579927,1.054199,0.878497,2.714071,1.868955,1.614853,0.472706,0.83308,9.709814,4.828941,3.105171,2.153525,0.88632,4.324864,1.480694,1.072955,2.014913,1.520868,0.726457,1.278888,1.543792,0.26438,0.283503,2.105025,2.940879,6.090371,0.195023,0.214043,1.992098,1.362411,2.943683,0.430747,0.570749,1.18938,2.379343,2.581838,0.370189,0.613542,1.500521,3.837528,2.702264,0.488247,0.704105,13.145741,11.689845,2.946337,1.588152,1.490524,6.310534,7.920134,8.078906,3.429833,1.92891,10.615874,5.362689,8.893036,1.358454,1.305233,5.444463,4.65475,3.598669,1.517437,1.016101,7.689301,3.048166,5.112632,1.734807,1.085673
1720085421,123,0,4328.333496,4276.538574,4322.692383,4366.794922,4274.615234,4292.563965,4323.846191,4325.641113,4349.102539,4386.282227,4446.538574,4494.358887,4380.512695,4412.05127,,,,,,,,,,,,,,,,,,,,,,,,,,,,,,,,,,,,,,,,,,,,,,,,,,,,,,,,,,,,,,,,,,,,,,
1720085421,124,0,4323.589844,4273.077148,4329.230957,4372.820313,4282.820313,4307.94873,4333.589844,4331.282227,4357.05127,4387.563965,4443.846191,4499.487305,4374.615234,4415.256348,,,,,,,,,,,,,,,,,,,,,,,,,,,,,,,,,,,,,,,,,,,,,,,,,,,,,,,,,,,,,,,,,,,,,,
1720085421,125,0,4295.384766,4248.974121,4304.743652,4343.461426,4279.230957,4324.871582,4329.358887,4322.05127,4349.102539,4368.205078,4417.179688,4471.282227,4351.410156,4380.641113,,,,,,,,,,,,,,,,,,,,,,,,,,,,,,,,,,,,,,,,,,,,,,,,,,,,,,,,,,,,,,,,,,,,,,
1720085421,126,0,4278.589844,4238.974121,4287.307617,4330.512695,4284.615234,4337.94873,4331.922852,4325.384766,4348.717773,4369.871582,4417.820313,4458.205078,4353.461426,4370.384766,,,,,,,,,,,,,,,,,,,,,,,,,,,,,,,,,,,,,,,,,,,,,,,,,,,,,,,,,,,,,,,,,,,,,,
1720085421,127,0,4286.025879,4243.589844,4291.410156,4348.974121,4294.230957,4339.358887,4338.205078,4341.410156,4363.974121,4387.563965,4430.897461,4472.94873,4368.589844,4388.205078,,,,,,,,,,,,,,,,,,,,,,,,,,,,,,,,,,,,,,,,,,,,,,,,,,,,,,,,,,,,,,,,,,,,,,
1720085421,0,0,4294.102539,4248.333496,4296.410156,4361.025879,4288.461426,4329.358887,4331.153809,4346.282227,4364.358887,4389.102539,4437.563965,4479.487305,4368.205078,4388.461426,,,,,,,,,,,,,,,,,,,,,,,,,,,,,,,,,,,,,,,,,,,,,,,,,,,,,,,,,,,,,,,,,,,,,,
1720085421,1,0,4292.563965,4246.922852,4307.692383,4357.94873,4270.641113,4315.512695,4317.94873,4342.820313,4348.461426,4388.333496,4443.846191,4482.436035,4368.846191,4383.974121,,,,,,,,,,,,,,,,,,,,,,,,,,,,,,,,,,,,,,,,,,,,,,,,,,,,,,,,,,,,,,,,,,,,,,
1720085421,2,0,4297.820313,4245.512695,4325.128418,4355.769043,4260.256348,4302.436035,4311.794922,4343.974121,4343.333496,4392.820313,4442.692383,4498.205078,4382.692383,4396.794922,,,,,,,,,,,,,,,,,,,,,,,,,,,,,,,,,,,,,,,,,,,,,,,,,,,,,,,,,,,,,,,,,,,,,,
1720085421,3,0,4310.897461,4254.871582,4332.05127,4355.384766,4261.410156,4287.05127,4307.436035,4345.128418,4344.102539,4390.641113,4443.717773,4509.487305,4396.410156,4409.230957,,,,,,,,,,,,,,,,,,,,,,,,,,,,,,,,,,,,,,,,,,,,,,,,,,,,,,,,,,,,,,,,,,,,,,
1720085421,4,0,4315.128418,4262.563965,4328.077148,4355.641113,4262.179688,4272.820313,4297.05127,4338.333496,4337.563965,4391.410156,4453.333496,4504.102539,4399.871582,4406.922852,,,,,,,,,,,,,,,,,,,,,,,,,,,,,,,,,,,,,,,,,,,,,,,,,,,,,,,,,,,,,,,,,,,,,,
1720085421,5,0,4304.230957,4257.307617,4320,4360.256348,4262.692383,4274.230957,4284.487305,4324.615234,4330.769043,4395.641113,4440.769043,4483.846191,4389.615234,4387.436035,,,,,,,,,,,,,,,,,,,,,,,,,,,,,,,,,,,,,,,,,,,,,,,,,,,,,,,,,,,,,,,,,,,,,,
1720085421,6,0,4276.282227,4235.769043,4295.512695,4347.563965,4266.538574,4286.410156,4277.692383,4308.461426,4322.307617,4382.179688,4412.05127,4446.410156,4364.102539,4354.487305,,,,,,,,,,,,,,,,,,,,,,,,,,,,,,,,,,,,,,,,,,,,,,,,,,,,,,,,,,,,,,,,,,,,,,
1720085421,7,0,4254.615234,4219.871582,4275,4330.256348,4266.153809,4296.922852,4282.179688,4306.025879,4318.589844,4367.436035,4414.743652,4430.256348,4349.230957,4344.615234,,,,,,,,,,,,,,,,,,,,,,,,,,,,,,,,,,,,,,,,,,,,,,,,,,,,,,,,,,,,,,,,,,,,,,
1720085421,8,0,4264.102539,4232.820313,4285.769043,4348.717773,4267.179688,4306.538574,4295,4320.641113,4330.128418,4378.846191,4427.563965,4452.307617,4358.717773,4367.179688,,,,,,,,,,,,,,,,,,,,,,,,,,,,,,,,,,,,,,,,,,,,,,,,,,,,,,,,,,,,,,,,,,,,,,
1720085421,9,0,4282.05127,4249.615234,4300.384766,4371.410156,4277.436035,4315.128418,4304.743652,4336.922852,4346.666504,4407.307617,4412.692383,4473.461426,4373.589844,4381.794922,,,,,,,,,,,,,,,,,,,,,,,,,,,,,,,,,,,,,,,,,,,,,,,,,,,,,,,,,,,,,,,,,,,,,,
1720085421,10,0,4279.871582,4246.538574,4298.077148,4364.230957,4276.410156,4313.974121,4300.384766,4342.179688,4355.384766,4415.384766,4398.461426,4472.05127,4377.05127,4374.615234,9.210962,4.666854,3.671173,1.249145,0.851016,2.736892,1.967435,1.469819,0.487811,0.805183,9.791163,5.32874,3.342501,2.473449,0.854591,3.822109,1.717185,0.929231,1.860971,1.482228,0.664918,1.430431,1.677917,0.284128,0.303901,2.368615,3.03348,5.477744,0.235158,0.226727,1.997098,1.46824,2.895037,0.418204,0.561237,1.458231,2.726653,3.183639,0.371553,0.577777,1.984175,3.925852,3.17368,0.667573,0.700761,6.777215,7.515348,2.758432,1.497365,1.277434,5.85498,7.924665,8.455342,3.916168,1.660244,9.527004,5.784985,9.519639,1.655907,1.330882,4.750568,4.411216,3.976811,1.713253,0.96287,5.825011,3.323506,5.353954,1.968875,1.065588
1720085421,11,0,4272.94873,4241.922852,4300,4365.512695,4260.769043,4309.230957,4294.615234,4343.333496,4357.94873,4396.538574,4416.282227,4467.307617,4372.563965,4368.205078,,,,,,,,,,,,,,,,,,,,,,,,,,,,,,,,,,,,,,,,,,,,,,,,,,,,,,,,,,,,,,,,,,,,,,
1720085421,12,0,4286.282227,4249.358887,4319.615234,4386.153809,4259.871582,4310.769043,4296.282227,4351.666504,4363.589844,4398.461426,4441.538574,4482.179688,4376.922852,4380.641113,,,,,,,,,,,,,,,,,,,,,,,,,,,,,,,,,,,,,,,,,,,,,,,,,,,,,,,,,,,,,,,,,,,,,,
1720085421,13,0,4299.871582,4251.538574,4328.846191,4382.307617,4266.153809,4303.461426,4288.205078,4356.922852,4367.563965,4413.589844,4448.974121,4499.615234,4386.794922,4396.153809,,,,,,,,,,,,,,,,,,,,,,,,,,,,,,,,,,,,,,,,,,,,,,,,,,,,,,,,,,,,,,,,,,,,,,
1720085421,14,0,4293.589844,4248.205078,4319.487305,4368.077148,4255.512695,4282.05127,4269.230957,4344.615234,4359.743652,4397.307617,4451.666504,4490.641113,4385.128418,4390.256348,,,,,,,,,,,,,,,,,,,,,,,,,,,,,,,,,,,,,,,,,,,,,,,,,,,,,,,,,,,,,,,,,,,,,,
1720085421,15,0,4281.922852,4247.692383,4311.282227,4374.358887,4243.461426,4270.512695,4256.410156,4328.846191,4351.153809,4382.563965,4443.589844,4463.333496,4373.205078,4370.641113,,,,,,,,,,,,,,,,,,,,,,,,,,,,,,,,,,,,,,,,,,,,,,,,,,,,,,,,,,,,,,,,,,,,,,
1720085421,16,0,4276.153809,4243.717773,4300.384766,4380.256348,4248.333496,4276.153809,4251.922852,4324.871582,4352.307617,4393.205078,4421.538574,4445.641113,4368.077148,4355.897461,,,,,,,,,,,,,,,,,,,,,,,,,,,,,,,,,,,,,,,,,,,,,,,,,,,,,,,,,,,,,,,,,,,,,,
1720085421,17,0,4273.077148,4239.743652,4287.179688,4378.205078,4260,4286.538574,4250.897461,4320.128418,4347.563965,4385.256348,4413.717773,4441.922852,4371.153809,4350.128418,,,,,,,,,,,,,,,,,,,,,,,,,,,,,,,,,,,,,,,,,,,,,,,,,,,,,,,,,,,,,,,,,,,,,,
1720085421,18,0,4254.615234,4228.717773,4273.333496,4366.794922,4264.230957,4301.282227,4250.641113,4308.589844,4330.512695,4361.538574,4405.512695,4433.461426,4357.563965,4342.692383,,,,,,,,,,,,,,,,,,,,,,,,,,,,,,,,,,,,,,,,,,,,,,,,,,,,,,,,,,,,,,,,,,,,,,
1720085421,19,0,4230.897461,4216.538574,4260.512695,4342.179688,4263.974121,4313.589844,4239.743652,4302.05127,4321.282227,4360.256348,4369.487305,4416.538574,4332.179688,4328.077148,,,,,,,,,,,,,,,,,,,,,,,,,,,,,,,,,,,,,,,,,,,,,,,,,,,,,,,,,,,,,,,,,,,,,,
1720085421,20,0,4235,4221.666504,4265.897461,4335.384766,4269.358887,4312.563965,4228.333496,4309.487305,4327.563965,4374.358887,4367.563965,4420,4333.205078,4333.461426,,,,,,,,,,,,,,,,,,,,,,,,,,,,,,,,,,,,,,,,,,,,,,,,,,,,,,,,,,,,,,,,,,,,,,
1720085421,21,0,4256.922852,4234.102539,4291.282227,4360.512695,4272.692383,4309.487305,4231.282227,4323.333496,4334.743652,4403.333496,4414.230957,4451.410156,4357.05127,4362.820313,,,,,,,,,,,,,,,,,,,,,,,,,,,,,,,,,,,,,,,,,,,,,,,,,,,,,,,,,,,,,,,,,,,,,,
1720085421,22,0,4263.717773,4233.717773,4300.897461,4372.179688,4266.538574,4310.769043,4231.538574,4327.436035,4331.794922,4431.666504,4414.743652,4468.205078,4360.641113,4373.589844,,,,,,,,,,,,,,,,,,,,,,,,,,,,,,,,,,,,,,,,,,,,,,,,,,,,,,,,,,,,,,,,,,,,,,
1720085421,23,0,4258.717773,4228.717773,4291.538574,4364.102539,4258.461426,4307.05127,4221.922852,4324.358887,4326.025879,4427.05127,4386.666504,4456.410156,4348.846191,4357.94873,,,,,,,,,,,,,,,,,,,,,,,,,,,,,,,,,,,,,,,,,,,,,,,,,,,,,,,,,,,,,,,,,,,,,,
1720085421,24,0,4259.615234,4231.410156,4295.384766,4366.922852,4253.205078,4296.153809,4215.384766,4325.641113,4326.282227,4417.563965,4397.692383,4449.102539,4348.717773,4344.230957,,,,,,,,,,,,,,,,,,,,,,,,,,,,,,,,,,,,,,,,,,,,,,,,,,,,,,,,,,,,,,,,,,,,,,
1720085421,25,0,4263.717773,4237.179688,4308.205078,4366.538574,4255.897461,4285.641113,4216.538574,4329.871582,4330,4431.666504,4400.384766,4457.94873,4353.205078,4341.666504,,,,,,,,,,,,,,,,,,,,,,,,,,,,,,,,,,,,,,,,,,,,,,,,,,,,,,,,,,,,,,,,,,,,,,
1720085421,26,0,4274.358887,4247.563965,4311.153809,4363.461426,4272.307617,4284.615234,4214.487305,4322.179688,4327.692383,4434.743652,4381.282227,4463.077148,4354.102539,4347.179688,7.471896,4.333056,3.663085,1.468201,0.805982,2.625424,1.900131,1.443564,0.537969,0.787856,9.718638,5.352957,3.524618,2.906982,0.820446,3.275459,1.836169,0.857202,1.685782,1.437871,0.685116,1.542551,1.807498,0.331207,0.336272,2.437351,2.838137,4.914278,0.277943,0.24633,2.306638,1.589122,3.099586,0.407838,0.55468,1.876608,2.969618,3.65243,0.39136,0.544062,2.766078,4.000113,3.623751,0.954215,0.698567,3.834659,5.164258,2.826822,1.645077,1.150499,5.87025,7.340029,8.139249,4.282438,1.47913,8.752953,5.921014,9.186425,1.926915,1.337632,4.039798,3.832632,4.104249,1.976805,0.90551,4.27414,3.428875,5.261282,2.101825,1.005775
1720085421,27,0,4277.94873,4250.512695,4297.179688,4365.512695,4280.641113,4294.358887,4200.897461,4301.410156,4313.205078,4406.666504,4378.846191,4441.794922,4344.487305,4338.461426,,,,,,,,,,,,,,,,,,,,,,,,,,,,,,,,,,,,,,,,,,,,,,,,,,,,,,,,,,,,,,,,,,,,,,
1720085421,28,0,4265.769043,4244.102539,4284.358887,4360.897461,4275.512695,4311.153809,4196.282227,4289.102539,4303.333496,4392.820313,4379.358887,4419.358887,4335.512695,4316.922852,,,,,,,,,,,,,,,,,,,,,,,,,,,,,,,,,,,,,,,,,,,,,,,,,,,,,,,,,,,,,,,,,,,,,,
1720085421,29,0,4261.666504,4246.794922,4293.333496,4364.358887,4281.666504,4329.615234,4213.077148,4295.769043,4308.333496,4407.563965,4370.897461,4424.102539,4341.153809,4316.538574,,,,,,,,,,,,,,,,,,,,,,,,,,,,,,,,,,,,,,,,,,,,,,,,,,,,,,,,,,,,,,,,,,,,,,
1720085421,30,0,4268.846191,4251.025879,4307.820313,4383.717773,4295.128418,4344.615234,4229.230957,4306.282227,4311.282227,4411.025879,4375.641113,4439.743652,4340,4333.077148,,,,,,,,,,,,,,,,,,,,,,,,,,,,,,,,,,,,,,,,,,,,,,,,,,,,,,,,,,,,,,,,,,,,,,
1720085421,31,0,4280,4257.307617,4313.333496,4382.820313,4296.922852,4348.077148,4233.333496,4314.487305,4309.230957,4409.358887,4388.717773,4452.820313,4340.897461,4343.717773,,,,,,,,,,,,,,,,,,,,,,,,,,,,,,,,,,,,,,,,,,,,,,,,,,,,,,,,,,,,,,,,,,,,,,
1720085421,32,0,4286.922852,4263.205078,4311.794922,4352.563965,4286.282227,4337.692383,4233.333496,4324.230957,4313.974121,4424.102539,4393.077148,4458.589844,4361.282227,4349.743652,,,,,,,,,,,,,,,,,,,,,,,,,,,,,,,,,,,,,,,,,,,,,,,,,,,,,,,,,,,,,,,,,,,,,,
1720085422,33,0,4273.461426,4252.563965,4295.769043,4331.538574,4270.641113,4316.794922,4224.871582,4322.563965,4316.025879,4431.794922,4390.384766,4447.94873,4365.128418,4345.641113,,,,,,,,,,,,,,,,,,,,,,,,,,,,,,,,,,,,,,,,,,,,,,,,,,,,,,,,,,,,,,,,,,,,,,
1720085422,34,0,4257.94873,4248.589844,4280.769043,4325,4263.077148,4300.512695,4208.717773,4313.846191,4313.205078,4424.487305,4394.487305,4440.256348,4354.102539,4339.230957,,,,,,,,,,,,,,,,,,,,,,,,,,,,,,,,,,,,,,,,,,,,,,,,,,,,,,,,,,,,,,,,,,,,,,
1720085422,35,0,4271.025879,4270.128418,4290.512695,4322.820313,4264.102539,4288.846191,4201.794922,4317.692383,4321.410156,4430.256348,4410,4458.461426,4370.897461,4355.512695,,,,,,,,,,,,,,,,,,,,,,,,,,,,,,,,,,,,,,,,,,,,,,,,,,,,,,,,,,,,,,,,,,,,,,
1720085422,36,0,4285.128418,4282.436035,4302.820313,4328.846191,4264.743652,4277.820313,4200.641113,4317.692383,4324.615234,4437.436035,4412.692383,4463.205078,4384.615234,4362.563965,,,,,,,,,,,,,,,,,,,,,,,,,,,,,,,,,,,,,,,,,,,,,,,,,,,,,,,,,,,,,,,,,,,,,,
1720085422,37,0,4274.358887,4283.205078,4295.512695,4336.538574,4271.153809,4280.384766,4197.563965,4302.94873,4313.205078,4432.307617,4404.743652,4433.077148,4372.436035,4338.846191,,,,,,,,,,,,,,,,,,,,,,,,,,,,,,,,,,,,,,,,,,,,,,,,,,,,,,,,,,,,,,,,,,,,,,
1720085422,38,0,4265.256348,4291.153809,4285.128418,4329.358887,4281.410156,4294.871582,4197.05127,4293.333496,4312.436035,4433.589844,4399.487305,4407.307617,4368.077148,4325.641113,,,,,,,,,,,,,,,,,,,,,,,,,,,,,,,,,,,,,,,,,,,,,,,,,,,,,,,,,,,,,,,,,,,,,,
1720085422,39,0,4264.487305,4287.563965,4276.538574,4310,4280.128418,4303.461426,4205,4295.128418,4320.512695,4433.589844,4379.615234,4404.358887,4360.769043,4328.717773,,,,,,,,,,,,,,,,,,,,,,,,,,,,,,,,,,,,,,,,,,,,,,,,,,,,,,,,,,,,,,,,,,,,,,
1720085422,40,0,4261.666504,4284.358887,4278.333496,4308.205078,4276.282227,4308.717773,4220.769043,4308.589844,4323.333496,4434.230957,4374.230957,4426.538574,4352.05127,4337.692383,,,,,,,,,,,,,,,,,,,,,,,,,,,,,,,,,,,,,,,,,,,,,,,,,,,,,,,,,,,,,,,,,,,,,,
1720085422,41,0,4266.666504,4295.512695,4298.846191,4327.94873,4281.794922,4317.307617,4237.307617,4332.179688,4332.563965,4447.307617,4401.282227,4456.410156,4363.974121,4351.538574,,,,,,,,,,,,,,,,,,,,,,,,,,,,,,,,,,,,,,,,,,,,,,,,,,,,,,,,,,,,,,,,,,,,,,
1720085422,42,0,4257.436035,4278.846191,4298.846191,4329.358887,4273.205078,4315.641113,4237.179688,4338.077148,4328.461426,4433.205078,4399.230957,4444.102539,4353.589844,4328.333496,6.107131,3.786969,3.683447,1.686256,0.740111,2.420745,1.707738,1.538804,0.617262,0.768132,9.809189,4.914196,3.743776,3.398973,0.775704,2.82866,1.835333,0.83642,1.500989,1.378379,0.821366,1.555865,1.905062,0.395916,0.371728,2.365895,2.516351,4.674014,0.308559,0.264853,2.83698,1.707222,3.579631,0.39127,0.544795,2.318351,3.013875,3.856532,0.412057,0.509952,3.887142,4.091718,3.980654,1.30368,0.702335,3.2917,4.179433,2.903196,1.928927,1.078216,6.564347,6.303778,7.243558,4.386533,1.406071,8.747983,5.725276,8.198717,2.09263,1.300326,3.601779,3.139427,4.037693,2.216575,0.84109,3.499867,3.333561,4.995415,2.100435,0.91237
1720085422,43,0,4218.205078,4242.94873,4266.153809,4297.307617,4252.307617,4301.025879,4220.897461,4311.794922,4295.897461,4390.384766,4354.102539,4393.077148,4308.461426,4275.769043,,,,,,,,,,,,,,,,,,,,,,,,,,,,,,,,,,,,,,,,,,,,,,,,,,,,,,,,,,,,,,,,,,,,,,
1720085422,44,0,4203.974121,4248.846191,4252.692383,4277.436035,4250.641113,4293.077148,4212.179688,4294.358887,4283.589844,4386.410156,4345.769043,4384.102539,4299.358887,4276.410156,,,,,,,,,,,,,,,,,,,,,,,,,,,,,,,,,,,,,,,,,,,,,,,,,,,,,,,,,,,,,,,,,,,,,,
1720085422,45,0,4231.282227,4277.436035,4266.282227,4297.436035,4266.922852,4298.846191,4216.538574,4302.692383,4305.384766,4422.820313,4384.871582,4426.538574,4337.179688,4325.256348,,,,,,,,,,,,,,,,,,,,,,,,,,,,,,,,,,,,,,,,,,,,,,,,,,,,,,,,,,,,,,,,,,,,,,
1720085422,46,0,4250.769043,4279.871582,4270.897461,4319.230957,4276.282227,4307.05127,4222.692383,4308.589844,4318.846191,4439.615234,4403.974121,4449.743652,4364.230957,4352.05127,,,,,,,,,,,,,,,,,,,,,,,,,,,,,,,,,,,,,,,,,,,,,,,,,,,,,,,,,,,,,,,,,,,,,,
1720085422,47,0,4258.589844,4285.384766,4282.820313,4330.256348,4278.974121,4306.025879,4229.487305,4303.205078,4317.820313,4439.230957,4397.692383,4442.820313,4371.922852,4347.05127,,,,,,,,,,,,,,,,,,,,,,,,,,,,,,,,,,,,,,,,,,,,,,,,,,,,,,,,,,,,,,,,,,,,,,
1720085422,48,0,4260.512695,4298.589844,4297.820313,4339.358887,4283.205078,4305,4230.512695,4293.461426,4309.615234,4431.666504,4391.153809,4427.820313,4364.487305,4326.025879,,,,,,,,,,,,,,,,,,,,,,,,,,,,,,,,,,,,,,,,,,,,,,,,,,,,,,,,,,,,,,,,,,,,,,
1720085422,49,0,4248.205078,4289.358887,4286.025879,4337.307617,4280,4308.717773,4230.769043,4293.846191,4301.153809,4411.666504,4397.05127,4427.307617,4350.897461,4322.436035,,,,,,,,,,,,,,,,,,,,,,,,,,,,,,,,,,,,,,,,,,,,,,,,,,,,,,,,,,,,,,,,,,,,,,
1720085422,50,0,4249.871582,4282.563965,4282.179688,4336.282227,4274.487305,4308.461426,4243.333496,4310.769043,4313.077148,4416.922852,4417.307617,4456.538574,4363.333496,4365.512695,,,,,,,,,,,,,,,,,,,,,,,,,,,,,,,,,,,,,,,,,,,,,,,,,,,,,,,,,,,,,,,,,,,,,,
1720085422,51,0,4266.282227,4296.282227,4309.358887,4346.282227,4278.205078,4311.794922,4264.615234,4332.692383,4333.589844,4445.512695,4430.128418,4482.94873,4387.307617,4404.615234,,,,,,,,,,,,,,,,,,,,,,,,,,,,,,,,,,,,,,,,,,,,,,,,,,,,,,,,,,,,,,,,,,,,,,
1720085422,52,0,4255.384766,4292.05127,4318.461426,4340.384766,4284.487305,4323.717773,4277.179688,4339.102539,4335.256348,4442.307617,4416.282227,4465.769043,4380.769043,4378.333496,,,,,,,,,,,,,,,,,,,,,,,,,,,,,,,,,,,,,,,,,,,,,,,,,,,,,,,,,,,,,,,,,,,,,,
1720085422,53,0,4224.871582,4258.974121,4290.769043,4317.692383,4278.589844,4328.205078,4277.436035,4328.205078,4316.922852,4406.666504,4392.94873,4428.589844,4348.461426,4325.384766,,,,,,,,,,,,,,,,,,,,,,,,,,,,,,,,,,,,,,,,,,,,,,,,,,,,,,,,,,,,,,,,,,,,,,
1720085422,54,0,4226.666504,4248.846191,4283.077148,4323.461426,4276.282227,4328.461426,4284.358887,4330.256348,4312.436035,4399.230957,4393.333496,4438.333496,4343.333496,4331.410156,,,,,,,,,,,,,,,,,,,,,,,,,,,,,,,,,,,,,,,,,,,,,,,,,,,,,,,,,,,,,,,,,,,,,,
1720085422,55,0,4247.179688,4263.717773,4299.487305,4340.641113,4286.922852,4333.717773,4296.922852,4344.358887,4325.256348,4416.922852,4398.717773,4475.512695,4361.153809,4384.871582,,,,,,,,,,,,,,,,,,,,,,,,,,,,,,,,,,,,,,,,,,,,,,,,,,,,,,,,,,,,,,,,,,,,,,
1720085422,56,0,4247.05127,4265.128418,4310.897461,4331.922852,4285.769043,4331.922852,4295,4338.589844,4320,4410.897461,4392.94873,4480.897461,4370.128418,4409.358887,,,,,,,,,,,,,,,,,,,,,,,,,,,,,,,,,,,,,,,,,,,,,,,,,,,,,,,,,,,,,,,,,,,,,,
1720085422,57,0,4244.487305,4264.102539,4330.384766,4331.282227,4275.641113,4323.077148,4288.461426,4322.307617,4301.794922,4400.256348,4391.282227,4467.563965,4372.94873,4381.410156,,,,,,,,,,,,,,,,,,,,,,,,,,,,,,,,,,,,,,,,,,,,,,,,,,,,,,,,,,,,,,,,,,,,,,
1720085422,58,0,4262.307617,4278.846191,4348.205078,4352.307617,4282.05127,4324.615234,4290.512695,4323.205078,4307.05127,4410.897461,4396.922852,4469.871582,4377.820313,4360.128418,5.499693,3.278595,3.870825,1.860335,0.666587,2.215738,1.501745,1.751647,0.703266,0.737472,10.164016,4.236363,4.176343,3.811565,0.718913,2.464278,1.77333,0.879664,1.316355,1.301862,1.006801,1.450162,1.981875,0.459861,0.400396,2.11628,2.361135,5.014238,0.328602,0.27407,3.391222,1.816769,4.229188,0.368452,0.526269,2.638093,2.953037,3.83102,0.422956,0.474319,4.925395,4.305451,4.235007,1.62863,0.708433,3.829747,3.904559,2.876259,2.194568,1.019465,7.558097,5.19044,6.186818,4.148175,1.420326,9.369292,5.327604,7.136797,2.105644,1.21909,3.435403,2.596798,3.90821,2.335061,0.771792,3.607054,3.094177,4.8012,1.973248,0.814524
1720085422,59,0,4274.487305,4290.897461,4335.128418,4352.563965,4298.333496,4327.563965,4288.717773,4324.487305,4316.538574,4414.102539,4411.666504,4478.974121,4383.461426,4383.974121,,,,,,,,,,,,,,,,,,,,,,,,,,,,,,,,,,,,,,,,,,,,,,,,,,,,,,,,,,,,,,,,,,,,,,
1720085422,60,0,4257.436035,4277.563965,4306.025879,4327.563965,4297.692383,4316.922852,4275.641113,4307.820313,4297.820313,4395.384766,4414.487305,4477.820313,4382.05127,4405.256348,,,,,,,,,,,,,,,,,,,,,,,,,,,,,,,,,,,,,,,,,,,,,,,,,,,,,,,,,,,,,,,,,,,,,,
1720085422,61,0,4244.358887,4263.717773,4306.794922,4320.641113,4287.94873,4306.025879,4274.615234,4304.743652,4292.563965,4392.307617,4397.820313,4478.205078,4380.128418,4406.410156,,,,,,,,,,,,,,,,,,,,,,,,,,,,,,,,,,,,,,,,,,,,,,,,,,,,,,,,,,,,,,,,,,,,,,
1720085422,62,0,4245,4262.820313,4320.128418,4325.512695,4287.436035,4308.333496,4289.487305,4321.153809,4311.666504,4402.563965,4393.589844,4477.179688,4378.717773,4402.179688,,,,,,,,,,,,,,,,,,,,,,,,,,,,,,,,,,,,,,,,,,,,,,,,,,,,,,,,,,,,,,,,,,,,,,
1720085422,63,0,4236.410156,4263.974121,4319.487305,4325.641113,4290.641113,4319.615234,4301.666504,4334.230957,4318.974121,4396.025879,4418.974121,4476.153809,4375.641113,4386.025879,,,,,,,,,,,,,,,,,,,,,,,,,,,,,,,,,,,,,,,,,,,,,,,,,,,,,,,,,,,,,,,,,,,,,,
1720085422,64,0,4228.589844,4264.358887,4309.615234,4328.717773,4293.077148,4328.589844,4300.512695,4328.974121,4308.589844,4385,4417.692383,4474.743652,4365.256348,4368.205078,,,,,,,,,,,,,,,,,,,,,,,,,,,,,,,,,,,,,,,,,,,,,,,,,,,,,,,,,,,,,,,,,,,,,,
1720085422,65,0,4234.487305,4260.256348,4291.794922,4321.282227,4294.487305,4327.436035,4290.384766,4313.589844,4294.871582,4382.179688,4378.461426,4462.05127,4350,4374.871582,,,,,,,,,,,,,,,,,,,,,,,,,,,,,,,,,,,,,,,,,,,,,,,,,,,,,,,,,,,,,,,,,,,,,,
1720085422,66,0,4246.282227,4257.179688,4287.692383,4313.077148,4295.769043,4318.974121,4291.410156,4312.563965,4290.128418,4381.025879,4372.179688,4460.128418,4347.05127,4400.128418,,,,,,,,,,,,,,,,,,,,,,,,,,,,,,,,,,,,,,,,,,,,,,,,,,,,,,,,,,,,,,,,,,,,,,
1720085422,67,0,4256.794922,4264.743652,4310.897461,4329.358887,4296.922852,4312.692383,4303.461426,4320.641113,4291.153809,4376.922852,4399.358887,4472.179688,4351.666504,4405.384766,,,,,,,,,,,,,,,,,,,,,,,,,,,,,,,,,,,,,,,,,,,,,,,,,,,,,,,,,,,,,,,,,,,,,,
1720085422,68,0,4266.153809,4274.358887,4333.846191,4355.128418,4299.102539,4310.897461,4310,4316.538574,4286.794922,4370.128418,4404.615234,4473.333496,4352.05127,4385.512695,,,,,,,,,,,,,,,,,,,,,,,,,,,,,,,,,,,,,,,,,,,,,,,,,,,,,,,,,,,,,,,,,,,,,,
1720085422,69,0,4263.461426,4266.282227,4329.230957,4356.666504,4295.128418,4306.025879,4305.641113,4304.230957,4274.871582,4365.128418,4389.102539,4463.333496,4342.05127,4373.846191,,,,,,,,,,,,,,,,,,,,,,,,,,,,,,,,,,,,,,,,,,,,,,,,,,,,,,,,,,,,,,,,,,,,,,
1720085422,70,0,4263.974121,4264.871582,4326.410156,4350.897461,4291.922852,4304.230957,4310.769043,4309.230957,4282.05127,4375,4403.974121,4477.307617,4347.307617,4398.205078,,,,,,,,,,,,,,,,,,,,,,,,,,,,,,,,,,,,,,,,,,,,,,,,,,,,,,,,,,,,,,,,,,,,,,
1720085422,71,0,4270.641113,4277.563965,4336.666504,4356.922852,4298.205078,4305.128418,4322.94873,4322.820313,4295.384766,4381.666504,4424.743652,4497.94873,4363.333496,4416.410156,,,,,,,,,,,,,,,,,,,,,,,,,,,,,,,,,,,,,,,,,,,,,,,,,,,,,,,,,,,,,,,,,,,,,,
1720085422,72,0,4253.461426,4260.512695,4318.717773,4343.333496,4290.256348,4297.563965,4314.230957,4314.615234,4281.794922,4352.307617,4401.153809,4472.820313,4350.256348,4387.820313,,,,,,,,,,,,,,,,,,,,,,,,,,,,,,,,,,,,,,,,,,,,,,,,,,,,,,,,,,,,,,,,,,,,,,
1720085422,73,0,4240.128418,4240,4294.743652,4323.974121,4277.179688,4289.871582,4307.05127,4306.922852,4273.205078,4333.205078,4386.794922,4449.615234,4333.333496,4364.743652,,,,,,,,,,,,,,,,,,,,,,,,,,,,,,,,,,,,,,,,,,,,,,,,,,,,,,,,,,,,,,,,,,,,,,
1720085422,74,0,4255.256348,4257.692383,4296.282227,4331.666504,4288.717773,4291.538574,4318.205078,4318.333496,4286.922852,4355.641113,4409.487305,4469.487305,4343.205078,4372.05127,5.473872,3.05945,4.28078,1.947025,0.608462,2.038028,1.427538,2.050932,0.772146,0.695749,10.645066,3.64109,4.925914,3.995085,0.657996,2.26922,1.737385,1.005704,1.156341,1.215815,1.193119,1.268214,2.093707,0.50168,0.415723,1.850769,2.753257,6.084764,0.342506,0.267564,3.721238,1.98146,4.88188,0.350906,0.495445,2.755347,2.946892,3.74143,0.428061,0.439363,5.737674,4.68583,4.368675,1.832926,0.706963,4.200294,4.022732,2.769776,2.327996,0.963625,8.374361,4.468311,5.443317,3.596529,1.485695,10.133188,4.936379,6.551051,1.991118,1.129923,3.477563,2.43016,3.845661,2.275207,0.710605,4.233705,2.85967,4.877616,1.779824,0.757205
1720085422,75,0,4248.461426,4263.205078,4286.410156,4338.205078,4295.256348,4293.461426,4317.692383,4315.256348,4281.666504,4359.230957,4402.436035,4463.717773,4340,4365.128418,,,,,,,,,,,,,,,,,,,,,,,,,,,,,,,,,,,,,,,,,,,,,,,,,,,,,,,,,,,,,,,,,,,,,,
1720085422,76,0,4221.794922,4239.871582,4258.717773,4330.128418,4281.153809,4296.410156,4305.512695,4295.128418,4266.282227,4333.717773,4371.025879,4421.025879,4320.128418,4343.974121,,,,,,,,,,,,,,,,,,,,,,,,,,,,,,,,,,,,,,,,,,,,,,,,,,,,,,,,,,,,,,,,,,,,,,
1720085422,77,0,4223.077148,4231.538574,4252.179688,4320.384766,4280,4305.769043,4304.102539,4290.897461,4277.563965,4334.615234,4376.666504,4409.230957,4319.487305,4339.743652,,,,,,,,,,,,,,,,,,,,,,,,,,,,,,,,,,,,,,,,,,,,,,,,,,,,,,,,,,,,,,,,,,,,,,
1720085422,78,0,4235.128418,4237.692383,4267.436035,4311.922852,4289.230957,4310.128418,4309.871582,4301.538574,4296.025879,4353.205078,4387.307617,4424.743652,4326.922852,4345,,,,,,,,,,,,,,,,,,,,,,,,,,,,,,,,,,,,,,,,,,,,,,,,,,,,,,,,,,,,,,,,,,,,,,
1720085422,79,0,4234.230957,4241.666504,4274.615234,4312.94873,4282.05127,4302.563965,4309.743652,4304.358887,4296.794922,4346.282227,4368.846191,4428.077148,4322.179688,4344.615234,,,,,,,,,,,,,,,,,,,,,,,,,,,,,,,,,,,,,,,,,,,,,,,,,,,,,,,,,,,,,,,,,,,,,,
1720085422,80,0,4242.179688,4245,4280.512695,4327.94873,4272.05127,4292.563965,4306.922852,4298.461426,4283.589844,4325.769043,4362.563965,4427.563965,4320.384766,4345.641113,,,,,,,,,,,,,,,,,,,,,,,,,,,,,,,,,,,,,,,,,,,,,,,,,,,,,,,,,,,,,,,,,,,,,,
1720085422,81,0,4257.94873,4249.487305,4290.256348,4333.333496,4274.102539,4290.128418,4302.436035,4290.512695,4263.974121,4317.692383,4378.846191,4428.846191,4323.589844,4348.205078,,,,,,,,,,,,,,,,,,,,,,,,,,,,,,,,,,,,,,,,,,,,,,,,,,,,,,,,,,,,,,,,,,,,,,
1720085422,82,0,4266.666504,4255.512695,4296.153809,4334.358887,4279.230957,4291.282227,4304.871582,4291.153809,4257.94873,4323.846191,4384.358887,4432.307617,4327.05127,4353.974121,,,,,,,,,,,,,,,,,,,,,,,,,,,,,,,,,,,,,,,,,,,,,,,,,,,,,,,,,,,,,,,,,,,,,,
1720085422,83,0,4269.358887,4258.589844,4296.538574,4349.102539,4281.282227,4292.563965,4318.717773,4302.94873,4270.128418,4337.179688,4381.794922,4443.333496,4333.974121,4367.436035,,,,,,,,,,,,,,,,,,,,,,,,,,,,,,,,,,,,,,,,,,,,,,,,,,,,,,,,,,,,,,,,,,,,,,
1720085422,84,0,4269.230957,4250.384766,4295.128418,4354.102539,4279.358887,4294.358887,4329.487305,4309.615234,4277.692383,4341.282227,4395,4455.769043,4343.333496,4382.307617,,,,,,,,,,,,,,,,,,,,,,,,,,,,,,,,,,,,,,,,,,,,,,,,,,,,,,,,,,,,,,,,,,,,,,
1720085422,85,0,4273.974121,4241.410156,4296.922852,4347.820313,4277.820313,4287.436035,4326.282227,4304.358887,4279.743652,4339.871582,4398.974121,4456.025879,4341.538574,4381.410156,,,,,,,,,,,,,,,,,,,,,,,,,,,,,,,,,,,,,,,,,,,,,,,,,,,,,,,,,,,,,,,,,,,,,,
1720085422,86,0,4285.897461,4241.538574,4300,4349.615234,4279.230957,4280.769043,4320.641113,4301.282227,4290,4348.589844,4390,4448.846191,4332.307617,4374.230957,,,,,,,,,,,,,,,,,,,,,,,,,,,,,,,,,,,,,,,,,,,,,,,,,,,,,,,,,,,,,,,,,,,,,,
1720085422,87,0,4282.820313,4231.410156,4299.358887,4355.128418,4277.692383,4290.769043,4325.769043,4310.256348,4305.256348,4359.743652,4406.538574,4457.05127,4341.410156,4381.410156,,,,,,,,,,,,,,,,,,,,,,,,,,,,,,,,,,,,,,,,,,,,,,,,,,,,,,,,,,,,,,,,,,,,,,
1720085422,88,0,4257.179688,4209.230957,4282.179688,4349.871582,4275.897461,4307.436035,4334.230957,4315.128418,4314.230957,4356.538574,4421.282227,4461.538574,4347.05127,4380.512695,,,,,,,,,,,,,,,,,,,,,,,,,,,,,,,,,,,,,,,,,,,,,,,,,,,,,,,,,,,,,,,,,,,,,,
1720085422,89,0,4239.487305,4201.538574,4259.102539,4338.333496,4277.05127,4315.897461,4339.102539,4311.153809,4312.436035,4348.077148,4400.256348,4443.205078,4328.205078,4363.846191,,,,,,,,,,,,,,,,,,,,,,,,,,,,,,,,,,,,,,,,,,,,,,,,,,,,,,,,,,,,,,,,,,,,,,
1720085422,90,0,4251.153809,4212.94873,4263.333496,4342.307617,4280.641113,4316.666504,4342.563965,4319.487305,4307.820313,4354.743652,4409.743652,4440.512695,4330.641113,4365,5.797821,3.274456,4.829978,1.917968,0.59001,1.906747,1.603476,2.375734,0.807755,0.652684,11.038225,3.393203,5.885361,3.870409,0.607427,2.30401,1.790448,1.233339,1.063427,1.132503,1.349032,1.067406,2.289892,0.508623,0.41601,1.693934,3.85286,7.707667,0.354336,0.244233,3.792265,2.28613,5.366291,0.353345,0.452679,2.632432,3.136496,3.774403,0.444009,0.411324,6.053171,5.118546,4.296454,1.863018,0.689655,4.186227,4.49641,2.661565,2.314162,0.931936,8.644245,4.303469,5.133106,2.853305,1.575553,10.581404,4.680753,6.629039,1.843735,1.099368,3.657284,2.717782,3.851088,2.055779,0.680731,5.028532,2.783373,5.209171,1.633919,0.810523
1720085422,91,0,4263.333496,4219.615234,4286.666504,4351.410156,4282.563965,4314.230957,4343.846191,4327.307617,4302.436035,4360.641113,4445,4457.820313,4352.307617,4375.512695,,,,,,,,,,,,,,,,,,,,,,,,,,,,,,,,,,,,,,,,,,,,,,,,,,,,,,,,,,,,,,,,,,,,,,
1720085422,92,0,4266.025879,4216.922852,4296.666504,4346.282227,4282.179688,4311.538574,4346.410156,4322.179688,4290.512695,4350.512695,4431.410156,4467.307617,4350.128418,4370.512695,,,,,,,,,,,,,,,,,,,,,,,,,,,,,,,,,,,,,,,,,,,,,,,,,,,,,,,,,,,,,,,,,,,,,,
1720085422,93,0,4264.230957,4218.205078,4294.871582,4335.641113,4280.128418,4310.512695,4352.820313,4322.179688,4280.384766,4335.769043,4404.487305,4472.436035,4335.384766,4366.153809,,,,,,,,,,,,,,,,,,,,,,,,,,,,,,,,,,,,,,,,,,,,,,,,,,,,,,,,,,,,,,,,,,,,,,
1720085422,94,0,4250.897461,4222.563965,4300.769043,4343.717773,4279.615234,4303.077148,4357.94873,4329.358887,4283.717773,4335,4411.538574,4471.666504,4335.769043,4367.692383,,,,,,,,,,,,,,,,,,,,,,,,,,,,,,,,,,,,,,,,,,,,,,,,,,,,,,,,,,,,,,,,,,,,,,
1720085422,95,0,4245.128418,4228.846191,4308.846191,4356.538574,4284.358887,4298.333496,4357.94873,4328.205078,4293.333496,4346.025879,4416.666504,4461.538574,4336.410156,4356.025879,,,,,,,,,,,,,,,,,,,,,,,,,,,,,,,,,,,,,,,,,,,,,,,,,,,,,,,,,,,,,,,,,,,,,,
1720085422,96,0,4263.461426,4240.641113,4311.794922,4355.384766,4290.897461,4305,4358.461426,4326.922852,4304.102539,4354.230957,4410.897461,4459.102539,4329.102539,4345.897461,,,,,,,,,,,,,,,,,,,,,,,,,,,,,,,,,,,,,,,,,,,,,,,,,,,,,,,,,,,,,,,,,,,,,,
1720085422,97,0,4273.077148,4243.077148,4307.692383,4358.205078,4288.333496,4311.282227,4358.717773,4328.974121,4311.153809,4357.436035,4413.333496,4459.871582,4329.871582,4355.769043,,,,,,,,,,,,,,,,,,,,,,,,,,,,,,,,,,,,,,,,,,,,,,,,,,,,,,,,,,,,,,,,,,,,,,
1720085422,98,0,4255.769043,4235.769043,4296.794922,4355,4279.230957,4312.436035,4351.794922,4321.666504,4307.820313,4358.974121,4413.974121,4457.692383,4343.461426,4366.538574,,,,,,,,,,,,,,,,,,,,,,,,,,,,,,,,,,,,,,,,,,,,,,,,,,,,,,,,,,,,,,,,,,,,,,
1720085422,99,0,4246.538574,4236.025879,4291.025879,4332.563965,4280.256348,4312.563965,4343.077148,4315.256348,4302.05127,4361.922852,4416.025879,4466.282227,4356.794922,4362.179688,,,,,,,,,,,,,,,,,,,,,,,,,,,,,,,,,,,,,,,,,,,,,,,,,,,,,,,,,,,,,,,,,,,,,,
1720085422,100,0,4253.205078,4244.615234,4294.615234,4326.794922,4284.102539,4313.205078,4340.769043,4316.025879,4295.769043,4359.102539,4417.307617,4466.410156,4354.615234,4350.641113,,,,,,,,,,,,,,,,,,,,,,,,,,,,,,,,,,,,,,,,,,,,,,,,,,,,,,,,,,,,,,,,,,,,,,
1720085422,101,0,4256.410156,4246.282227,4297.179688,4346.410156,4279.230957,4310.128418,4344.615234,4316.153809,4282.307617,4345,4402.563965,4444.487305,4340.769043,4335.641113,,,,,,,,,,,,,,,,,,,,,,,,,,,,,,,,,,,,,,,,,,,,,,,,,,,,,,,,,,,,,,,,,,,,,,
1720085422,102,0,4260.769043,4244.487305,4295.128418,4347.307617,4283.461426,4309.358887,4353.461426,4322.05127,4275.641113,4337.05127,4395.897461,4436.282227,4331.922852,4330.512695,,,,,,,,,,,,,,,,,,,,,,,,,,,,,,,,,,,,,,,,,,,,,,,,,,,,,,,,,,,,,,,,,,,,,,
1720085422,103,0,4264.487305,4250.128418,4291.282227,4333.461426,4298.974121,4316.666504,4366.666504,4337.436035,4286.666504,4338.974121,4411.922852,4454.358887,4336.025879,4344.615234,,,,,,,,,,,,,,,,,,,,,,,,,,,,,,,,,,,,,,,,,,,,,,,,,,,,,,,,,,,,,,,,,,,,,,
1720085422,104,0,4248.717773,4243.333496,4282.179688,4336.282227,4296.410156,4321.538574,4372.692383,4343.333496,4291.666504,4331.410156,4422.563965,4458.461426,4338.077148,4348.717773,,,,,,,,,,,,,,,,,,,,,,,,,,,,,,,,,,,,,,,,,,,,,,,,,,,,,,,,,,,,,,,,,,,,,,
1720085422,105,0,4228.717773,4229.358887,4274.487305,4336.282227,4282.94873,4317.94873,4368.461426,4336.282227,4291.794922,4330.128418,4404.615234,4441.025879,4332.820313,4342.05127,,,,,,,,,,,,,,,,,,,,,,,,,,,,,,,,,,,,,,,,,,,,,,,,,,,,,,,,,,,,,,,,,,,,,,
1720085422,106,0,4228.846191,4224.102539,4264.615234,4312.436035,4278.717773,4307.307617,4349.230957,4324.230957,4292.05127,4341.153809,4371.666504,4420.384766,4326.025879,4329.871582,6.168937,3.876468,5.292844,1.775846,0.622842,1.818555,2.056421,2.639328,0.806647,0.621317,11.165008,3.577439,6.736357,3.488892,0.582179,2.616349,1.937557,1.552209,1.072582,1.061733,1.462146,0.910771,2.565936,0.482733,0.40365,1.776104,5.456082,9.378013,0.365846,0.209508,3.667553,2.769071,5.562046,0.385312,0.40268,2.33385,3.534369,4.021439,0.489483,0.397288,5.85475,5.416291,3.932528,1.739029,0.655513,3.858402,5.161238,2.549191,2.193286,0.942831,8.291652,4.593843,5.06092,2.087756,1.669712,10.560086,4.603959,7.118108,1.764407,1.182745,3.97731,3.40934,3.813231,1.764473,0.697982,5.866229,2.95009,5.573146,1.652065,1.036894
1720085422,107,0,4242.307617,4232.436035,4261.153809,4299.230957,4279.102539,4296.922852,4326.666504,4307.05127,4282.05127,4335.897461,4366.794922,4407.436035,4318.589844,4304.230957,,,,,,,,,,,,,,,,,,,,,,,,,,,,,,,,,,,,,,,,,,,,,,,,,,,,,,,,,,,,,,,,,,,,,,
1720085422,108,0,4264.102539,4258.077148,4284.743652,4323.589844,4286.666504,4293.333496,4327.307617,4298.461426,4277.05127,4334.358887,4403.846191,4420.256348,4333.461426,4317.436035,,,,,,,,,,,,,,,,,,,,,,,,,,,,,,,,,,,,,,,,,,,,,,,,,,,,,,,,,,,,,,,,,,,,,,
1720085422,109,0,4267.563965,4268.461426,4295.769043,4339.615234,4290,4296.410156,4332.179688,4294.102539,4278.077148,4343.846191,4419.102539,4435.256348,4351.025879,4381.410156,,,,,,,,,,,,,,,,,,,,,,,,,,,,,,,,,,,,,,,,,,,,,,,,,,,,,,,,,,,,,,,,,,,,,,
1720085422,110,0,4248.333496,4256.410156,4277.692383,4325.512695,4278.589844,4303.461426,4322.436035,4280.641113,4266.922852,4333.333496,4393.333496,4424.230957,4338.077148,4419.871582,,,,,,,,,,,,,,,,,,,,,,,,,,,,,,,,,,,,,,,,,,,,,,,,,,,,,,,,,,,,,,,,,,,,,,
1720085422,111,0,4250.897461,4257.436035,4279.615234,4319.743652,4277.05127,4311.538574,4320.256348,4272.307617,4256.282227,4321.153809,4382.179688,4414.743652,4324.743652,4410,,,,,,,,,,,,,,,,,,,,,,,,,,,,,,,,,,,,,,,,,,,,,,,,,,,,,,,,,,,,,,,,,,,,,,
1720085422,112,0,4271.538574,4262.692383,4293.589844,4317.820313,4286.666504,4310.897461,4327.307617,4277.820313,4255.512695,4323.717773,4382.179688,4415.512695,4328.846191,4395.897461,,,,,,,,,,,,,,,,,,,,,,,,,,,,,,,,,,,,,,,,,,,,,,,,,,,,,,,,,,,,,,,,,,,,,,
1720085422,113,0,4267.692383,4251.794922,4280.512695,4305.512695,4283.846191,4308.589844,4336.410156,4291.538574,4258.717773,4319.871582,4380.641113,4410.641113,4330.769043,4395.384766,,,,,,,,,,,,,,,,,,,,,,,,,,,,,,,,,,,,,,,,,,,,,,,,,,,,,,,,,,,,,,,,,,,,,,
1720085422,114,0,4246.666504,4245.769043,4259.230957,4300.256348,4277.94873,4319.230957,4355.128418,4314.102539,4271.153809,4323.205078,4400,4414.487305,4332.307617,4396.794922,,,,,,,,,,,,,,,,,,,,,,,,,,,,,,,,,,,,,,,,,,,,,,,,,,,,,,,,,,,,,,,,,,,,,,
1720085422,115,0,4237.179688,4243.717773,4256.538574,4292.436035,4281.922852,4325.128418,4370,4337.563965,4284.615234,4334.743652,4413.589844,4434.102539,4338.461426,4396.025879,,,,,,,,,,,,,,,,,,,,,,,,,,,,,,,,,,,,,,,,,,,,,,,,,,,,,,,,,,,,,,,,,,,,,,
1720085422,116,0,4242.94873,4238.846191,4265.897461,4280,4282.692383,4314.230957,4369.615234,4346.153809,4284.615234,4330.641113,4403.205078,4445.384766,4334.743652,4398.717773,,,,,,,,,,,,,,,,,,,,,,,,,,,,,,,,,,,,,,,,,,,,,,,,,,,,,,,,,,,,,,,,,,,,,,
1720085422,117,0,4257.436035,4241.922852,4279.487305,4285.256348,4281.025879,4309.230957,4367.05127,4343.077148,4278.205078,4323.205078,4407.307617,4446.153809,4329.487305,4407.820313,,,,,,,,,,,,,,,,,,,,,,,,,,,,,,,,,,,,,,,,,,,,,,,,,,,,,,,,,,,,,,,,,,,,,,
1720085422,118,0,4267.307617,4246.153809,4291.538574,4300.512695,4275.897461,4312.820313,4360.641113,4337.563965,4275.897461,4326.282227,4414.487305,4445.769043,4331.410156,4409.615234,,,,,,,,,,,,,,,,,,,,,,,,,,,,,,,,,,,,,,,,,,,,,,,,,,,,,,,,,,,,,,,,,,,,,,
1720085422,119,0,4279.487305,4262.563965,4305.256348,4318.205078,4272.692383,4311.410156,4356.282227,4334.871582,4279.358887,4337.436035,4404.487305,4458.077148,4342.05127,4416.153809,,,,,,,,,,,,,,,,,,,,,,,,,,,,,,,,,,,,,,,,,,,,,,,,,,,,,,,,,,,,,,,,,,,,,,
1720085422,120,0,4295,4288.717773,4318.205078,4331.922852,4281.794922,4309.871582,4359.487305,4333.205078,4275.897461,4344.358887,4414.102539,4479.487305,4361.666504,4441.922852,,,,,,,,,,,,,,,,,,,,,,,,,,,,,,,,,,,,,,,,,,,,,,,,,,,,,,,,,,,,,,,,,,,,,,
1720085422,121,0,4289.358887,4288.461426,4311.538574,4329.487305,4290.769043,4313.846191,4351.282227,4315.641113,4255.897461,4334.230957,4429.743652,4471.666504,4360.512695,4446.794922,,,,,,,,,,,,,,,,,,,,,,,,,,,,,,,,,,,,,,,,,,,,,,,,,,,,,,,,,,,,,,,,,,,,,,
1720085422,122,0,4276.282227,4276.153809,4300,4324.487305,4293.205078,4320.512695,4334.743652,4292.563965,4242.94873,4329.487305,4416.538574,4443.077148,4341.922852,4424.487305,6.413468,4.682212,5.451497,1.559594,0.70156,1.747694,2.720621,2.779718,0.777534,0.611892,10.841337,4.136074,7.112281,2.995763,0.591318,3.178419,2.155413,1.918691,1.177137,1.006487,1.525265,0.817262,2.84863,0.437931,0.383993,2.075093,7.058923,10.46344,0.382823,0.172834,3.458835,3.332886,5.435854,0.449966,0.353445,1.989101,3.970304,4.424228,0.571222,0.402792,5.200695,5.425353,3.345819,1.539528,0.614585,3.332288,5.763962,2.416864,2.031563,0.999846,7.510093,5.088584,4.912389,1.461475,1.751958,10.140809,4.652256,7.513197,1.803687,1.38435,4.403218,4.3454,3.60445,1.504685,0.758765,6.739082,3.354523,5.686006,1.886736,1.434577
1720085422,123,0,4279.230957,4282.179688,4304.358887,4317.179688,4297.436035,4324.871582,4329.615234,4283.846191,4244.743652,4341.282227,4400.128418,4434.871582,4338.205078,4415.384766,,,,,,,,,,,,,,,,,,,,,,,,,,,,,,,,,,,,,,,,,,,,,,,,,,,,,,,,,,,,,,,,,,,,,,
1720085422,124,0,4282.563965,4283.717773,4310.128418,4300.641113,4303.077148,4327.436035,4345.256348,4294.871582,4250.512695,4347.820313,4399.743652,4443.717773,4344.615234,4417.05127,,,,,,,,,,,,,,,,,,,,,,,,,,,,,,,,,,,,,,,,,,,,,,,,,,,,,,,,,,,,,,,,,,,,,,
1720085422,125,0,4269.743652,4263.077148,4299.871582,4281.922852,4295.897461,4332.179688,4370.128418,4319.615234,4265.256348,4342.307617,4398.974121,4443.077148,4335.641113,4401.922852,,,,,,,,,,,,,,,,,,,,,,,,,,,,,,,,,,,,,,,,,,,,,,,,,,,,,,,,,,,,,,,,,,,,,,
1720085422,126,0,4252.05127,4238.589844,4286.282227,4263.077148,4280.384766,4334.487305,4382.820313,4348.717773,4278.077148,4337.436035,4404.230957,4443.461426,4322.307617,4385.128418,,,,,,,,,,,,,,,,,,,,,,,,,,,,,,,,,,,,,,,,,,,,,,,,,,,,,,,,,,,,,,,,,,,,,,
1720085422,127,0,4254.743652,4236.025879,4298.077148,4259.871582,4279.871582,4327.94873,4389.871582,4373.205078,4281.922852,4347.94873,4424.102539,4468.077148,4336.922852,4391.922852,,,,,,,,,,,,,,,,,,,,,,,,,,,,,,,,,,,,,,,,,,,,,,,,,,,,,,,,,,,,,,,,,,,,,,
1720085422,0,0,4280,4253.589844,4327.05127,4282.692383,4287.307617,4318.077148,4395.512695,4381.282227,4289.871582,4365.641113,4434.615234,4496.410156,4359.743652,4414.230957,,,,,,,,,,,,,,,,,,,,,,,,,,,,,,,,,,,,,,,,,,,,,,,,,,,,,,,,,,,,,,,,,,,,,,
1720085422,1,0,4298.205078,4267.05127,4343.717773,4299.358887,4283.333496,4307.692383,4385.769043,4373.461426,4297.94873,4367.692383,4443.846191,4509.102539,4367.05127,4436.153809,,,,,,,,,,,,,,,,,,,,,,,,,,,,,,,,,,,,,,,,,,,,,,,,,,,,,,,,,,,,,,,,,,,,,,
1720085422,2,0,4294.743652,4273.846191,4342.563965,4293.077148,4278.333496,4298.205078,4362.692383,4355.641113,4292.820313,4361.794922,4467.563965,4510.128418,4381.410156,4447.94873,,,,,,,,,,,,,,,,,,,,,,,,,,,,,,,,,,,,,,,,,,,,,,,,,,,,,,,,,,,,,,,,,,,,,,
1720085422,3,0,4296.922852,4283.205078,4331.538574,4286.153809,4286.666504,4297.692383,4347.563965,4337.94873,4281.922852,4371.410156,4479.230957,4502.563965,4399.871582,4448.333496,,,,,,,,,,,,,,,,,,,,,,,,,,,,,,,,,,,,,,,,,,,,,,,,,,,,,,,,,,,,,,,,,,,,,,
1720085422,4,0,4297.692383,4285.256348,4315.641113,4282.820313,4295.384766,4305.512695,4339.102539,4321.922852,4277.692383,4380.769043,4470.384766,4485.897461,4397.179688,4440.769043,,,,,,,,,,,,,,,,,,,,,,,,,,,,,,,,,,,,,,,,,,,,,,,,,,,,,,,,,,,,,,,,,,,,,,
1720085422,5,0,4280.256348,4275.641113,4308.205078,4277.820313,4293.717773,4312.05127,4333.333496,4308.461426,4283.717773,4379.358887,4456.538574,4474.615234,4386.410156,4437.179688,,,,,,,,,,,,,,,,,,,,,,,,,,,,,,,,,,,,,,,,,,,,,,,,,,,,,,,,,,,,,,,,,,,,,,
1720085422,6,0,4273.333496,4275.256348,4310.256348,4277.563965,4295.641113,4323.205078,4343.846191,4309.487305,4297.436035,4382.820313,4447.436035,4474.358887,4385.897461,4440.384766,,,,,,,,,,,,,,,,,,,,,,,,,,,,,,,,,,,,,,,,,,,,,,,,,,,,,,,,,,,,,,,,,,,,,,
1720085422,7,0,4277.94873,4280.384766,4303.717773,4279.487305,4304.230957,4338.589844,4362.05127,4319.743652,4307.179688,4387.820313,4442.692383,4469.230957,4381.282227,4430.512695,,,,,,,,,,,,,,,,,,,,,,,,,,,,,,,,,,,,,,,,,,,,,,,,,,,,,,,,,,,,,,,,,,,,,,
1720085422,8,0,4267.94873,4270.512695,4287.179688,4275.256348,4304.743652,4342.563965,4371.922852,4327.563965,4308.846191,4384.358887,4436.153809,4457.94873,4367.692383,4406.538574,,,,,,,,,,,,,,,,,,,,,,,,,,,,,,,,,,,,,,,,,,,,,,,,,,,,,,,,,,,,,,,,,,,,,,
1720085422,9,0,4259.102539,4263.717773,4286.922852,4270.256348,4297.05127,4332.692383,4376.410156,4339.871582,4311.153809,4379.102539,4436.153809,4458.846191,4365.128418,4400.897461,,,,,,,,,,,,,,,,,,,,,,,,,,,,,,,,,,,,,,,,,,,,,,,,,,,,,,,,,,,,,,,,,,,,,,
1720085422,10,0,4274.358887,4280.128418,4313.461426,4281.922852,4296.153809,4318.077148,4384.615234,4364.230957,4320.897461,4384.615234,4457.05127,4482.820313,4381.282227,4417.692383,6.462172,5.504293,5.249313,1.335934,0.804669,1.730553,3.478542,2.819938,0.734015,0.62524,10.148829,5.028861,6.836503,2.553894,0.631755,3.840938,2.425035,2.28411,1.330941,0.963008,1.517138,0.756031,3.014157,0.391577,0.362946,2.459679,8.090443,10.467295,0.409569,0.143616,3.314613,3.854143,5.041594,0.53959,0.313725,1.765376,4.304414,4.838873,0.675947,0.426247,4.2804,5.105152,2.743767,1.345418,0.580454,2.815485,6.062802,2.26811,1.876603,1.084304,6.666957,5.494212,4.472898,1.07193,1.816069,9.645233,4.774898,7.381232,1.928848,1.646673,4.889148,5.258655,3.187993,1.341875,0.840804,7.870193,3.945709,5.414773,2.29459,1.918383
1720085422,11,0,4296.794922,4300.384766,4339.871582,4313.717773,4296.794922,4302.563965,4386.794922,4376.025879,4323.974121,4389.102539,4481.922852,4508.461426,4398.589844,4420.641113,,,,,,,,,,,,,,,,,,,,,,,,,,,,,,,,,,,,,,,,,,,,,,,,,,,,,,,,,,,,,,,,,,,,,,
1720085422,12,0,4300.384766,4299.743652,4335.897461,4324.230957,4290.641113,4291.410156,4365,4353.974121,4300.256348,4368.461426,4468.589844,4498.461426,4390.512695,4403.461426,,,,,,,,,,,,,,,,,,,,,,,,,,,,,,,,,,,,,,,,,,,,,,,,,,,,,,,,,,,,,,,,,,,,,,
1720085422,13,0,4284.102539,4281.922852,4313.333496,4303.077148,4285.256348,4283.589844,4332.94873,4321.025879,4265.641113,4334.487305,4429.230957,4461.922852,4363.974121,4386.922852,,,,,,,,,,,,,,,,,,,,,,,,,,,,,,,,,,,,,,,,,,,,,,,,,,,,,,,,,,,,,,,,,,,,,,
1720085422,14,0,4270.641113,4266.410156,4306.410156,4295.512695,4282.307617,4280,4318.589844,4305.769043,4253.077148,4321.282227,4414.358887,4446.025879,4350.897461,4376.666504,,,,,,,,,,,,,,,,,,,,,,,,,,,,,,,,,,,,,,,,,,,,,,,,,,,,,,,,,,,,,,,,,,,,,,
1720085422,15,0,4273.846191,4260.384766,4316.538574,4299.230957,4284.487305,4287.179688,4329.615234,4313.461426,4271.282227,4337.563965,4433.846191,4468.461426,4361.282227,4375.769043,,,,,,,,,,,,,,,,,,,,,,,,,,,,,,,,,,,,,,,,,,,,,,,,,,,,,,,,,,,,,,,,,,,,,,
1720085422,16,0,4279.871582,4262.436035,4323.974121,4287.94873,4293.333496,4300.128418,4340,4329.487305,4297.436035,4362.436035,4457.820313,4491.025879,4379.102539,4385.769043,,,,,,,,,,,,,,,,,,,,,,,,,,,,,,,,,,,,,,,,,,,,,,,,,,,,,,,,,,,,,,,,,,,,,,
1720085422,17,0,4285.641113,4271.025879,4329.487305,4295.384766,4298.333496,4304.743652,4333.589844,4339.743652,4313.846191,4380.128418,4457.94873,4489.487305,4388.589844,4400.384766,,,,,,,,,,,,,,,,,,,,,,,,,,,,,,,,,,,,,,,,,,,,,,,,,,,,,,,,,,,,,,,,,,,,,,
1720085422,18,0,4287.820313,4278.461426,4326.282227,4320.256348,4299.743652,4306.410156,4323.077148,4335.128418,4313.077148,4375,4445.512695,4467.820313,4378.205078,4392.179688,,,,,,,,,,,,,,,,,,,,,,,,,,,,,,,,,,,,,,,,,,,,,,,,,,,,,,,,,,,,,,,,,,,,,,
1720085422,19,0,4277.436035,4277.692383,4313.333496,4318.077148,4305.256348,4313.461426,4322.563965,4324.871582,4302.179688,4359.615234,4442.94873,4444.615234,4363.974121,4363.461426,,,,,,,,,,,,,,,,,,,,,,,,,,,,,,,,,,,,,,,,,,,,,,,,,,,,,,,,,,,,,,,,,,,,,,
1720085422,20,0,4275.384766,4277.692383,4311.025879,4312.179688,4306.666504,4317.436035,4330.128418,4327.179688,4294.358887,4363.077148,4440,4446.666504,4371.538574,4364.871582,,,,,,,,,,,,,,,,,,,,,,,,,,,,,,,,,,,,,,,,,,,,,,,,,,,,,,,,,,,,,,,,,,,,,,
1720085422,21,0,4289.358887,4282.820313,4322.820313,4327.307617,4301.153809,4314.230957,4336.282227,4339.230957,4294.230957,4365.128418,4432.05127,4470,4382.94873,4393.846191,,,,,,,,,,,,,,,,,,,,,,,,,,,,,,,,,,,,,,,,,,,,,,,,,,,,,,,,,,,,,,,,,,,,,,
1720085422,22,0,4295.769043,4284.102539,4329.743652,4337.563965,4293.461426,4308.461426,4337.563965,4347.05127,4291.922852,4346.025879,4429.871582,4479.871582,4375.256348,4396.922852,,,,,,,,,,,,,,,,,,,,,,,,,,,,,,,,,,,,,,,,,,,,,,,,,,,,,,,,,,,,,,,,,,,,,,
1720085422,23,0,4297.307617,4291.538574,4335,4342.563965,4291.922852,4308.461426,4336.538574,4348.589844,4287.692383,4341.922852,4433.717773,4474.615234,4370.897461,4389.871582,,,,,,,,,,,,,,,,,,,,,,,,,,,,,,,,,,,,,,,,,,,,,,,,,,,,,,,,,,,,,,,,,,,,,,
1720085422,24,0,4311.538574,4311.282227,4349.743652,4357.563965,4304.615234,4310.128418,4330.641113,4346.025879,4290.384766,4355.641113,4436.666504,4479.743652,4385.641113,4407.179688,,,,,,,,,,,,,,,,,,,,,,,,,,,,,,,,,,,,,,,,,,,,,,,,,,,,,,,,,,,,,,,,,,,,,,
1720085422,25,0,4317.307617,4315.512695,4348.974121,4361.666504,4311.666504,4299.615234,4311.538574,4334.615234,4290.769043,4348.589844,4448.461426,4483.461426,4389.230957,4413.974121,,,,,,,,,,,,,,,,,,,,,,,,,,,,,,,,,,,,,,,,,,,,,,,,,,,,,,,,,,,,,,,,,,,,,,
1720085422,26,0,4308.205078,4306.794922,4329.871582,4349.358887,4301.153809,4280.897461,4291.538574,4324.615234,4289.358887,4342.820313,4471.282227,4478.205078,4385,4405.128418,6.327456,6.156535,4.809464,1.182507,0.897298,1.790449,4.184037,2.827756,0.69225,0.648728,9.299133,6.105839,6.02188,2.266872,0.688006,4.45104,2.722766,2.614932,1.462783,0.92191,1.44742,0.691991,2.954451,0.356575,0.343708,2.77254,8.24289,9.305092,0.449542,0.12657,3.325728,4.309323,4.543289,0.641517,0.287371,1.794916,4.676661,5.153072,0.782546,0.455953,3.282374,4.545393,2.399145,1.20979,0.559989,2.468725,5.926377,2.098494,1.736737,1.159953,6.077416,5.622004,3.746822,0.933593,1.857099,9.442186,4.920584,6.623348,2.05678,1.870576,5.22443,5.867665,2.667812,1.282242,0.90985,9.454269,4.613386,4.885657,2.769313,2.341571
1720085422,27,0,4304.743652,4307.563965,4325.256348,4338.846191,4300.384766,4266.282227,4284.743652,4328.461426,4294.871582,4361.794922,4480.128418,4481.282227,4397.563965,4411.922852,,,,,,,,,,,,,,,,,,,,,,,,,,,,,,,,,,,,,,,,,,,,,,,,,,,,,,,,,,,,,,,,,,,,,,
1720085422,28,0,4297.94873,4306.410156,4326.922852,4336.282227,4312.179688,4258.589844,4279.487305,4331.922852,4297.563965,4365.384766,4464.230957,4478.589844,4397.563965,4406.922852,,,,,,,,,,,,,,,,,,,,,,,,,,,,,,,,,,,,,,,,,,,,,,,,,,,,,,,,,,,,,,,,,,,,,,
1720085422,29,0,4278.717773,4296.922852,4316.410156,4336.922852,4311.282227,4262.307617,4275,4324.615234,4290.769043,4343.974121,4448.205078,4463.205078,4376.666504,4379.871582,,,,,,,,,,,,,,,,,,,,,,,,,,,,,,,,,,,,,,,,,,,,,,,,,,,,,,,,,,,,,,,,,,,,,,
1720085422,30,0,4275.384766,4290.641113,4308.461426,4332.820313,4308.333496,4281.666504,4285.256348,4321.153809,4282.307617,4331.410156,4456.538574,4457.820313,4374.487305,4377.179688,,,,,,,,,,,,,,,,,,,,,,,,,,,,,,,,,,,,,,,,,,,,,,,,,,,,,,,,,,,,,,,,,,,,,,
1720085422,31,0,4282.436035,4285.128418,4312.692383,4325.897461,4320.641113,4300.512695,4305.384766,4330.897461,4279.743652,4329.743652,4468.205078,4464.230957,4390.769043,4392.436035,,,,,,,,,,,,,,,,,,,,,,,,,,,,,,,,,,,,,,,,,,,,,,,,,,,,,,,,,,,,,,,,,,,,,,
1720085422,32,0,4269.102539,4274.871582,4309.230957,4320.384766,4322.05127,4308.717773,4313.589844,4339.615234,4277.563965,4317.307617,4461.282227,4464.230957,4383.589844,4381.538574,,,,,,,,,,,,,,,,,,,,,,,,,,,,,,,,,,,,,,,,,,,,,,,,,,,,,,,,,,,,,,,,,,,,,,
1720085423,33,0,4261.282227,4277.436035,4306.538574,4327.820313,4308.461426,4317.563965,4316.153809,4346.025879,4276.922852,4308.589844,4461.025879,4466.410156,4363.974121,4368.461426,,,,,,,,,,,,,,,,,,,,,,,,,,,,,,,,,,,,,,,,,,,,,,,,,,,,,,,,,,,,,,,,,,,,,,
1720085423,34,0,4275,4287.05127,4318.974121,4339.743652,4307.563965,4322.94873,4315.897461,4354.102539,4281.282227,4317.179688,4461.922852,4468.717773,4357.307617,4371.410156,,,,,,,,,,,,,,,,,,,,,,,,,,,,,,,,,,,,,,,,,,,,,,,,,,,,,,,,,,,,,,,,,,,,,,
1720085423,35,0,4268.846191,4282.820313,4315.641113,4332.436035,4311.282227,4307.820313,4294.102539,4347.05127,4281.025879,4319.615234,4431.410156,4448.974121,4345.256348,4357.692383,,,,,,,,,,,,,,,,,,,,,,,,,,,,,,,,,,,,,,,,,,,,,,,,,,,,,,,,,,,,,,,,,,,,,,
1720085423,36,0,4247.307617,4275.897461,4295.256348,4320.384766,4301.794922,4284.358887,4255.897461,4329.743652,4278.846191,4311.282227,4411.282227,4430.128418,4333.205078,4343.333496,,,,,,,,,,,,,,,,,,,,,,,,,,,,,,,,,,,,,,,,,,,,,,,,,,,,,,,,,,,,,,,,,,,,,,
1720085423,37,0,4249.230957,4277.94873,4295.641113,4329.871582,4294.871582,4276.153809,4233.974121,4324.615234,4288.974121,4317.436035,4440.512695,4441.666504,4342.563965,4355.256348,,,,,,,,,,,,,,,,,,,,,,,,,,,,,,,,,,,,,,,,,,,,,,,,,,,,,,,,,,,,,,,,,,,,,,
1720085423,38,0,4259.871582,4282.563965,4312.563965,4340.769043,4297.05127,4277.820313,4229.743652,4324.102539,4296.282227,4330.641113,4467.05127,4462.436035,4356.538574,4372.307617,,,,,,,,,,,,,,,,,,,,,,,,,,,,,,,,,,,,,,,,,,,,,,,,,,,,,,,,,,,,,,,,,,,,,,
1720085423,39,0,4259.615234,4277.820313,4313.205078,4327.563965,4296.153809,4278.333496,4219.358887,4310.384766,4281.025879,4322.692383,4461.666504,4462.563965,4352.179688,4374.615234,,,,,,,,,,,,,,,,,,,,,,,,,,,,,,,,,,,,,,,,,,,,,,,,,,,,,,,,,,,,,,,,,,,,,,
1720085423,40,0,4261.410156,4273.589844,4308.974121,4327.05127,4297.563965,4278.974121,4213.205078,4303.077148,4274.871582,4311.794922,4461.666504,4459.871582,4348.589844,4373.077148,,,,,,,,,,,,,,,,,,,,,,,,,,,,,,,,,,,,,,,,,,,,,,,,,,,,,,,,,,,,,,,,,,,,,,
1720085423,41,0,4258.205078,4277.692383,4313.205078,4340.897461,4301.922852,4273.077148,4221.922852,4315.384766,4288.077148,4322.05127,4457.563965,4469.871582,4353.461426,4375.641113,,,,,,,,,,,,,,,,,,,,,,,,,,,,,,,,,,,,,,,,,,,,,,,,,,,,,,,,,,,,,,,,,,,,,,
1720085423,42,0,4245,4278.333496,4310.512695,4338.974121,4300,4276.538574,4231.153809,4329.102539,4288.461426,4333.717773,4441.282227,4471.794922,4352.179688,4373.077148,6.004118,6.489843,4.364005,1.146468,0.944481,1.917506,4.719829,2.89482,0.668537,0.66216,8.434826,7.170972,5.046453,2.133934,0.737586,4.902972,3.021898,2.947961,1.516833,0.869625,1.307765,0.627951,2.639029,0.335917,0.325905,2.828028,7.62093,7.360111,0.498628,0.119971,3.441115,4.850608,4.174129,0.737911,0.273585,2.063897,5.517286,5.400748,0.871342,0.474229,2.393514,3.891173,2.543296,1.134776,0.549903,2.291602,5.328999,1.907818,1.592414,1.188769,5.752278,5.404748,2.913825,0.999407,1.866115,9.552796,5.076218,5.44686,2.111713,1.96956,5.230324,5.968189,2.193976,1.280181,0.939055,11.305518,5.200795,4.389467,3.176137,2.568932
1720085423,43,0,4229.743652,4266.153809,4293.846191,4326.538574,4295.641113,4301.794922,4235.128418,4332.05127,4279.615234,4316.794922,4436.282227,4453.205078,4335.641113,4356.282227,,,,,,,,,,,,,,,,,,,,,,,,,,,,,,,,,,,,,,,,,,,,,,,,,,,,,,,,,,,,,,,,,,,,,,
1720085423,44,0,4211.282227,4248.717773,4269.102539,4311.922852,4295.384766,4318.461426,4236.153809,4329.102539,4273.589844,4283.333496,4430.641113,4422.692383,4311.922852,4329.871582,,,,,,,,,,,,,,,,,,,,,,,,,,,,,,,,,,,,,,,,,,,,,,,,,,,,,,,,,,,,,,,,,,,,,,
1720085423,45,0,4201.666504,4245.641113,4257.05127,4299.871582,4296.794922,4310.256348,4232.179688,4327.307617,4266.282227,4272.563965,4423.974121,4406.666504,4306.666504,4318.589844,,,,,,,,,,,,,,,,,,,,,,,,,,,,,,,,,,,,,,,,,,,,,,,,,,,,,,,,,,,,,,,,,,,,,,
1720085423,46,0,4209.102539,4250.384766,4259.871582,4296.922852,4296.794922,4300.897461,4218.717773,4319.358887,4259.743652,4278.589844,4419.871582,4406.282227,4312.436035,4320.769043,,,,,,,,,,,,,,,,,,,,,,,,,,,,,,,,,,,,,,,,,,,,,,,,,,,,,,,,,,,,,,,,,,,,,,
1720085423,47,0,4212.307617,4245.897461,4260.384766,4299.230957,4291.410156,4290.512695,4203.333496,4298.589844,4254.358887,4276.922852,4400.897461,4398.077148,4307.05127,4314.230957,,,,,,,,,,,,,,,,,,,,,,,,,,,,,,,,,,,,,,,,,,,,,,,,,,,,,,,,,,,,,,,,,,,,,,
1720085423,48,0,4220.256348,4248.333496,4269.487305,4300.512695,4290.769043,4280.256348,4194.102539,4291.153809,4261.538574,4285.512695,4395.128418,4398.077148,4314.230957,4313.589844,,,,,,,,,,,,,,,,,,,,,,,,,,,,,,,,,,,,,,,,,,,,,,,,,,,,,,,,,,,,,,,,,,,,,,
1720085423,49,0,4233.333496,4261.922852,4281.794922,4303.589844,4295.256348,4275.897461,4190.769043,4303.333496,4277.05127,4300.897461,4418.077148,4413.333496,4332.820313,4326.410156,,,,,,,,,,,,,,,,,,,,,,,,,,,,,,,,,,,,,,,,,,,,,,,,,,,,,,,,,,,,,,,,,,,,,,
1720085423,50,0,4218.333496,4252.307617,4267.692383,4293.461426,4285.512695,4267.692383,4180.897461,4295.641113,4269.487305,4284.871582,4414.487305,4403.589844,4319.102539,4315.641113,,,,,,,,,,,,,,,,,,,,,,,,,,,,,,,,,,,,,,,,,,,,,,,,,,,,,,,,,,,,,,,,,,,,,,
1720085423,51,0,4203.717773,4237.94873,4254.358887,4280.384766,4276.153809,4265.897461,4178.589844,4282.820313,4258.974121,4271.153809,4397.94873,4389.487305,4300.512695,4298.717773,,,,,,,,,,,,,,,,,,,,,,,,,,,,,,,,,,,,,,,,,,,,,,,,,,,,,,,,,,,,,,,,,,,,,,
1720085423,52,0,4217.563965,4253.205078,4265.769043,4283.333496,4287.179688,4275,4190.897461,4299.743652,4276.153809,4288.461426,4410.641113,4409.743652,4314.743652,4315.128418,,,,,,,,,,,,,,,,,,,,,,,,,,,,,,,,,,,,,,,,,,,,,,,,,,,,,,,,,,,,,,,,,,,,,,
1720085423,53,0,4222.436035,4265.769043,4273.589844,4288.589844,4296.410156,4275.769043,4196.794922,4316.666504,4285.769043,4288.846191,4422.307617,4425.256348,4325,4327.692383,,,,,,,,,,,,,,,,,,,,,,,,,,,,,,,,,,,,,,,,,,,,,,,,,,,,,,,,,,,,,,,,,,,,,,
1720085423,54,0,4222.94873,4266.282227,4279.743652,4301.666504,4291.538574,4271.922852,4202.94873,4320.641113,4281.153809,4280.641113,4437.05127,4430.769043,4328.205078,4331.922852,,,,,,,,,,,,,,,,,,,,,,,,,,,,,,,,,,,,,,,,,,,,,,,,,,,,,,,,,,,,,,,,,,,,,,
1720085423,55,0,4242.820313,4279.230957,4297.820313,4322.307617,4296.794922,4277.820313,4218.333496,4335.897461,4295.512695,4303.205078,4461.282227,4456.538574,4350.897461,4355,,,,,,,,,,,,,,,,,,,,,,,,,,,,,,,,,,,,,,,,,,,,,,,,,,,,,,,,,,,,,,,,,,,,,,
1720085423,56,0,4249.743652,4286.153809,4301.282227,4333.333496,4310.769043,4286.282227,4226.794922,4349.743652,4316.538574,4323.461426,4464.615234,4474.102539,4368.461426,4365.641113,,,,,,,,,,,,,,,,,,,,,,,,,,,,,,,,,,,,,,,,,,,,,,,,,,,,,,,,,,,,,,,,,,,,,,
1720085423,57,0,4220.128418,4264.102539,4277.05127,4322.820313,4304.487305,4293.589844,4216.666504,4335.256348,4312.436035,4314.487305,4440.384766,4452.05127,4347.179688,4344.743652,,,,,,,,,,,,,,,,,,,,,,,,,,,,,,,,,,,,,,,,,,,,,,,,,,,,,,,,,,,,,,,,,,,,,,
1720085423,58,0,4197.307617,4242.820313,4257.820313,4299.871582,4294.358887,4303.846191,4205,4315,4297.307617,4302.563965,4424.358887,4421.538574,4317.820313,4327.820313,5.463861,6.422976,4.095555,1.223551,0.929667,2.067021,5.032854,3.096118,0.679102,0.650452,7.63047,7.936497,4.311961,2.07316,0.760146,5.15251,3.30956,3.368867,1.483011,0.801978,1.179979,0.605799,2.135712,0.324732,0.307795,2.624915,6.704515,5.235121,0.550203,0.1183,3.57191,5.770718,4.11252,0.821363,0.269275,2.510728,7.292804,5.737151,0.946122,0.466752,1.758869,3.30083,3.274142,1.091168,0.538513,2.295391,4.399598,1.745335,1.426115,1.146647,5.644529,4.922422,2.207264,1.21652,1.830814,9.744263,5.274302,4.246185,2.085047,1.910849,4.944389,5.530165,1.883179,1.290005,0.921251,13.14802,5.559147,4.195187,3.405416,2.535352
1720085423,59,0,4212.05127,4249.358887,4262.692383,4293.974121,4303.589844,4310.769043,4205.769043,4314.230957,4299.358887,4299.743652,4434.743652,4421.282227,4318.974121,4333.846191,,,,,,,,,,,,,,,,,,,,,,,,,,,,,,,,,,,,,,,,,,,,,,,,,,,,,,,,,,,,,,,,,,,,,,
1720085423,60,0,4225.512695,4254.871582,4264.871582,4297.563965,4305.256348,4311.922852,4202.307617,4315.384766,4307.563965,4294.487305,4430.641113,4427.05127,4326.922852,4334.358887,,,,,,,,,,,,,,,,,,,,,,,,,,,,,,,,,,,,,,,,,,,,,,,,,,,,,,,,,,,,,,,,,,,,,,
1720085423,61,0,4224.871582,4252.692383,4263.589844,4292.436035,4296.922852,4299.487305,4193.589844,4310.897461,4305.256348,4296.025879,4407.692383,4421.025879,4327.94873,4333.205078,,,,,,,,,,,,,,,,,,,,,,,,,,,,,,,,,,,,,,,,,,,,,,,,,,,,,,,,,,,,,,,,,,,,,,
1720085423,62,0,4245.128418,4264.230957,4279.230957,4292.436035,4299.743652,4282.820313,4191.922852,4312.05127,4298.205078,4301.794922,4424.230957,4428.205078,4342.820313,4346.153809,,,,,,,,,,,,,,,,,,,,,,,,,,,,,,,,,,,,,,,,,,,,,,,,,,,,,,,,,,,,,,,,,,,,,,
1720085423,63,0,4274.615234,4283.974121,4299.871582,4312.307617,4299.871582,4281.538574,4202.436035,4325.769043,4303.333496,4307.94873,4472.05127,4454.615234,4366.666504,4365.128418,,,,,,,,,,,,,,,,,,,,,,,,,,,,,,,,,,,,,,,,,,,,,,,,,,,,,,,,,,,,,,,,,,,,,,
1720085423,64,0,4272.94873,4284.743652,4305,4313.717773,4288.846191,4282.820313,4210.256348,4335.897461,4306.922852,4316.666504,4472.94873,4466.922852,4373.974121,4371.666504,,,,,,,,,,,,,,,,,,,,,,,,,,,,,,,,,,,,,,,,,,,,,,,,,,,,,,,,,,,,,,,,,,,,,,
1720085423,65,0,4261.666504,4274.743652,4304.487305,4298.974121,4288.589844,4278.846191,4211.794922,4333.333496,4300.128418,4327.179688,4449.743652,4463.846191,4370.769043,4363.333496,,,,,,,,,,,,,,,,,,,,,,,,,,,,,,,,,,,,,,,,,,,,,,,,,,,,,,,,,,,,,,,,,,,,,,
1720085423,66,0,4266.794922,4276.282227,4303.846191,4299.358887,4296.410156,4288.333496,4217.179688,4333.589844,4300.897461,4331.153809,4451.025879,4463.717773,4367.436035,4356.282227,,,,,,,,,,,,,,,,,,,,,,,,,,,,,,,,,,,,,,,,,,,,,,,,,,,,,,,,,,,,,,,,,,,,,,
1720085423,67,0,4270.384766,4280.128418,4298.717773,4300.641113,4296.794922,4307.563965,4224.358887,4342.94873,4310.641113,4323.974121,4448.846191,4461.410156,4363.205078,4355.384766,,,,,,,,,,,,,,,,,,,,,,,,,,,,,,,,,,,,,,,,,,,,,,,,,,,,,,,,,,,,,,,,,,,,,,
1720085423,68,0,4265.256348,4273.846191,4289.871582,4295.256348,4294.615234,4310.897461,4221.410156,4343.717773,4314.230957,4310.641113,4445.769043,4453.846191,4357.94873,4351.922852,,,,,,,,,,,,,,,,,,,,,,,,,,,,,,,,,,,,,,,,,,,,,,,,,,,,,,,,,,,,,,,,,,,,,,
1720085423,69,0,4253.846191,4258.717773,4278.974121,4289.615234,4291.025879,4306.282227,4206.538574,4326.794922,4306.410156,4295.128418,4453.205078,4440.512695,4346.538574,4340,,,,,,,,,,,,,,,,,,,,,,,,,,,,,,,,,,,,,,,,,,,,,,,,,,,,,,,,,,,,,,,,,,,,,,
1720085423,70,0,4254.487305,4250.128418,4277.820313,4285.128418,4292.179688,4307.436035,4194.487305,4317.05127,4301.282227,4290.128418,4441.794922,4430.256348,4340.512695,4333.461426,,,,,,,,,,,,,,,,,,,,,,,,,,,,,,,,,,,,,,,,,,,,,,,,,,,,,,,,,,,,,,,,,,,,,,
1720085423,71,0,4266.282227,4248.717773,4284.102539,4285.128418,4293.205078,4303.077148,4184.871582,4318.077148,4300.512695,4293.589844,4421.410156,4429.871582,4348.205078,4337.820313,,,,,,,,,,,,,,,,,,,,,,,,,,,,,,,,,,,,,,,,,,,,,,,,,,,,,,,,,,,,,,,,,,,,,,
1720085423,72,0,4273.974121,4250.128418,4291.025879,4298.589844,4288.717773,4294.743652,4175.128418,4318.846191,4304.871582,4298.077148,4443.461426,4441.922852,4361.153809,4353.589844,,,,,,,,,,,,,,,,,,,,,,,,,,,,,,,,,,,,,,,,,,,,,,,,,,,,,,,,,,,,,,,,,,,,,,
1720085423,73,0,4288.461426,4261.922852,4304.230957,4318.077148,4292.692383,4293.717773,4180.769043,4330.897461,4317.05127,4312.563965,4485.897461,4463.077148,4379.615234,4377.436035,,,,,,,,,,,,,,,,,,,,,,,,,,,,,,,,,,,,,,,,,,,,,,,,,,,,,,,,,,,,,,,,,,,,,,
1720085423,74,0,4297.94873,4266.153809,4307.307617,4321.282227,4295.384766,4295.769043,4188.717773,4343.205078,4319.743652,4324.743652,4479.230957,4470.641113,4387.563965,4381.153809,5.005515,6.015267,4.010725,1.372111,0.860764,2.223664,5.133977,3.383991,0.731032,0.610188,7.006653,8.170847,4.016106,2.004534,0.746502,5.232344,3.605832,3.908729,1.398918,0.724895,1.070151,0.663463,1.566752,0.314478,0.288486,2.216569,6.147124,3.451506,0.592135,0.117557,3.714461,7.381375,4.348667,0.888757,0.270331,3.010259,10.122132,6.244056,1.023595,0.4304,1.484447,2.884209,4.476115,1.057577,0.514002,2.554477,3.413931,1.711475,1.261542,1.040611,5.663321,4.411777,1.790607,1.565239,1.737342,9.955435,5.58972,3.429782,2.046049,1.722777,4.579776,4.749127,1.771468,1.302055,0.867633,14.639986,5.646121,4.405841,3.425211,2.269164
1720085423,75,0,4285.897461,4249.487305,4294.230957,4313.589844,4283.589844,4292.563965,4177.692383,4336.025879,4310.897461,4313.077148,4448.589844,4456.538574,4371.282227,4359.743652,,,,,,,,,,,,,,,,,,,,,,,,,,,,,,,,,,,,,,,,,,,,,,,,,,,,,,,,,,,,,,,,,,,,,,
1720085423,76,0,4275.769043,4236.025879,4289.871582,4305.897461,4276.025879,4288.461426,4164.487305,4324.743652,4305.641113,4292.563965,4452.563965,4444.487305,4357.179688,4344.743652,,,,,,,,,,,,,,,,,,,,,,,,,,,,,,,,,,,,,,,,,,,,,,,,,,,,,,,,,,,,,,,,,,,,,,
1720085423,77,0,4283.077148,4241.794922,4299.230957,4310.769043,4282.436035,4290.769043,4167.05127,4326.282227,4313.717773,4296.666504,4456.410156,4446.666504,4358.077148,4348.846191,,,,,,,,,,,,,,,,,,,,,,,,,,,,,,,,,,,,,,,,,,,,,,,,,,,,,,,,,,,,,,,,,,,,,,
1720085423,78,0,4282.563965,4240.512695,4295.256348,4316.410156,4280.641113,4298.077148,4165.641113,4323.077148,4308.717773,4300.128418,4428.333496,4441.410156,4349.487305,4347.820313,,,,,,,,,,,,,,,,,,,,,,,,,,,,,,,,,,,,,,,,,,,,,,,,,,,,,,,,,,,,,,,,,,,,,,
1720085423,79,0,4273.589844,4230.384766,4286.025879,4310.128418,4277.307617,4302.692383,4154.358887,4306.666504,4282.94873,4278.333496,4413.077148,4434.487305,4338.077148,4341.153809,,,,,,,,,,,,,,,,,,,,,,,,,,,,,,,,,,,,,,,,,,,,,,,,,,,,,,,,,,,,,,,,,,,,,,
1720085423,80,0,4280.128418,4239.615234,4298.077148,4313.589844,4288.333496,4305.641113,4159.743652,4307.05127,4284.102539,4274.230957,4428.974121,4453.717773,4344.102539,4356.794922,,,,,,,,,,,,,,,,,,,,,,,,,,,,,,,,,,,,,,,,,,,,,,,,,,,,,,,,,,,,,,,,,,,,,,
1720085423,81,0,4293.717773,4254.615234,4313.846191,4332.436035,4297.692383,4314.487305,4183.846191,4333.589844,4321.282227,4300.897461,4445.512695,4481.794922,4355.769043,4376.153809,,,,,,,,,,,,,,,,,,,,,,,,,,,,,,,,,,,,,,,,,,,,,,,,,,,,,,,,,,,,,,,,,,,,,,
1720085423,82,0,4294.743652,4252.436035,4311.666504,4344.487305,4294.743652,4320,4190,4348.717773,4335,4302.05127,4452.307617,4480.897461,4356.538574,4365,,,,,,,,,,,,,,,,,,,,,,,,,,,,,,,,,,,,,,,,,,,,,,,,,,,,,,,,,,,,,,,,,,,,,,
1720085423,83,0,4291.538574,4252.05127,4306.794922,4338.333496,4286.794922,4308.974121,4174.871582,4336.153809,4310.256348,4278.846191,4443.846191,4466.794922,4352.94873,4351.153809,,,,,,,,,,,,,,,,,,,,,,,,,,,,,,,,,,,,,,,,,,,,,,,,,,,,,,,,,,,,,,,,,,,,,,
1720085423,84,0,4297.563965,4264.230957,4313.205078,4331.666504,4281.666504,4293.974121,4169.615234,4326.410156,4300.769043,4281.538574,4432.94873,4472.563965,4352.692383,4365.769043,,,,,,,,,,,,,,,,,,,,,,,,,,,,,,,,,,,,,,,,,,,,,,,,,,,,,,,,,,,,,,,,,,,,,,
1720085423,85,0,4291.153809,4260.128418,4308.589844,4327.94873,4275.897461,4291.025879,4169.871582,4324.743652,4309.230957,4289.743652,4430.256348,4474.487305,4343.717773,4367.94873,,,,,,,,,,,,,,,,,,,,,,,,,,,,,,,,,,,,,,,,,,,,,,,,,,,,,,,,,,,,,,,,,,,,,,
1720085423,86,0,4290.256348,4261.538574,4306.922852,4334.230957,4281.922852,4296.025879,4172.692383,4327.692383,4319.743652,4292.436035,4436.282227,4473.974121,4345.128418,4360.128418,,,,,,,,,,,,,,,,,,,,,,,,,,,,,,,,,,,,,,,,,,,,,,,,,,,,,,,,,,,,,,,,,,,,,,
1720085423,87,0,4334.230957,4293.846191,4340.128418,4362.94873,4302.692383,4298.205078,4193.205078,4348.589844,4342.436035,4320.641113,4466.025879,4505.384766,4385.128418,4392.563965,,,,,,,,,,,,,,,,,,,,,,,,,,,,,,,,,,,,,,,,,,,,,,,,,,,,,,,,,,,,,,,,,,,,,,
1720085423,88,0,4357.94873,4300.384766,4362.436035,4364.871582,4304.871582,4293.846191,4200.256348,4354.102539,4350.256348,4332.94873,4479.871582,4520.256348,4403.717773,4415.897461,,,,,,,,,,,,,,,,,,,,,,,,,,,,,,,,,,,,,,,,,,,,,,,,,,,,,,,,,,,,,,,,,,,,,,
1720085423,89,0,4334.102539,4274.230957,4348.077148,4339.358887,4293.205078,4296.410156,4184.871582,4333.846191,4336.282227,4313.333496,4461.922852,4495.641113,4373.717773,4395.128418,,,,,,,,,,,,,,,,,,,,,,,,,,,,,,,,,,,,,,,,,,,,,,,,,,,,,,,,,,,,,,,,,,,,,,
1720085423,90,0,4339.358887,4288.077148,4352.179688,4347.820313,4311.666504,4312.05127,4193.974121,4331.282227,4336.922852,4319.102539,4466.794922,4501.922852,4373.589844,4403.077148,4.4565,5.419228,4.008223,1.545174,0.763669,2.409162,5.080812,3.648784,0.822111,0.549684,6.524885,7.835188,4.132274,1.920575,0.705202,5.186939,3.908265,4.508648,1.325013,0.649551,1.007505,0.815471,1.058938,0.300954,0.269859,1.734143,6.456635,2.295666,0.614088,0.118688,3.759964,9.802416,4.75578,0.941408,0.273908,3.461459,13.550443,6.874366,1.125986,0.377094,1.618464,2.641877,5.788157,1.037542,0.476326,3.039704,2.6743,1.852309,1.15793,0.906541,5.89921,4.125692,1.693493,2.038741,1.589609,10.049498,6.107235,3.234836,2.091101,1.474203,4.399479,3.921682,1.811066,1.352586,0.803086,15.450982,5.514507,4.883831,3.283389,1.873664
1720085423,91,0,4348.205078,4307.820313,4358.717773,4358.589844,4339.615234,4316.410156,4205.512695,4325.897461,4336.538574,4326.153809,4476.025879,4506.153809,4384.230957,4420.512695,,,,,,,,,,,,,,,,,,,,,,,,,,,,,,,,,,,,,,,,,,,,,,,,,,,,,,,,,,,,,,,,,,,,,,
1720085423,92,0,4306.922852,4271.410156,4322.179688,4325.897461,4335.641113,4309.871582,4185.769043,4300.769043,4315.897461,4288.589844,4442.820313,4454.230957,4349.871582,4385.769043,,,,,,,,,,,,,,,,,,,,,,,,,,,,,,,,,,,,,,,,,,,,,,,,,,,,,,,,,,,,,,,,,,,,,,
1720085423,93,0,4298.077148,4259.230957,4308.077148,4319.102539,4338.461426,4323.077148,4188.205078,4304.615234,4312.179688,4269.871582,4427.563965,4438.333496,4344.743652,4370.897461,,,,,,,,,,,,,,,,,,,,,,,,,,,,,,,,,,,,,,,,,,,,,,,,,,,,,,,,,,,,,,,,,,,,,,
1720085423,94,0,4331.922852,4288.205078,4328.589844,4345.769043,4352.307617,4335.384766,4208.461426,4322.692383,4317.692383,4280.641113,4452.563965,4467.307617,4372.307617,4396.410156,,,,,,,,,,,,,,,,,,,,,,,,,,,,,,,,,,,,,,,,,,,,,,,,,,,,,,,,,,,,,,,,,,,,,,
1720085423,95,0,4316.282227,4269.230957,4310.769043,4323.205078,4332.436035,4310.512695,4191.153809,4305.769043,4302.05127,4266.410156,4433.589844,4444.743652,4353.077148,4379.871582,,,,,,,,,,,,,,,,,,,,,,,,,,,,,,,,,,,,,,,,,,,,,,,,,,,,,,,,,,,,,,,,,,,,,,
1720085423,96,0,4302.436035,4256.538574,4305.128418,4317.05127,4316.666504,4290.384766,4178.974121,4308.333496,4312.94873,4273.077148,4423.974121,4447.05127,4358.205078,4376.794922,,,,,,,,,,,,,,,,,,,,,,,,,,,,,,,,,,,,,,,,,,,,,,,,,,,,,,,,,,,,,,,,,,,,,,
1720085423,97,0,4332.563965,4290.641113,4338.717773,4355.641113,4328.333496,4291.025879,4187.94873,4332.820313,4335.512695,4300.769043,4461.794922,4503.461426,4400.512695,4415.256348,,,,,,,,,,,,,,,,,,,,,,,,,,,,,,,,,,,,,,,,,,,,,,,,,,,,,,,,,,,,,,,,,,,,,,
1720085423,98,0,4338.333496,4293.461426,4339.358887,4354.358887,4329.358887,4280.769043,4176.410156,4317.820313,4314.871582,4286.538574,4465.641113,4505.384766,4388.205078,4410.256348,,,,,,,,,,,,,,,,,,,,,,,,,,,,,,,,,,,,,,,,,,,,,,,,,,,,,,,,,,,,,,,,,,,,,,
1720085423,99,0,4340.897461,4290.897461,4336.282227,4351.666504,4330.384766,4278.717773,4177.563965,4307.692383,4306.538574,4277.179688,4460.897461,4495.897461,4378.461426,4403.461426,,,,,,,,,,,,,,,,,,,,,,,,,,,,,,,,,,,,,,,,,,,,,,,,,,,,,,,,,,,,,,,,,,,,,,
1720085423,100,0,4366.025879,4324.615234,4365.897461,4385.512695,4345.641113,4293.461426,4204.230957,4331.410156,4334.230957,4298.589844,4485.384766,4531.666504,4413.846191,4440.384766,,,,,,,,,,,,,,,,,,,,,,,,,,,,,,,,,,,,,,,,,,,,,,,,,,,,,,,,,,,,,,,,,,,,,,
1720085423,101,0,4362.94873,4328.974121,4370,4389.487305,4346.153809,4298.846191,4208.333496,4335.128418,4338.461426,4298.461426,4483.717773,4534.102539,4416.153809,4442.05127,,,,,,,,,,,,,,,,,,,,,,,,,,,,,,,,,,,,,,,,,,,,,,,,,,,,,,,,,,,,,,,,,,,,,,
1720085423,102,0,4340.641113,4303.717773,4349.102539,4365.384766,4341.025879,4302.05127,4198.205078,4317.05127,4323.461426,4285.769043,4462.94873,4501.538574,4388.717773,4405.897461,,,,,,,,,,,,,,,,,,,,,,,,,,,,,,,,,,,,,,,,,,,,,,,,,,,,,,,,,,,,,,,,,,,,,,
1720085423,103,0,4332.436035,4294.743652,4341.410156,4359.871582,4342.436035,4311.538574,4200,4312.05127,4328.589844,4286.666504,4452.692383,4482.94873,4369.871582,4383.461426,,,,,,,,,,,,,,,,,,,,,,,,,,,,,,,,,,,,,,,,,,,,,,,,,,,,,,,,,,,,,,,,,,,,,,
1720085423,104,0,4327.05127,4292.307617,4337.179688,4362.179688,4337.94873,4319.230957,4204.487305,4313.333496,4328.461426,4277.179688,4431.922852,4467.179688,4350,4361.666504,,,,,,,,,,,,,,,,,,,,,,,,,,,,,,,,,,,,,,,,,,,,,,,,,,,,,,,,,,,,,,,,,,,,,,
1720085423,105,0,4341.794922,4299.615234,4346.794922,4368.077148,4340.384766,4325.641113,4215.384766,4322.179688,4319.871582,4276.153809,4428.974121,4474.487305,4350.897461,4362.820313,,,,,,,,,,,,,,,,,,,,,,,,,,,,,,,,,,,,,,,,,,,,,,,,,,,,,,,,,,,,,,,,,,,,,,
1720085423,106,0,4357.692383,4304.743652,4356.538574,4362.94873,4339.358887,4315,4216.666504,4329.230957,4318.974121,4280.128418,4432.436035,4488.333496,4359.487305,4386.282227,4.02626,4.883754,4.008826,1.705965,0.66867,2.647165,4.978694,3.793493,0.93998,0.48597,6.068883,7.107552,4.478276,1.862903,0.651006,5.109388,4.203122,5.046843,1.305712,0.585528,1.016773,1.040079,0.693314,0.287558,0.255423,1.344702,7.734685,1.786715,0.616804,0.125129,3.970672,12.744802,5.184395,0.970214,0.278646,3.710876,16.638544,7.497119,1.249992,0.327573,2.145328,2.508821,6.775073,1.045655,0.439366,3.817173,2.367647,2.166819,1.172907,0.787648,6.246703,4.223623,1.906687,2.575109,1.422767,9.934906,6.847221,3.653518,2.266978,1.238105,4.533322,3.348887,1.994344,1.475947,0.753001,15.487885,5.305052,5.38786,3.058664,1.473611
1720085423,107,0,4322.179688,4277.692383,4324.615234,4326.153809,4314.487305,4285.128418,4184.102539,4297.820313,4294.615234,4243.205078,4389.615234,4443.717773,4322.692383,4355,,,,,,,,,,,,,,,,,,,,,,,,,,,,,,,,,,,,,,,,,,,,,,,,,,,,,,,,,,,,,,,,,,,,,,
1720085423,108,0,4298.717773,4267.563965,4306.282227,4311.410156,4302.436035,4272.436035,4165.384766,4271.410156,4269.871582,4215.512695,4378.461426,4411.538574,4299.615234,4317.692383,,,,,,,,,,,,,,,,,,,,,,,,,,,,,,,,,,,,,,,,,,,,,,,,,,,,,,,,,,,,,,,,,,,,,,
1720085423,109,0,4339.743652,4305,4341.666504,4342.05127,4314.743652,4275,4181.153809,4286.538574,4284.871582,4246.282227,4423.846191,4446.025879,4334.102539,4352.94873,,,,,,,,,,,,,,,,,,,,,,,,,,,,,,,,,,,,,,,,,,,,,,,,,,,,,,,,,,,,,,,,,,,,,,
1720085423,110,0,4378.205078,4338.717773,4372.179688,4371.922852,4323.846191,4276.666504,4191.666504,4299.487305,4307.820313,4280.128418,4445.641113,4478.717773,4369.615234,4399.615234,,,,,,,,,,,,,,,,,,,,,,,,,,,,,,,,,,,,,,,,,,,,,,,,,,,,,,,,,,,,,,,,,,,,,,
1720085423,111,0,4365.256348,4334.102539,4359.230957,4364.743652,4322.692383,4276.666504,4184.487305,4289.743652,4308.333496,4276.922852,4439.230957,4471.410156,4371.410156,4393.589844,,,,,,,,,,,,,,,,,,,,,,,,,,,,,,,,,,,,,,,,,,,,,,,,,,,,,,,,,,,,,,,,,,,,,,
1720085423,112,0,4351.282227,4325.384766,4349.743652,4353.589844,4324.102539,4268.717773,4183.589844,4291.410156,4313.717773,4275.769043,4446.794922,4470,4371.922852,4386.153809,,,,,,,,,,,,,,,,,,,,,,,,,,,,,,,,,,,,,,,,,,,,,,,,,,,,,,,,,,,,,,,,,,,,,,
1720085423,113,0,4362.05127,4332.05127,4359.102539,4368.461426,4325.384766,4261.794922,4194.230957,4304.743652,4327.94873,4283.205078,4461.666504,4489.743652,4380.897461,4408.846191,,,,,,,,,,,,,,,,,,,,,,,,,,,,,,,,,,,,,,,,,,,,,,,,,,,,,,,,,,,,,,,,,,,,,,
1720085423,114,0,4349.102539,4323.589844,4343.589844,4362.05127,4318.974121,4271.794922,4200,4303.077148,4329.871582,4272.94873,4452.94873,4483.717773,4369.102539,4403.461426,,,,,,,,,,,,,,,,,,,,,,,,,,,,,,,,,,,,,,,,,,,,,,,,,,,,,,,,,,,,,,,,,,,,,,
1720085423,115,0,4321.153809,4304.102539,4318.205078,4340.641113,4316.025879,4290.641113,4200,4297.179688,4324.871582,4259.102539,4431.025879,4454.871582,4351.282227,4373.846191,,,,,,,,,,,,,,,,,,,,,,,,,,,,,,,,,,,,,,,,,,,,,,,,,,,,,,,,,,,,,,,,,,,,,,
1720085423,116,0,4327.179688,4311.025879,4322.05127,4352.563965,4327.179688,4303.589844,4203.846191,4304.102539,4321.794922,4255.512695,4438.333496,4452.05127,4360.128418,4380.897461,,,,,,,,,,,,,,,,,,,,,,,,,,,,,,,,,,,,,,,,,,,,,,,,,,,,,,,,,,,,,,,,,,,,,,
1720085423,117,0,4338.974121,4320.128418,4323.717773,4340.897461,4332.179688,4310.128418,4208.333496,4308.461426,4315.384766,4250.128418,4456.153809,4460.384766,4367.820313,4388.846191,,,,,,,,,,,,,,,,,,,,,,,,,,,,,,,,,,,,,,,,,,,,,,,,,,,,,,,,,,,,,,,,,,,,,,
1720085423,118,0,4317.05127,4298.974121,4301.922852,4280,4316.794922,4311.538574,4195.641113,4291.666504,4300.641113,4240.897461,4428.077148,4437.436035,4344.230957,4356.794922,,,,,,,,,,,,,,,,,,,,,,,,,,,,,,,,,,,,,,,,,,,,,,,,,,,,,,,,,,,,,,,,,,,,,,
1720085423,119,0,4318.333496,4304.743652,4313.205078,4272.05127,4317.94873,4309.743652,4186.922852,4281.025879,4295.256348,4249.615234,4400.512695,4428.461426,4338.333496,4352.307617,,,,,,,,,,,,,,,,,,,,,,,,,,,,,,,,,,,,,,,,,,,,,,,,,,,,,,,,,,,,,,,,,,,,,,
1720085423,120,0,4341.922852,4331.025879,4338.974121,4297.563965,4330,4301.538574,4190.128418,4281.153809,4294.102539,4254.743652,4401.794922,4435.641113,4350.512695,4368.846191,,,,,,,,,,,,,,,,,,,,,,,,,,,,,,,,,,,,,,,,,,,,,,,,,,,,,,,,,,,,,,,,,,,,,,
1720085423,121,0,4324.102539,4311.666504,4321.025879,4269.487305,4315.384766,4289.102539,4182.820313,4264.358887,4276.282227,4232.692383,4385.256348,4406.538574,4331.666504,4344.230957,,,,,,,,,,,,,,,,,,,,,,,,,,,,,,,,,,,,,,,,,,,,,,,,,,,,,,,,,,,,,,,,,,,,,,
1720085423,122,0,4312.820313,4296.025879,4313.846191,4260.897461,4309.102539,4292.05127,4192.563965,4267.307617,4276.666504,4235.641113,4393.717773,4403.717773,4327.820313,4333.461426,3.685325,4.626473,3.964077,1.834319,0.602811,3.023288,4.935455,3.765438,1.057168,0.441569,5.686674,6.312061,4.805745,1.864101,0.597246,5.048234,4.478146,5.371095,1.348163,0.541097,1.179092,1.283458,0.496945,0.278646,0.248524,1.130199,9.581038,1.73874,0.609343,0.140374,4.21773,15.462134,5.496265,0.967733,0.285175,3.746917,18.354757,7.887011,1.371807,0.300971,2.893245,2.42516,7.106078,1.087509,0.422378,4.611776,2.513552,2.606661,1.314627,0.714132,6.777033,4.737157,2.350346,3.057827,1.291072,9.810142,7.827036,4.436724,2.535639,1.064433,4.946651,3.264061,2.324239,1.664812,0.729795,14.927803,5.241652,5.702963,2.817471,1.164891
1720085423,123,0,4338.461426,4320.256348,4341.282227,4296.794922,4329.102539,4302.179688,4217.692383,4301.922852,4307.820313,4263.461426,4434.358887,4449.102539,4358.077148,4356.794922,,,,,,,,,,,,,,,,,,,,,,,,,,,,,,,,,,,,,,,,,,,,,,,,,,,,,,,,,,,,,,,,,,,,,,
1720085423,124,0,4334.230957,4317.436035,4335.128418,4287.692383,4320,4293.461426,4213.333496,4307.307617,4314.743652,4260.897461,4424.230957,4452.820313,4353.846191,4351.666504,,,,,,,,,,,,,,,,,,,,,,,,,,,,,,,,,,,,,,,,,,,,,,,,,,,,,,,,,,,,,,,,,,,,,,
1720085423,125,0,4304.102539,4294.230957,4303.589844,4256.153809,4291.538574,4285.256348,4202.307617,4296.282227,4305.256348,4247.692383,4406.153809,4425,4328.333496,4341.794922,,,,,,,,,,,,,,,,,,,,,,,,,,,,,,,,,,,,,,,,,,,,,,,,,,,,,,,,,,,,,,,,,,,,,,
1720085423,126,0,4306.666504,4306.794922,4308.846191,4269.230957,4301.666504,4303.333496,4221.666504,4314.871582,4325,4264.358887,4447.563965,4441.666504,4343.589844,4362.692383,,,,,,,,,,,,,,,,,,,,,,,,,,,,,,,,,,,,,,,,,,,,,,,,,,,,,,,,,,,,,,,,,,,,,,
1720085423,127,0,4311.922852,4313.461426,4314.230957,4273.589844,4311.666504,4314.743652,4225.769043,4317.307617,4328.717773,4269.871582,4444.358887,4452.692383,4351.922852,4355.897461,,,,,,,,,,,,,,,,,,,,,,,,,,,,,,,,,,,,,,,,,,,,,,,,,,,,,,,,,,,,,,,,,,,,,,
1720085423,0,0,4292.436035,4291.922852,4294.615234,4247.94873,4293.846191,4304.871582,4201.538574,4290.897461,4297.179688,4247.94873,4385.769043,4426.794922,4323.846191,4327.307617,,,,,,,,,,,,,,,,,,,,,,,,,,,,,,,,,,,,,,,,,,,,,,,,,,,,,,,,,,,,,,,,,,,,,,
1720085423,1,0,4283.333496,4285.769043,4295.256348,4247.05127,4289.743652,4305.128418,4195.128418,4287.436035,4289.358887,4237.179688,4388.974121,4427.436035,4312.692383,4334.615234,,,,,,,,,,,,,,,,,,,,,,,,,,,,,,,,,,,,,,,,,,,,,,,,,,,,,,,,,,,,,,,,,,,,,,
1720085423,2,0,4303.205078,4303.974121,4323.846191,4266.922852,4301.538574,4311.922852,4205.641113,4299.743652,4310.512695,4248.333496,4431.410156,4463.461426,4334.230957,4370.769043,,,,,,,,,,,,,,,,,,,,,,,,,,,,,,,,,,,,,,,,,,,,,,,,,,,,,,,,,,,,,,,,,,,,,,
1720085423,3,0,4327.563965,4310.897461,4337.692383,4268.333496,4301.410156,4303.717773,4201.153809,4296.025879,4307.563965,4258.333496,4432.692383,4479.358887,4347.436035,4391.538574,,,,,,,,,,,,,,,,,,,,,,,,,,,,,,,,,,,,,,,,,,,,,,,,,,,,,,,,,,,,,,,,,,,,,,
1720085423,4,0,4320.897461,4289.871582,4321.538574,4248.205078,4296.538574,4294.743652,4173.205078,4278.974121,4281.922852,4244.871582,4408.717773,4452.179688,4329.230957,4374.743652,,,,,,,,,,,,,,,,,,,,,,,,,,,,,,,,,,,,,,,,,,,,,,,,,,,,,,,,,,,,,,,,,,,,,,
1720085423,5,0,4308.846191,4282.436035,4313.461426,4243.333496,4303.461426,4295.384766,4153.717773,4271.153809,4278.461426,4228.846191,4409.615234,4434.102539,4315.256348,4355.256348,,,,,,,,,,,,,,,,,,,,,,,,,,,,,,,,,,,,,,,,,,,,,,,,,,,,,,,,,,,,,,,,,,,,,,
1720085423,6,0,4323.846191,4303.077148,4321.538574,4260,4310.128418,4291.282227,4160.256348,4284.230957,4296.282227,4235.769043,4436.282227,4453.077148,4324.743652,4362.436035,,,,,,,,,,,,,,,,,,,,,,,,,,,,,,,,,,,,,,,,,,,,,,,,,,,,,,,,,,,,,,,,,,,,,,
1720085423,7,0,4327.05127,4306.025879,4316.025879,4266.538574,4301.666504,4278.974121,4169.615234,4301.282227,4298.974121,4250.641113,4442.692383,4460.384766,4329.230957,4365.128418,,,,,,,,,,,,,,,,,,,,,,,,,,,,,,,,,,,,,,,,,,,,,,,,,,,,,,,,,,,,,,,,,,,,,,
