Timestamp,EEG.Counter,EEG.Interpolated,EEG.AF3,EEG.F7,EEG.F3,EEG.FC5,EEG.T7,EEG.P7,EEG.O1,EEG.O2,EEG.P8,EEG.T8,EEG.FC6,EEG.F4,EEG.F8,EEG.AF4,POW.AF3.Theta,POW.AF3.Alpha,POW.AF3.BetaL,POW.AF3.BetaH,POW.AF3.Gamma,POW.F7.Theta,POW.F7.Alpha,POW.F7.BetaL,POW.F7.BetaH,POW.F7.Gamma,POW.F3.Theta,POW.F3.Alpha,POW.F3.BetaL,POW.F3.BetaH,POW.F3.Gamma,POW.FC5.Theta,POW.FC5.Alpha,POW.FC5.BetaL,POW.FC5.BetaH,POW.FC5.Gamma,POW.T7.Theta,POW.T7.Alpha,POW.T7.BetaL,POW.T7.BetaH,POW.T7.Gamma,POW.P7.Theta,POW.P7.Alpha,POW.P7.BetaL,POW.P7.BetaH,POW.P7.Gamma,POW.O1.Theta,POW.O1.Alpha,POW.O1.BetaL,POW.O1.BetaH,POW.O1.Gamma,POW.O2.Theta,POW.O2.Alpha,POW.O2.BetaL,POW.O2.BetaH,POW.O2.Gamma,POW.P8.Theta,POW.P8.Alpha,POW.P8.BetaL,POW.P8.BetaH,POW.P8.Gamma,POW.T8.Theta,POW.T8.Alpha,POW.T8.BetaL,POW.T8.BetaH,POW.T8.Gamma,POW.FC6.Theta,POW.FC6.Alpha,POW.FC6.BetaL,POW.FC6.BetaH,POW.FC6.Gamma,POW.F4.Theta,POW.F4.Alpha,POW.F4.BetaL,POW.F4.BetaH,POW.F4.Gamma,POW.F8.Theta,POW.F8.Alpha,POW.F8.BetaL,POW.F8.BetaH,POW.F8.Gamma,POW.AF4.Theta,POW.AF4.Alpha,POW.AF4.BetaL,POW.AF4.BetaH,POW.AF4.Gamma
1720081629,5,0,4261.282227,4333.974121,4311.025879,4373.461426,4340.641113,4352.179688,4329.487305,4414.230957,4332.94873,4386.538574,4466.666504,4422.05127,4371.025879,4246.025879,,,,,,,,,,,,,,,,,,,,,,,,,,,,,,,,,,,,,,,,,,,,,,,,,,,,,,,,,,,,,,,,,,,,,,
1720081629,6,0,4261.538574,4335.769043,4303.846191,4366.922852,4346.538574,4343.077148,4325.384766,4377.692383,4346.538574,4389.230957,4455.384766,4402.436035,4366.794922,4275,,,,,,,,,,,,,,,,,,,,,,,,,,,,,,,,,,,,,,,,,,,,,,,,,,,,,,,,,,,,,,,,,,,,,,
1720081629,7,0,4268.077148,4335.641113,4293.077148,4367.05127,4345.512695,4339.871582,4312.307617,4369.230957,4351.025879,4393.717773,4455.512695,4388.974121,4380.128418,4321.410156,,,,,,,,,,,,,,,,,,,,,,,,,,,,,,,,,,,,,,,,,,,,,,,,,,,,,,,,,,,,,,,,,,,,,,
1720081629,8,0,4258.717773,4328.846191,4287.05127,4371.922852,4341.410156,4342.307617,4303.717773,4397.307617,4348.205078,4394.615234,4453.205078,4387.307617,4370.512695,4296.410156,,,,,,,,,,,,,,,,,,,,,,,,,,,,,,,,,,,,,,,,,,,,,,,,,,,,,,,,,,,,,,,,,,,,,,
1720081629,9,0,4236.922852,4317.179688,4275.512695,4366.538574,4349.358887,4337.05127,4299.230957,4382.436035,4345.769043,4387.307617,4432.05127,4372.307617,4344.487305,4248.846191,,,,,,,,,,,,,,,,,,,,,,,,,,,,,,,,,,,,,,,,,,,,,,,,,,,,,,,,,,,,,,,,,,,,,,
1720081629,10,0,4229.230957,4310.384766,4272.563965,4365,4352.179688,4336.922852,4291.922852,4380.128418,4335.384766,4380.128418,4426.153809,4369.615234,4349.871582,4264.230957,,,,,,,,,,,,,,,,,,,,,,,,,,,,,,,,,,,,,,,,,,,,,,,,,,,,,,,,,,,,,,,,,,,,,,
1720081629,11,0,4239.871582,4317.692383,4277.94873,4366.282227,4349.230957,4339.743652,4292.436035,4382.307617,4331.538574,4382.307617,4433.589844,4376.282227,4360.769043,4285.641113,,,,,,,,,,,,,,,,,,,,,,,,,,,,,,,,,,,,,,,,,,,,,,,,,,,,,,,,,,,,,,,,,,,,,,
1720081629,12,0,4249.487305,4327.94873,4280.897461,4364.743652,4349.743652,4342.307617,4303.974121,4379.871582,4334.743652,4385.256348,4432.307617,4380,4352.436035,4277.820313,,,,,,,,,,,,,,,,,,,,,,,,,,,,,,,,,,,,,,,,,,,,,,,,,,,,,,,,,,,,,,,,,,,,,,
1720081629,13,0,4260.641113,4330.128418,4282.179688,4366.153809,4348.717773,4345.897461,4318.846191,4381.922852,4334.487305,4383.846191,4429.743652,4379.743652,4350.641113,4279.871582,70.558067,11.822582,2.315157,1.689607,1.084398,21.634626,4.180334,0.966015,0.555287,0.32837,12.030084,1.314818,0.983494,0.531422,0.24394,0.101045,0.02489,0.038811,0.017527,0.052914,3.190701,0.672479,1.420973,0.138231,0.163928,3.731196,0.846333,0.976616,0.313258,0.220688,2.150838,1.724229,1.886137,0.463543,0.263283,0.254518,0.090191,0.118167,0.141084,2.088973,2.327724,0.666208,1.185915,0.476964,0.445513,1.349297,0.344316,0.668883,0.183779,0.203743,18.311333,2.989236,1.530402,0.768675,0.454417,31.53154,4.390594,1.973698,0.997032,0.708926,36.58992,4.809133,2.081182,0.692769,0.626985,136.550629,17.297491,8.486252,8.064387,4.230308
1720081629,14,0,4262.563965,4323.461426,4284.871582,4367.436035,4346.410156,4347.436035,4329.358887,4381.666504,4335.641113,4385.641113,4432.179688,4377.820313,4352.307617,4262.563965,,,,,,,,,,,,,,,,,,,,,,,,,,,,,,,,,,,,,,,,,,,,,,,,,,,,,,,,,,,,,,,,,,,,,,
1720081629,15,0,4251.666504,4318.846191,4283.077148,4365.384766,4346.025879,4348.205078,4334.487305,4382.563965,4331.922852,4386.282227,4428.333496,4377.563965,4341.538574,4230.256348,,,,,,,,,,,,,,,,,,,,,,,,,,,,,,,,,,,,,,,,,,,,,,,,,,,,,,,,,,,,,,,,,,,,,,
1720081629,16,0,4248.333496,4320.769043,4279.102539,4362.94873,4345.512695,4345.128418,4333.717773,4380.384766,4331.282227,4387.820313,4429.871582,4381.666504,4348.333496,4256.794922,,,,,,,,,,,,,,,,,,,,,,,,,,,,,,,,,,,,,,,,,,,,,,,,,,,,,,,,,,,,,,,,,,,,,,
1720081629,17,0,4234.102539,4312.820313,4278.717773,4364.102539,4346.282227,4343.077148,4325.897461,4380.769043,4340.512695,4391.153809,4435.512695,4384.743652,4362.307617,4286.794922,,,,,,,,,,,,,,,,,,,,,,,,,,,,,,,,,,,,,,,,,,,,,,,,,,,,,,,,,,,,,,,,,,,,,,
1720081629,18,0,4209.487305,4301.153809,4278.717773,4367.692383,4348.589844,4340.769043,4315.641113,4383.589844,4346.794922,4393.589844,4424.230957,4381.922852,4347.05127,4257.179688,,,,,,,,,,,,,,,,,,,,,,,,,,,,,,,,,,,,,,,,,,,,,,,,,,,,,,,,,,,,,,,,,,,,,,
1720081629,19,0,4206.666504,4300.897461,4278.589844,4366.922852,4346.025879,4334.615234,4308.205078,4379.487305,4350.897461,4399.487305,4414.102539,4381.538574,4338.846191,4252.692383,,,,,,,,,,,,,,,,,,,,,,,,,,,,,,,,,,,,,,,,,,,,,,,,,,,,,,,,,,,,,,,,,,,,,,
1720081629,20,0,4216.410156,4302.05127,4277.05127,4365.128418,4341.922852,4336.282227,4309.487305,4377.179688,4355,4401.153809,4415.256348,4383.077148,4347.94873,4272.436035,,,,,,,,,,,,,,,,,,,,,,,,,,,,,,,,,,,,,,,,,,,,,,,,,,,,,,,,,,,,,,,,,,,,,,
1720081629,21,0,4222.436035,4300.512695,4276.025879,4368.333496,4344.358887,4349.743652,4317.436035,4400.384766,4348.589844,4395.128418,4406.922852,4382.436035,4334.871582,4243.846191,,,,,,,,,,,,,,,,,,,,,,,,,,,,,,,,,,,,,,,,,,,,,,,,,,,,,,,,,,,,,,,,,,,,,,
1720081629,22,0,4238.846191,4310.128418,4268.461426,4365.769043,4350.512695,4354.871582,4327.307617,4383.974121,4337.307617,4389.871582,4391.282227,4365.256348,4317.563965,4222.436035,,,,,,,,,,,,,,,,,,,,,,,,,,,,,,,,,,,,,,,,,,,,,,,,,,,,,,,,,,,,,,,,,,,,,,
1720081629,23,0,4243.461426,4316.153809,4262.94873,4360.641113,4349.487305,4347.307617,4331.922852,4358.589844,4331.282227,4388.846191,4400,4358.846191,4329.358887,4239.230957,,,,,,,,,,,,,,,,,,,,,,,,,,,,,,,,,,,,,,,,,,,,,,,,,,,,,,,,,,,,,,,,,,,,,,
1720081629,24,0,4224.230957,4303.717773,4272.692383,4367.436035,4342.94873,4344.487305,4329.102539,4404.358887,4326.410156,4389.102539,4414.358887,4380,4341.025879,4245,,,,,,,,,,,,,,,,,,,,,,,,,,,,,,,,,,,,,,,,,,,,,,,,,,,,,,,,,,,,,,,,,,,,,,
1720081629,25,0,4228.974121,4306.666504,4276.922852,4369.102539,4343.846191,4345.256348,4333.589844,4388.717773,4329.230957,4389.487305,4398.205078,4372.94873,4328.333496,4249.487305,,,,,,,,,,,,,,,,,,,,,,,,,,,,,,,,,,,,,,,,,,,,,,,,,,,,,,,,,,,,,,,,,,,,,,
1720081629,26,0,4245.128418,4323.461426,4284.230957,4366.410156,4349.743652,4349.615234,4343.077148,4354.487305,4338.589844,4391.666504,4396.794922,4370.769043,4327.307617,4257.307617,,,,,,,,,,,,,,,,,,,,,,,,,,,,,,,,,,,,,,,,,,,,,,,,,,,,,,,,,,,,,,,,,,,,,,
1720081629,27,0,4239.743652,4321.922852,4297.563965,4371.282227,4346.153809,4348.589844,4335.769043,4397.307617,4341.153809,4396.666504,4414.615234,4397.307617,4336.794922,4241.794922,,,,,,,,,,,,,,,,,,,,,,,,,,,,,,,,,,,,,,,,,,,,,,,,,,,,,,,,,,,,,,,,,,,,,,
1720081629,28,0,4230.384766,4310.256348,4285,4367.563965,4340.256348,4337.05127,4317.307617,4389.358887,4338.717773,4398.974121,4401.538574,4385,4327.692383,4232.94873,,,,,,,,,,,,,,,,,,,,,,,,,,,,,,,,,,,,,,,,,,,,,,,,,,,,,,,,,,,,,,,,,,,,,,
1720081629,29,0,4227.820313,4305.897461,4269.487305,4366.794922,4339.743652,4332.179688,4305.641113,4362.307617,4334.615234,4396.025879,4388.461426,4366.153809,4321.153809,4246.666504,59.800385,10.21774,3.20742,2.004932,1.133767,18.128382,3.543696,1.199965,0.668825,0.347385,9.91755,1.26744,1.019293,0.558315,0.237108,0.103058,0.025533,0.048075,0.019074,0.060159,3.059833,0.739225,1.504795,0.158478,0.158576,3.47858,0.808686,1.167084,0.353735,0.198502,2.066861,1.920143,3.289663,0.571466,0.258479,0.243322,0.081534,0.122561,0.139252,2.084224,1.985562,0.499772,1.375942,0.524044,0.486232,1.225958,0.319465,0.720588,0.189208,0.212301,14.86582,2.68362,1.71417,0.860773,0.499328,21.392273,3.01101,2.144841,1.110416,0.740962,30.06942,4.330193,2.555449,0.861818,0.634001,113.864891,15.727576,12.025772,8.163423,3.871925
1720081629,30,0,4220,4303.077148,4277.820313,4372.307617,4343.846191,4340.769043,4308.077148,4394.102539,4339.358887,4398.333496,4402.307617,4386.794922,4323.974121,4232.179688,,,,,,,,,,,,,,,,,,,,,,,,,,,,,,,,,,,,,,,,,,,,,,,,,,,,,,,,,,,,,,,,,,,,,,
1720081629,31,0,4201.538574,4293.974121,4280.512695,4364.615234,4349.487305,4347.179688,4318.205078,4392.05127,4345,4400.512695,4401.794922,4392.692383,4318.589844,4198.461426,,,,,,,,,,,,,,,,,,,,,,,,,,,,,,,,,,,,,,,,,,,,,,,,,,,,,,,,,,,,,,,,,,,,,,
1720081629,32,0,4192.436035,4288.205078,4275,4360,4346.025879,4346.153809,4327.436035,4370.641113,4336.666504,4395.512695,4393.077148,4379.102539,4318.205078,4206.538574,,,,,,,,,,,,,,,,,,,,,,,,,,,,,,,,,,,,,,,,,,,,,,,,,,,,,,,,,,,,,,,,,,,,,,
1720081629,33,0,4201.666504,4291.153809,4277.05127,4368.846191,4339.230957,4350.384766,4334.230957,4395.256348,4323.333496,4386.666504,4392.436035,4378.077148,4322.307617,4237.692383,,,,,,,,,,,,,,,,,,,,,,,,,,,,,,,,,,,,,,,,,,,,,,,,,,,,,,,,,,,,,,,,,,,,,,
1720081629,34,0,4213.846191,4298.589844,4266.538574,4365.256348,4339.230957,4350.769043,4337.692383,4379.230957,4318.974121,4382.563965,4379.102539,4362.05127,4317.436035,4246.538574,,,,,,,,,,,,,,,,,,,,,,,,,,,,,,,,,,,,,,,,,,,,,,,,,,,,,,,,,,,,,,,,,,,,,,
1720081629,35,0,4219.487305,4302.05127,4257.307617,4360,4337.563965,4344.230957,4332.692383,4364.487305,4317.692383,4387.307617,4374.743652,4352.436035,4315.256348,4243.077148,,,,,,,,,,,,,,,,,,,,,,,,,,,,,,,,,,,,,,,,,,,,,,,,,,,,,,,,,,,,,,,,,,,,,,
1720081629,36,0,4216.538574,4296.922852,4263.461426,4368.461426,4333.974121,4338.077148,4325.897461,4386.410156,4317.05127,4390.384766,4384.358887,4360.384766,4316.922852,4236.282227,,,,,,,,,,,,,,,,,,,,,,,,,,,,,,,,,,,,,,,,,,,,,,,,,,,,,,,,,,,,,,,,,,,,,,
1720081629,37,0,4206.282227,4292.94873,4262.436035,4367.179688,4333.077148,4330.384766,4316.282227,4374.358887,4325.641113,4391.922852,4386.025879,4359.487305,4318.846191,4238.205078,,,,,,,,,,,,,,,,,,,,,,,,,,,,,,,,,,,,,,,,,,,,,,,,,,,,,,,,,,,,,,,,,,,,,,
1720081629,38,0,4203.461426,4298.077148,4260.641113,4364.615234,4329.871582,4326.282227,4300.641113,4376.922852,4339.743652,4400.384766,4387.05127,4362.692383,4322.820313,4255.641113,,,,,,,,,,,,,,,,,,,,,,,,,,,,,,,,,,,,,,,,,,,,,,,,,,,,,,,,,,,,,,,,,,,,,,
1720081629,39,0,4210.897461,4303.589844,4262.692383,4367.307617,4324.487305,4323.846191,4290,4382.94873,4341.794922,4403.333496,4384.871582,4360.128418,4317.05127,4244.102539,,,,,,,,,,,,,,,,,,,,,,,,,,,,,,,,,,,,,,,,,,,,,,,,,,,,,,,,,,,,,,,,,,,,,,
1720081629,40,0,4204.102539,4298.077148,4262.307617,4365.256348,4327.307617,4326.794922,4293.589844,4377.179688,4328.717773,4394.615234,4377.05127,4360.128418,4304.230957,4200.384766,,,,,,,,,,,,,,,,,,,,,,,,,,,,,,,,,,,,,,,,,,,,,,,,,,,,,,,,,,,,,,,,,,,,,,
1720081629,41,0,4195,4293.461426,4262.307617,4363.333496,4336.794922,4334.487305,4311.410156,4377.05127,4323.846191,4391.922852,4375,4372.436035,4307.563965,4197.179688,,,,,,,,,,,,,,,,,,,,,,,,,,,,,,,,,,,,,,,,,,,,,,,,,,,,,,,,,,,,,,,,,,,,,,
1720081629,42,0,4195.897461,4299.871582,4266.666504,4366.538574,4337.307617,4340.384766,4329.230957,4375.256348,4331.922852,4397.436035,4381.410156,4372.179688,4316.794922,4233.589844,,,,,,,,,,,,,,,,,,,,,,,,,,,,,,,,,,,,,,,,,,,,,,,,,,,,,,,,,,,,,,,,,,,,,,
1720081629,43,0,4188.461426,4298.846191,4265.512695,4367.179688,4331.922852,4342.692383,4332.05127,4380,4329.615234,4398.461426,4384.358887,4362.94873,4310.641113,4222.179688,,,,,,,,,,,,,,,,,,,,,,,,,,,,,,,,,,,,,,,,,,,,,,,,,,,,,,,,,,,,,,,,,,,,,,
1720081629,44,0,4174.487305,4282.692383,4256.666504,4359.487305,4333.589844,4344.230957,4330.897461,4376.410156,4321.410156,4394.615234,4374.871582,4363.589844,4300.512695,4176.410156,,,,,,,,,,,,,,,,,,,,,,,,,,,,,,,,,,,,,,,,,,,,,,,,,,,,,,,,,,,,,,,,,,,,,,
1720081629,45,0,4173.717773,4273.589844,4257.820313,4359.871582,4337.307617,4352.692383,4334.743652,4373.077148,4323.974121,4393.846191,4370.128418,4373.846191,4302.436035,4188.333496,43.002659,8.650348,4.43997,2.42379,1.261466,13.032213,3.038146,1.544078,0.826747,0.389674,7.229923,1.421399,1.122389,0.578078,0.240157,0.099565,0.031821,0.060081,0.021023,0.068475,2.646579,0.742062,1.486687,0.165813,0.1469,3.157091,0.791112,1.441718,0.362617,0.16761,1.819681,2.258575,5.047465,0.666744,0.238056,0.224938,0.082347,0.145726,0.13749,2.071751,1.559809,0.548002,1.779937,0.585374,0.513834,1.073246,0.399725,0.833092,0.200911,0.208921,10.846236,2.568448,1.848671,0.972046,0.543264,14.075958,2.683303,2.465054,1.241297,0.776038,21.348309,3.993521,2.910797,1.037135,0.622623,80.737022,13.616813,15.703099,7.725185,3.501206
1720081629,46,0,4197.94873,4289.487305,4268.461426,4366.922852,4334.615234,4364.358887,4329.871582,4378.461426,4328.333496,4397.692383,4382.563965,4378.205078,4315,4236.410156,,,,,,,,,,,,,,,,,,,,,,,,,,,,,,,,,,,,,,,,,,,,,,,,,,,,,,,,,,,,,,,,,,,,,,
1720081629,47,0,4225.897461,4310,4272.692383,4364.871582,4334.230957,4362.563965,4314.487305,4381.538574,4328.205078,4400.769043,4385.769043,4372.820313,4316.153809,4243.589844,,,,,,,,,,,,,,,,,,,,,,,,,,,,,,,,,,,,,,,,,,,,,,,,,,,,,,,,,,,,,,,,,,,,,,
1720081629,48,0,4227.307617,4309.230957,4268.846191,4360.512695,4339.615234,4352.307617,4309.102539,4362.436035,4334.487305,4400.769043,4379.487305,4365.769043,4313.077148,4242.179688,,,,,,,,,,,,,,,,,,,,,,,,,,,,,,,,,,,,,,,,,,,,,,,,,,,,,,,,,,,,,,,,,,,,,,
1720081629,49,0,4212.563965,4301.282227,4272.307617,4367.05127,4336.410156,4347.307617,4305.641113,4380.769043,4341.410156,4404.487305,4396.153809,4379.230957,4327.436035,4271.025879,,,,,,,,,,,,,,,,,,,,,,,,,,,,,,,,,,,,,,,,,,,,,,,,,,,,,,,,,,,,,,,,,,,,,,
1720081629,50,0,4216.153809,4308.461426,4272.563965,4371.538574,4330.641113,4342.05127,4297.94873,4403.461426,4340.897461,4407.436035,4404.102539,4382.820313,4335.128418,4273.333496,,,,,,,,,,,,,,,,,,,,,,,,,,,,,,,,,,,,,,,,,,,,,,,,,,,,,,,,,,,,,,,,,,,,,,
1720081629,51,0,4233.205078,4316.410156,4260.256348,4362.307617,4339.487305,4340.641113,4306.666504,4356.538574,4341.282227,4404.743652,4384.230957,4358.333496,4322.563965,4246.025879,,,,,,,,,,,,,,,,,,,,,,,,,,,,,,,,,,,,,,,,,,,,,,,,,,,,,,,,,,,,,,,,,,,,,,
1720081629,52,0,4228.205078,4305,4266.153809,4362.05127,4346.025879,4344.871582,4327.307617,4366.153809,4343.205078,4405.769043,4381.538574,4368.846191,4312.692383,4242.692383,,,,,,,,,,,,,,,,,,,,,,,,,,,,,,,,,,,,,,,,,,,,,,,,,,,,,,,,,,,,,,,,,,,,,,
1720081629,53,0,4204.230957,4292.94873,4267.307617,4366.282227,4343.461426,4332.692383,4335.512695,4391.410156,4332.436035,4398.077148,4373.589844,4374.743652,4300.512695,4229.871582,,,,,,,,,,,,,,,,,,,,,,,,,,,,,,,,,,,,,,,,,,,,,,,,,,,,,,,,,,,,,,,,,,,,,,
1720081629,54,0,4192.307617,4289.743652,4252.563965,4360,4346.794922,4316.410156,4334.102539,4356.282227,4312.692383,4381.153809,4337.692383,4344.487305,4270.769043,4192.94873,,,,,,,,,,,,,,,,,,,,,,,,,,,,,,,,,,,,,,,,,,,,,,,,,,,,,,,,,,,,,,,,,,,,,,
1720081629,55,0,4195.641113,4281.794922,4255.897461,4358.846191,4348.589844,4319.487305,4333.974121,4362.179688,4305.256348,4378.974121,4324.871582,4349.487305,4247.820313,4164.230957,,,,,,,,,,,,,,,,,,,,,,,,,,,,,,,,,,,,,,,,,,,,,,,,,,,,,,,,,,,,,,,,,,,,,,
1720081629,56,0,4196.794922,4277.436035,4256.794922,4360.384766,4348.589844,4318.717773,4329.743652,4372.179688,4312.94873,4386.025879,4340.128418,4361.794922,4257.563965,4152.179688,,,,,,,,,,,,,,,,,,,,,,,,,,,,,,,,,,,,,,,,,,,,,,,,,,,,,,,,,,,,,,,,,,,,,,
1720081629,57,0,4203.205078,4288.974121,4253.077148,4359.102539,4354.230957,4310.128418,4320.512695,4361.282227,4323.717773,4393.205078,4360,4361.666504,4286.538574,4180,,,,,,,,,,,,,,,,,,,,,,,,,,,,,,,,,,,,,,,,,,,,,,,,,,,,,,,,,,,,,,,,,,,,,,
1720081629,58,0,4207.820313,4298.717773,4270.128418,4362.307617,4360.256348,4313.333496,4314.487305,4379.358887,4336.025879,4404.358887,4379.487305,4384.743652,4304.743652,4224.230957,,,,,,,,,,,,,,,,,,,,,,,,,,,,,,,,,,,,,,,,,,,,,,,,,,,,,,,,,,,,,,,,,,,,,,
1720081629,59,0,4196.794922,4296.410156,4279.743652,4364.358887,4362.307617,4316.794922,4310.769043,4373.333496,4341.922852,4410.384766,4379.743652,4388.205078,4301.794922,4232.307617,,,,,,,,,,,,,,,,,,,,,,,,,,,,,,,,,,,,,,,,,,,,,,,,,,,,,,,,,,,,,,,,,,,,,,
1720081629,60,0,4212.307617,4302.692383,4268.333496,4361.922852,4361.666504,4313.589844,4308.717773,4351.410156,4336.410156,4406.666504,4369.358887,4363.974121,4300.256348,4233.589844,,,,,,,,,,,,,,,,,,,,,,,,,,,,,,,,,,,,,,,,,,,,,,,,,,,,,,,,,,,,,,,,,,,,,,
1720081629,61,0,4235.512695,4309.615234,4264.743652,4363.717773,4358.205078,4317.94873,4315.128418,4394.102539,4332.94873,4404.358887,4376.538574,4371.282227,4313.974121,4257.563965,25.742886,7.550641,5.738504,2.801849,1.40057,7.90015,2.75862,1.893468,0.979111,0.441587,4.749412,1.734407,1.30508,0.582264,0.255198,0.091232,0.042307,0.069247,0.022846,0.075277,2.116687,0.6684,1.386579,0.159573,0.132445,2.836771,0.772633,1.765178,0.341633,0.136542,1.573562,2.587355,6.94369,0.726346,0.206303,0.203999,0.094555,0.192164,0.138022,2.067968,1.205485,0.816803,2.362871,0.644423,0.518857,0.927522,0.575804,1.010947,0.213501,0.195042,7.193053,2.734172,1.906586,1.067239,0.57425,8.894795,2.928288,2.848749,1.345828,0.81272,13.439819,3.933454,3.043607,1.168096,0.603057,47.931137,11.539928,18.671324,6.855094,3.181221
1720081629,62,0,4223.333496,4305.769043,4263.333496,4364.487305,4361.538574,4316.153809,4327.307617,4386.410156,4339.487305,4404.615234,4373.461426,4374.487305,4314.743652,4252.94873,,,,,,,,,,,,,,,,,,,,,,,,,,,,,,,,,,,,,,,,,,,,,,,,,,,,,,,,,,,,,,,,,,,,,,
1720081629,63,0,4216.538574,4304.230957,4262.179688,4362.563965,4365,4304.871582,4332.307617,4349.102539,4340.512695,4405.128418,4360.128418,4358.974121,4296.538574,4215.384766,,,,,,,,,,,,,,,,,,,,,,,,,,,,,,,,,,,,,,,,,,,,,,,,,,,,,,,,,,,,,,,,,,,,,,
1720081629,64,0,4236.025879,4311.282227,4264.487305,4364.871582,4357.692383,4305.512695,4331.410156,4381.153809,4331.282227,4404.615234,4364.871582,4365.512695,4289.615234,4203.974121,,,,,,,,,,,,,,,,,,,,,,,,,,,,,,,,,,,,,,,,,,,,,,,,,,,,,,,,,,,,,,,,,,,,,,
1720081629,65,0,4233.974121,4308.205078,4253.717773,4364.230957,4352.436035,4306.922852,4332.179688,4374.358887,4325,4399.871582,4364.743652,4364.487305,4292.436035,4228.717773,,,,,,,,,,,,,,,,,,,,,,,,,,,,,,,,,,,,,,,,,,,,,,,,,,,,,,,,,,,,,,,,,,,,,,
1720081629,66,0,4214.102539,4295.641113,4252.94873,4361.666504,4352.436035,4306.153809,4331.538574,4360.384766,4323.077148,4397.94873,4354.743652,4361.153809,4289.102539,4249.615234,,,,,,,,,,,,,,,,,,,,,,,,,,,,,,,,,,,,,,,,,,,,,,,,,,,,,,,,,,,,,,,,,,,,,,
1720081629,67,0,4225,4306.666504,4268.461426,4360.128418,4353.461426,4305.384766,4329.487305,4375.128418,4329.615234,4403.333496,4359.487305,4373.333496,4295.769043,4244.487305,,,,,,,,,,,,,,,,,,,,,,,,,,,,,,,,,,,,,,,,,,,,,,,,,,,,,,,,,,,,,,,,,,,,,,
1720081629,68,0,4243.333496,4319.487305,4274.487305,4360.128418,4355.384766,4300.641113,4324.230957,4375,4339.871582,4410.128418,4376.282227,4385,4313.333496,4223.846191,,,,,,,,,,,,,,,,,,,,,,,,,,,,,,,,,,,,,,,,,,,,,,,,,,,,,,,,,,,,,,,,,,,,,,
1720081629,69,0,4238.205078,4308.589844,4274.743652,4362.05127,4358.077148,4298.717773,4310,4375.512695,4337.563965,4408.846191,4380.897461,4393.589844,4318.589844,4193.974121,,,,,,,,,,,,,,,,,,,,,,,,,,,,,,,,,,,,,,,,,,,,,,,,,,,,,,,,,,,,,,,,,,,,,,
1720081629,70,0,4217.563965,4301.282227,4279.230957,4362.563965,4361.025879,4296.538574,4294.871582,4367.563965,4323.589844,4400.897461,4365.897461,4393.974121,4308.974121,4189.358887,,,,,,,,,,,,,,,,,,,,,,,,,,,,,,,,,,,,,,,,,,,,,,,,,,,,,,,,,,,,,,,,,,,,,,
1720081629,71,0,4194.487305,4300.641113,4278.333496,4363.589844,4357.563965,4296.922852,4293.717773,4367.436035,4314.358887,4396.666504,4352.692383,4385.769043,4294.230957,4218.077148,,,,,,,,,,,,,,,,,,,,,,,,,,,,,,,,,,,,,,,,,,,,,,,,,,,,,,,,,,,,,,,,,,,,,,
1720081629,72,0,4203.333496,4296.025879,4265.769043,4362.692383,4350.769043,4301.282227,4310.641113,4371.282227,4325.256348,4399.358887,4349.358887,4369.743652,4286.922852,4225.128418,,,,,,,,,,,,,,,,,,,,,,,,,,,,,,,,,,,,,,,,,,,,,,,,,,,,,,,,,,,,,,,,,,,,,,
1720081629,73,0,4236.410156,4300.897461,4257.436035,4360.769043,4348.846191,4306.410156,4330.384766,4369.615234,4342.820313,4407.436035,4353.717773,4362.179688,4300.384766,4226.410156,,,,,,,,,,,,,,,,,,,,,,,,,,,,,,,,,,,,,,,,,,,,,,,,,,,,,,,,,,,,,,,,,,,,,,
1720081629,74,0,4246.025879,4310.897461,4261.025879,4362.307617,4349.230957,4310.128418,4336.538574,4374.871582,4341.794922,4411.794922,4356.922852,4367.436035,4310.128418,4238.717773,,,,,,,,,,,,,,,,,,,,,,,,,,,,,,,,,,,,,,,,,,,,,,,,,,,,,,,,,,,,,,,,,,,,,,
1720081629,75,0,4222.692383,4304.743652,4265,4363.846191,4350.256348,4307.179688,4333.846191,4384.102539,4329.230957,4407.05127,4346.025879,4371.282227,4289.358887,4222.436035,,,,,,,,,,,,,,,,,,,,,,,,,,,,,,,,,,,,,,,,,,,,,,,,,,,,,,,,,,,,,,,,,,,,,,
1720081629,76,0,4214.743652,4298.333496,4256.922852,4358.846191,4356.153809,4300.512695,4331.025879,4357.05127,4329.743652,4401.794922,4331.922852,4362.94873,4275.384766,4201.666504,,,,,,,,,,,,,,,,,,,,,,,,,,,,,,,,,,,,,,,,,,,,,,,,,,,,,,,,,,,,,,,,,,,,,,
1720081629,77,0,4232.563965,4307.179688,4255.128418,4358.717773,4355.641113,4301.025879,4324.230957,4355.897461,4338.717773,4402.692383,4338.589844,4364.743652,4288.077148,4203.846191,12.070128,7.091707,6.788872,3.029642,1.483405,3.89316,2.712877,2.156705,1.082622,0.486528,2.885188,2.115709,1.547648,0.571745,0.276095,0.085823,0.054994,0.073045,0.024318,0.079521,1.474902,0.544849,1.245844,0.143451,0.118963,2.590201,0.776649,2.069121,0.303085,0.113408,1.260748,2.775687,8.746339,0.739407,0.170859,0.184018,0.116094,0.259078,0.140715,2.076067,0.898906,1.263945,3.043474,0.691521,0.49594,0.816242,0.805012,1.238212,0.225835,0.174077,4.786811,3.12997,1.911016,1.113608,0.585131,5.03756,3.372261,3.192926,1.388614,0.846093,7.628742,4.109941,2.92582,1.21727,0.586377,23.313482,9.893077,20.117071,5.806998,2.971364
1720081629,78,0,4229.487305,4307.436035,4264.102539,4364.743652,4347.179688,4307.94873,4317.307617,4403.077148,4334.487305,4404.871582,4345.128418,4372.94873,4280.128418,4194.102539,,,,,,,,,,,,,,,,,,,,,,,,,,,,,,,,,,,,,,,,,,,,,,,,,,,,,,,,,,,,,,,,,,,,,,
1720081629,79,0,4209.487305,4296.153809,4252.05127,4360.128418,4351.410156,4306.666504,4310.769043,4370.128418,4322.05127,4397.307617,4331.282227,4348.717773,4266.538574,4201.666504,,,,,,,,,,,,,,,,,,,,,,,,,,,,,,,,,,,,,,,,,,,,,,,,,,,,,,,,,,,,,,,,,,,,,,
1720081629,80,0,4211.282227,4292.692383,4245.512695,4357.436035,4355.384766,4306.153809,4298.461426,4346.666504,4311.410156,4388.846191,4337.563965,4345,4290,4245.769043,,,,,,,,,,,,,,,,,,,,,,,,,,,,,,,,,,,,,,,,,,,,,,,,,,,,,,,,,,,,,,,,,,,,,,
1720081629,81,0,4223.461426,4299.358887,4257.692383,4361.282227,4349.615234,4311.025879,4297.692383,4384.743652,4313.077148,4394.358887,4352.05127,4372.94873,4306.922852,4243.205078,,,,,,,,,,,,,,,,,,,,,,,,,,,,,,,,,,,,,,,,,,,,,,,,,,,,,,,,,,,,,,,,,,,,,,
1720081629,82,0,4213.717773,4299.230957,4249.230957,4359.358887,4350.512695,4312.436035,4315.641113,4365.897461,4323.333496,4399.102539,4331.666504,4359.615234,4283.974121,4204.743652,,,,,,,,,,,,,,,,,,,,,,,,,,,,,,,,,,,,,,,,,,,,,,,,,,,,,,,,,,,,,,,,,,,,,,
1720081629,83,0,4195.128418,4285,4238.974121,4359.230957,4354.615234,4312.692383,4329.487305,4355.384766,4324.358887,4391.666504,4311.153809,4339.102539,4263.461426,4208.333496,,,,,,,,,,,,,,,,,,,,,,,,,,,,,,,,,,,,,,,,,,,,,,,,,,,,,,,,,,,,,,,,,,,,,,
1720081629,84,0,4192.820313,4277.820313,4248.717773,4362.563965,4354.102539,4316.282227,4333.717773,4374.358887,4321.538574,4388.974121,4313.205078,4350,4267.820313,4202.05127,,,,,,,,,,,,,,,,,,,,,,,,,,,,,,,,,,,,,,,,,,,,,,,,,,,,,,,,,,,,,,,,,,,,,,
1720081629,85,0,4199.487305,4287.179688,4263.205078,4362.563965,4356.282227,4326.666504,4340,4361.153809,4331.538574,4396.794922,4323.717773,4364.102539,4273.717773,4160,,,,,,,,,,,,,,,,,,,,,,,,,,,,,,,,,,,,,,,,,,,,,,,,,,,,,,,,,,,,,,,,,,,,,,
1720081629,86,0,4203.333496,4295.128418,4271.922852,4362.436035,4359.230957,4332.179688,4339.487305,4370.512695,4337.05127,4398.461426,4334.743652,4373.461426,4278.717773,4164.615234,,,,,,,,,,,,,,,,,,,,,,,,,,,,,,,,,,,,,,,,,,,,,,,,,,,,,,,,,,,,,,,,,,,,,,
1720081629,87,0,4217.436035,4295.769043,4263.205078,4362.820313,4358.717773,4326.410156,4329.743652,4380.128418,4321.666504,4388.461426,4328.589844,4365.384766,4280.897461,4210.256348,,,,,,,,,,,,,,,,,,,,,,,,,,,,,,,,,,,,,,,,,,,,,,,,,,,,,,,,,,,,,,,,,,,,,,
1720081629,88,0,4236.282227,4302.94873,4249.871582,4360.641113,4362.436035,4319.487305,4319.230957,4340.128418,4310.512695,4379.358887,4317.307617,4343.974121,4274.615234,4234.102539,,,,,,,,,,,,,,,,,,,,,,,,,,,,,,,,,,,,,,,,,,,,,,,,,,,,,,,,,,,,,,,,,,,,,,
1720081629,89,0,4237.563965,4310.512695,4264.230957,4363.846191,4365.641113,4323.589844,4309.871582,4371.794922,4320.641113,4382.563965,4337.05127,4364.743652,4281.025879,4248.077148,,,,,,,,,,,,,,,,,,,,,,,,,,,,,,,,,,,,,,,,,,,,,,,,,,,,,,,,,,,,,,,,,,,,,,
1720081629,90,0,4239.358887,4310.897461,4273.077148,4364.487305,4370,4327.05127,4309.230957,4391.794922,4335.128418,4391.025879,4341.922852,4379.871582,4291.282227,4251.025879,,,,,,,,,,,,,,,,,,,,,,,,,,,,,,,,,,,,,,,,,,,,,,,,,,,,,,,,,,,,,,,,,,,,,,
1720081629,91,0,4243.077148,4307.05127,4257.436035,4360.512695,4371.538574,4324.102539,4313.205078,4343.974121,4335,4392.436035,4320.384766,4354.615234,4287.179688,4230.897461,,,,,,,,,,,,,,,,,,,,,,,,,,,,,,,,,,,,,,,,,,,,,,,,,,,,,,,,,,,,,,,,,,,,,,
1720081629,92,0,4227.05127,4296.922852,4256.282227,4362.820313,4360.128418,4327.436035,4318.589844,4365.384766,4330.128418,4389.487305,4323.846191,4353.077148,4276.666504,4218.205078,,,,,,,,,,,,,,,,,,,,,,,,,,,,,,,,,,,,,,,,,,,,,,,,,,,,,,,,,,,,,,,,,,,,,,
1720081629,93,0,4220.128418,4296.538574,4261.538574,4361.153809,4356.794922,4326.922852,4333.077148,4371.025879,4336.538574,4389.102539,4333.846191,4360.384766,4279.615234,4232.179688,4.651633,7.162154,7.285188,3.059476,1.472026,1.775922,2.826984,2.26269,1.108194,0.510232,1.960544,2.450183,1.791849,0.553953,0.292714,0.082471,0.068184,0.070878,0.0251,0.081697,0.936104,0.412357,1.099189,0.124253,0.108772,2.544578,0.82103,2.266771,0.263845,0.103111,1.031587,2.746895,10.237101,0.713342,0.139813,0.168334,0.143202,0.334903,0.14365,2.091261,0.707361,1.809995,3.707346,0.721291,0.44782,0.726323,1.031348,1.478454,0.23751,0.150393,3.588277,3.61886,1.942655,1.097327,0.57781,3.250128,3.848154,3.409275,1.349403,0.867625,4.632334,4.406175,2.675979,1.176,0.580391,10.083241,9.057491,19.654219,4.852384,2.903556
1720081629,94,0,4231.282227,4302.692383,4262.692383,4359.230957,4360.128418,4327.436035,4346.794922,4359.487305,4337.692383,4387.436035,4333.205078,4363.205078,4288.717773,4232.94873,,,,,,,,,,,,,,,,,,,,,,,,,,,,,,,,,,,,,,,,,,,,,,,,,,,,,,,,,,,,,,,,,,,,,,
1720081629,95,0,4226.666504,4301.922852,4263.589844,4362.179688,4358.589844,4327.436035,4352.05127,4369.102539,4327.179688,4380.256348,4332.307617,4368.461426,4284.358887,4189.871582,,,,,,,,,,,,,,,,,,,,,,,,,,,,,,,,,,,,,,,,,,,,,,,,,,,,,,,,,,,,,,,,,,,,,,
1720081629,96,0,4226.922852,4301.666504,4262.05127,4361.153809,4355.128418,4314.358887,4348.205078,4356.538574,4332.692383,4382.05127,4337.820313,4372.436035,4284.230957,4178.205078,,,,,,,,,,,,,,,,,,,,,,,,,,,,,,,,,,,,,,,,,,,,,,,,,,,,,,,,,,,,,,,,,,,,,,
1720081629,97,0,4251.410156,4309.230957,4267.05127,4360.897461,4352.692383,4303.974121,4334.615234,4368.205078,4349.358887,4392.307617,4345.512695,4382.307617,4292.563965,4227.692383,,,,,,,,,,,,,,,,,,,,,,,,,,,,,,,,,,,,,,,,,,,,,,,,,,,,,,,,,,,,,,,,,,,,,,
1720081629,98,0,4255.384766,4316.794922,4269.615234,4363.461426,4357.94873,4301.538574,4322.307617,4368.589844,4345.256348,4384.615234,4335.897461,4377.307617,4293.333496,4255.128418,,,,,,,,,,,,,,,,,,,,,,,,,,,,,,,,,,,,,,,,,,,,,,,,,,,,,,,,,,,,,,,,,,,,,,
1720081629,99,0,4236.922852,4311.794922,4266.153809,4364.102539,4362.692383,4302.820313,4314.743652,4358.077148,4326.538574,4371.666504,4327.692383,4372.436035,4289.743652,4250.256348,,,,,,,,,,,,,,,,,,,,,,,,,,,,,,,,,,,,,,,,,,,,,,,,,,,,,,,,,,,,,,,,,,,,,,
1720081629,100,0,4234.102539,4301.666504,4263.077148,4362.563965,4359.358887,4305.384766,4310.128418,4364.230957,4327.179688,4375.128418,4336.666504,4372.692383,4292.436035,4257.05127,,,,,,,,,,,,,,,,,,,,,,,,,,,,,,,,,,,,,,,,,,,,,,,,,,,,,,,,,,,,,,,,,,,,,,
1720081629,101,0,4244.487305,4303.461426,4267.436035,4362.436035,4358.205078,4306.922852,4312.563965,4362.179688,4342.692383,4381.922852,4347.05127,4373.205078,4298.846191,4263.461426,,,,,,,,,,,,,,,,,,,,,,,,,,,,,,,,,,,,,,,,,,,,,,,,,,,,,,,,,,,,,,,,,,,,,,
1720081629,102,0,4253.461426,4317.436035,4277.179688,4363.846191,4370,4312.436035,4322.94873,4360.128418,4341.666504,4380.512695,4347.692383,4387.820313,4299.487305,4248.077148,,,,,,,,,,,,,,,,,,,,,,,,,,,,,,,,,,,,,,,,,,,,,,,,,,,,,,,,,,,,,,,,,,,,,,
1720081629,103,0,4261.538574,4320.384766,4279.871582,4364.871582,4378.846191,4320.384766,4338.077148,4376.025879,4331.922852,4376.922852,4343.717773,4399.358887,4298.077148,4225,,,,,,,,,,,,,,,,,,,,,,,,,,,,,,,,,,,,,,,,,,,,,,,,,,,,,,,,,,,,,,,,,,,,,,
1720081629,104,0,4261.153809,4311.922852,4272.05127,4363.461426,4370.256348,4319.743652,4354.230957,4355.641113,4332.05127,4376.153809,4332.307617,4378.974121,4289.358887,4209.102539,,,,,,,,,,,,,,,,,,,,,,,,,,,,,,,,,,,,,,,,,,,,,,,,,,,,,,,,,,,,,,,,,,,,,,
1720081629,105,0,4257.94873,4314.871582,4270.256348,4363.205078,4365.128418,4324.487305,4363.461426,4337.05127,4338.589844,4376.538574,4326.410156,4367.563965,4280.512695,4227.94873,,,,,,,,,,,,,,,,,,,,,,,,,,,,,,,,,,,,,,,,,,,,,,,,,,,,,,,,,,,,,,,,,,,,,,
1720081629,106,0,4262.563965,4323.717773,4284.615234,4365.769043,4369.487305,4340.641113,4362.563965,4391.666504,4339.230957,4378.974121,4341.538574,4396.538574,4291.410156,4271.025879,,,,,,,,,,,,,,,,,,,,,,,,,,,,,,,,,,,,,,,,,,,,,,,,,,,,,,,,,,,,,,,,,,,,,,
1720081629,107,0,4254.230957,4321.794922,4286.282227,4361.794922,4371.538574,4340.769043,4362.436035,4376.538574,4336.410156,4380.128418,4345.256348,4398.846191,4301.666504,4264.487305,,,,,,,,,,,,,,,,,,,,,,,,,,,,,,,,,,,,,,,,,,,,,,,,,,,,,,,,,,,,,,,,,,,,,,
1720081629,108,0,4236.025879,4310.641113,4278.717773,4359.230957,4367.307617,4330.641113,4357.307617,4336.794922,4336.538574,4377.563965,4335.384766,4385,4289.102539,4221.410156,,,,,,,,,,,,,,,,,,,,,,,,,,,,,,,,,,,,,,,,,,,,,,,,,,,,,,,,,,,,,,,,,,,,,,
1720081630,109,0,4242.820313,4309.487305,4279.230957,4363.077148,4363.717773,4328.077148,4341.153809,4378.974121,4331.794922,4373.846191,4329.358887,4393.589844,4271.153809,4216.282227,1.833018,7.4294,7.091323,2.902416,1.373932,0.956428,2.964597,2.19478,1.04861,0.50761,1.587648,2.611691,1.961264,0.535425,0.296745,0.080395,0.080528,0.064471,0.024974,0.082817,0.550724,0.307791,0.959096,0.108437,0.102209,2.517905,0.917613,2.287133,0.236298,0.105166,0.800118,2.50642,11.293864,0.664775,0.118968,0.154537,0.171388,0.400447,0.144398,2.101649,0.557208,2.358297,4.209913,0.738564,0.386365,0.653249,1.209847,1.679331,0.251979,0.128372,3.162657,4.027884,2.103377,1.036097,0.560121,2.391778,4.166697,3.458389,1.237722,0.869548,3.440465,4.693241,2.497909,1.081173,0.586254,5.323104,9.324903,17.604372,4.229435,2.960959
1720081630,110,0,4258.974121,4313.589844,4271.025879,4359.615234,4362.94873,4325.128418,4327.692383,4374.230957,4334.102539,4375,4325.128418,4388.333496,4275.769043,4240.769043,,,,,,,,,,,,,,,,,,,,,,,,,,,,,,,,,,,,,,,,,,,,,,,,,,,,,,,,,,,,,,,,,,,,,,
1720081630,111,0,4256.410156,4310.641113,4265,4356.538574,4360.512695,4325.256348,4326.025879,4348.205078,4342.563965,4382.307617,4336.282227,4384.615234,4294.871582,4250.512695,,,,,,,,,,,,,,,,,,,,,,,,,,,,,,,,,,,,,,,,,,,,,,,,,,,,,,,,,,,,,,,,,,,,,,
1720081630,112,0,4248.974121,4307.307617,4271.153809,4362.179688,4361.153809,4335.897461,4335.641113,4383.846191,4338.717773,4377.94873,4339.615234,4395.512695,4290,4239.615234,,,,,,,,,,,,,,,,,,,,,,,,,,,,,,,,,,,,,,,,,,,,,,,,,,,,,,,,,,,,,,,,,,,,,,
1720081630,113,0,4252.05127,4307.692383,4266.282227,4361.410156,4365.384766,4338.846191,4347.692383,4378.974121,4331.282227,4366.922852,4315.256348,4383.846191,4269.615234,4229.487305,,,,,,,,,,,,,,,,,,,,,,,,,,,,,,,,,,,,,,,,,,,,,,,,,,,,,,,,,,,,,,,,,,,,,,
1720081630,114,0,4259.615234,4309.230957,4260.128418,4356.538574,4366.025879,4331.410156,4348.333496,4343.205078,4330.769043,4366.153809,4308.589844,4371.282227,4270.769043,4237.563965,,,,,,,,,,,,,,,,,,,,,,,,,,,,,,,,,,,,,,,,,,,,,,,,,,,,,,,,,,,,,,,,,,,,,,
1720081630,115,0,4258.846191,4308.461426,4271.538574,4360.641113,4360.512695,4333.333496,4338.333496,4384.743652,4322.94873,4368.974121,4332.307617,4393.846191,4283.974121,4255.512695,,,,,,,,,,,,,,,,,,,,,,,,,,,,,,,,,,,,,,,,,,,,,,,,,,,,,,,,,,,,,,,,,,,,,,
1720081630,116,0,4251.922852,4307.820313,4278.717773,4362.179688,4359.615234,4335.769043,4337.692383,4390.512695,4319.743652,4366.153809,4329.871582,4403.333496,4280.897461,4237.307617,,,,,,,,,,,,,,,,,,,,,,,,,,,,,,,,,,,,,,,,,,,,,,,,,,,,,,,,,,,,,,,,,,,,,,
1720081630,117,0,4246.794922,4303.589844,4275,4360.384766,4362.05127,4334.358887,4345.769043,4365.897461,4334.358887,4364.358887,4312.179688,4393.717773,4272.563965,4207.692383,,,,,,,,,,,,,,,,,,,,,,,,,,,,,,,,,,,,,,,,,,,,,,,,,,,,,,,,,,,,,,,,,,,,,,
1720081630,118,0,4240.641113,4297.94873,4263.589844,4359.743652,4358.205078,4333.974121,4350.128418,4394.871582,4342.05127,4366.922852,4314.230957,4390.512695,4271.794922,4221.922852,,,,,,,,,,,,,,,,,,,,,,,,,,,,,,,,,,,,,,,,,,,,,,,,,,,,,,,,,,,,,,,,,,,,,,
1720081630,119,0,4227.05127,4295.641113,4248.461426,4355.256348,4354.102539,4327.820313,4351.666504,4395.256348,4342.307617,4371.666504,4311.153809,4381.025879,4269.615234,4230,,,,,,,,,,,,,,,,,,,,,,,,,,,,,,,,,,,,,,,,,,,,,,,,,,,,,,,,,,,,,,,,,,,,,,
1720081630,120,0,4226.153809,4293.589844,4252.179688,4353.974121,4353.589844,4322.820313,4341.025879,4394.615234,4340.512695,4371.794922,4314.487305,4382.692383,4275,4214.230957,,,,,,,,,,,,,,,,,,,,,,,,,,,,,,,,,,,,,,,,,,,,,,,,,,,,,,,,,,,,,,,,,,,,,,
1720081630,121,0,4253.461426,4302.563965,4261.153809,4356.922852,4353.077148,4320,4325.384766,4405.384766,4332.820313,4361.666504,4325.641113,4389.743652,4281.410156,4235.897461,,,,,,,,,,,,,,,,,,,,,,,,,,,,,,,,,,,,,,,,,,,,,,,,,,,,,,,,,,,,,,,,,,,,,,
1720081630,122,0,4261.922852,4308.974121,4260.641113,4358.077148,4347.563965,4318.974121,4321.666504,4408.333496,4328.333496,4361.410156,4327.179688,4396.410156,4276.922852,4259.871582,,,,,,,,,,,,,,,,,,,,,,,,,,,,,,,,,,,,,,,,,,,,,,,,,,,,,,,,,,,,,,,,,,,,,,
1720081630,123,0,4238.589844,4298.846191,4258.974121,4355.769043,4344.358887,4323.589844,4324.615234,4419.102539,4325.641113,4366.538574,4326.922852,4405.641113,4276.410156,4211.922852,,,,,,,,,,,,,,,,,,,,,,,,,,,,,,,,,,,,,,,,,,,,,,,,,,,,,,,,,,,,,,,,,,,,,,
1720081630,124,0,4239.230957,4296.282227,4256.153809,4355,4349.615234,4325,4323.077148,4421.410156,4317.05127,4358.205078,4320.512695,4396.025879,4274.230957,4178.333496,,,,,,,,,,,,,,,,,,,,,,,,,,,,,,,,,,,,,,,,,,,,,,,,,,,,,,,,,,,,,,,,,,,,,,
1720081630,125,0,4254.743652,4305.897461,4251.538574,4358.205078,4352.307617,4324.743652,4324.102539,4427.563965,4311.025879,4350.256348,4306.922852,4380.384766,4264.102539,4232.563965,1.504368,7.583911,6.323322,2.613122,1.23104,0.835799,3.017311,2.007707,0.919607,0.4835,1.508905,2.541563,2.017841,0.518191,0.287964,0.077743,0.091068,0.056355,0.02393,0.083394,0.370118,0.256226,0.820365,0.101116,0.098643,2.585032,1.06645,2.110673,0.22401,0.114639,0.621424,2.126682,11.929265,0.609594,0.110586,0.141762,0.194809,0.43717,0.142547,2.097794,0.450764,2.786979,4.434817,0.748945,0.330435,0.577005,1.311465,1.796007,0.271244,0.112031,3.060731,4.222242,2.458959,0.963569,0.541958,2.152596,4.181685,3.373331,1.082567,0.851992,3.166373,4.883088,2.591518,0.988039,0.59995,4.378362,10.614721,14.878643,4.015038,3.060291
1720081630,126,0,4239.102539,4304.743652,4252.692383,4358.333496,4354.615234,4328.717773,4332.179688,4431.922852,4314.487305,4352.563965,4309.358887,4389.615234,4268.846191,4261.922852,,,,,,,,,,,,,,,,,,,,,,,,,,,,,,,,,,,,,,,,,,,,,,,,,,,,,,,,,,,,,,,,,,,,,,
1720081630,127,0,4223.589844,4296.922852,4261.666504,4357.563965,4355.641113,4332.179688,4337.307617,4437.820313,4317.179688,4353.461426,4327.563965,4415.641113,4278.205078,4222.05127,,,,,,,,,,,,,,,,,,,,,,,,,,,,,,,,,,,,,,,,,,,,,,,,,,,,,,,,,,,,,,,,,,,,,,
1720081630,0,0,4233.333496,4297.94873,4262.820313,4357.692383,4346.922852,4329.871582,4335.512695,4453.077148,4322.692383,4358.589844,4337.436035,4422.692383,4279.743652,4219.230957,,,,,,,,,,,,,,,,,,,,,,,,,,,,,,,,,,,,,,,,,,,,,,,,,,,,,,,,,,,,,,,,,,,,,,
1720081630,1,0,4241.282227,4301.025879,4253.333496,4354.871582,4340.384766,4321.922852,4330.384766,4454.487305,4341.922852,4372.307617,4342.307617,4410.769043,4293.717773,4257.94873,,,,,,,,,,,,,,,,,,,,,,,,,,,,,,,,,,,,,,,,,,,,,,,,,,,,,,,,,,,,,,,,,,,,,,
1720081630,2,0,4245.641113,4301.538574,4249.871582,4353.589844,4336.410156,4314.487305,4319.871582,4465.256348,4352.692383,4375.384766,4350.256348,4409.871582,4304.871582,4270.128418,,,,,,,,,,,,,,,,,,,,,,,,,,,,,,,,,,,,,,,,,,,,,,,,,,,,,,,,,,,,,,,,,,,,,,
1720081630,3,0,4247.563965,4299.358887,4253.333496,4355.769043,4329.487305,4312.179688,4307.563965,4490.128418,4340.769043,4368.589844,4347.94873,4418.717773,4292.820313,4256.025879,,,,,,,,,,,,,,,,,,,,,,,,,,,,,,,,,,,,,,,,,,,,,,,,,,,,,,,,,,,,,,,,,,,,,,
1720081630,4,0,4237.563965,4293.461426,4245.897461,4350.128418,4333.974121,4313.974121,4307.307617,4468.717773,4326.538574,4363.974121,4326.025879,4409.358887,4275,4230.256348,,,,,,,,,,,,,,,,,,,,,,,,,,,,,,,,,,,,,,,,,,,,,,,,,,,,,,,,,,,,,,,,,,,,,,
1720081630,5,0,4230.384766,4294.487305,4239.487305,4344.743652,4343.846191,4323.077148,4320.897461,4444.871582,4316.153809,4357.436035,4309.743652,4394.102539,4266.025879,4224.102539,,,,,,,,,,,,,,,,,,,,,,,,,,,,,,,,,,,,,,,,,,,,,,,,,,,,,,,,,,,,,,,,,,,,,,
1720081630,6,0,4237.179688,4299.871582,4260.512695,4355.128418,4342.179688,4332.05127,4329.102539,4494.358887,4308.205078,4355.512695,4329.230957,4412.307617,4275.256348,4253.077148,,,,,,,,,,,,,,,,,,,,,,,,,,,,,,,,,,,,,,,,,,,,,,,,,,,,,,,,,,,,,,,,,,,,,,
1720081630,7,0,4245.256348,4304.102539,4275.769043,4359.230957,4339.230957,4328.205078,4329.487305,4496.922852,4313.205078,4362.692383,4347.692383,4434.743652,4293.077148,4252.179688,,,,,,,,,,,,,,,,,,,,,,,,,,,,,,,,,,,,,,,,,,,,,,,,,,,,,,,,,,,,,,,,,,,,,,
1720081630,8,0,4250.384766,4310.256348,4268.077148,4352.179688,4346.666504,4326.025879,4331.282227,4447.307617,4315.128418,4363.461426,4339.102539,4430.512695,4288.974121,4224.871582,,,,,,,,,,,,,,,,,,,,,,,,,,,,,,,,,,,,,,,,,,,,,,,,,,,,,,,,,,,,,,,,,,,,,,
1720081630,9,0,4255.384766,4312.436035,4266.666504,4353.333496,4349.615234,4332.563965,4330.128418,4472.05127,4303.974121,4358.461426,4338.077148,4423.717773,4278.077148,4242.05127,,,,,,,,,,,,,,,,,,,,,,,,,,,,,,,,,,,,,,,,,,,,,,,,,,,,,,,,,,,,,,,,,,,,,,
1720081630,10,0,4252.820313,4310,4267.307617,4354.230957,4343.333496,4329.487305,4326.538574,4483.461426,4310.256348,4365.384766,4340.512695,4418.589844,4282.692383,4261.025879,,,,,,,,,,,,,,,,,,,,,,,,,,,,,,,,,,,,,,,,,,,,,,,,,,,,,,,,,,,,,,,,,,,,,,
1720081630,11,0,4247.307617,4310.384766,4270,4352.307617,4340.128418,4323.846191,4329.102539,4458.846191,4334.615234,4374.743652,4336.410156,4425.641113,4287.05127,4252.179688,,,,,,,,,,,,,,,,,,,,,,,,,,,,,,,,,,,,,,,,,,,,,,,,,,,,,,,,,,,,,,,,,,,,,,
1720081630,12,0,4245.641113,4309.358887,4280.128418,4355.769043,4341.922852,4328.205078,4333.717773,4479.615234,4343.589844,4377.436035,4341.025879,4441.025879,4289.615234,4261.922852,,,,,,,,,,,,,,,,,,,,,,,,,,,,,,,,,,,,,,,,,,,,,,,,,,,,,,,,,,,,,,,,,,,,,,
1720081630,13,0,4235.384766,4299.358887,4268.717773,4353.589844,4340.128418,4325.384766,4328.333496,4475.769043,4336.282227,4377.436035,4334.487305,4423.333496,4289.615234,4261.153809,1.622602,7.474298,5.21821,2.273834,1.096751,0.858703,2.934006,1.766295,0.756298,0.449971,1.448534,2.255641,1.942841,0.499879,0.274014,0.071912,0.098853,0.048478,0.02217,0.082998,0.349598,0.260838,0.669236,0.102713,0.097006,2.636524,1.235662,1.784181,0.22385,0.125462,0.465836,1.772398,12.265069,0.557571,0.11334,0.131534,0.208518,0.432793,0.139822,2.087704,0.372485,2.981449,4.29806,0.752844,0.297817,0.496059,1.31848,1.789356,0.292946,0.104589,2.981153,4.122174,2.93349,0.915724,0.533457,1.942372,3.848453,3.180328,0.922521,0.825243,3.056947,4.894794,2.958333,0.944932,0.616765,3.835734,12.437232,12.579191,4.150738,3.110183
1720081630,14,0,4224.102539,4288.333496,4245.128418,4343.589844,4333.077148,4310,4315.641113,4442.563965,4328.077148,4374.230957,4315.256348,4394.871582,4275.128418,4235,,,,,,,,,,,,,,,,,,,,,,,,,,,,,,,,,,,,,,,,,,,,,,,,,,,,,,,,,,,,,,,,,,,,,,
1720081630,15,0,4228.461426,4284.102539,4247.692383,4347.94873,4323.333496,4308.717773,4309.230957,4484.487305,4318.333496,4367.436035,4319.743652,4410.769043,4265.384766,4224.358887,,,,,,,,,,,,,,,,,,,,,,,,,,,,,,,,,,,,,,,,,,,,,,,,,,,,,,,,,,,,,,,,,,,,,,
1720081630,16,0,4236.025879,4290.897461,4252.692383,4356.794922,4319.487305,4315.769043,4312.692383,4491.282227,4309.487305,4361.153809,4323.974121,4420,4266.153809,4212.563965,,,,,,,,,,,,,,,,,,,,,,,,,,,,,,,,,,,,,,,,,,,,,,,,,,,,,,,,,,,,,,,,,,,,,,
1720081630,17,0,4230.512695,4298.077148,4244.615234,4352.05127,4329.102539,4314.871582,4313.461426,4442.563965,4305.128418,4358.589844,4308.333496,4397.179688,4260.897461,4203.205078,,,,,,,,,,,,,,,,,,,,,,,,,,,,,,,,,,,,,,,,,,,,,,,,,,,,,,,,,,,,,,,,,,,,,,
1720081630,18,0,4226.410156,4294.871582,4245.384766,4349.358887,4338.717773,4316.282227,4313.717773,4463.846191,4304.102539,4360.512695,4307.94873,4395.256348,4261.794922,4227.692383,,,,,,,,,,,,,,,,,,,,,,,,,,,,,,,,,,,,,,,,,,,,,,,,,,,,,,,,,,,,,,,,,,,,,,
1720081630,19,0,4237.820313,4297.563965,4250.256348,4352.692383,4340.769043,4318.333496,4324.743652,4465.384766,4312.692383,4363.846191,4316.538574,4402.692383,4271.025879,4243.205078,,,,,,,,,,,,,,,,,,,,,,,,,,,,,,,,,,,,,,,,,,,,,,,,,,,,,,,,,,,,,,,,,,,,,,
1720081630,20,0,4242.563965,4301.025879,4255.897461,4354.230957,4336.153809,4317.692383,4324.871582,4450,4316.922852,4366.794922,4315.384766,4406.025879,4269.358887,4232.820313,,,,,,,,,,,,,,,,,,,,,,,,,,,,,,,,,,,,,,,,,,,,,,,,,,,,,,,,,,,,,,,,,,,,,,
1720081630,21,0,4243.974121,4298.461426,4256.025879,4351.025879,4328.461426,4315.897461,4313.077148,4461.410156,4316.153809,4370.641113,4313.461426,4404.615234,4267.307617,4236.410156,,,,,,,,,,,,,,,,,,,,,,,,,,,,,,,,,,,,,,,,,,,,,,,,,,,,,,,,,,,,,,,,,,,,,,
1720081630,22,0,4246.666504,4301.153809,4252.820313,4348.589844,4326.794922,4314.487305,4312.05127,4458.974121,4327.436035,4377.05127,4319.487305,4401.922852,4277.94873,4245.641113,,,,,,,,,,,,,,,,,,,,,,,,,,,,,,,,,,,,,,,,,,,,,,,,,,,,,,,,,,,,,,,,,,,,,,
1720081630,23,0,4235.128418,4299.358887,4255.769043,4348.846191,4327.820313,4313.589844,4311.410156,4465.384766,4335.256348,4383.846191,4323.846191,4406.538574,4277.820313,4231.922852,,,,,,,,,,,,,,,,,,,,,,,,,,,,,,,,,,,,,,,,,,,,,,,,,,,,,,,,,,,,,,,,,,,,,,
1720081630,24,0,4230.256348,4293.205078,4252.692383,4346.794922,4327.692383,4312.820313,4309.230957,4455,4329.487305,4384.358887,4310,4400.128418,4262.692383,4216.794922,,,,,,,,,,,,,,,,,,,,,,,,,,,,,,,,,,,,,,,,,,,,,,,,,,,,,,,,,,,,,,,,,,,,,,
1720081630,25,0,4240.512695,4290,4251.153809,4351.794922,4324.615234,4319.871582,4314.743652,4458.077148,4318.717773,4380.769043,4305.384766,4400.256348,4260.384766,4225,,,,,,,,,,,,,,,,,,,,,,,,,,,,,,,,,,,,,,,,,,,,,,,,,,,,,,,,,,,,,,,,,,,,,,
1720081630,26,0,4244.102539,4291.282227,4254.102539,4354.615234,4327.307617,4323.974121,4321.153809,4470.128418,4309.487305,4376.153809,4311.666504,4399.743652,4267.05127,4235.128418,,,,,,,,,,,,,,,,,,,,,,,,,,,,,,,,,,,,,,,,,,,,,,,,,,,,,,,,,,,,,,,,,,,,,,
1720081630,27,0,4236.282227,4299.743652,4250,4349.615234,4338.205078,4319.230957,4325.641113,4441.538574,4309.358887,4373.717773,4302.94873,4386.922852,4263.717773,4219.230957,,,,,,,,,,,,,,,,,,,,,,,,,,,,,,,,,,,,,,,,,,,,,,,,,,,,,,,,,,,,,,,,,,,,,,
1720081630,28,0,4238.205078,4304.102539,4252.820313,4351.794922,4342.563965,4320,4325.769043,4446.282227,4311.666504,4377.05127,4301.153809,4397.692383,4261.282227,4201.538574,,,,,,,,,,,,,,,,,,,,,,,,,,,,,,,,,,,,,,,,,,,,,,,,,,,,,,,,,,,,,,,,,,,,,,
1720081630,29,0,4253.589844,4302.820313,4261.025879,4354.102539,4340.769043,4323.205078,4323.333496,4460.769043,4310.384766,4383.333496,4317.563965,4412.94873,4273.077148,4220.512695,1.64853,7.104349,4.016188,1.95915,1.00802,0.871599,2.721123,1.508426,0.597669,0.418272,1.355835,1.831258,1.749009,0.478412,0.265457,0.062682,0.103325,0.041991,0.020057,0.08064,0.44752,0.309832,0.502547,0.109203,0.096488,2.786688,1.376681,1.401734,0.230169,0.132629,0.373731,1.656962,12.412246,0.51583,0.123309,0.1526,0.207669,0.38624,0.138597,2.085997,0.35234,2.878708,3.795564,0.751115,0.295932,0.442126,1.227416,1.639301,0.312825,0.107555,2.913252,3.730762,3.325414,0.91413,0.542203,1.779626,3.228077,2.881514,0.795612,0.805498,3.098112,4.682872,3.388325,0.968149,0.635256,3.511873,14.193388,11.332919,4.49996,3.093558
1720081630,30,0,4262.820313,4310.128418,4262.692383,4350.256348,4340.641113,4322.563965,4323.846191,4430.769043,4320.512695,4391.794922,4320.256348,4405,4281.153809,4247.692383,,,,,,,,,,,,,,,,,,,,,,,,,,,,,,,,,,,,,,,,,,,,,,,,,,,,,,,,,,,,,,,,,,,,,,
1720081630,31,0,4258.333496,4314.487305,4267.307617,4355.769043,4336.153809,4325.384766,4326.282227,4451.666504,4329.487305,4397.94873,4312.820313,4410.256348,4275.256348,4247.179688,,,,,,,,,,,,,,,,,,,,,,,,,,,,,,,,,,,,,,,,,,,,,,,,,,,,,,,,,,,,,,,,,,,,,,
1720081630,32,0,4260.128418,4307.307617,4274.230957,4357.820313,4332.05127,4323.461426,4325.769043,4478.077148,4323.846191,4400.256348,4319.358887,4421.025879,4278.333496,4234.743652,,,,,,,,,,,,,,,,,,,,,,,,,,,,,,,,,,,,,,,,,,,,,,,,,,,,,,,,,,,,,,,,,,,,,,
1720081630,33,0,4268.205078,4305,4271.282227,4345.769043,4336.922852,4315.641113,4327.94873,4421.282227,4327.307617,4404.230957,4321.153809,4410.256348,4285.641113,4238.205078,,,,,,,,,,,,,,,,,,,,,,,,,,,,,,,,,,,,,,,,,,,,,,,,,,,,,,,,,,,,,,,,,,,,,,
1720081630,34,0,4253.846191,4304.358887,4274.230957,4349.102539,4337.05127,4319.871582,4329.230957,4431.025879,4332.820313,4409.871582,4316.282227,4409.487305,4277.563965,4242.563965,,,,,,,,,,,,,,,,,,,,,,,,,,,,,,,,,,,,,,,,,,,,,,,,,,,,,,,,,,,,,,,,,,,,,,
1720081630,35,0,4241.922852,4298.717773,4271.538574,4359.487305,4335,4325.256348,4323.461426,4483.589844,4322.436035,4408.589844,4315.641113,4405.128418,4269.615234,4244.358887,,,,,,,,,,,,,,,,,,,,,,,,,,,,,,,,,,,,,,,,,,,,,,,,,,,,,,,,,,,,,,,,,,,,,,
1720081630,36,0,4252.307617,4300.769043,4257.820313,4350.897461,4338.846191,4322.692383,4325.384766,4447.692383,4323.205078,4414.358887,4316.282227,4396.794922,4276.025879,4240.128418,,,,,,,,,,,,,,,,,,,,,,,,,,,,,,,,,,,,,,,,,,,,,,,,,,,,,,,,,,,,,,,,,,,,,,
1720081630,37,0,4251.025879,4301.538574,4264.102539,4346.922852,4332.307617,4320.128418,4328.717773,4444.871582,4328.589844,4434.358887,4319.743652,4420.769043,4275.256348,4210.384766,,,,,,,,,,,,,,,,,,,,,,,,,,,,,,,,,,,,,,,,,,,,,,,,,,,,,,,,,,,,,,,,,,,,,,
1720081630,38,0,4237.05127,4291.282227,4263.717773,4352.307617,4317.820313,4311.282227,4315.384766,4468.717773,4302.436035,4433.589844,4305.769043,4417.94873,4258.846191,4197.179688,,,,,,,,,,,,,,,,,,,,,,,,,,,,,,,,,,,,,,,,,,,,,,,,,,,,,,,,,,,,,,,,,,,,,,
1720081630,39,0,4233.077148,4280.769043,4241.153809,4349.615234,4308.974121,4300.384766,4298.077148,4445.512695,4276.153809,4420.384766,4283.589844,4380.384766,4249.230957,4207.307617,,,,,,,,,,,,,,,,,,,,,,,,,,,,,,,,,,,,,,,,,,,,,,,,,,,,,,,,,,,,,,,,,,,,,,
1720081630,40,0,4239.487305,4279.102539,4239.615234,4347.179688,4306.666504,4297.436035,4298.717773,4457.307617,4292.05127,4435.897461,4287.179688,4383.589844,4253.077148,4209.615234,,,,,,,,,,,,,,,,,,,,,,,,,,,,,,,,,,,,,,,,,,,,,,,,,,,,,,,,,,,,,,,,,,,,,,
1720081630,41,0,4250.897461,4289.871582,4258.333496,4349.487305,4311.410156,4299.871582,4315.897461,4478.205078,4320.512695,4463.461426,4309.615234,4410.512695,4263.589844,4222.436035,,,,,,,,,,,,,,,,,,,,,,,,,,,,,,,,,,,,,,,,,,,,,,,,,,,,,,,,,,,,,,,,,,,,,,
1720081630,42,0,4268.205078,4307.307617,4273.205078,4347.05127,4322.307617,4302.94873,4331.922852,4440.128418,4328.461426,4469.358887,4320.256348,4417.94873,4279.487305,4253.205078,,,,,,,,,,,,,,,,,,,,,,,,,,,,,,,,,,,,,,,,,,,,,,,,,,,,,,,,,,,,,,,,,,,,,,
1720081630,43,0,4272.94873,4312.307617,4287.307617,4349.743652,4328.974121,4311.282227,4340.769043,4460.769043,4320.512695,4469.743652,4327.307617,4439.871582,4291.025879,4273.846191,,,,,,,,,,,,,,,,,,,,,,,,,,,,,,,,,,,,,,,,,,,,,,,,,,,,,,,,,,,,,,,,,,,,,,
1720081630,44,0,4265,4307.563965,4288.974121,4354.230957,4325.897461,4312.820313,4342.563965,4499.358887,4318.077148,4476.282227,4333.205078,4452.179688,4293.846191,4264.743652,,,,,,,,,,,,,,,,,,,,,,,,,,,,,,,,,,,,,,,,,,,,,,,,,,,,,,,,,,,,,,,,,,,,,,
1720081630,45,0,4264.743652,4307.307617,4279.230957,4349.743652,4324.487305,4307.307617,4336.666504,4453.717773,4318.974121,4477.563965,4327.692383,4434.102539,4293.205078,4246.282227,1.697817,6.519419,2.936445,1.707718,0.969418,0.908485,2.418745,1.265863,0.468307,0.392009,1.274871,1.388844,1.484906,0.455413,0.269478,0.052302,0.104698,0.038183,0.018026,0.076137,0.580425,0.392707,0.345921,0.117243,0.097155,2.900043,1.45541,1.064843,0.240001,0.133521,0.349887,1.918257,12.383186,0.494204,0.135543,0.239739,0.195127,0.310682,0.140649,2.112332,0.368605,2.550872,3.089632,0.739409,0.317709,0.398603,1.064282,1.380756,0.323583,0.119019,2.887064,3.105257,3.44801,0.956415,0.56627,1.687888,2.460389,2.492359,0.728495,0.805191,3.165021,4.214993,3.61996,1.031478,0.651918,3.33643,15.058652,11.144843,4.878235,3.055571
1720081630,46,0,4269.871582,4306.410156,4282.179688,4351.153809,4328.589844,4312.563965,4328.205078,4457.692383,4309.487305,4476.538574,4320.384766,4436.025879,4286.282227,4243.077148,,,,,,,,,,,,,,,,,,,,,,,,,,,,,,,,,,,,,,,,,,,,,,,,,,,,,,,,,,,,,,,,,,,,,,
1720081630,47,0,4280.384766,4309.102539,4276.282227,4354.230957,4330,4311.410156,4323.461426,4476.666504,4302.692383,4475.769043,4308.589844,4431.282227,4277.820313,4239.743652,,,,,,,,,,,,,,,,,,,,,,,,,,,,,,,,,,,,,,,,,,,,,,,,,,,,,,,,,,,,,,,,,,,,,,
1720081630,48,0,4279.871582,4309.871582,4260.512695,4351.538574,4324.102539,4304.102539,4322.307617,4458.077148,4302.94873,4473.461426,4304.615234,4409.615234,4272.563965,4216.538574,,,,,,,,,,,,,,,,,,,,,,,,,,,,,,,,,,,,,,,,,,,,,,,,,,,,,,,,,,,,,,,,,,,,,,
1720081630,49,0,4271.282227,4305.769043,4262.307617,4352.307617,4325.897461,4310,4323.974121,4463.461426,4302.307617,4475.897461,4310.641113,4410.512695,4270.128418,4220.769043,,,,,,,,,,,,,,,,,,,,,,,,,,,,,,,,,,,,,,,,,,,,,,,,,,,,,,,,,,,,,,,,,,,,,,
1720081630,50,0,4278.077148,4310.384766,4270.128418,4353.205078,4334.615234,4313.717773,4325,4461.538574,4307.820313,4481.282227,4314.102539,4422.436035,4278.717773,4264.743652,,,,,,,,,,,,,,,,,,,,,,,,,,,,,,,,,,,,,,,,,,,,,,,,,,,,,,,,,,,,,,,,,,,,,,
1720081630,51,0,4286.153809,4314.871582,4273.333496,4351.794922,4331.025879,4312.436035,4324.102539,4462.307617,4316.025879,4484.358887,4321.538574,4432.05127,4290.897461,4279.871582,,,,,,,,,,,,,,,,,,,,,,,,,,,,,,,,,,,,,,,,,,,,,,,,,,,,,,,,,,,,,,,,,,,,,,
1720081630,52,0,4277.563965,4308.461426,4272.436035,4349.871582,4327.563965,4313.974121,4328.589844,4463.846191,4317.94873,4485,4322.820313,4431.025879,4293.461426,4265.128418,,,,,,,,,,,,,,,,,,,,,,,,,,,,,,,,,,,,,,,,,,,,,,,,,,,,,,,,,,,,,,,,,,,,,,
1720081630,53,0,4260.897461,4300.512695,4271.410156,4349.230957,4328.974121,4316.794922,4335.641113,4461.410156,4319.487305,4485.641113,4312.692383,4423.846191,4286.025879,4255.769043,,,,,,,,,,,,,,,,,,,,,,,,,,,,,,,,,,,,,,,,,,,,,,,,,,,,,,,,,,,,,,,,,,,,,,
1720081630,54,0,4262.179688,4300.641113,4270.256348,4349.615234,4329.615234,4321.282227,4341.538574,4469.230957,4329.102539,4487.563965,4307.692383,4426.153809,4278.333496,4240.769043,,,,,,,,,,,,,,,,,,,,,,,,,,,,,,,,,,,,,,,,,,,,,,,,,,,,,,,,,,,,,,,,,,,,,,
1720081630,55,0,4281.282227,4310.128418,4270.769043,4351.538574,4331.794922,4322.179688,4345.897461,4468.589844,4341.025879,4493.205078,4315.512695,4432.307617,4285.512695,4233.077148,,,,,,,,,,,,,,,,,,,,,,,,,,,,,,,,,,,,,,,,,,,,,,,,,,,,,,,,,,,,,,,,,,,,,,
1720081630,56,0,4281.538574,4312.94873,4271.922852,4353.205078,4330,4316.922852,4337.94873,4458.717773,4335.897461,4492.692383,4320.128418,4426.282227,4292.307617,4250.384766,,,,,,,,,,,,,,,,,,,,,,,,,,,,,,,,,,,,,,,,,,,,,,,,,,,,,,,,,,,,,,,,,,,,,,
1720081630,57,0,4263.077148,4300,4270,4351.153809,4325.769043,4314.358887,4322.05127,4464.615234,4312.820313,4479.358887,4315.128418,4420.384766,4280.769043,4242.05127,,,,,,,,,,,,,,,,,,,,,,,,,,,,,,,,,,,,,,,,,,,,,,,,,,,,,,,,,,,,,,,,,,,,,,
1720081630,58,0,4264.871582,4296.153809,4266.794922,4347.179688,4328.461426,4314.102539,4320.512695,4449.230957,4307.692383,4472.692383,4308.333496,4422.307617,4271.794922,4206.153809,,,,,,,,,,,,,,,,,,,,,,,,,,,,,,,,,,,,,,,,,,,,,,,,,,,,,,,,,,,,,,,,,,,,,,
1720081630,59,0,4275,4305.769043,4264.487305,4348.333496,4332.05127,4315.128418,4325.384766,4436.282227,4319.358887,4478.461426,4306.538574,4423.974121,4274.615234,4216.282227,,,,,,,,,,,,,,,,,,,,,,,,,,,,,,,,,,,,,,,,,,,,,,,,,,,,,,,,,,,,,,,,,,,,,,
1720081630,60,0,4268.205078,4300.512695,4261.666504,4354.871582,4324.743652,4317.563965,4316.410156,4484.230957,4312.94873,4476.282227,4306.282227,4426.410156,4274.102539,4272.820313,,,,,,,,,,,,,,,,,,,,,,,,,,,,,,,,,,,,,,,,,,,,,,,,,,,,,,,,,,,,,,,,,,,,,,
1720081630,61,0,4275.512695,4297.307617,4250.384766,4352.179688,4324.487305,4311.538574,4312.307617,4465.384766,4308.846191,4471.538574,4297.179688,4411.282227,4275.256348,4283.589844,1.625577,5.777655,2.132571,1.520254,0.956437,0.910376,2.079912,1.064143,0.374566,0.367428,1.230671,1.04969,1.20585,0.435609,0.286567,0.041883,0.102812,0.038052,0.01637,0.071114,0.696269,0.498453,0.240944,0.12899,0.099721,3.081656,1.467539,0.841029,0.253969,0.128528,0.409471,2.551387,12.057154,0.501173,0.146074,0.436276,0.180665,0.232273,0.146058,2.181139,0.393973,2.173058,2.465889,0.717508,0.34873,0.390995,0.879887,1.105219,0.320861,0.134629,2.852512,2.362991,3.244131,1.018226,0.597137,1.67636,1.722796,2.047621,0.723566,0.827426,3.190372,3.507946,3.509132,1.084737,0.662062,3.219162,14.442745,11.579335,5.125098,3.048217
1720081630,62,0,4280.512695,4303.717773,4250.128418,4346.282227,4330,4309.487305,4324.871582,4423.205078,4324.743652,4477.94873,4297.94873,4410.769043,4277.179688,4237.563965,,,,,,,,,,,,,,,,,,,,,,,,,,,,,,,,,,,,,,,,,,,,,,,,,,,,,,,,,,,,,,,,,,,,,,
1720081630,63,0,4255.641113,4297.307617,4263.333496,4350.256348,4328.205078,4317.692383,4337.05127,4466.282227,4337.436035,4483.205078,4310.256348,4437.692383,4272.436035,4211.666504,,,,,,,,,,,,,,,,,,,,,,,,,,,,,,,,,,,,,,,,,,,,,,,,,,,,,,,,,,,,,,,,,,,,,,
1720081630,64,0,4252.692383,4292.692383,4258.846191,4349.615234,4325.769043,4318.846191,4338.846191,4465.256348,4343.589844,4478.846191,4309.743652,4430.769043,4278.205078,4231.794922,,,,,,,,,,,,,,,,,,,,,,,,,,,,,,,,,,,,,,,,,,,,,,,,,,,,,,,,,,,,,,,,,,,,,,
1720081630,65,0,4279.743652,4304.102539,4255.384766,4345.897461,4325.128418,4315.641113,4336.410156,4444.102539,4348.717773,4482.05127,4309.743652,4416.410156,4292.563965,4280.641113,,,,,,,,,,,,,,,,,,,,,,,,,,,,,,,,,,,,,,,,,,,,,,,,,,,,,,,,,,,,,,,,,,,,,,
1720081630,66,0,4276.538574,4305.384766,4260.384766,4348.974121,4326.922852,4311.538574,4330.384766,4460.641113,4346.410156,4484.743652,4311.794922,4420.897461,4290.512695,4291.025879,,,,,,,,,,,,,,,,,,,,,,,,,,,,,,,,,,,,,,,,,,,,,,,,,,,,,,,,,,,,,,,,,,,,,,
1720081630,67,0,4246.794922,4287.05127,4249.615234,4349.871582,4326.153809,4304.743652,4316.282227,4451.025879,4335.512695,4471.666504,4290.897461,4404.871582,4267.820313,4227.307617,,,,,,,,,,,,,,,,,,,,,,,,,,,,,,,,,,,,,,,,,,,,,,,,,,,,,,,,,,,,,,,,,,,,,,
1720081630,68,0,4242.307617,4277.05127,4237.307617,4347.05127,4322.436035,4303.205078,4307.820313,4441.666504,4319.615234,4458.717773,4270.384766,4389.230957,4252.05127,4185,,,,,,,,,,,,,,,,,,,,,,,,,,,,,,,,,,,,,,,,,,,,,,,,,,,,,,,,,,,,,,,,,,,,,,
1720081630,69,0,4256.922852,4285.128418,4241.538574,4347.307617,4325.641113,4309.615234,4315.384766,4456.922852,4309.487305,4455.512695,4279.743652,4401.794922,4258.717773,4218.077148,,,,,,,,,,,,,,,,,,,,,,,,,,,,,,,,,,,,,,,,,,,,,,,,,,,,,,,,,,,,,,,,,,,,,,
1720081630,70,0,4252.692383,4290.641113,4245.769043,4348.077148,4335.897461,4310,4322.692383,4438.077148,4316.410156,4456.025879,4289.487305,4403.589844,4265.641113,4249.358887,,,,,,,,,,,,,,,,,,,,,,,,,,,,,,,,,,,,,,,,,,,,,,,,,,,,,,,,,,,,,,,,,,,,,,
1720081630,71,0,4241.538574,4291.025879,4251.025879,4349.102539,4340.128418,4307.692383,4317.563965,4438.333496,4321.538574,4454.358887,4290.128418,4403.205078,4269.487305,4243.589844,,,,,,,,,,,,,,,,,,,,,,,,,,,,,,,,,,,,,,,,,,,,,,,,,,,,,,,,,,,,,,,,,,,,,,
1720081630,72,0,4255.512695,4295.897461,4257.692383,4348.461426,4339.615234,4312.436035,4316.282227,4466.538574,4318.205078,4451.922852,4297.436035,4414.487305,4279.615234,4260,,,,,,,,,,,,,,,,,,,,,,,,,,,,,,,,,,,,,,,,,,,,,,,,,,,,,,,,,,,,,,,,,,,,,,
1720081630,73,0,4274.743652,4305.128418,4251.282227,4344.487305,4342.307617,4311.282227,4326.538574,4430.384766,4328.846191,4453.333496,4298.077148,4408.717773,4282.820313,4277.820313,,,,,,,,,,,,,,,,,,,,,,,,,,,,,,,,,,,,,,,,,,,,,,,,,,,,,,,,,,,,,,,,,,,,,,
1720081630,74,0,4264.871582,4299.871582,4250.641113,4346.282227,4335.769043,4310.256348,4330.128418,4435.641113,4340.256348,4461.794922,4293.589844,4414.102539,4278.077148,4253.461426,,,,,,,,,,,,,,,,,,,,,,,,,,,,,,,,,,,,,,,,,,,,,,,,,,,,,,,,,,,,,,,,,,,,,,
1720081630,75,0,4259.487305,4292.563965,4252.692383,4347.307617,4331.282227,4313.589844,4325.641113,4464.743652,4342.94873,4463.974121,4294.743652,4420.897461,4282.436035,4236.410156,,,,,,,,,,,,,,,,,,,,,,,,,,,,,,,,,,,,,,,,,,,,,,,,,,,,,,,,,,,,,,,,,,,,,,
1720081630,76,0,4268.846191,4296.794922,4254.230957,4343.974121,4340,4314.102539,4326.282227,4441.410156,4346.410156,4459.871582,4300,4415.128418,4289.102539,4253.846191,,,,,,,,,,,,,,,,,,,,,,,,,,,,,,,,,,,,,,,,,,,,,,,,,,,,,,,,,,,,,,,,,,,,,,
1720081630,77,0,4266.538574,4300.512695,4267.179688,4346.666504,4345.128418,4316.538574,4330.384766,4443.077148,4343.461426,4460.384766,4303.589844,4422.05127,4285.512695,4275.769043,1.55612,4.921091,1.652925,1.363061,0.933008,0.932862,1.751776,0.920108,0.30883,0.338073,1.289425,0.91065,0.977425,0.425099,0.310231,0.035721,0.097851,0.042402,0.015195,0.068703,0.793926,0.611985,0.215256,0.149384,0.103936,3.110633,1.420295,0.741302,0.269694,0.119552,0.545166,3.385428,11.28417,0.535891,0.151013,0.685194,0.174424,0.176279,0.153481,2.302411,0.41264,1.9489,2.23804,0.691846,0.37539,0.424145,0.730427,0.921371,0.305975,0.150022,2.858916,1.650152,2.813894,1.069785,0.622832,1.739807,1.179846,1.628953,0.767442,0.865837,3.110084,2.666553,3.096812,1.084235,0.659217,3.143226,12.350044,12.025699,5.098011,3.080151
1720081630,78,0,4273.846191,4307.179688,4268.974121,4348.205078,4343.461426,4314.487305,4324.230957,4442.563965,4336.794922,4455.769043,4296.666504,4424.102539,4281.153809,4271.922852,,,,,,,,,,,,,,,,,,,,,,,,,,,,,,,,,,,,,,,,,,,,,,,,,,,,,,,,,,,,,,,,,,,,,,
1720081630,79,0,4288.205078,4312.436035,4257.563965,4347.436035,4342.563965,4311.666504,4312.179688,4437.307617,4333.589844,4447.820313,4293.717773,4423.974121,4279.615234,4250.897461,,,,,,,,,,,,,,,,,,,,,,,,,,,,,,,,,,,,,,,,,,,,,,,,,,,,,,,,,,,,,,,,,,,,,,
1720081630,80,0,4273.974121,4303.461426,4249.487305,4347.05127,4344.358887,4311.922852,4312.563965,4439.615234,4332.307617,4445,4295.897461,4420.512695,4279.230957,4245.897461,,,,,,,,,,,,,,,,,,,,,,,,,,,,,,,,,,,,,,,,,,,,,,,,,,,,,,,,,,,,,,,,,,,,,,
1720081630,81,0,4262.179688,4298.846191,4251.538574,4346.794922,4343.077148,4310.641113,4320,4435.256348,4332.179688,4446.153809,4289.358887,4410.512695,4278.205078,4268.589844,,,,,,,,,,,,,,,,,,,,,,,,,,,,,,,,,,,,,,,,,,,,,,,,,,,,,,,,,,,,,,,,,,,,,,
1720081630,82,0,4284.615234,4313.846191,4260.512695,4351.282227,4346.410156,4318.717773,4323.974121,4441.538574,4331.538574,4445.128418,4289.871582,4416.666504,4279.487305,4286.666504,,,,,,,,,,,,,,,,,,,,,,,,,,,,,,,,,,,,,,,,,,,,,,,,,,,,,,,,,,,,,,,,,,,,,,
1720081630,83,0,4300.769043,4324.615234,4271.538574,4355.256348,4355,4333.333496,4332.692383,4440.897461,4333.974121,4441.282227,4303.974121,4430.512695,4289.102539,4284.358887,,,,,,,,,,,,,,,,,,,,,,,,,,,,,,,,,,,,,,,,,,,,,,,,,,,,,,,,,,,,,,,,,,,,,,
1720081630,84,0,4289.487305,4319.615234,4275,4351.410156,4351.666504,4341.153809,4341.025879,4430.641113,4343.205078,4443.846191,4315.641113,4434.230957,4304.743652,4290.256348,,,,,,,,,,,,,,,,,,,,,,,,,,,,,,,,,,,,,,,,,,,,,,,,,,,,,,,,,,,,,,,,,,,,,,
1720081630,85,0,4283.333496,4314.102539,4263.846191,4346.538574,4341.153809,4341.666504,4336.922852,4442.94873,4345.384766,4446.922852,4312.436035,4434.358887,4304.102539,4285.384766,,,,,,,,,,,,,,,,,,,,,,,,,,,,,,,,,,,,,,,,,,,,,,,,,,,,,,,,,,,,,,,,,,,,,,
1720081630,86,0,4288.974121,4309.743652,4252.436035,4346.153809,4344.102539,4336.922852,4333.974121,4444.487305,4348.333496,4443.205078,4295,4423.461426,4280.512695,4260,,,,,,,,,,,,,,,,,,,,,,,,,,,,,,,,,,,,,,,,,,,,,,,,,,,,,,,,,,,,,,,,,,,,,,
1720081630,87,0,4272.820313,4303.974121,4256.922852,4345,4350.128418,4335.512695,4340.641113,4421.025879,4365.128418,4445.769043,4289.102539,4413.589844,4272.05127,4251.153809,,,,,,,,,,,,,,,,,,,,,,,,,,,,,,,,,,,,,,,,,,,,,,,,,,,,,,,,,,,,,,,,,,,,,,
1720081630,88,0,4249.871582,4302.563965,4276.410156,4346.666504,4342.307617,4343.205078,4343.077148,4458.077148,4369.230957,4451.282227,4310,4442.692383,4294.743652,4271.666504,,,,,,,,,,,,,,,,,,,,,,,,,,,,,,,,,,,,,,,,,,,,,,,,,,,,,,,,,,,,,,,,,,,,,,
1720081630,89,0,4268.589844,4310.384766,4275.769043,4348.974121,4340.512695,4344.743652,4340.897461,4464.871582,4359.487305,4447.820313,4317.563965,4452.692383,4313.077148,4301.666504,,,,,,,,,,,,,,,,,,,,,,,,,,,,,,,,,,,,,,,,,,,,,,,,,,,,,,,,,,,,,,,,,,,,,,
1720081630,90,0,4298.333496,4316.410156,4262.307617,4347.436035,4346.538574,4337.179688,4335.897461,4413.205078,4351.410156,4442.307617,4307.179688,4425.641113,4311.153809,4309.871582,,,,,,,,,,,,,,,,,,,,,,,,,,,,,,,,,,,,,,,,,,,,,,,,,,,,,,,,,,,,,,,,,,,,,,
1720081630,91,0,4297.692383,4317.692383,4265.384766,4348.974121,4343.846191,4335.384766,4325.256348,4438.461426,4341.538574,4441.794922,4320.512695,4432.179688,4310.769043,4294.102539,,,,,,,,,,,,,,,,,,,,,,,,,,,,,,,,,,,,,,,,,,,,,,,,,,,,,,,,,,,,,,,,,,,,,,
1720081630,92,0,4288.205078,4318.589844,4260,4347.692383,4341.282227,4332.692383,4322.05127,4450.897461,4346.666504,4441.666504,4328.205078,4439.102539,4316.282227,4278.205078,,,,,,,,,,,,,,,,,,,,,,,,,,,,,,,,,,,,,,,,,,,,,,,,,,,,,,,,,,,,,,,,,,,,,,
1720081630,93,0,4288.461426,4316.282227,4259.487305,4346.922852,4342.820313,4329.871582,4330,4424.743652,4358.846191,4443.717773,4317.436035,4428.717773,4316.282227,4285.384766,1.482705,4.034698,1.425648,1.208959,0.879907,0.96096,1.48441,0.822725,0.266978,0.302269,1.412347,1.015859,0.848441,0.429149,0.330721,0.033345,0.090373,0.050359,0.014532,0.071594,0.869072,0.712116,0.267201,0.18115,0.10887,3.042294,1.323829,0.731846,0.282728,0.109123,0.725266,4.122442,10.010962,0.59237,0.148602,0.975552,0.178715,0.156323,0.160427,2.46926,0.418958,2.021006,2.580401,0.669725,0.390807,0.497132,0.663213,0.902057,0.284407,0.162795,2.702825,1.129127,2.349047,1.099968,0.632546,1.803549,0.944749,1.339675,0.843358,0.906324,2.811263,1.894106,2.579348,1.022902,0.637958,2.931048,9.410836,12.03735,4.785548,3.128523
1720081630,94,0,4292.436035,4314.230957,4273.333496,4349.230957,4343.205078,4334.358887,4334.871582,4439.358887,4348.717773,4440.256348,4320.128418,4435.641113,4313.846191,4290.897461,,,,,,,,,,,,,,,,,,,,,,,,,,,,,,,,,,,,,,,,,,,,,,,,,,,,,,,,,,,,,,,,,,,,,,
1720081630,95,0,4288.461426,4315,4267.307617,4346.666504,4343.077148,4336.794922,4333.717773,4438.846191,4336.410156,4429.615234,4317.307617,4439.487305,4308.333496,4271.666504,,,,,,,,,,,,,,,,,,,,,,,,,,,,,,,,,,,,,,,,,,,,,,,,,,,,,,,,,,,,,,,,,,,,,,
1720081630,96,0,4278.589844,4314.871582,4262.179688,4344.615234,4341.153809,4334.871582,4335.641113,4425.384766,4342.94873,4433.205078,4308.717773,4434.230957,4306.025879,4274.102539,,,,,,,,,,,,,,,,,,,,,,,,,,,,,,,,,,,,,,,,,,,,,,,,,,,,,,,,,,,,,,,,,,,,,,
1720081630,97,0,4275.384766,4313.589844,4278.589844,4349.358887,4340.897461,4339.358887,4338.974121,4453.077148,4352.94873,4444.871582,4318.461426,4443.077148,4313.846191,4317.436035,,,,,,,,,,,,,,,,,,,,,,,,,,,,,,,,,,,,,,,,,,,,,,,,,,,,,,,,,,,,,,,,,,,,,,
1720081630,98,0,4271.794922,4311.282227,4274.743652,4348.974121,4347.05127,4345,4337.563965,4441.025879,4362.820313,4447.436035,4323.461426,4440.512695,4317.179688,4325.512695,,,,,,,,,,,,,,,,,,,,,,,,,,,,,,,,,,,,,,,,,,,,,,,,,,,,,,,,,,,,,,,,,,,,,,
1720081630,99,0,4265.128418,4301.922852,4254.743652,4344.871582,4347.692383,4350,4326.922852,4405.128418,4367.94873,4441.153809,4305.641113,4422.307617,4302.692383,4269.102539,,,,,,,,,,,,,,,,,,,,,,,,,,,,,,,,,,,,,,,,,,,,,,,,,,,,,,,,,,,,,,,,,,,,,,
1720081630,100,0,4276.153809,4298.077148,4256.025879,4348.846191,4339.615234,4358.333496,4321.666504,4446.025879,4362.436035,4435,4294.230957,4427.94873,4286.410156,4238.974121,,,,,,,,,,,,,,,,,,,,,,,,,,,,,,,,,,,,,,,,,,,,,,,,,,,,,,,,,,,,,,,,,,,,,,
1720081630,101,0,4290.769043,4307.820313,4260.641113,4348.461426,4341.153809,4355.897461,4333.333496,4446.153809,4358.589844,4437.179688,4299.487305,4432.179688,4293.589844,4279.487305,,,,,,,,,,,,,,,,,,,,,,,,,,,,,,,,,,,,,,,,,,,,,,,,,,,,,,,,,,,,,,,,,,,,,,
1720081630,102,0,4275.641113,4308.333496,4259.358887,4345.512695,4345.641113,4354.102539,4338.846191,4416.794922,4352.307617,4437.179688,4310.256348,4427.563965,4308.717773,4325.641113,,,,,,,,,,,,,,,,,,,,,,,,,,,,,,,,,,,,,,,,,,,,,,,,,,,,,,,,,,,,,,,,,,,,,,
1720081630,103,0,4264.615234,4302.05127,4261.025879,4347.307617,4346.666504,4357.563965,4330.897461,4435.384766,4341.538574,4430.256348,4310.512695,4427.692383,4308.717773,4322.179688,,,,,,,,,,,,,,,,,,,,,,,,,,,,,,,,,,,,,,,,,,,,,,,,,,,,,,,,,,,,,,,,,,,,,,
1720081630,104,0,4284.615234,4310.641113,4264.102539,4348.846191,4349.230957,4349.230957,4333.077148,4435,4349.358887,4432.436035,4305.128418,4426.025879,4303.717773,4281.666504,,,,,,,,,,,,,,,,,,,,,,,,,,,,,,,,,,,,,,,,,,,,,,,,,,,,,,,,,,,,,,,,,,,,,,
1720081630,105,0,4294.743652,4317.820313,4265.641113,4349.487305,4347.820313,4343.974121,4343.589844,4435,4365.384766,4443.333496,4308.589844,4428.077148,4300.769043,4269.615234,,,,,,,,,,,,,,,,,,,,,,,,,,,,,,,,,,,,,,,,,,,,,,,,,,,,,,,,,,,,,,,,,,,,,,
1720081630,106,0,4286.025879,4311.153809,4259.358887,4347.307617,4344.102539,4345.641113,4344.230957,4434.743652,4367.179688,4444.487305,4310,4428.205078,4301.922852,4298.974121,,,,,,,,,,,,,,,,,,,,,,,,,,,,,,,,,,,,,,,,,,,,,,,,,,,,,,,,,,,,,,,,,,,,,,
1720081630,107,0,4276.922852,4306.153809,4266.666504,4346.282227,4348.205078,4345.512695,4341.410156,4430.128418,4357.307617,4439.487305,4315.641113,4443.589844,4309.743652,4299.743652,,,,,,,,,,,,,,,,,,,,,,,,,,,,,,,,,,,,,,,,,,,,,,,,,,,,,,,,,,,,,,,,,,,,,,
1720081630,108,0,4279.358887,4312.05127,4287.820313,4349.102539,4353.717773,4343.717773,4346.922852,4435.256348,4356.410156,4443.333496,4327.05127,4463.974121,4318.205078,4278.846191,,,,,,,,,,,,,,,,,,,,,,,,,,,,,,,,,,,,,,,,,,,,,,,,,,,,,,,,,,,,,,,,,,,,,,
1720081631,109,0,4293.846191,4319.615234,4287.436035,4350,4348.077148,4341.794922,4349.871582,4433.589844,4371.794922,4452.179688,4321.410156,4455.641113,4316.410156,4293.589844,1.476851,3.223268,1.339483,1.042807,0.808378,1.01468,1.304716,0.756856,0.249175,0.265817,1.552569,1.321514,0.821553,0.449674,0.339798,0.036272,0.081327,0.05956,0.014641,0.079821,0.956681,0.776188,0.366783,0.221651,0.113135,2.815886,1.184801,0.756401,0.287999,0.099488,0.898626,4.502107,8.356617,0.657792,0.142024,1.171838,0.189225,0.169907,0.166282,2.649946,0.427431,2.413574,3.414797,0.657619,0.396385,0.618581,0.701271,1.037763,0.262035,0.172792,2.453073,0.888326,2.020836,1.111044,0.617943,1.799394,1.02532,1.226208,0.928376,0.930947,2.359273,1.38482,2.188141,0.927527,0.596713,2.625187,6.53737,11.593299,4.344798,3.170208
1720081631,110,0,4281.794922,4308.846191,4266.153809,4347.94873,4339.743652,4341.025879,4342.563965,4435.128418,4375.641113,4451.794922,4303.461426,4433.461426,4299.871582,4286.538574,,,,,,,,,,,,,,,,,,,,,,,,,,,,,,,,,,,,,,,,,,,,,,,,,,,,,,,,,,,,,,,,,,,,,,
1720081631,111,0,4257.307617,4293.077148,4253.077148,4345.128418,4342.563965,4339.615234,4337.820313,4436.922852,4366.153809,4445.897461,4293.077148,4421.794922,4285.512695,4247.307617,,,,,,,,,,,,,,,,,,,,,,,,,,,,,,,,,,,,,,,,,,,,,,,,,,,,,,,,,,,,,,,,,,,,,,
1720081631,112,0,4272.179688,4299.102539,4257.692383,4344.358887,4348.077148,4338.974121,4342.692383,4430.897461,4369.230957,4448.589844,4296.666504,4425,4288.717773,4265.769043,,,,,,,,,,,,,,,,,,,,,,,,,,,,,,,,,,,,,,,,,,,,,,,,,,,,,,,,,,,,,,,,,,,,,,
1720081631,113,0,4293.974121,4312.563965,4270.256348,4347.436035,4351.282227,4345.384766,4344.871582,4436.153809,4371.025879,4450.897461,4310.128418,4443.077148,4302.692383,4306.282227,,,,,,,,,,,,,,,,,,,,,,,,,,,,,,,,,,,,,,,,,,,,,,,,,,,,,,,,,,,,,,,,,,,,,,
1720081631,114,0,4290.769043,4317.820313,4275.256348,4349.102539,4360.512695,4348.846191,4342.307617,4435.128418,4352.94873,4444.102539,4315.641113,4448.461426,4309.487305,4297.692383,,,,,,,,,,,,,,,,,,,,,,,,,,,,,,,,,,,,,,,,,,,,,,,,,,,,,,,,,,,,,,,,,,,,,,
1720081631,115,0,4291.538574,4317.05127,4266.538574,4344.487305,4363.333496,4343.205078,4342.94873,4415,4343.205078,4443.461426,4304.615234,4427.05127,4306.794922,4279.871582,,,,,,,,,,,,,,,,,,,,,,,,,,,,,,,,,,,,,,,,,,,,,,,,,,,,,,,,,,,,,,,,,,,,,,
1720081631,116,0,4283.205078,4306.794922,4262.179688,4343.333496,4344.871582,4341.282227,4340.512695,4440.641113,4345.897461,4450.897461,4294.358887,4421.922852,4296.282227,4270.641113,,,,,,,,,,,,,,,,,,,,,,,,,,,,,,,,,,,,,,,,,,,,,,,,,,,,,,,,,,,,,,,,,,,,,,
1720081631,117,0,4273.333496,4303.205078,4265.384766,4346.410156,4336.025879,4340.384766,4338.717773,4451.794922,4342.05127,4452.820313,4292.820313,4433.461426,4295.512695,4270.897461,,,,,,,,,,,,,,,,,,,,,,,,,,,,,,,,,,,,,,,,,,,,,,,,,,,,,,,,,,,,,,,,,,,,,,
1720081631,118,0,4296.922852,4320,4272.05127,4346.410156,4350.128418,4339.615234,4345.128418,4415.897461,4347.563965,4462.05127,4308.461426,4440.128418,4318.461426,4302.436035,,,,,,,,,,,,,,,,,,,,,,,,,,,,,,,,,,,,,,,,,,,,,,,,,,,,,,,,,,,,,,,,,,,,,,
1720081631,119,0,4305.641113,4325,4278.589844,4349.358887,4350.512695,4342.94873,4341.666504,4452.820313,4356.922852,4481.025879,4327.436035,4452.94873,4328.333496,4315.256348,,,,,,,,,,,,,,,,,,,,,,,,,,,,,,,,,,,,,,,,,,,,,,,,,,,,,,,,,,,,,,,,,,,,,,
1720081631,120,0,4283.077148,4307.820313,4261.666504,4348.846191,4337.820313,4339.743652,4329.230957,4475,4351.538574,4493.205078,4312.94873,4437.820313,4305.641113,4278.461426,,,,,,,,,,,,,,,,,,,,,,,,,,,,,,,,,,,,,,,,,,,,,,,,,,,,,,,,,,,,,,,,,,,,,,
1720081631,121,0,4276.153809,4296.282227,4242.307617,4340.256348,4341.922852,4339.487305,4330.897461,4434.102539,4345,4502.820313,4290.897461,4413.461426,4290.384766,4260.256348,,,,,,,,,,,,,,,,,,,,,,,,,,,,,,,,,,,,,,,,,,,,,,,,,,,,,,,,,,,,,,,,,,,,,,
1720081631,122,0,4279.102539,4300.641113,4257.05127,4341.794922,4348.205078,4345.769043,4341.410156,4454.102539,4349.615234,4513.589844,4302.94873,4435,4297.820313,4274.358887,,,,,,,,,,,,,,,,,,,,,,,,,,,,,,,,,,,,,,,,,,,,,,,,,,,,,,,,,,,,,,,,,,,,,,
1720081631,123,0,4282.563965,4312.307617,4274.102539,4349.102539,4343.461426,4346.025879,4343.333496,4481.153809,4347.179688,4516.666504,4316.410156,4454.743652,4304.871582,4271.410156,,,,,,,,,,,,,,,,,,,,,,,,,,,,,,,,,,,,,,,,,,,,,,,,,,,,,,,,,,,,,,,,,,,,,,
1720081631,124,0,4288.974121,4316.410156,4269.230957,4344.743652,4342.820313,4343.077148,4341.410156,4444.871582,4336.538574,4514.102539,4301.794922,4437.436035,4303.333496,4273.333496,,,,,,,,,,,,,,,,,,,,,,,,,,,,,,,,,,,,,,,,,,,,,,,,,,,,,,,,,,,,,,,,,,,,,,
1720081631,125,0,4283.974121,4306.922852,4264.615234,4340.897461,4346.666504,4347.05127,4341.025879,4456.153809,4330.384766,4518.461426,4292.05127,4435,4300.128418,4296.922852,1.593452,2.605483,1.297803,0.875605,0.749157,1.108555,1.222417,0.714581,0.259189,0.236718,1.651727,1.721095,0.873719,0.488419,0.335857,0.042238,0.072383,0.066478,0.016015,0.090125,1.065647,0.791729,0.471756,0.263266,0.115559,2.496035,1.022047,0.762591,0.283822,0.091967,1.017611,4.437963,6.59284,0.712379,0.135896,1.256066,0.199075,0.204561,0.172801,2.79985,0.450087,3.048166,4.449444,0.657323,0.396948,0.764359,0.83249,1.253768,0.242093,0.180838,2.069547,0.912337,1.893636,1.111126,0.578372,1.742691,1.333226,1.276894,0.999514,0.929673,1.862233,1.216591,2.04849,0.835562,0.540897,2.29198,4.458912,10.92445,4.014673,3.19006
1720081631,126,0,4281.153809,4303.461426,4264.230957,4345.256348,4343.461426,4347.820313,4342.436035,4489.871582,4322.692383,4528.974121,4297.94873,4446.922852,4296.538574,4284.871582,,,,,,,,,,,,,,,,,,,,,,,,,,,,,,,,,,,,,,,,,,,,,,,,,,,,,,,,,,,,,,,,,,,,,,
1720081631,127,0,4297.692383,4315.256348,4268.461426,4345.512695,4339.871582,4342.179688,4345.256348,4460.641113,4315.641113,4544.358887,4302.820313,4446.538574,4298.333496,4264.230957,,,,,,,,,,,,,,,,,,,,,,,,,,,,,,,,,,,,,,,,,,,,,,,,,,,,,,,,,,,,,,,,,,,,,,
1720081631,0,0,4308.846191,4322.179688,4278.589844,4343.846191,4341.153809,4343.846191,4337.94873,4471.025879,4316.666504,4561.538574,4312.563965,4456.282227,4307.179688,4294.102539,,,,,,,,,,,,,,,,,,,,,,,,,,,,,,,,,,,,,,,,,,,,,,,,,,,,,,,,,,,,,,,,,,,,,,
1720081631,1,0,4303.717773,4317.179688,4277.307617,4342.436035,4340.769043,4340.897461,4323.846191,4494.871582,4325.512695,4571.922852,4322.436035,4465,4315.769043,4320.641113,,,,,,,,,,,,,,,,,,,,,,,,,,,,,,,,,,,,,,,,,,,,,,,,,,,,,,,,,,,,,,,,,,,,,,
1720081631,2,0,4294.358887,4309.102539,4269.487305,4342.307617,4332.820313,4335.641113,4320.769043,4484.230957,4326.922852,4580.512695,4320.512695,4459.230957,4317.436035,4308.717773,,,,,,,,,,,,,,,,,,,,,,,,,,,,,,,,,,,,,,,,,,,,,,,,,,,,,,,,,,,,,,,,,,,,,,
1720081631,3,0,4300.128418,4307.692383,4261.922852,4343.077148,4328.717773,4342.820313,4325,4497.179688,4322.563965,4589.230957,4305.128418,4450.256348,4305.769043,4293.717773,,,,,,,,,,,,,,,,,,,,,,,,,,,,,,,,,,,,,,,,,,,,,,,,,,,,,,,,,,,,,,,,,,,,,,
1720081631,4,0,4303.333496,4311.922852,4256.794922,4341.282227,4336.794922,4347.820313,4327.307617,4498.846191,4323.205078,4592.692383,4293.974121,4445.256348,4292.179688,4278.717773,,,,,,,,,,,,,,,,,,,,,,,,,,,,,,,,,,,,,,,,,,,,,,,,,,,,,,,,,,,,,,,,,,,,,,
1720081631,5,0,4277.307617,4303.461426,4267.692383,4341.922852,4339.102539,4347.05127,4325.512695,4494.358887,4311.794922,4590.512695,4301.922852,4454.358887,4294.358887,4266.538574,,,,,,,,,,,,,,,,,,,,,,,,,,,,,,,,,,,,,,,,,,,,,,,,,,,,,,,,,,,,,,,,,,,,,,
1720081631,6,0,4274.487305,4299.871582,4273.205078,4343.333496,4338.205078,4346.794922,4324.230957,4498.461426,4299.615234,4587.436035,4304.743652,4451.538574,4304.615234,4278.846191,,,,,,,,,,,,,,,,,,,,,,,,,,,,,,,,,,,,,,,,,,,,,,,,,,,,,,,,,,,,,,,,,,,,,,
1720081631,7,0,4311.410156,4317.05127,4262.05127,4344.615234,4345.897461,4349.743652,4331.410156,4496.410156,4309.871582,4590.384766,4296.025879,4435.384766,4306.410156,4299.230957,,,,,,,,,,,,,,,,,,,,,,,,,,,,,,,,,,,,,,,,,,,,,,,,,,,,,,,,,,,,,,,,,,,,,,
1720081631,8,0,4321.153809,4323.974121,4261.538574,4344.230957,4350.384766,4354.230957,4342.820313,4496.794922,4319.871582,4592.179688,4300.769043,4434.102539,4305.384766,4309.102539,,,,,,,,,,,,,,,,,,,,,,,,,,,,,,,,,,,,,,,,,,,,,,,,,,,,,,,,,,,,,,,,,,,,,,
1720081631,9,0,4313.077148,4322.05127,4273.974121,4342.179688,4346.153809,4354.102539,4345,4496.410156,4315.128418,4587.563965,4320.384766,4448.077148,4322.307617,4312.436035,,,,,,,,,,,,,,,,,,,,,,,,,,,,,,,,,,,,,,,,,,,,,,,,,,,,,,,,,,,,,,,,,,,,,,
1720081631,10,0,4333.205078,4335,4283.333496,4345,4343.461426,4354.487305,4341.666504,4492.179688,4319.358887,4586.025879,4332.179688,4461.794922,4343.205078,4315.384766,,,,,,,,,,,,,,,,,,,,,,,,,,,,,,,,,,,,,,,,,,,,,,,,,,,,,,,,,,,,,,,,,,,,,,
1720081631,11,0,4344.615234,4342.820313,4286.538574,4348.589844,4347.692383,4356.794922,4342.179688,4491.153809,4338.846191,4593.077148,4331.922852,4468.589844,4342.05127,4321.794922,,,,,,,,,,,,,,,,,,,,,,,,,,,,,,,,,,,,,,,,,,,,,,,,,,,,,,,,,,,,,,,,,,,,,,
1720081631,12,0,4321.794922,4326.794922,4277.820313,4344.102539,4350,4352.563965,4339.487305,4492.179688,4352.94873,4595.256348,4321.794922,4459.102539,4324.871582,4309.743652,,,,,,,,,,,,,,,,,,,,,,,,,,,,,,,,,,,,,,,,,,,,,,,,,,,,,,,,,,,,,,,,,,,,,,
1720081631,13,0,4301.538574,4311.666504,4263.077148,4341.666504,4344.358887,4350.769043,4333.589844,4497.307617,4344.487305,4583.205078,4309.102539,4441.282227,4312.307617,4291.666504,1.799116,2.229161,1.254032,0.737844,0.733354,1.211774,1.207872,0.691894,0.297704,0.22139,1.649339,2.076654,0.984012,0.5472,0.325685,0.04999,0.064848,0.068255,0.018905,0.097495,1.182333,0.756192,0.549591,0.296765,0.116154,2.164622,0.875723,0.725318,0.272276,0.086593,1.074396,3.984385,5.010394,0.735598,0.134578,1.167077,0.20753,0.244901,0.18099,2.87234,0.486996,3.800107,5.296653,0.664883,0.396404,0.865729,1.040173,1.441096,0.224127,0.187486,1.664953,1.11994,1.931706,1.110019,0.522789,1.62319,1.743167,1.449225,1.040287,0.902761,1.429635,1.343166,2.145768,0.783421,0.484174,1.949756,3.410558,10.222119,4.060674,3.193468
1720081631,14,0,4306.538574,4315.641113,4263.974121,4347.05127,4340.512695,4352.563965,4333.077148,4495.769043,4327.692383,4570.256348,4306.666504,4435.128418,4310,4297.820313,,,,,,,,,,,,,,,,,,,,,,,,,,,,,,,,,,,,,,,,,,,,,,,,,,,,,,,,,,,,,,,,,,,,,,
1720081631,15,0,4326.922852,4329.230957,4272.05127,4345.128418,4349.871582,4353.205078,4336.282227,4471.282227,4326.410156,4564.230957,4307.436035,4440.512695,4312.692383,4306.282227,,,,,,,,,,,,,,,,,,,,,,,,,,,,,,,,,,,,,,,,,,,,,,,,,,,,,,,,,,,,,,,,,,,,,,
1720081631,16,0,4331.025879,4332.307617,4276.410156,4342.179688,4356.282227,4359.102539,4336.153809,4481.153809,4323.974121,4560.512695,4314.743652,4460.769043,4317.94873,4296.922852,,,,,,,,,,,,,,,,,,,,,,,,,,,,,,,,,,,,,,,,,,,,,,,,,,,,,,,,,,,,,,,,,,,,,,
1720081631,17,0,4313.974121,4320.769043,4272.820313,4343.461426,4343.461426,4353.077148,4327.692383,4498.717773,4304.871582,4546.794922,4306.666504,4460.256348,4305.769043,4281.794922,,,,,,,,,,,,,,,,,,,,,,,,,,,,,,,,,,,,,,,,,,,,,,,,,,,,,,,,,,,,,,,,,,,,,,
1720081631,18,0,4293.717773,4308.077148,4256.794922,4339.871582,4329.871582,4336.025879,4321.282227,4453.205078,4297.05127,4528.589844,4271.538574,4421.538574,4270.641113,4259.871582,,,,,,,,,,,,,,,,,,,,,,,,,,,,,,,,,,,,,,,,,,,,,,,,,,,,,,,,,,,,,,,,,,,,,,
1720081631,19,0,4287.307617,4299.230957,4263.717773,4342.94873,4327.179688,4342.05127,4331.025879,4461.410156,4310.384766,4526.282227,4268.589844,4427.820313,4261.410156,4249.358887,,,,,,,,,,,,,,,,,,,,,,,,,,,,,,,,,,,,,,,,,,,,,,,,,,,,,,,,,,,,,,,,,,,,,,
1720081631,20,0,4312.692383,4311.922852,4286.153809,4347.307617,4336.025879,4348.974121,4346.410156,4500.512695,4331.282227,4538.205078,4303.077148,4470,4296.153809,4277.307617,,,,,,,,,,,,,,,,,,,,,,,,,,,,,,,,,,,,,,,,,,,,,,,,,,,,,,,,,,,,,,,,,,,,,,
1720081631,21,0,4346.282227,4340.897461,4284.358887,4340.769043,4346.922852,4333.846191,4344.615234,4468.717773,4350.641113,4544.358887,4315.128418,4469.102539,4324.487305,4314.230957,,,,,,,,,,,,,,,,,,,,,,,,,,,,,,,,,,,,,,,,,,,,,,,,,,,,,,,,,,,,,,,,,,,,,,
1720081631,22,0,4353.205078,4345.897461,4280.641113,4341.025879,4352.179688,4333.589844,4333.333496,4463.333496,4352.94873,4540.384766,4311.666504,4454.102539,4322.436035,4327.94873,,,,,,,,,,,,,,,,,,,,,,,,,,,,,,,,,,,,,,,,,,,,,,,,,,,,,,,,,,,,,,,,,,,,,,
1720081631,23,0,4341.666504,4330.256348,4284.230957,4348.846191,4353.974121,4349.487305,4333.461426,4498.077148,4342.179688,4531.922852,4311.153809,4454.871582,4309.230957,4328.205078,,,,,,,,,,,,,,,,,,,,,,,,,,,,,,,,,,,,,,,,,,,,,,,,,,,,,,,,,,,,,,,,,,,,,,
1720081631,24,0,4331.025879,4330.256348,4279.102539,4344.743652,4353.846191,4347.307617,4341.666504,4469.615234,4343.461426,4523.077148,4296.282227,4446.025879,4300.897461,4317.05127,,,,,,,,,,,,,,,,,,,,,,,,,,,,,,,,,,,,,,,,,,,,,,,,,,,,,,,,,,,,,,,,,,,,,,
1720081631,25,0,4325.256348,4339.487305,4284.230957,4340.641113,4350.128418,4347.179688,4345.512695,4446.282227,4354.487305,4526.282227,4302.05127,4449.358887,4311.153809,4296.153809,,,,,,,,,,,,,,,,,,,,,,,,,,,,,,,,,,,,,,,,,,,,,,,,,,,,,,,,,,,,,,,,,,,,,,
1720081631,26,0,4330.384766,4332.94873,4289.743652,4346.025879,4344.743652,4365.769043,4342.94873,4480,4351.794922,4524.871582,4320.641113,4464.102539,4318.974121,4281.794922,,,,,,,,,,,,,,,,,,,,,,,,,,,,,,,,,,,,,,,,,,,,,,,,,,,,,,,,,,,,,,,,,,,,,,
1720081631,27,0,4353.846191,4335.641113,4275.897461,4343.717773,4346.666504,4371.025879,4339.743652,4467.692383,4343.974121,4508.333496,4300.512695,4451.538574,4305.769043,4291.538574,,,,,,,,,,,,,,,,,,,,,,,,,,,,,,,,,,,,,,,,,,,,,,,,,,,,,,,,,,,,,,,,,,,,,,
1720081631,28,0,4369.871582,4354.102539,4280.769043,4342.563965,4351.025879,4362.820313,4339.871582,4453.589844,4345.897461,4504.102539,4287.436035,4449.102539,4300.512695,4313.333496,,,,,,,,,,,,,,,,,,,,,,,,,,,,,,,,,,,,,,,,,,,,,,,,,,,,,,,,,,,,,,,,,,,,,,
1720081631,29,0,4364.615234,4356.282227,4295.897461,4348.846191,4353.461426,4362.94873,4346.025879,4468.333496,4352.307617,4509.102539,4310,4465.384766,4314.615234,4324.102539,2.021529,2.058279,1.230143,0.66171,0.775202,1.299266,1.216584,0.688567,0.357486,0.223964,1.547471,2.26762,1.123676,0.626953,0.323448,0.056803,0.059064,0.063796,0.023102,0.098067,1.269034,0.67855,0.577004,0.314723,0.11716,1.882506,0.782674,0.64751,0.255743,0.082685,1.071323,3.33682,3.843616,0.713662,0.140331,1.00611,0.219657,0.276489,0.189047,2.849841,0.544264,4.536283,5.682079,0.676145,0.394557,0.880665,1.289206,1.532071,0.208774,0.192006,1.308406,1.411383,2.03801,1.121492,0.470771,1.47432,2.121336,1.674864,1.050629,0.863065,1.147281,1.641362,2.360649,0.798652,0.444491,1.654991,3.150043,9.490752,4.610728,3.199314
1720081631,30,0,4356.666504,4346.410156,4291.153809,4347.436035,4352.05127,4361.922852,4348.205078,4458.974121,4360.128418,4507.820313,4316.153809,4463.205078,4322.307617,4341.666504,,,,,,,,,,,,,,,,,,,,,,,,,,,,,,,,,,,,,,,,,,,,,,,,,,,,,,,,,,,,,,,,,,,,,,
1720081631,31,0,4354.615234,4345.256348,4296.282227,4343.077148,4346.922852,4354.743652,4346.666504,4461.282227,4365.384766,4507.563965,4305.256348,4466.922852,4320.512695,4366.282227,,,,,,,,,,,,,,,,,,,,,,,,,,,,,,,,,,,,,,,,,,,,,,,,,,,,,,,,,,,,,,,,,,,,,,
1720081631,32,0,4355,4351.282227,4306.410156,4344.358887,4350.641113,4350.384766,4351.410156,4460,4365.256348,4507.307617,4311.282227,4481.025879,4321.282227,4333.205078,,,,,,,,,,,,,,,,,,,,,,,,,,,,,,,,,,,,,,,,,,,,,,,,,,,,,,,,,,,,,,,,,,,,,,
1720081631,33,0,4350.512695,4346.282227,4298.589844,4348.461426,4355.641113,4353.205078,4353.205078,4452.692383,4360.641113,4498.333496,4312.179688,4476.282227,4313.205078,4272.820313,,,,,,,,,,,,,,,,,,,,,,,,,,,,,,,,,,,,,,,,,,,,,,,,,,,,,,,,,,,,,,,,,,,,,,
1720081631,34,0,4339.358887,4334.743652,4283.333496,4346.153809,4353.461426,4353.333496,4348.589844,4454.230957,4356.025879,4484.871582,4291.922852,4452.05127,4301.153809,4280.641113,,,,,,,,,,,,,,,,,,,,,,,,,,,,,,,,,,,,,,,,,,,,,,,,,,,,,,,,,,,,,,,,,,,,,,
1720081631,35,0,4333.846191,4329.487305,4276.666504,4341.666504,4354.487305,4351.666504,4346.410156,4450.641113,4348.717773,4475.897461,4275.897461,4435.384766,4296.794922,4323.717773,,,,,,,,,,,,,,,,,,,,,,,,,,,,,,,,,,,,,,,,,,,,,,,,,,,,,,,,,,,,,,,,,,,,,,
1720081631,36,0,4339.230957,4331.025879,4277.820313,4343.333496,4356.794922,4356.025879,4345.769043,4448.974121,4342.05127,4472.05127,4276.025879,4437.05127,4294.487305,4317.307617,,,,,,,,,,,,,,,,,,,,,,,,,,,,,,,,,,,,,,,,,,,,,,,,,,,,,,,,,,,,,,,,,,,,,,
1720081631,37,0,4355,4342.307617,4282.563965,4344.487305,4352.307617,4356.025879,4341.410156,4448.461426,4352.05127,4474.230957,4282.179688,4445.512695,4296.538574,4292.179688,,,,,,,,,,,,,,,,,,,,,,,,,,,,,,,,,,,,,,,,,,,,,,,,,,,,,,,,,,,,,,,,,,,,,,
1720081631,38,0,4372.179688,4357.436035,4287.179688,4344.487305,4351.794922,4352.436035,4340.256348,4444.102539,4367.436035,4476.153809,4290,4453.974121,4310.128418,4311.538574,,,,,,,,,,,,,,,,,,,,,,,,,,,,,,,,,,,,,,,,,,,,,,,,,,,,,,,,,,,,,,,,,,,,,,
1720081631,39,0,4370.897461,4358.846191,4287.563965,4348.205078,4357.307617,4354.230957,4344.358887,4454.358887,4368.461426,4475.384766,4298.717773,4456.794922,4323.589844,4348.846191,,,,,,,,,,,,,,,,,,,,,,,,,,,,,,,,,,,,,,,,,,,,,,,,,,,,,,,,,,,,,,,,,,,,,,
1720081631,40,0,4370,4359.358887,4292.692383,4346.922852,4360,4353.333496,4350.897461,4450.769043,4368.461426,4474.230957,4295.641113,4454.102539,4319.615234,4347.820313,,,,,,,,,,,,,,,,,,,,,,,,,,,,,,,,,,,,,,,,,,,,,,,,,,,,,,,,,,,,,,,,,,,,,,
1720081631,41,0,4394.358887,4376.153809,4303.205078,4342.179688,4361.538574,4354.871582,4359.743652,4424.743652,4379.358887,4467.692383,4295.512695,4456.922852,4325.641113,4331.922852,,,,,,,,,,,,,,,,,,,,,,,,,,,,,,,,,,,,,,,,,,,,,,,,,,,,,,,,,,,,,,,,,,,,,,
1720081631,42,0,4401.025879,4380,4311.153809,4349.743652,4358.077148,4362.436035,4360.641113,4457.692383,4381.282227,4463.333496,4315,4480.256348,4342.179688,4353.589844,,,,,,,,,,,,,,,,,,,,,,,,,,,,,,,,,,,,,,,,,,,,,,,,,,,,,,,,,,,,,,,,,,,,,,
1720081631,43,0,4366.282227,4359.102539,4302.692383,4351.666504,4356.538574,4354.615234,4355.128418,4462.436035,4375,4459.743652,4311.282227,4479.871582,4331.410156,4348.589844,,,,,,,,,,,,,,,,,,,,,,,,,,,,,,,,,,,,,,,,,,,,,,,,,,,,,,,,,,,,,,,,,,,,,,
1720081631,44,0,4348.205078,4346.410156,4285.769043,4341.794922,4360.512695,4346.410156,4353.846191,4410.769043,4378.974121,4453.589844,4283.589844,4449.743652,4311.666504,4292.179688,,,,,,,,,,,,,,,,,,,,,,,,,,,,,,,,,,,,,,,,,,,,,,,,,,,,,,,,,,,,,,,,,,,,,,
1720081631,45,0,4367.692383,4350.128418,4287.307617,4344.102539,4358.077148,4359.230957,4357.563965,4442.05127,4383.589844,4454.230957,4286.666504,4456.282227,4314.487305,4303.589844,2.184897,2.041363,1.242547,0.659663,0.866809,1.322485,1.222575,0.691659,0.426431,0.247033,1.356752,2.233701,1.248447,0.723753,0.343832,0.060267,0.054388,0.054413,0.027647,0.091218,1.283417,0.574521,0.54435,0.316504,0.122239,1.663053,0.750357,0.541271,0.236646,0.079875,1.036624,2.684029,3.124782,0.645911,0.152773,0.811257,0.239458,0.290168,0.192741,2.740688,0.634166,5.110575,5.527501,0.680252,0.388795,1.00004,1.538617,1.515811,0.195694,0.192928,1.024736,1.697688,2.093274,1.150288,0.44653,1.354944,2.353287,1.859444,1.051032,0.831509,0.99809,1.981584,2.518032,0.883905,0.438371,1.37141,3.242988,8.560501,5.523131,3.21261
1720081631,46,0,4375.128418,4355.256348,4289.743652,4346.666504,4355.512695,4363.333496,4360.512695,4459.358887,4380,4451.410156,4296.410156,4469.230957,4318.974121,4355.128418,,,,,,,,,,,,,,,,,,,,,,,,,,,,,,,,,,,,,,,,,,,,,,,,,,,,,,,,,,,,,,,,,,,,,,
1720081631,47,0,4363.589844,4358.717773,4292.307617,4342.307617,4362.05127,4355,4353.205078,4425.128418,4373.077148,4441.538574,4287.05127,4460.384766,4318.717773,4344.615234,,,,,,,,,,,,,,,,,,,,,,,,,,,,,,,,,,,,,,,,,,,,,,,,,,,,,,,,,,,,,,,,,,,,,,
1720081631,48,0,4358.333496,4356.153809,4295.641113,4343.846191,4364.871582,4351.794922,4341.666504,4434.230957,4368.077148,4432.692383,4285,4453.846191,4322.307617,4318.333496,,,,,,,,,,,,,,,,,,,,,,,,,,,,,,,,,,,,,,,,,,,,,,,,,,,,,,,,,,,,,,,,,,,,,,
1720081631,49,0,4356.666504,4348.205078,4285,4344.487305,4357.820313,4348.333496,4339.230957,4437.436035,4365.384766,4428.589844,4282.692383,4445.512695,4311.282227,4319.230957,,,,,,,,,,,,,,,,,,,,,,,,,,,,,,,,,,,,,,,,,,,,,,,,,,,,,,,,,,,,,,,,,,,,,,
1720081631,50,0,4359.743652,4350.769043,4284.871582,4342.692383,4358.077148,4345.897461,4343.717773,4428.589844,4365.897461,4423.461426,4274.230957,4447.94873,4299.102539,4313.589844,,,,,,,,,,,,,,,,,,,,,,,,,,,,,,,,,,,,,,,,,,,,,,,,,,,,,,,,,,,,,,,,,,,,,,
1720081631,51,0,4375.769043,4361.666504,4298.589844,4345.512695,4368.205078,4352.436035,4349.743652,4438.717773,4376.153809,4420,4284.615234,4461.538574,4317.820313,4331.794922,,,,,,,,,,,,,,,,,,,,,,,,,,,,,,,,,,,,,,,,,,,,,,,,,,,,,,,,,,,,,,,,,,,,,,
1720081631,52,0,4384.102539,4365.128418,4295.897461,4347.179688,4370.384766,4355.384766,4355,4425.384766,4384.615234,4421.666504,4302.820313,4460.256348,4340.128418,4378.077148,,,,,,,,,,,,,,,,,,,,,,,,,,,,,,,,,,,,,,,,,,,,,,,,,,,,,,,,,,,,,,,,,,,,,,
1720081631,53,0,4371.666504,4357.94873,4288.974121,4345.641113,4364.358887,4350.512695,4354.871582,4410.128418,4382.179688,4415.769043,4296.282227,4455.128418,4332.436035,4360.512695,,,,,,,,,,,,,,,,,,,,,,,,,,,,,,,,,,,,,,,,,,,,,,,,,,,,,,,,,,,,,,,,,,,,,,
1720081631,54,0,4366.025879,4353.589844,4294.102539,4345.897461,4363.846191,4353.077148,4350.512695,4443.589844,4378.846191,4407.05127,4280.512695,4463.461426,4315.897461,4320.384766,,,,,,,,,,,,,,,,,,,,,,,,,,,,,,,,,,,,,,,,,,,,,,,,,,,,,,,,,,,,,,,,,,,,,,
1720081631,55,0,4371.666504,4355.128418,4287.563965,4342.692383,4369.230957,4353.974121,4354.615234,4430.128418,4388.846191,4407.436035,4277.563965,4453.717773,4316.025879,4342.436035,,,,,,,,,,,,,,,,,,,,,,,,,,,,,,,,,,,,,,,,,,,,,,,,,,,,,,,,,,,,,,,,,,,,,,
1720081631,56,0,4370.256348,4354.743652,4282.563965,4342.820313,4368.589844,4354.230957,4361.153809,4405.256348,4393.461426,4408.333496,4282.563965,4448.717773,4317.692383,4347.179688,,,,,,,,,,,,,,,,,,,,,,,,,,,,,,,,,,,,,,,,,,,,,,,,,,,,,,,,,,,,,,,,,,,,,,
1720081631,57,0,4361.153809,4348.974121,4285.641113,4346.922852,4368.717773,4360.128418,4357.94873,4430,4381.666504,4397.94873,4274.871582,4458.974121,4306.794922,4304.615234,,,,,,,,,,,,,,,,,,,,,,,,,,,,,,,,,,,,,,,,,,,,,,,,,,,,,,,,,,,,,,,,,,,,,,
1720081631,58,0,4351.410156,4345.256348,4283.077148,4345,4374.487305,4359.358887,4354.743652,4418.717773,4378.205078,4389.615234,4267.692383,4449.743652,4307.307617,4305.384766,,,,,,,,,,,,,,,,,,,,,,,,,,,,,,,,,,,,,,,,,,,,,,,,,,,,,,,,,,,,,,,,,,,,,,
1720081631,59,0,4364.358887,4355.512695,4293.846191,4346.282227,4371.282227,4359.102539,4359.487305,4414.871582,4387.179688,4394.358887,4288.205078,4453.333496,4325.769043,4352.563965,,,,,,,,,,,,,,,,,,,,,,,,,,,,,,,,,,,,,,,,,,,,,,,,,,,,,,,,,,,,,,,,,,,,,,
1720081631,60,0,4382.307617,4364.230957,4304.230957,4347.820313,4363.205078,4358.461426,4363.846191,4426.282227,4397.692383,4401.282227,4299.871582,4465.128418,4338.461426,4379.230957,,,,,,,,,,,,,,,,,,,,,,,,,,,,,,,,,,,,,,,,,,,,,,,,,,,,,,,,,,,,,,,,,,,,,,
1720081631,61,0,4362.94873,4353.077148,4297.563965,4343.205078,4362.820313,4352.307617,4358.589844,4419.102539,4394.615234,4401.153809,4291.794922,4461.153809,4337.692383,4357.179688,2.154304,2.154233,1.317522,0.750853,0.981899,1.252577,1.237777,0.703265,0.504046,0.290414,1.124567,1.997153,1.324898,0.824285,0.392799,0.059605,0.049912,0.043165,0.03113,0.080029,1.200153,0.468739,0.469886,0.3108,0.13364,1.506823,0.764787,0.43263,0.21652,0.079588,0.985636,2.15497,2.69693,0.546197,0.169659,0.680005,0.264912,0.287393,0.187738,2.579943,0.76665,5.392247,4.99837,0.668421,0.37817,1.312822,1.72779,1.448894,0.186635,0.189828,0.87291,1.929358,2.046927,1.205864,0.467763,1.246894,2.378339,1.947952,1.076093,0.828038,0.994606,2.288455,2.524771,1.034006,0.474775,1.140227,3.415588,7.422915,6.524212,3.222448
1720081631,62,0,4343.717773,4344.102539,4292.563965,4338.974121,4367.94873,4353.846191,4356.666504,4420.128418,4383.589844,4397.563965,4290.512695,4461.922852,4332.94873,4318.461426,,,,,,,,,,,,,,,,,,,,,,,,,,,,,,,,,,,,,,,,,,,,,,,,,,,,,,,,,,,,,,,,,,,,,,
1720081631,63,0,4363.846191,4352.94873,4291.410156,4340.128418,4370,4364.871582,4365.641113,4419.615234,4384.487305,4400.128418,4290.512695,4460.256348,4332.820313,4333.461426,,,,,,,,,,,,,,,,,,,,,,,,,,,,,,,,,,,,,,,,,,,,,,,,,,,,,,,,,,,,,,,,,,,,,,
1720081631,64,0,4371.922852,4350.128418,4282.436035,4344.743652,4366.794922,4372.05127,4366.282227,4421.794922,4385.769043,4402.563965,4278.717773,4453.205078,4324.102539,4360,,,,,,,,,,,,,,,,,,,,,,,,,,,,,,,,,,,,,,,,,,,,,,,,,,,,,,,,,,,,,,,,,,,,,,
1720081631,65,0,4358.974121,4341.666504,4279.743652,4344.487305,4363.717773,4370.384766,4359.102539,4425.641113,4381.025879,4400.897461,4268.974121,4457.563965,4308.589844,4333.461426,,,,,,,,,,,,,,,,,,,,,,,,,,,,,,,,,,,,,,,,,,,,,,,,,,,,,,,,,,,,,,,,,,,,,,
1720081631,66,0,4367.436035,4354.487305,4291.794922,4342.179688,4364.615234,4366.922852,4362.436035,4418.717773,4385.641113,4406.538574,4275.512695,4463.717773,4319.487305,4333.974121,,,,,,,,,,,,,,,,,,,,,,,,,,,,,,,,,,,,,,,,,,,,,,,,,,,,,,,,,,,,,,,,,,,,,,
1720081631,67,0,4377.820313,4359.743652,4297.436035,4345.641113,4371.025879,4374.615234,4369.230957,4428.461426,4396.666504,4417.692383,4286.794922,4462.05127,4337.94873,4368.589844,,,,,,,,,,,,,,,,,,,,,,,,,,,,,,,,,,,,,,,,,,,,,,,,,,,,,,,,,,,,,,,,,,,,,,
1720081631,68,0,4355.256348,4342.820313,4288.205078,4347.179688,4373.333496,4382.05127,4364.230957,4445,4390.512695,4417.436035,4285.128418,4459.102539,4328.077148,4354.358887,,,,,,,,,,,,,,,,,,,,,,,,,,,,,,,,,,,,,,,,,,,,,,,,,,,,,,,,,,,,,,,,,,,,,,
1720081631,69,0,4322.692383,4332.94873,4278.717773,4340.256348,4367.179688,4373.589844,4358.205078,4406.538574,4380.641113,4410.512695,4274.230957,4451.153809,4319.487305,4322.307617,,,,,,,,,,,,,,,,,,,,,,,,,,,,,,,,,,,,,,,,,,,,,,,,,,,,,,,,,,,,,,,,,,,,,,
1720081631,70,0,4326.922852,4335.769043,4289.743652,4339.230957,4361.410156,4368.717773,4356.025879,4414.358887,4375.384766,4410.512695,4280.256348,4464.487305,4329.102539,4321.410156,,,,,,,,,,,,,,,,,,,,,,,,,,,,,,,,,,,,,,,,,,,,,,,,,,,,,,,,,,,,,,,,,,,,,,
1720081631,71,0,4366.282227,4345.641113,4293.974121,4343.717773,4361.282227,4370.512695,4354.230957,4455.641113,4366.410156,4410.769043,4286.794922,4476.538574,4327.436035,4345.897461,,,,,,,,,,,,,,,,,,,,,,,,,,,,,,,,,,,,,,,,,,,,,,,,,,,,,,,,,,,,,,,,,,,,,,
1720081631,72,0,4381.025879,4356.282227,4275.769043,4338.717773,4362.692383,4367.563965,4357.179688,4412.307617,4367.563965,4406.410156,4271.922852,4448.589844,4316.794922,4358.205078,,,,,,,,,,,,,,,,,,,,,,,,,,,,,,,,,,,,,,,,,,,,,,,,,,,,,,,,,,,,,,,,,,,,,,
1720081631,73,0,4354.615234,4351.666504,4279.230957,4339.102539,4358.077148,4367.179688,4358.333496,4408.461426,4377.436035,4406.538574,4272.179688,4450,4319.102539,4327.436035,,,,,,,,,,,,,,,,,,,,,,,,,,,,,,,,,,,,,,,,,,,,,,,,,,,,,,,,,,,,,,,,,,,,,,
1720081631,74,0,4346.922852,4343.077148,4289.487305,4342.563965,4359.358887,4365.897461,4356.025879,4439.358887,4387.05127,4413.333496,4278.333496,4467.563965,4324.230957,4327.563965,,,,,,,,,,,,,,,,,,,,,,,,,,,,,,,,,,,,,,,,,,,,,,,,,,,,,,,,,,,,,,,,,,,,,,
1720081631,75,0,4360.256348,4345.641113,4278.974121,4337.179688,4363.846191,4362.563965,4358.589844,4420.769043,4388.717773,4415.384766,4271.794922,4450.384766,4325.384766,4374.102539,,,,,,,,,,,,,,,,,,,,,,,,,,,,,,,,,,,,,,,,,,,,,,,,,,,,,,,,,,,,,,,,,,,,,,
1720081631,76,0,4359.358887,4347.563965,4282.436035,4339.102539,4362.05127,4365.384766,4361.666504,4421.666504,4389.871582,4414.487305,4278.717773,4452.307617,4329.871582,4355.384766,,,,,,,,,,,,,,,,,,,,,,,,,,,,,,,,,,,,,,,,,,,,,,,,,,,,,,,,,,,,,,,,,,,,,,
1720081631,77,0,4361.794922,4348.589844,4293.077148,4343.846191,4364.230957,4371.538574,4365,4428.846191,4396.922852,4417.05127,4291.538574,4469.358887,4334.358887,4313.846191,2.02838,2.389353,1.464823,0.950931,1.089784,1.134001,1.294652,0.739053,0.59585,0.349862,0.906161,1.654212,1.358523,0.906194,0.462604,0.054436,0.04497,0.033296,0.032336,0.069472,1.040226,0.387092,0.386966,0.309497,0.150198,1.418005,0.803836,0.347057,0.195496,0.084602,0.948691,1.798986,2.344946,0.439043,0.187037,0.630001,0.290848,0.280958,0.172671,2.414175,0.940476,5.344882,4.418301,0.637038,0.364961,1.937749,1.810492,1.422223,0.185138,0.183855,0.852368,2.12135,1.964007,1.288189,0.537269,1.198492,2.228798,1.960985,1.149537,0.861947,1.13382,2.579731,2.435661,1.233387,0.549599,1.072348,3.627517,6.288262,7.334637,3.210838
1720081631,78,0,4367.05127,4348.461426,4284.871582,4339.102539,4367.692383,4371.794922,4367.820313,4416.922852,4395.256348,4418.205078,4286.666504,4457.563965,4330.641113,4350.256348,,,,,,,,,,,,,,,,,,,,,,,,,,,,,,,,,,,,,,,,,,,,,,,,,,,,,,,,,,,,,,,,,,,,,,
1720081631,79,0,4358.333496,4343.589844,4277.563965,4336.922852,4363.077148,4369.230957,4364.487305,4426.410156,4387.692383,4412.307617,4274.615234,4444.743652,4320,4388.846191,,,,,,,,,,,,,,,,,,,,,,,,,,,,,,,,,,,,,,,,,,,,,,,,,,,,,,,,,,,,,,,,,,,,,,
1720081631,80,0,4353.333496,4343.333496,4278.461426,4341.025879,4359.487305,4368.077148,4361.922852,4426.666504,4381.282227,4405,4269.871582,4451.410156,4315.256348,4358.717773,,,,,,,,,,,,,,,,,,,,,,,,,,,,,,,,,,,,,,,,,,,,,,,,,,,,,,,,,,,,,,,,,,,,,,
1720081631,81,0,4362.94873,4350.769043,4280.384766,4341.153809,4363.974121,4366.410156,4363.717773,4399.358887,4378.205078,4402.94873,4270.512695,4459.743652,4320.384766,4315.128418,,,,,,,,,,,,,,,,,,,,,,,,,,,,,,,,,,,,,,,,,,,,,,,,,,,,,,,,,,,,,,,,,,,,,,
1720081631,82,0,4363.077148,4351.025879,4291.794922,4343.589844,4366.410156,4370.897461,4362.820313,4426.538574,4372.436035,4397.307617,4275,4470.769043,4320.641113,4305.641113,,,,,,,,,,,,,,,,,,,,,,,,,,,,,,,,,,,,,,,,,,,,,,,,,,,,,,,,,,,,,,,,,,,,,,
1720081631,83,0,4358.077148,4348.077148,4292.179688,4342.05127,4370.512695,4372.436035,4361.538574,4430.384766,4372.820313,4389.358887,4266.794922,4462.94873,4311.025879,4323.846191,,,,,,,,,,,,,,,,,,,,,,,,,,,,,,,,,,,,,,,,,,,,,,,,,,,,,,,,,,,,,,,,,,,,,,
1720081631,84,0,4358.974121,4350.769043,4284.102539,4338.589844,4372.94873,4370.641113,4367.436035,4398.717773,4386.538574,4392.820313,4260.512695,4454.102539,4310.769043,4334.487305,,,,,,,,,,,,,,,,,,,,,,,,,,,,,,,,,,,,,,,,,,,,,,,,,,,,,,,,,,,,,,,,,,,,,,
1720081631,85,0,4358.077148,4348.717773,4287.692383,4343.589844,4365.512695,4375,4370.512695,4424.358887,4398.461426,4399.102539,4272.307617,4464.487305,4319.230957,4326.666504,,,,,,,,,,,,,,,,,,,,,,,,,,,,,,,,,,,,,,,,,,,,,,,,,,,,,,,,,,,,,,,,,,,,,,
1720081631,86,0,4358.846191,4343.333496,4285.769043,4341.153809,4361.794922,4370.512695,4365.897461,4423.205078,4399.615234,4392.307617,4268.461426,4452.05127,4314.615234,4331.025879,,,,,,,,,,,,,,,,,,,,,,,,,,,,,,,,,,,,,,,,,,,,,,,,,,,,,,,,,,,,,,,,,,,,,,
1720081631,87,0,4354.102539,4341.025879,4285.128418,4335.384766,4363.974121,4368.205078,4367.05127,4409.615234,4392.692383,4383.717773,4263.333496,4447.820313,4307.692383,4348.333496,,,,,,,,,,,,,,,,,,,,,,,,,,,,,,,,,,,,,,,,,,,,,,,,,,,,,,,,,,,,,,,,,,,,,,
1720081631,88,0,4356.282227,4348.205078,4293.077148,4336.794922,4368.333496,4375.384766,4373.717773,4418.461426,4392.820313,4386.410156,4274.615234,4466.922852,4318.974121,4364.230957,,,,,,,,,,,,,,,,,,,,,,,,,,,,,,,,,,,,,,,,,,,,,,,,,,,,,,,,,,,,,,,,,,,,,,
1720081631,89,0,4372.436035,4357.436035,4290,4341.922852,4371.666504,4374.358887,4369.743652,4410.641113,4392.820313,4387.563965,4280,4461.410156,4331.282227,4362.05127,,,,,,,,,,,,,,,,,,,,,,,,,,,,,,,,,,,,,,,,,,,,,,,,,,,,,,,,,,,,,,,,,,,,,,
1720081631,90,0,4369.871582,4349.871582,4276.794922,4342.820313,4367.692383,4369.358887,4358.846191,4409.230957,4381.410156,4379.358887,4268.974121,4440.384766,4318.589844,4321.153809,,,,,,,,,,,,,,,,,,,,,,,,,,,,,,,,,,,,,,,,,,,,,,,,,,,,,,,,,,,,,,,,,,,,,,
1720081631,91,0,4359.615234,4345.512695,4273.589844,4336.666504,4366.025879,4369.743652,4363.974121,4406.538574,4378.461426,4372.94873,4255.641113,4438.333496,4303.589844,4289.615234,,,,,,,,,,,,,,,,,,,,,,,,,,,,,,,,,,,,,,,,,,,,,,,,,,,,,,,,,,,,,,,,,,,,,,
1720081631,92,0,4369.871582,4355.128418,4285.641113,4335.641113,4371.025879,4371.153809,4376.282227,4407.820313,4384.230957,4373.846191,4257.307617,4456.538574,4308.333496,4313.077148,,,,,,,,,,,,,,,,,,,,,,,,,,,,,,,,,,,,,,,,,,,,,,,,,,,,,,,,,,,,,,,,,,,,,,
1720081631,93,0,4369.743652,4353.974121,4295.384766,4338.974121,4373.461426,4371.282227,4374.230957,4413.461426,4384.230957,4375.256348,4265,4459.871582,4318.846191,4351.922852,1.807819,2.745438,1.680097,1.244547,1.171646,0.998843,1.425871,0.820808,0.702096,0.417434,0.721981,1.330786,1.383797,0.945978,0.535008,0.046843,0.040363,0.02694,0.030985,0.063587,0.844254,0.345057,0.326026,0.319953,0.167567,1.375913,0.842782,0.298947,0.174875,0.09681,0.910988,1.594648,1.9351,0.348823,0.200405,0.683742,0.305787,0.281492,0.150198,2.279802,1.141388,5.004454,4.0423,0.591479,0.353989,2.851236,1.75751,1.482795,0.194068,0.177409,0.968926,2.279257,1.939813,1.383833,0.641708,1.153837,2.010639,1.959152,1.262315,0.926301,1.42246,2.858775,2.366572,1.454987,0.647936,1.203117,3.840688,5.44317,7.77994,3.170862
1720081631,94,0,4354.102539,4347.436035,4296.153809,4339.871582,4375,4373.333496,4371.282227,4407.692383,4386.153809,4376.025879,4268.333496,4451.282227,4320.897461,4362.05127,,,,,,,,,,,,,,,,,,,,,,,,,,,,,,,,,,,,,,,,,,,,,,,,,,,,,,,,,,,,,,,,,,,,,,
1720081631,95,0,4356.922852,4351.282227,4293.333496,4338.717773,4376.538574,4377.436035,4378.589844,4408.333496,4398.205078,4377.692383,4270.256348,4464.615234,4316.153809,4331.666504,,,,,,,,,,,,,,,,,,,,,,,,,,,,,,,,,,,,,,,,,,,,,,,,,,,,,,,,,,,,,,,,,,,,,,
1720081631,96,0,4373.205078,4356.025879,4294.487305,4338.589844,4375.897461,4377.692383,4383.589844,4416.922852,4407.563965,4379.743652,4271.410156,4478.589844,4316.025879,4310.128418,,,,,,,,,,,,,,,,,,,,,,,,,,,,,,,,,,,,,,,,,,,,,,,,,,,,,,,,,,,,,,,,,,,,,,
1720081631,97,0,4387.307617,4360.512695,4292.692383,4337.94873,4377.307617,4370.641113,4378.077148,4397.179688,4407.05127,4379.615234,4265.512695,4454.230957,4323.461426,4349.743652,,,,,,,,,,,,,,,,,,,,,,,,,,,,,,,,,,,,,,,,,,,,,,,,,,,,,,,,,,,,,,,,,,,,,,
1720081631,98,0,4383.974121,4359.743652,4289.615234,4340.256348,4369.358887,4366.025879,4368.333496,4406.025879,4401.538574,4374.102539,4265.128418,4443.974121,4325,4377.307617,,,,,,,,,,,,,,,,,,,,,,,,,,,,,,,,,,,,,,,,,,,,,,,,,,,,,,,,,,,,,,,,,,,,,,
1720081631,99,0,4363.717773,4347.563965,4289.102539,4340.256348,4357.563965,4365,4363.461426,4434.615234,4391.282227,4365.897461,4266.666504,4461.538574,4310,4326.666504,,,,,,,,,,,,,,,,,,,,,,,,,,,,,,,,,,,,,,,,,,,,,,,,,,,,,,,,,,,,,,,,,,,,,,
1720081631,100,0,4363.333496,4346.922852,4281.794922,4331.922852,4364.358887,4362.94873,4369.615234,4388.717773,4388.589844,4362.563965,4258.461426,4450.256348,4306.666504,4293.589844,,,,,,,,,,,,,,,,,,,,,,,,,,,,,,,,,,,,,,,,,,,,,,,,,,,,,,,,,,,,,,,,,,,,,,
1720081631,101,0,4376.282227,4358.846191,4282.436035,4333.077148,4373.461426,4368.461426,4375.641113,4388.205078,4396.410156,4367.05127,4268.717773,4451.153809,4326.282227,4338.077148,,,,,,,,,,,,,,,,,,,,,,,,,,,,,,,,,,,,,,,,,,,,,,,,,,,,,,,,,,,,,,,,,,,,,,
1720081631,102,0,4374.487305,4358.461426,4284.871582,4338.846191,4368.205078,4367.820313,4365.384766,4429.871582,4397.94873,4367.179688,4281.025879,4461.794922,4332.436035,4367.94873,,,,,,,,,,,,,,,,,,,,,,,,,,,,,,,,,,,,,,,,,,,,,,,,,,,,,,,,,,,,,,,,,,,,,,
1720081631,103,0,4369.487305,4350.256348,4273.717773,4336.025879,4363.846191,4360.128418,4352.179688,4395.769043,4390.256348,4358.205078,4265.128418,4435.897461,4315.128418,4344.230957,,,,,,,,,,,,,,,,,,,,,,,,,,,,,,,,,,,,,,,,,,,,,,,,,,,,,,,,,,,,,,,,,,,,,,
1720081631,104,0,4372.05127,4351.922852,4277.179688,4332.820313,4364.743652,4363.205078,4356.922852,4387.436035,4391.794922,4354.102539,4255.256348,4435.128418,4306.025879,4328.589844,,,,,,,,,,,,,,,,,,,,,,,,,,,,,,,,,,,,,,,,,,,,,,,,,,,,,,,,,,,,,,,,,,,,,,
1720081631,105,0,4376.410156,4360.769043,4292.307617,4334.230957,4367.436035,4368.461426,4367.307617,4417.307617,4401.666504,4359.743652,4266.153809,4460.641113,4320.512695,4343.717773,,,,,,,,,,,,,,,,,,,,,,,,,,,,,,,,,,,,,,,,,,,,,,,,,,,,,,,,,,,,,,,,,,,,,,
1720081631,106,0,4382.05127,4364.102539,4285.769043,4335.128418,4368.333496,4363.589844,4369.102539,4392.94873,4398.974121,4359.358887,4272.307617,4449.230957,4334.487305,4364.358887,,,,,,,,,,,,,,,,,,,,,,,,,,,,,,,,,,,,,,,,,,,,,,,,,,,,,,,,,,,,,,,,,,,,,,
1720081631,107,0,4392.436035,4364.358887,4284.230957,4333.077148,4365.384766,4362.563965,4368.717773,4386.025879,4390.512695,4353.077148,4274.487305,4443.717773,4335.897461,4389.102539,,,,,,,,,,,,,,,,,,,,,,,,,,,,,,,,,,,,,,,,,,,,,,,,,,,,,,,,,,,,,,,,,,,,,,
1720081631,108,0,4403.846191,4370,4304.615234,4331.025879,4368.846191,4373.589844,4374.871582,4423.461426,4396.025879,4354.871582,4285,4470.769043,4336.922852,4411.282227,,,,,,,,,,,,,,,,,,,,,,,,,,,,,,,,,,,,,,,,,,,,,,,,,,,,,,,,,,,,,,,,,,,,,,
1720081632,109,0,4402.692383,4376.025879,4306.922852,4328.974121,4374.615234,4374.102539,4381.538574,4393.717773,4410,4359.871582,4285,4471.153809,4342.179688,4400.512695,1.64742,3.174662,1.930746,1.585818,1.224987,0.9108,1.621526,0.954479,0.811886,0.481587,0.600305,1.105453,1.426995,0.935345,0.589588,0.038538,0.037302,0.025075,0.027846,0.063637,0.659466,0.342404,0.298902,0.339559,0.180218,1.333902,0.857301,0.290988,0.156871,0.115373,0.882094,1.486085,1.472593,0.288714,0.206394,0.770682,0.297702,0.290426,0.124816,2.192554,1.347974,4.477966,3.944006,0.542105,0.348515,3.838983,1.579807,1.604465,0.21262,0.172457,1.160223,2.380861,2.032269,1.464447,0.754051,1.122477,1.808006,1.976573,1.379747,1.000755,1.795061,3.080159,2.395853,1.659549,0.746561,1.508618,4.076325,5.12382,7.823787,3.141225
1720081632,110,0,4387.307617,4369.487305,4301.025879,4332.820313,4370.769043,4369.358887,4377.179688,4378.974121,4407.436035,4357.179688,4278.333496,4467.563965,4341.794922,4388.717773,,,,,,,,,,,,,,,,,,,,,,,,,,,,,,,,,,,,,,,,,,,,,,,,,,,,,,,,,,,,,,,,,,,,,,
1720081632,111,0,4380.256348,4358.461426,4302.692383,4335.641113,4370,4368.589844,4371.153809,4406.538574,4396.153809,4349.358887,4276.794922,4476.282227,4328.974121,4384.487305,,,,,,,,,,,,,,,,,,,,,,,,,,,,,,,,,,,,,,,,,,,,,,,,,,,,,,,,,,,,,,,,,,,,,,
1720081632,112,0,4392.05127,4363.461426,4297.94873,4330.256348,4372.94873,4365.128418,4375.128418,4388.589844,4402.05127,4349.230957,4275.897461,4470.256348,4322.307617,4358.846191,,,,,,,,,,,,,,,,,,,,,,,,,,,,,,,,,,,,,,,,,,,,,,,,,,,,,,,,,,,,,,,,,,,,,,
1720081632,113,0,4393.205078,4368.077148,4292.820313,4329.871582,4364.102539,4367.307617,4376.794922,4389.871582,4406.282227,4350.128418,4279.615234,4466.538574,4323.846191,4342.436035,,,,,,,,,,,,,,,,,,,,,,,,,,,,,,,,,,,,,,,,,,,,,,,,,,,,,,,,,,,,,,,,,,,,,,
1720081632,114,0,4379.230957,4359.230957,4288.077148,4330.897461,4363.589844,4370,4376.153809,4397.436035,4399.358887,4345.128418,4280.256348,4458.077148,4325,4363.717773,,,,,,,,,,,,,,,,,,,,,,,,,,,,,,,,,,,,,,,,,,,,,,,,,,,,,,,,,,,,,,,,,,,,,,
1720081632,115,0,4380.384766,4358.333496,4288.077148,4329.358887,4374.487305,4369.487305,4381.922852,4389.743652,4406.153809,4345.897461,4278.461426,4450.897461,4327.307617,4399.871582,,,,,,,,,,,,,,,,,,,,,,,,,,,,,,,,,,,,,,,,,,,,,,,,,,,,,,,,,,,,,,,,,,,,,,
1720081632,116,0,4397.563965,4375.641113,4301.025879,4332.05127,4372.179688,4372.179688,4385.512695,4393.205078,4417.05127,4349.871582,4282.692383,4466.538574,4329.487305,4403.077148,,,,,,,,,,,,,,,,,,,,,,,,,,,,,,,,,,,,,,,,,,,,,,,,,,,,,,,,,,,,,,,,,,,,,,
1720081632,117,0,4411.282227,4388.846191,4316.538574,4335,4367.436035,4376.666504,4383.717773,4391.282227,4413.846191,4350.769043,4290.512695,4488.717773,4334.230957,4379.871582,,,,,,,,,,,,,,,,,,,,,,,,,,,,,,,,,,,,,,,,,,,,,,,,,,,,,,,,,,,,,,,,,,,,,,
1720081632,118,0,4414.487305,4386.153809,4313.846191,4333.333496,4373.846191,4377.692383,4384.230957,4388.846191,4408.974121,4346.153809,4291.794922,4488.333496,4337.692383,4377.307617,,,,,,,,,,,,,,,,,,,,,,,,,,,,,,,,,,,,,,,,,,,,,,,,,,,,,,,,,,,,,,,,,,,,,,
1720081632,119,0,4407.436035,4380,4294.358887,4330,4376.922852,4370.769043,4376.538574,4384.358887,4398.846191,4332.179688,4274.487305,4458.077148,4324.230957,4390.897461,,,,,,,,,,,,,,,,,,,,,,,,,,,,,,,,,,,,,,,,,,,,,,,,,,,,,,,,,,,,,,,,,,,,,,
1720081632,120,0,4385,4369.230957,4282.563965,4329.230957,4366.666504,4360.384766,4358.717773,4377.692383,4377.05127,4314.615234,4254.487305,4433.205078,4301.282227,4387.05127,,,,,,,,,,,,,,,,,,,,,,,,,,,,,,,,,,,,,,,,,,,,,,,,,,,,,,,,,,,,,,,,,,,,,,
1720081632,121,0,4366.794922,4357.820313,4283.333496,4328.333496,4356.410156,4358.974121,4355,4379.487305,4371.282227,4310.897461,4250,4440,4298.205078,4375,,,,,,,,,,,,,,,,,,,,,,,,,,,,,,,,,,,,,,,,,,,,,,,,,,,,,,,,,,,,,,,,,,,,,,
1720081632,122,0,4378.974121,4363.717773,4287.692383,4326.538574,4359.871582,4364.102539,4368.205078,4380,4392.179688,4322.436035,4264.871582,4454.615234,4315.897461,4381.794922,,,,,,,,,,,,,,,,,,,,,,,,,,,,,,,,,,,,,,,,,,,,,,,,,,,,,,,,,,,,,,,,,,,,,,
1720081632,123,0,4388.589844,4372.94873,4293.461426,4327.692383,4367.307617,4369.487305,4373.846191,4376.410156,4412.820313,4331.794922,4278.461426,4455.769043,4324.487305,4383.461426,,,,,,,,,,,,,,,,,,,,,,,,,,,,,,,,,,,,,,,,,,,,,,,,,,,,,,,,,,,,,,,,,,,,,,
1720081632,124,0,4375.256348,4369.615234,4299.743652,4328.717773,4363.205078,4373.461426,4370.512695,4395.256348,4415,4333.461426,4273.333496,4461.025879,4318.589844,4366.410156,,,,,,,,,,,,,,,,,,,,,,,,,,,,,,,,,,,,,,,,,,,,,,,,,,,,,,,,,,,,,,,,,,,,,,
1720081632,125,0,4376.282227,4371.282227,4292.692383,4325.512695,4361.410156,4369.230957,4377.179688,4376.794922,4409.102539,4328.974121,4265.256348,4460,4317.307617,4350.897461,1.555614,3.570484,2.158867,1.901066,1.257544,0.874143,1.818089,1.111688,0.899604,0.529043,0.52717,0.995227,1.491763,0.877527,0.608607,0.031948,0.036296,0.026605,0.024527,0.067936,0.511218,0.358142,0.294913,0.35579,0.18326,1.320312,0.832916,0.313522,0.144538,0.136129,0.847143,1.418765,1.039955,0.257962,0.204508,0.863081,0.26302,0.299747,0.101167,2.14032,1.501012,3.893426,4.013015,0.499191,0.346133,4.630745,1.322716,1.707846,0.234997,0.169109,1.336125,2.385712,2.216529,1.493819,0.841629,1.075817,1.675838,2.007632,1.447712,1.056051,2.151536,3.177432,2.52163,1.794761,0.82075,1.871902,4.335105,5.385107,7.551753,3.211326
1720081632,126,0,4386.666504,4380,4285.897461,4325.769043,4368.205078,4368.589844,4382.05127,4348.717773,4408.974121,4324.230957,4270.128418,4453.077148,4322.94873,4350.641113,,,,,,,,,,,,,,,,,,,,,,,,,,,,,,,,,,,,,,,,,,,,,,,,,,,,,,,,,,,,,,,,,,,,,,
1720081632,127,0,4374.487305,4379.230957,4304.358887,4332.179688,4366.282227,4374.743652,4374.487305,4399.615234,4409.358887,4324.615234,4283.846191,4471.410156,4323.846191,4369.358887,,,,,,,,,,,,,,,,,,,,,,,,,,,,,,,,,,,,,,,,,,,,,,,,,,,,,,,,,,,,,,,,,,,,,,
1720081632,0,0,4385.769043,4387.307617,4318.974121,4331.538574,4368.333496,4371.282227,4373.461426,4391.922852,4405.641113,4321.794922,4287.94873,4476.922852,4329.358887,4387.307617,,,,,,,,,,,,,,,,,,,,,,,,,,,,,,,,,,,,,,,,,,,,,,,,,,,,,,,,,,,,,,,,,,,,,,
1720081632,1,0,4414.615234,4395.769043,4315.641113,4331.538574,4377.94873,4368.077148,4376.538574,4350,4404.102539,4317.436035,4285.128418,4467.307617,4334.487305,4391.666504,,,,,,,,,,,,,,,,,,,,,,,,,,,,,,,,,,,,,,,,,,,,,,,,,,,,,,,,,,,,,,,,,,,,,,
1720081632,2,0,4395.256348,4382.436035,4311.282227,4335.384766,4372.563965,4371.922852,4373.589844,4378.205078,4402.05127,4316.282227,4277.692383,4467.179688,4321.538574,4383.205078,,,,,,,,,,,,,,,,,,,,,,,,,,,,,,,,,,,,,,,,,,,,,,,,,,,,,,,,,,,,,,,,,,,,,,
1720081632,3,0,4379.230957,4379.230957,4304.230957,4331.025879,4368.589844,4372.307617,4375,4372.307617,4402.820313,4315.384766,4271.153809,4456.538574,4315.897461,4374.358887,,,,,,,,,,,,,,,,,,,,,,,,,,,,,,,,,,,,,,,,,,,,,,,,,,,,,,,,,,,,,,,,,,,,,,
1720081632,4,0,4406.666504,4395.256348,4305.769043,4329.102539,4376.282227,4371.666504,4381.538574,4358.589844,4408.717773,4316.025879,4285.128418,4457.820313,4333.589844,4390.769043,,,,,,,,,,,,,,,,,,,,,,,,,,,,,,,,,,,,,,,,,,,,,,,,,,,,,,,,,,,,,,,,,,,,,,
1720081632,5,0,4400.897461,4394.102539,4312.820313,4332.94873,4379.743652,4368.846191,4382.307617,4378.461426,4411.922852,4318.974121,4287.563965,4472.436035,4334.871582,4386.794922,,,,,,,,,,,,,,,,,,,,,,,,,,,,,,,,,,,,,,,,,,,,,,,,,,,,,,,,,,,,,,,,,,,,,,
1720081632,6,0,4370.512695,4382.05127,4310.769043,4331.410156,4377.436035,4362.179688,4377.563965,4364.358887,4407.692383,4313.974121,4265.897461,4468.461426,4311.666504,4326.666504,,,,,,,,,,,,,,,,,,,,,,,,,,,,,,,,,,,,,,,,,,,,,,,,,,,,,,,,,,,,,,,,,,,,,,
1720081632,7,0,4380.769043,4384.871582,4310.897461,4329.615234,4373.077148,4361.794922,4373.077148,4355,4404.615234,4306.666504,4263.846191,4464.487305,4307.692383,4314.743652,,,,,,,,,,,,,,,,,,,,,,,,,,,,,,,,,,,,,,,,,,,,,,,,,,,,,,,,,,,,,,,,,,,,,,
1720081632,8,0,4389.102539,4384.230957,4312.563965,4332.05127,4367.179688,4373.461426,4376.666504,4393.333496,4407.307617,4308.205078,4279.743652,4467.94873,4319.615234,4379.358887,,,,,,,,,,,,,,,,,,,,,,,,,,,,,,,,,,,,,,,,,,,,,,,,,,,,,,,,,,,,,,,,,,,,,,
1720081632,9,0,4386.153809,4378.974121,4303.077148,4326.794922,4368.461426,4378.461426,4386.282227,4370.128418,4413.589844,4310.256348,4280.384766,4451.922852,4323.589844,4398.461426,,,,,,,,,,,,,,,,,,,,,,,,,,,,,,,,,,,,,,,,,,,,,,,,,,,,,,,,,,,,,,,,,,,,,,
1720081632,10,0,4411.538574,4392.94873,4304.615234,4324.743652,4371.282227,4374.230957,4384.871582,4343.205078,4413.717773,4307.820313,4284.743652,4455,4329.230957,4386.025879,,,,,,,,,,,,,,,,,,,,,,,,,,,,,,,,,,,,,,,,,,,,,,,,,,,,,,,,,,,,,,,,,,,,,,
1720081632,11,0,4419.358887,4402.94873,4313.461426,4331.538574,4368.974121,4372.436035,4370.897461,4379.487305,4403.077148,4302.820313,4291.794922,4483.205078,4337.05127,4394.615234,,,,,,,,,,,,,,,,,,,,,,,,,,,,,,,,,,,,,,,,,,,,,,,,,,,,,,,,,,,,,,,,,,,,,,
1720081632,12,0,4387.436035,4390.256348,4310.128418,4332.307617,4371.538574,4366.922852,4363.974121,4363.077148,4403.333496,4296.025879,4282.94873,4476.153809,4334.230957,4358.205078,,,,,,,,,,,,,,,,,,,,,,,,,,,,,,,,,,,,,,,,,,,,,,,,,,,,,,,,,,,,,,,,,,,,,,
1720081632,13,0,4374.871582,4380.384766,4314.487305,4332.563965,4367.179688,4365.512695,4369.487305,4352.05127,4410.128418,4293.461426,4283.974121,4466.922852,4328.589844,4327.820313,1.51897,3.804195,2.29551,2.116926,1.278219,0.866277,1.933762,1.238951,0.937679,0.550192,0.493666,0.964504,1.548255,0.79309,0.587608,0.02681,0.037337,0.029505,0.022768,0.073377,0.406944,0.366635,0.293771,0.355856,0.175627,1.285895,0.771389,0.346857,0.139977,0.153086,0.821155,1.344898,0.710957,0.246993,0.197595,0.930085,0.2088,0.296199,0.083738,2.104208,1.572309,3.326005,4.04354,0.473262,0.340139,5.01717,1.039181,1.700301,0.254518,0.165825,1.430768,2.253228,2.405329,1.45212,0.880588,0.995211,1.612885,2.001054,1.432972,1.074658,2.352859,3.080573,2.661433,1.823603,0.855484,2.126079,4.561233,5.945964,7.094844,3.460117
1720081632,14,0,4408.333496,4390.897461,4319.743652,4330.641113,4360.512695,4372.94873,4378.077148,4368.717773,4408.205078,4295.256348,4291.025879,4477.05127,4329.871582,4378.077148,,,,,,,,,,,,,,,,,,,,,,,,,,,,,,,,,,,,,,,,,,,,,,,,,,,,,,,,,,,,,,,,,,,,,,
1720081632,15,0,4423.077148,4395,4313.846191,4328.077148,4368.717773,4377.563965,4386.922852,4360.128418,4408.461426,4294.743652,4282.179688,4477.307617,4325.897461,4416.922852,,,,,,,,,,,,,,,,,,,,,,,,,,,,,,,,,,,,,,,,,,,,,,,,,,,,,,,,,,,,,,,,,,,,,,
1720081632,16,0,4394.487305,4382.179688,4308.589844,4331.025879,4375.769043,4378.333496,4396.794922,4361.922852,4412.436035,4288.205078,4275.641113,4473.333496,4315.897461,4377.692383,,,,,,,,,,,,,,,,,,,,,,,,,,,,,,,,,,,,,,,,,,,,,,,,,,,,,,,,,,,,,,,,,,,,,,
1720081632,17,0,4378.846191,4378.333496,4308.461426,4332.436035,4372.692383,4376.410156,4397.692383,4362.94873,4412.94873,4286.538574,4280.769043,4470,4316.794922,4335.384766,,,,,,,,,,,,,,,,,,,,,,,,,,,,,,,,,,,,,,,,,,,,,,,,,,,,,,,,,,,,,,,,,,,,,,
1720081632,18,0,4389.487305,4376.410156,4302.94873,4332.94873,4367.307617,4373.333496,4386.153809,4361.282227,4411.282227,4290.512695,4276.794922,4460.512695,4317.94873,4343.846191,,,,,,,,,,,,,,,,,,,,,,,,,,,,,,,,,,,,,,,,,,,,,,,,,,,,,,,,,,,,,,,,,,,,,,
1720081632,19,0,4394.615234,4371.410156,4290.512695,4332.94873,4364.487305,4367.94873,4374.487305,4363.077148,4413.846191,4291.538574,4267.436035,4448.333496,4313.461426,4371.794922,,,,,,,,,,,,,,,,,,,,,,,,,,,,,,,,,,,,,,,,,,,,,,,,,,,,,,,,,,,,,,,,,,,,,,
1720081632,20,0,4397.05127,4380.384766,4290,4328.589844,4365.897461,4362.692383,4363.333496,4356.025879,4418.974121,4290.512695,4271.282227,4449.102539,4321.666504,4385.512695,,,,,,,,,,,,,,,,,,,,,,,,,,,,,,,,,,,,,,,,,,,,,,,,,,,,,,,,,,,,,,,,,,,,,,
1720081632,21,0,4397.692383,4385.256348,4298.974121,4328.717773,4375.128418,4365,4356.794922,4358.717773,4417.692383,4290.256348,4281.922852,4458.333496,4331.282227,4380.384766,,,,,,,,,,,,,,,,,,,,,,,,,,,,,,,,,,,,,,,,,,,,,,,,,,,,,,,,,,,,,,,,,,,,,,
1720081632,22,0,4376.794922,4373.205078,4304.358887,4335.128418,4377.94873,4376.153809,4368.589844,4371.410156,4413.717773,4285.512695,4282.820313,4467.05127,4323.461426,4369.743652,,,,,,,,,,,,,,,,,,,,,,,,,,,,,,,,,,,,,,,,,,,,,,,,,,,,,,,,,,,,,,,,,,,,,,
1720081632,23,0,4366.922852,4370.897461,4302.563965,4333.974121,4362.05127,4392.05127,4388.589844,4337.436035,4411.282227,4276.153809,4274.230957,4466.666504,4315.641113,4343.846191,,,,,,,,,,,,,,,,,,,,,,,,,,,,,,,,,,,,,,,,,,,,,,,,,,,,,,,,,,,,,,,,,,,,,,
1720081632,24,0,4392.94873,4381.538574,4312.179688,4333.846191,4348.717773,4411.025879,4399.487305,4342.179688,4404.487305,4273.846191,4283.333496,4478.974121,4323.589844,4338.333496,,,,,,,,,,,,,,,,,,,,,,,,,,,,,,,,,,,,,,,,,,,,,,,,,,,,,,,,,,,,,,,,,,,,,,
1720081632,25,0,4418.846191,4388.205078,4325.128418,4337.820313,4355.897461,4414.743652,4406.025879,4389.743652,4401.922852,4277.692383,4299.743652,4499.615234,4331.153809,4368.461426,,,,,,,,,,,,,,,,,,,,,,,,,,,,,,,,,,,,,,,,,,,,,,,,,,,,,,,,,,,,,,,,,,,,,,
1720081632,26,0,4421.025879,4395.641113,4316.922852,4332.820313,4364.871582,4402.179688,4410.256348,4348.461426,4409.871582,4275,4295.384766,4486.410156,4332.820313,4372.94873,,,,,,,,,,,,,,,,,,,,,,,,,,,,,,,,,,,,,,,,,,,,,,,,,,,,,,,,,,,,,,,,,,,,,,
1720081632,27,0,4409.358887,4399.358887,4318.846191,4331.666504,4357.179688,4399.487305,4409.230957,4337.436035,4418.205078,4276.282227,4296.025879,4487.692383,4338.974121,4365.641113,,,,,,,,,,,,,,,,,,,,,,,,,,,,,,,,,,,,,,,,,,,,,,,,,,,,,,,,,,,,,,,,,,,,,,
1720081632,28,0,4410.641113,4398.974121,4335.512695,4337.563965,4354.871582,4398.589844,4408.333496,4372.820313,4434.743652,4289.102539,4307.307617,4512.307617,4348.846191,4386.025879,,,,,,,,,,,,,,,,,,,,,,,,,,,,,,,,,,,,,,,,,,,,,,,,,,,,,,,,,,,,,,,,,,,,,,
1720081632,29,0,4407.94873,4391.153809,4327.692383,4337.307617,4359.743652,4389.358887,4397.820313,4356.282227,4448.846191,4292.05127,4308.205078,4503.461426,4353.589844,4393.717773,1.459613,3.786174,2.307222,2.190644,1.289486,0.828999,1.906468,1.287934,0.910701,0.542268,0.496434,0.960243,1.552755,0.710613,0.535526,0.023448,0.040099,0.031859,0.023634,0.077073,0.324349,0.352057,0.279574,0.334973,0.161565,1.224715,0.681923,0.369237,0.143045,0.160973,0.816167,1.217537,0.519508,0.245655,0.190624,0.871198,0.150246,0.273155,0.075012,2.066411,1.516679,2.804909,3.911283,0.472431,0.325246,4.856763,0.775282,1.552901,0.270106,0.160443,1.411418,1.979493,2.49385,1.34118,0.861141,0.930923,1.586674,1.909136,1.346962,1.055444,2.359167,2.76856,2.715006,1.73667,0.847363,2.229982,4.739107,6.436052,6.551381,3.882515
1720081632,30,0,4389.615234,4374.102539,4301.025879,4333.461426,4353.333496,4384.871582,4376.025879,4353.205078,4430.384766,4274.743652,4295.256348,4470.641113,4334.230957,4359.615234,,,,,,,,,,,,,,,,,,,,,,,,,,,,,,,,,,,,,,,,,,,,,,,,,,,,,,,,,,,,,,,,,,,,,,
1720081632,31,0,4391.410156,4372.563965,4288.205078,4330.769043,4349.871582,4383.205078,4365.512695,4355.256348,4411.666504,4263.461426,4276.666504,4447.436035,4308.717773,4351.794922,,,,,,,,,,,,,,,,,,,,,,,,,,,,,,,,,,,,,,,,,,,,,,,,,,,,,,,,,,,,,,,,,,,,,,
1720081632,32,0,4400.384766,4381.025879,4299.358887,4332.692383,4355.897461,4383.077148,4368.077148,4347.692383,4419.358887,4263.461426,4277.436035,4463.846191,4316.538574,4366.153809,,,,,,,,,,,,,,,,,,,,,,,,,,,,,,,,,,,,,,,,,,,,,,,,,,,,,,,,,,,,,,,,,,,,,,
1720081632,33,0,4385.512695,4380.128418,4312.307617,4336.538574,4359.230957,4387.307617,4374.487305,4354.871582,4419.615234,4260.128418,4293.717773,4493.461426,4334.615234,4337.436035,,,,,,,,,,,,,,,,,,,,,,,,,,,,,,,,,,,,,,,,,,,,,,,,,,,,,,,,,,,,,,,,,,,,,,
1720081632,34,0,4387.94873,4381.410156,4309.615234,4334.615234,4359.743652,4395.769043,4388.205078,4347.563965,4411.282227,4262.820313,4301.153809,4487.436035,4339.102539,4337.692383,,,,,,,,,,,,,,,,,,,,,,,,,,,,,,,,,,,,,,,,,,,,,,,,,,,,,,,,,,,,,,,,,,,,,,
1720081632,35,0,4424.358887,4393.205078,4304.615234,4333.461426,4360.512695,4397.820313,4398.717773,4334.871582,4413.077148,4264.615234,4299.358887,4469.615234,4344.615234,4399.615234,,,,,,,,,,,,,,,,,,,,,,,,,,,,,,,,,,,,,,,,,,,,,,,,,,,,,,,,,,,,,,,,,,,,,,
1720081632,36,0,4425.128418,4394.102539,4313.846191,4337.692383,4358.974121,4395.256348,4398.077148,4362.179688,4412.307617,4254.743652,4300,4480.256348,4342.820313,4410.769043,,,,,,,,,,,,,,,,,,,,,,,,,,,,,,,,,,,,,,,,,,,,,,,,,,,,,,,,,,,,,,,,,,,,,,
1720081632,37,0,4399.102539,4388.205078,4317.94873,4335.256348,4362.05127,4394.230957,4403.974121,4347.436035,4411.922852,4250.512695,4295.641113,4483.333496,4332.692383,4370.769043,,,,,,,,,,,,,,,,,,,,,,,,,,,,,,,,,,,,,,,,,,,,,,,,,,,,,,,,,,,,,,,,,,,,,,
