Timestamp,EEG.Counter,EEG.Interpolated,EEG.AF3,EEG.F7,EEG.F3,EEG.FC5,EEG.T7,EEG.P7,EEG.O1,EEG.O2,EEG.P8,EEG.T8,EEG.FC6,EEG.F4,EEG.F8,EEG.AF4,POW.AF3.Theta,POW.AF3.Alpha,POW.AF3.BetaL,POW.AF3.BetaH,POW.AF3.Gamma,POW.F7.Theta,POW.F7.Alpha,POW.F7.BetaL,POW.F7.BetaH,POW.F7.Gamma,POW.F3.Theta,POW.F3.Alpha,POW.F3.BetaL,POW.F3.BetaH,POW.F3.Gamma,POW.FC5.Theta,POW.FC5.Alpha,POW.FC5.BetaL,POW.FC5.BetaH,POW.FC5.Gamma,POW.T7.Theta,POW.T7.Alpha,POW.T7.BetaL,POW.T7.BetaH,POW.T7.Gamma,POW.P7.Theta,POW.P7.Alpha,POW.P7.BetaL,POW.P7.BetaH,POW.P7.Gamma,POW.O1.Theta,POW.O1.Alpha,POW.O1.BetaL,POW.O1.BetaH,POW.O1.Gamma,POW.O2.Theta,POW.O2.Alpha,POW.O2.BetaL,POW.O2.BetaH,POW.O2.Gamma,POW.P8.Theta,POW.P8.Alpha,POW.P8.BetaL,POW.P8.BetaH,POW.P8.Gamma,POW.T8.Theta,POW.T8.Alpha,POW.T8.BetaL,POW.T8.BetaH,POW.T8.Gamma,POW.FC6.Theta,POW.FC6.Alpha,POW.FC6.BetaL,POW.FC6.BetaH,POW.FC6.Gamma,POW.F4.Theta,POW.F4.Alpha,POW.F4.BetaL,POW.F4.BetaH,POW.F4.Gamma,POW.F8.Theta,POW.F8.Alpha,POW.F8.BetaL,POW.F8.BetaH,POW.F8.Gamma,POW.AF4.Theta,POW.AF4.Alpha,POW.AF4.BetaL,POW.AF4.BetaH,POW.AF4.Gamma
1720179671,38,0,4324.615234,4291.153809,4337.05127,4312.179688,4356.922852,4302.05127,4289.743652,4299.743652,4330.128418,4370.512695,4475,4520.897461,4355.897461,4473.333496,,,,,,,,,,,,,,,,,,,,,,,,,,,,,,,,,,,,,,,,,,,,,,,,,,,,,,,,,,,,,,,,,,,,,,
1720179671,39,0,4304.358887,4294.615234,4326.025879,4308.846191,4361.666504,4299.358887,4278.589844,4292.820313,4332.563965,4374.358887,4462.436035,4500.512695,4339.615234,4449.743652,,,,,,,,,,,,,,,,,,,,,,,,,,,,,,,,,,,,,,,,,,,,,,,,,,,,,,,,,,,,,,,,,,,,,,
1720179671,40,0,4297.563965,4278.077148,4317.436035,4310.641113,4357.307617,4295.384766,4263.974121,4278.846191,4332.179688,4382.179688,4454.230957,4485.384766,4331.153809,4443.589844,,,,,,,,,,,,,,,,,,,,,,,,,,,,,,,,,,,,,,,,,,,,,,,,,,,,,,,,,,,,,,,,,,,,,,
1720179671,41,0,4299.615234,4265.512695,4313.077148,4308.461426,4356.410156,4297.307617,4260.256348,4275.641113,4329.871582,4383.461426,4454.230957,4486.153809,4332.05127,4445.256348,,,,,,,,,,,,,,,,,,,,,,,,,,,,,,,,,,,,,,,,,,,,,,,,,,,,,,,,,,,,,,,,,,,,,,
1720179671,42,0,4289.230957,4259.871582,4311.666504,4308.333496,4362.436035,4297.94873,4262.179688,4278.717773,4325.769043,4375.897461,4453.333496,4482.307617,4325.512695,4431.410156,,,,,,,,,,,,,,,,,,,,,,,,,,,,,,,,,,,,,,,,,,,,,,,,,,,,,,,,,,,,,,,,,,,,,,
1720179671,43,0,4283.461426,4267.563965,4307.820313,4305.256348,4366.153809,4296.794922,4262.179688,4277.692383,4321.025879,4368.717773,4453.974121,4473.846191,4324.102539,4429.743652,,,,,,,,,,,,,,,,,,,,,,,,,,,,,,,,,,,,,,,,,,,,,,,,,,,,,,,,,,,,,,,,,,,,,,
1720179671,44,0,4290.384766,4280.512695,4300.128418,4303.205078,4365,4295.897461,4259.871582,4273.461426,4316.153809,4359.358887,4459.358887,4473.077148,4334.230957,4447.05127,,,,,,,,,,,,,,,,,,,,,,,,,,,,,,,,,,,,,,,,,,,,,,,,,,,,,,,,,,,,,,,,,,,,,,
1720179671,45,0,4299.102539,4275,4306.538574,4311.282227,4362.820313,4296.538574,4268.333496,4280.128418,4313.846191,4350.897461,4467.563965,4488.589844,4344.358887,4460.512695,,,,,,,,,,,,,,,,,,,,,,,,,,,,,,,,,,,,,,,,,,,,,,,,,,,,,,,,,,,,,,,,,,,,,,
1720179671,46,0,4312.563965,4267.307617,4330.641113,4309.871582,4359.358887,4298.589844,4285,4298.205078,4318.717773,4353.205078,4480.769043,4521.538574,4356.025879,4475.897461,,,,,,,,,,,,,,,,,,,,,,,,,,,,,,,,,,,,,,,,,,,,,,,,,,,,,,,,,,,,,,,,,,,,,,
1720179671,47,0,4336.025879,4287.307617,4355.897461,4309.358887,4355.384766,4298.077148,4301.794922,4320.128418,4329.743652,4361.410156,4498.077148,4562.692383,4381.410156,4508.077148,,,,,,,,,,,,,,,,,,,,,,,,,,,,,,,,,,,,,,,,,,,,,,,,,,,,,,,,,,,,,,,,,,,,,,
1720179671,48,0,4353.077148,4311.025879,4380.128418,4336.922852,4361.410156,4298.205078,4317.563965,4335.512695,4341.025879,4369.102539,4514.487305,4594.487305,4411.025879,4541.538574,4.806827,12.637517,4.256379,1.658469,0.25099,2.140941,7.920375,2.509894,2.723362,1.461914,2.767946,13.610303,3.813618,2.079375,0.373795,1.842553,5.467233,1.332681,0.984477,0.453613,0.118382,0.489704,0.362384,0.29764,0.221099,0.137192,0.179218,0.135351,0.075799,0.062129,1.535814,4.678489,1.520016,0.964747,0.229844,1.482844,5.417277,1.692603,1.245946,0.269201,0.976159,0.525905,0.867112,0.312757,0.180377,0.905753,0.386029,0.652842,0.251339,0.142022,1.554679,3.480753,1.898889,0.851638,0.348944,5.359668,13.467635,6.570514,3.338895,0.396065,3.421752,9.618046,4.585643,1.454295,0.280347,5.386115,12.428181,6.267063,2.97022,0.385479
1720179671,49,0,4346.025879,4291.410156,4385.256348,4349.102539,4375.512695,4302.436035,4307.692383,4323.205078,4338.717773,4369.230957,4510.256348,4581.922852,4405.897461,4531.922852,,,,,,,,,,,,,,,,,,,,,,,,,,,,,,,,,,,,,,,,,,,,,,,,,,,,,,,,,,,,,,,,,,,,,,
1720179671,50,0,4330.256348,4267.307617,4362.94873,4329.487305,4383.077148,4306.666504,4280.384766,4297.692383,4329.615234,4361.538574,4487.436035,4539.743652,4373.717773,4487.05127,,,,,,,,,,,,,,,,,,,,,,,,,,,,,,,,,,,,,,,,,,,,,,,,,,,,,,,,,,,,,,,,,,,,,,
1720179671,51,0,4317.692383,4280,4336.410156,4323.846191,4382.179688,4304.743652,4272.307617,4291.410156,4318.846191,4347.692383,4478.461426,4516.282227,4363.461426,4467.05127,,,,,,,,,,,,,,,,,,,,,,,,,,,,,,,,,,,,,,,,,,,,,,,,,,,,,,,,,,,,,,,,,,,,,,
1720179671,52,0,4301.153809,4291.666504,4319.743652,4323.974121,4380.384766,4304.743652,4283.333496,4299.487305,4318.077148,4343.333496,4483.205078,4512.563965,4368.589844,4470.384766,,,,,,,,,,,,,,,,,,,,,,,,,,,,,,,,,,,,,,,,,,,,,,,,,,,,,,,,,,,,,,,,,,,,,,
1720179671,53,0,4288.974121,4287.05127,4314.615234,4307.436035,4383.974121,4307.179688,4280.641113,4295.512695,4327.94873,4353.333496,4471.538574,4501.410156,4352.563965,4457.307617,,,,,,,,,,,,,,,,,,,,,,,,,,,,,,,,,,,,,,,,,,,,,,,,,,,,,,,,,,,,,,,,,,,,,,
1720179671,54,0,4293.974121,4281.538574,4314.871582,4308.846191,4381.666504,4301.153809,4264.487305,4281.153809,4319.487305,4352.436035,4452.179688,4482.692383,4338.077148,4441.922852,,,,,,,,,,,,,,,,,,,,,,,,,,,,,,,,,,,,,,,,,,,,,,,,,,,,,,,,,,,,,,,,,,,,,,
1720179671,55,0,4297.05127,4269.615234,4312.179688,4317.563965,4375.128418,4295.641113,4260.128418,4279.358887,4317.179688,4348.333496,4459.871582,4474.615234,4350.128418,4441.538574,,,,,,,,,,,,,,,,,,,,,,,,,,,,,,,,,,,,,,,,,,,,,,,,,,,,,,,,,,,,,,,,,,,,,,
1720179671,56,0,4286.666504,4253.717773,4305.128418,4298.333496,4378.333496,4295.897461,4257.820313,4276.922852,4322.05127,4350,4472.692383,4478.589844,4353.333496,4441.025879,,,,,,,,,,,,,,,,,,,,,,,,,,,,,,,,,,,,,,,,,,,,,,,,,,,,,,,,,,,,,,,,,,,,,,
1720179671,57,0,4287.94873,4259.871582,4308.333496,4287.436035,4379.230957,4294.743652,4255.256348,4271.538574,4311.025879,4347.307617,4470.641113,4490.128418,4346.282227,4445.641113,,,,,,,,,,,,,,,,,,,,,,,,,,,,,,,,,,,,,,,,,,,,,,,,,,,,,,,,,,,,,,,,,,,,,,
1720179671,58,0,4302.94873,4276.282227,4321.025879,4304.743652,4367.05127,4291.922852,4254.871582,4272.179688,4306.025879,4345.641113,4475.384766,4499.358887,4354.615234,4454.487305,,,,,,,,,,,,,,,,,,,,,,,,,,,,,,,,,,,,,,,,,,,,,,,,,,,,,,,,,,,,,,,,,,,,,,
1720179671,59,0,4309.102539,4291.153809,4325.128418,4313.077148,4361.153809,4290.641113,4250.128418,4269.358887,4302.820313,4342.820313,4478.461426,4500.641113,4359.743652,4455.769043,,,,,,,,,,,,,,,,,,,,,,,,,,,,,,,,,,,,,,,,,,,,,,,,,,,,,,,,,,,,,,,,,,,,,,
1720179671,60,0,4315.128418,4302.436035,4336.153809,4322.436035,4372.307617,4291.922852,4258.333496,4275.256348,4294.743652,4343.461426,4477.94873,4514.102539,4362.436035,4469.743652,,,,,,,,,,,,,,,,,,,,,,,,,,,,,,,,,,,,,,,,,,,,,,,,,,,,,,,,,,,,,,,,,,,,,,
1720179671,61,0,4335.897461,4283.846191,4363.589844,4351.538574,4380.769043,4299.102539,4285.256348,4298.461426,4311.538574,4364.615234,4495.897461,4540.897461,4384.615234,4495.769043,,,,,,,,,,,,,,,,,,,,,,,,,,,,,,,,,,,,,,,,,,,,,,,,,,,,,,,,,,,,,,,,,,,,,,
1720179671,62,0,4338.205078,4267.563965,4368.461426,4352.179688,4380.384766,4304.230957,4295.128418,4310,4332.179688,4378.974121,4506.922852,4541.153809,4391.410156,4490.769043,,,,,,,,,,,,,,,,,,,,,,,,,,,,,,,,,,,,,,,,,,,,,,,,,,,,,,,,,,,,,,,,,,,,,,
1720179671,63,0,4302.94873,4281.538574,4331.666504,4313.846191,4381.922852,4301.153809,4278.077148,4299.102539,4313.333496,4356.922852,4486.410156,4510.512695,4365.384766,4457.692383,,,,,,,,,,,,,,,,,,,,,,,,,,,,,,,,,,,,,,,,,,,,,,,,,,,,,,,,,,,,,,,,,,,,,,
1720179671,64,0,4275.769043,4278.333496,4305.256348,4290.897461,4386.794922,4302.307617,4276.666504,4295.512695,4299.358887,4335.128418,4468.333496,4497.05127,4352.179688,4443.077148,4.96208,14.704339,4.592126,1.662441,0.279454,2.354534,9.374857,2.80189,2.915993,1.492861,3.1812,15.70182,3.938237,1.843611,0.434261,1.874616,6.490857,1.39384,0.991484,0.462372,0.165821,0.810453,0.3641,0.332071,0.223052,0.136315,0.251181,0.134519,0.077474,0.055794,1.501472,6.277588,1.208498,0.872797,0.26733,1.351321,6.978874,1.324585,1.073074,0.305925,1.165875,0.55486,0.788962,0.305784,0.202687,0.895934,0.434241,0.570543,0.253007,0.144112,1.478908,3.980817,1.919558,0.717205,0.355879,5.670199,14.896936,6.303726,2.819292,0.445091,2.652884,10.829575,4.609647,1.381418,0.285838,5.064127,14.317618,6.158698,2.638098,0.439377
1720179671,65,0,4277.307617,4240,4308.589844,4292.307617,4387.692383,4304.230957,4283.077148,4299.615234,4301.538574,4328.717773,4469.230957,4504.615234,4350.128418,4447.563965,,,,,,,,,,,,,,,,,,,,,,,,,,,,,,,,,,,,,,,,,,,,,,,,,,,,,,,,,,,,,,,,,,,,,,
1720179671,66,0,4280.641113,4224.615234,4309.743652,4291.410156,4386.410156,4304.358887,4270.769043,4292.05127,4292.436035,4318.846191,4473.846191,4502.179688,4344.615234,4444.487305,,,,,,,,,,,,,,,,,,,,,,,,,,,,,,,,,,,,,,,,,,,,,,,,,,,,,,,,,,,,,,,,,,,,,,
1720179671,67,0,4277.179688,4252.179688,4305.384766,4286.025879,4386.538574,4305.512695,4261.410156,4284.102539,4286.666504,4310.769043,4471.538574,4493.974121,4346.153809,4432.179688,,,,,,,,,,,,,,,,,,,,,,,,,,,,,,,,,,,,,,,,,,,,,,,,,,,,,,,,,,,,,,,,,,,,,,
1720179671,68,0,4278.333496,4267.307617,4306.410156,4293.974121,4384.871582,4305.641113,4266.666504,4284.871582,4283.205078,4310.256348,4462.563965,4493.205078,4343.589844,4429.615234,,,,,,,,,,,,,,,,,,,,,,,,,,,,,,,,,,,,,,,,,,,,,,,,,,,,,,,,,,,,,,,,,,,,,,
1720179671,69,0,4291.538574,4254.102539,4316.538574,4311.025879,4382.563965,4308.077148,4275.641113,4291.794922,4285.897461,4319.871582,4463.717773,4499.743652,4342.436035,4443.461426,,,,,,,,,,,,,,,,,,,,,,,,,,,,,,,,,,,,,,,,,,,,,,,,,,,,,,,,,,,,,,,,,,,,,,
1720179671,70,0,4310.641113,4254.871582,4329.615234,4324.487305,4375.897461,4306.410156,4274.487305,4290.641113,4292.436035,4330.256348,4471.025879,4509.230957,4351.922852,4456.410156,,,,,,,,,,,,,,,,,,,,,,,,,,,,,,,,,,,,,,,,,,,,,,,,,,,,,,,,,,,,,,,,,,,,,,
1720179671,71,0,4323.717773,4283.461426,4343.077148,4328.077148,4368.077148,4296.282227,4275,4290,4297.820313,4338.717773,4474.871582,4529.743652,4365.897461,4466.025879,,,,,,,,,,,,,,,,,,,,,,,,,,,,,,,,,,,,,,,,,,,,,,,,,,,,,,,,,,,,,,,,,,,,,,
1720179671,72,0,4332.563965,4304.615234,4360.512695,4327.94873,4373.846191,4294.230957,4280.256348,4299.615234,4304.230957,4355,4487.05127,4554.230957,4383.205078,4480.512695,,,,,,,,,,,,,,,,,,,,,,,,,,,,,,,,,,,,,,,,,,,,,,,,,,,,,,,,,,,,,,,,,,,,,,
1720179671,73,0,4332.307617,4296.025879,4364.230957,4328.974121,4385.897461,4299.743652,4271.282227,4291.922852,4305.384766,4370,4496.922852,4549.102539,4388.077148,4487.692383,,,,,,,,,,,,,,,,,,,,,,,,,,,,,,,,,,,,,,,,,,,,,,,,,,,,,,,,,,,,,,,,,,,,,,
1720179671,74,0,4313.205078,4283.077148,4342.563965,4329.743652,4384.358887,4294.743652,4259.615234,4275.128418,4301.410156,4370.384766,4488.846191,4519.871582,4373.589844,4472.307617,,,,,,,,,,,,,,,,,,,,,,,,,,,,,,,,,,,,,,,,,,,,,,,,,,,,,,,,,,,,,,,,,,,,,,
1720179671,75,0,4297.05127,4266.794922,4327.692383,4328.846191,4378.077148,4295.384766,4269.487305,4283.077148,4299.871582,4365.769043,4482.563965,4509.230957,4363.461426,4451.410156,,,,,,,,,,,,,,,,,,,,,,,,,,,,,,,,,,,,,,,,,,,,,,,,,,,,,,,,,,,,,,,,,,,,,,
1720179671,76,0,4292.05127,4249.615234,4325.512695,4315,4380.512695,4308.589844,4282.820313,4298.717773,4299.102539,4363.333496,4482.563965,4508.333496,4359.102539,4440.384766,,,,,,,,,,,,,,,,,,,,,,,,,,,,,,,,,,,,,,,,,,,,,,,,,,,,,,,,,,,,,,,,,,,,,,
1720179671,77,0,4277.692383,4252.436035,4307.307617,4294.615234,4382.692383,4309.871582,4274.102539,4292.820313,4295.256348,4362.307617,4472.307617,4487.94873,4342.692383,4428.589844,,,,,,,,,,,,,,,,,,,,,,,,,,,,,,,,,,,,,,,,,,,,,,,,,,,,,,,,,,,,,,,,,,,,,,
1720179671,78,0,4261.666504,4251.025879,4288.717773,4289.487305,4383.717773,4307.179688,4261.922852,4280.128418,4298.717773,4368.333496,4460.256348,4466.025879,4326.282227,4413.205078,,,,,,,,,,,,,,,,,,,,,,,,,,,,,,,,,,,,,,,,,,,,,,,,,,,,,,,,,,,,,,,,,,,,,,
1720179671,79,0,4262.94873,4242.820313,4288.717773,4293.333496,4383.077148,4308.077148,4258.205078,4274.230957,4297.692383,4371.153809,4455.897461,4464.358887,4323.589844,4410.641113,,,,,,,,,,,,,,,,,,,,,,,,,,,,,,,,,,,,,,,,,,,,,,,,,,,,,,,,,,,,,,,,,,,,,,
1720179671,80,0,4269.743652,4242.94873,4296.666504,4294.230957,4376.410156,4304.871582,4257.820313,4275.897461,4297.179688,4372.05127,4459.615234,4475,4334.743652,4428.846191,4.956768,17.822424,4.889184,1.732831,0.324661,2.362812,11.168597,3.141404,3.134664,1.475707,3.733465,18.983828,4.19447,1.710619,0.509405,1.96639,8.038276,1.500432,1.067683,0.471034,0.264158,1.236355,0.382586,0.362441,0.223725,0.138578,0.374471,0.153908,0.083138,0.052024,1.671852,8.132514,0.908676,0.809495,0.315686,1.456468,8.693565,1.002011,0.938695,0.349689,1.612066,0.580232,0.681365,0.306968,0.239029,1.128024,0.473914,0.502898,0.268422,0.163063,1.407094,4.90782,1.927091,0.650096,0.357088,6.207724,17.954334,6.01623,2.425902,0.518583,2.271134,12.809529,4.601531,1.346924,0.307268,4.920006,17.700106,5.863273,2.35621,0.514657
1720179671,81,0,4277.94873,4249.487305,4304.743652,4300.256348,4372.820313,4301.538574,4264.358887,4282.692383,4309.743652,4381.282227,4473.205078,4485.641113,4355.128418,4450.384766,,,,,,,,,,,,,,,,,,,,,,,,,,,,,,,,,,,,,,,,,,,,,,,,,,,,,,,,,,,,,,,,,,,,,,
1720179671,82,0,4292.436035,4258.589844,4312.692383,4311.025879,4372.94873,4302.563965,4274.615234,4284.615234,4300.641113,4374.358887,4476.922852,4497.307617,4362.692383,4459.615234,,,,,,,,,,,,,,,,,,,,,,,,,,,,,,,,,,,,,,,,,,,,,,,,,,,,,,,,,,,,,,,,,,,,,,
1720179671,83,0,4300.769043,4267.436035,4326.282227,4316.538574,4368.205078,4307.820313,4283.461426,4294.358887,4289.743652,4361.025879,4476.666504,4516.538574,4363.077148,4467.436035,,,,,,,,,,,,,,,,,,,,,,,,,,,,,,,,,,,,,,,,,,,,,,,,,,,,,,,,,,,,,,,,,,,,,,
1720179671,84,0,4304.615234,4275.641113,4338.846191,4319.871582,4370.128418,4310.128418,4282.179688,4302.563965,4299.102539,4361.922852,4482.94873,4526.922852,4371.922852,4471.153809,,,,,,,,,,,,,,,,,,,,,,,,,,,,,,,,,,,,,,,,,,,,,,,,,,,,,,,,,,,,,,,,,,,,,,
1720179671,85,0,4315.256348,4280.128418,4342.94873,4328.589844,4380.769043,4303.333496,4271.794922,4289.487305,4294.487305,4362.05127,4472.436035,4519.230957,4373.589844,4466.025879,,,,,,,,,,,,,,,,,,,,,,,,,,,,,,,,,,,,,,,,,,,,,,,,,,,,,,,,,,,,,,,,,,,,,,
1720179671,86,0,4319.487305,4278.589844,4338.717773,4333.205078,4383.461426,4298.333496,4260,4274.230957,4285.512695,4363.461426,4454.230957,4505.256348,4359.743652,4458.589844,,,,,,,,,,,,,,,,,,,,,,,,,,,,,,,,,,,,,,,,,,,,,,,,,,,,,,,,,,,,,,,,,,,,,,
1720179671,87,0,4296.025879,4263.974121,4314.102539,4317.307617,4379.358887,4301.794922,4249.615234,4266.025879,4282.94873,4364.743652,4449.230957,4478.717773,4337.05127,4436.282227,,,,,,,,,,,,,,,,,,,,,,,,,,,,,,,,,,,,,,,,,,,,,,,,,,,,,,,,,,,,,,,,,,,,,,
1720179671,88,0,4261.153809,4252.436035,4279.358887,4290.897461,4380,4304.230957,4250.897461,4263.974121,4272.692383,4351.666504,4445.512695,4451.282227,4321.282227,4407.05127,,,,,,,,,,,,,,,,,,,,,,,,,,,,,,,,,,,,,,,,,,,,,,,,,,,,,,,,,,,,,,,,,,,,,,
1720179671,89,0,4247.94873,4243.333496,4270.384766,4280.512695,4381.666504,4305.641113,4263.205078,4276.282227,4277.05127,4344.230957,4443.974121,4451.282227,4321.538574,4403.333496,,,,,,,,,,,,,,,,,,,,,,,,,,,,,,,,,,,,,,,,,,,,,,,,,,,,,,,,,,,,,,,,,,,,,,
1720179671,90,0,4244.230957,4235.128418,4270.769043,4280.256348,4377.820313,4312.179688,4269.487305,4286.794922,4293.846191,4351.666504,4444.102539,4453.717773,4321.794922,4409.871582,,,,,,,,,,,,,,,,,,,,,,,,,,,,,,,,,,,,,,,,,,,,,,,,,,,,,,,,,,,,,,,,,,,,,,
1720179671,91,0,4234.871582,4232.179688,4255.769043,4273.717773,4372.307617,4310.897461,4267.692383,4279.358887,4282.820313,4345.512695,4435.897461,4439.487305,4313.717773,4398.205078,,,,,,,,,,,,,,,,,,,,,,,,,,,,,,,,,,,,,,,,,,,,,,,,,,,,,,,,,,,,,,,,,,,,,,
1720179671,92,0,4243.717773,4222.05127,4268.846191,4284.871582,4375.641113,4309.487305,4275,4284.615234,4281.794922,4344.230957,4442.05127,4446.666504,4322.179688,4395.384766,,,,,,,,,,,,,,,,,,,,,,,,,,,,,,,,,,,,,,,,,,,,,,,,,,,,,,,,,,,,,,,,,,,,,,
1720179671,93,0,4269.358887,4234.358887,4302.820313,4306.922852,4381.794922,4313.077148,4280.641113,4296.922852,4299.358887,4353.846191,4457.563965,4470.897461,4340.769043,4418.077148,,,,,,,,,,,,,,,,,,,,,,,,,,,,,,,,,,,,,,,,,,,,,,,,,,,,,,,,,,,,,,,,,,,,,,
1720179671,94,0,4282.692383,4282.94873,4310.256348,4312.692383,4379.871582,4310.384766,4275.128418,4292.820313,4292.94873,4346.538574,4462.563965,4483.205078,4346.410156,4443.205078,,,,,,,,,,,,,,,,,,,,,,,,,,,,,,,,,,,,,,,,,,,,,,,,,,,,,,,,,,,,,,,,,,,,,,
1720179671,95,0,4290.384766,4306.922852,4314.487305,4320.897461,4371.282227,4308.077148,4275.897461,4292.179688,4293.974121,4342.563965,4476.538574,4503.205078,4362.94873,4464.615234,,,,,,,,,,,,,,,,,,,,,,,,,,,,,,,,,,,,,,,,,,,,,,,,,,,,,,,,,,,,,,,,,,,,,,
1720179671,96,0,4313.205078,4282.820313,4341.666504,4336.922852,4365.512695,4309.230957,4282.692383,4298.974121,4304.358887,4348.974121,4489.615234,4532.94873,4385.128418,4484.615234,4.976914,21.522964,5.110179,1.836712,0.380736,2.230151,12.882473,3.452611,3.33949,1.413486,4.471107,22.938711,4.593152,1.689555,0.579678,2.082591,9.809098,1.666288,1.165228,0.484726,0.403839,1.68877,0.391741,0.382803,0.2208,0.140069,0.530431,0.193778,0.089824,0.051529,2.064775,9.889953,0.710591,0.802163,0.368257,1.815676,10.246301,0.818653,0.885581,0.393234,2.287615,0.629987,0.574425,0.319023,0.279583,1.55328,0.52331,0.460991,0.307223,0.191519,1.355753,6.227943,1.920533,0.658532,0.357298,7.060942,22.410646,5.879201,2.263958,0.604239,2.47629,15.337128,4.545594,1.329455,0.342698,5.274957,22.212341,5.528321,2.170791,0.598478
1720179671,97,0,4333.461426,4272.692383,4365.384766,4342.05127,4371.025879,4310.897461,4282.820313,4298.589844,4303.846191,4356.025879,4485.897461,4547.436035,4386.282227,4496.410156,,,,,,,,,,,,,,,,,,,,,,,,,,,,,,,,,,,,,,,,,,,,,,,,,,,,,,,,,,,,,,,,,,,,,,
1720179671,98,0,4323.461426,4288.461426,4358.846191,4340.128418,4380,4307.179688,4269.487305,4285.512695,4296.794922,4355,4476.410156,4531.538574,4370.256348,4483.717773,,,,,,,,,,,,,,,,,,,,,,,,,,,,,,,,,,,,,,,,,,,,,,,,,,,,,,,,,,,,,,,,,,,,,,
1720179671,99,0,4296.538574,4277.563965,4334.743652,4334.102539,4381.794922,4301.410156,4257.179688,4272.436035,4289.358887,4348.717773,4459.230957,4493.974121,4349.230957,4447.436035,,,,,,,,,,,,,,,,,,,,,,,,,,,,,,,,,,,,,,,,,,,,,,,,,,,,,,,,,,,,,,,,,,,,,,
1720179671,100,0,4269.358887,4259.102539,4298.717773,4311.794922,4381.153809,4304.743652,4258.589844,4273.589844,4289.871582,4352.05127,4441.794922,4458.333496,4331.666504,4414.871582,,,,,,,,,,,,,,,,,,,,,,,,,,,,,,,,,,,,,,,,,,,,,,,,,,,,,,,,,,,,,,,,,,,,,,
1720179671,101,0,4245,4264.230957,4256.538574,4288.589844,4381.922852,4311.282227,4264.615234,4283.333496,4295.256348,4353.461426,4448.846191,4441.538574,4329.358887,4399.487305,,,,,,,,,,,,,,,,,,,,,,,,,,,,,,,,,,,,,,,,,,,,,,,,,,,,,,,,,,,,,,,,,,,,,,
1720179671,102,0,4234.358887,4257.307617,4244.102539,4280.769043,4377.692383,4312.820313,4266.538574,4286.666504,4301.538574,4352.307617,4462.563965,4442.307617,4331.922852,4396.153809,,,,,,,,,,,,,,,,,,,,,,,,,,,,,,,,,,,,,,,,,,,,,,,,,,,,,,,,,,,,,,,,,,,,,,
1720179671,103,0,4238.461426,4231.794922,4255.512695,4270.512695,4366.794922,4310,4262.563965,4279.743652,4298.717773,4354.358887,4447.563965,4437.692383,4316.666504,4393.974121,,,,,,,,,,,,,,,,,,,,,,,,,,,,,,,,,,,,,,,,,,,,,,,,,,,,,,,,,,,,,,,,,,,,,,
1720179671,104,0,4247.307617,4219.615234,4266.666504,4268.205078,4359.102539,4309.615234,4262.820313,4279.230957,4290.641113,4352.05127,4433.846191,4434.871582,4309.358887,4395.128418,,,,,,,,,,,,,,,,,,,,,,,,,,,,,,,,,,,,,,,,,,,,,,,,,,,,,,,,,,,,,,,,,,,,,,
1720179671,105,0,4262.05127,4228.333496,4284.487305,4284.871582,4361.794922,4313.846191,4274.230957,4291.282227,4293.461426,4350.641113,4447.820313,4457.179688,4325.641113,4411.666504,,,,,,,,,,,,,,,,,,,,,,,,,,,,,,,,,,,,,,,,,,,,,,,,,,,,,,,,,,,,,,,,,,,,,,
1720179671,106,0,4278.461426,4242.692383,4301.025879,4296.922852,4366.410156,4317.692383,4287.05127,4302.436035,4299.743652,4359.102539,4461.666504,4485.128418,4340.897461,4432.436035,,,,,,,,,,,,,,,,,,,,,,,,,,,,,,,,,,,,,,,,,,,,,,,,,,,,,,,,,,,,,,,,,,,,,,
1720179671,107,0,4277.820313,4246.922852,4298.333496,4301.794922,4362.563965,4313.333496,4282.179688,4298.077148,4288.846191,4352.307617,4458.205078,4489.743652,4341.282227,4433.846191,,,,,,,,,,,,,,,,,,,,,,,,,,,,,,,,,,,,,,,,,,,,,,,,,,,,,,,,,,,,,,,,,,,,,,
1720179671,108,0,4277.05127,4253.077148,4305.256348,4315.512695,4362.05127,4307.94873,4269.743652,4287.692383,4278.461426,4325.384766,4448.461426,4487.179688,4342.436035,4430.384766,,,,,,,,,,,,,,,,,,,,,,,,,,,,,,,,,,,,,,,,,,,,,,,,,,,,,,,,,,,,,,,,,,,,,,
1720179671,109,0,4293.333496,4282.436035,4325,4331.922852,4373.974121,4313.077148,4269.358887,4285.256348,4291.794922,4323.077148,4448.077148,4493.974121,4356.922852,4440.897461,,,,,,,,,,,,,,,,,,,,,,,,,,,,,,,,,,,,,,,,,,,,,,,,,,,,,,,,,,,,,,,,,,,,,,
1720179671,110,0,4298.589844,4302.563965,4319.230957,4328.974121,4380.128418,4314.230957,4262.820313,4276.922852,4289.871582,4330.384766,4451.922852,4487.179688,4361.794922,4440.512695,,,,,,,,,,,,,,,,,,,,,,,,,,,,,,,,,,,,,,,,,,,,,,,,,,,,,,,,,,,,,,,,,,,,,,
1720179671,111,0,4289.615234,4287.692383,4312.179688,4317.307617,4377.307617,4313.205078,4251.025879,4268.846191,4280.641113,4327.05127,4446.666504,4475.128418,4350.128418,4428.461426,,,,,,,,,,,,,,,,,,,,,,,,,,,,,,,,,,,,,,,,,,,,,,,,,,,,,,,,,,,,,,,,,,,,,,
1720179671,112,0,4279.743652,4263.846191,4314.102539,4307.05127,4376.025879,4315.769043,4253.205078,4274.230957,4292.563965,4329.230957,4433.589844,4472.436035,4339.102539,4425.128418,5.111673,25.161106,5.162838,1.927933,0.439659,2.04955,14.134182,3.646793,3.441004,1.329717,5.346146,26.866489,5.001758,1.761315,0.62874,2.24952,11.43864,1.892486,1.267555,0.509156,0.556017,2.069249,0.374011,0.388379,0.212216,0.145809,0.691721,0.246416,0.095063,0.053995,2.653039,11.16199,0.652679,0.853796,0.418111,2.406036,11.303875,0.798273,0.914254,0.429608,3.014599,0.733027,0.500765,0.344379,0.312436,2.12974,0.65874,0.47913,0.379449,0.220378,1.357955,7.767862,1.883172,0.717557,0.361343,8.190905,27.678581,5.896443,2.322362,0.688724,3.132722,18.019287,4.386907,1.307429,0.387387,6.104497,27.161243,5.2082,2.071441,0.674559
1720179671,113,0,4264.230957,4249.615234,4293.333496,4295,4372.692383,4312.94873,4258.717773,4277.179688,4289.871582,4323.589844,4423.333496,4462.05127,4331.410156,4417.563965,,,,,,,,,,,,,,,,,,,,,,,,,,,,,,,,,,,,,,,,,,,,,,,,,,,,,,,,,,,,,,,,,,,,,,
1720179671,114,0,4257.820313,4248.077148,4277.94873,4296.025879,4369.615234,4312.05127,4262.436035,4282.436035,4282.94873,4319.871582,4427.436035,4458.077148,4327.179688,4411.666504,,,,,,,,,,,,,,,,,,,,,,,,,,,,,,,,,,,,,,,,,,,,,,,,,,,,,,,,,,,,,,,,,,,,,,
1720179671,115,0,4266.410156,4253.589844,4293.205078,4301.153809,4369.358887,4312.820313,4267.820313,4289.743652,4292.563965,4327.94873,4435.384766,4472.307617,4331.153809,4421.922852,,,,,,,,,,,,,,,,,,,,,,,,,,,,,,,,,,,,,,,,,,,,,,,,,,,,,,,,,,,,,,,,,,,,,,
1720179671,116,0,4268.846191,4256.922852,4297.05127,4295.641113,4365.641113,4309.102539,4265.641113,4285,4291.538574,4326.025879,4432.692383,4476.666504,4335.128418,4428.589844,,,,,,,,,,,,,,,,,,,,,,,,,,,,,,,,,,,,,,,,,,,,,,,,,,,,,,,,,,,,,,,,,,,,,,
1720179671,117,0,4269.871582,4250.512695,4285.641113,4296.410156,4357.436035,4308.077148,4263.589844,4282.692383,4285.256348,4316.922852,4435.897461,4473.846191,4338.846191,4431.153809,,,,,,,,,,,,,,,,,,,,,,,,,,,,,,,,,,,,,,,,,,,,,,,,,,,,,,,,,,,,,,,,,,,,,,
1720179671,118,0,4285.641113,4235.641113,4300.512695,4310.897461,4354.871582,4311.666504,4274.871582,4293.461426,4291.153809,4316.153809,4446.538574,4487.563965,4346.538574,4443.205078,,,,,,,,,,,,,,,,,,,,,,,,,,,,,,,,,,,,,,,,,,,,,,,,,,,,,,,,,,,,,,,,,,,,,,
1720179671,119,0,4299.487305,4243.589844,4318.589844,4316.410156,4360.897461,4310,4277.94873,4292.563965,4282.307617,4303.717773,4440,4494.358887,4344.871582,4452.94873,,,,,,,,,,,,,,,,,,,,,,,,,,,,,,,,,,,,,,,,,,,,,,,,,,,,,,,,,,,,,,,,,,,,,,
1720179671,120,0,4301.410156,4278.077148,4312.436035,4308.077148,4364.230957,4307.94873,4274.102539,4289.743652,4277.820313,4298.205078,4437.94873,4490.128418,4347.820313,4457.05127,,,,,,,,,,,,,,,,,,,,,,,,,,,,,,,,,,,,,,,,,,,,,,,,,,,,,,,,,,,,,,,,,,,,,,
1720179671,121,0,4304.487305,4285.897461,4312.436035,4309.102539,4366.025879,4313.205078,4276.794922,4296.153809,4297.563965,4319.102539,4455.769043,4497.820313,4364.871582,4455.256348,,,,,,,,,,,,,,,,,,,,,,,,,,,,,,,,,,,,,,,,,,,,,,,,,,,,,,,,,,,,,,,,,,,,,,
1720179671,122,0,4299.358887,4263.846191,4312.563965,4320.384766,4368.717773,4311.922852,4269.230957,4283.717773,4295.897461,4321.153809,4456.794922,4490.641113,4362.820313,4443.974121,,,,,,,,,,,,,,,,,,,,,,,,,,,,,,,,,,,,,,,,,,,,,,,,,,,,,,,,,,,,,,,,,,,,,,
1720179671,123,0,4287.563965,4265.256348,4299.615234,4323.461426,4371.025879,4308.205078,4257.307617,4268.205078,4289.230957,4314.615234,4443.846191,4466.025879,4347.563965,4439.358887,,,,,,,,,,,,,,,,,,,,,,,,,,,,,,,,,,,,,,,,,,,,,,,,,,,,,,,,,,,,,,,,,,,,,,
1720179671,124,0,4282.436035,4279.102539,4293.717773,4317.820313,4366.282227,4309.102539,4260.641113,4277.820313,4298.717773,4317.94873,4439.487305,4456.794922,4341.666504,4434.871582,,,,,,,,,,,,,,,,,,,,,,,,,,,,,,,,,,,,,,,,,,,,,,,,,,,,,,,,,,,,,,,,,,,,,,
1720179671,125,0,4273.333496,4276.538574,4290.897461,4308.717773,4358.077148,4309.743652,4270.384766,4292.307617,4301.922852,4311.282227,4437.820313,4459.615234,4339.487305,4420.128418,,,,,,,,,,,,,,,,,,,,,,,,,,,,,,,,,,,,,,,,,,,,,,,,,,,,,,,,,,,,,,,,,,,,,,
1720179671,126,0,4258.717773,4268.333496,4277.820313,4295.769043,4359.615234,4310,4270.256348,4291.538574,4297.436035,4300.256348,4439.230957,4465.897461,4344.487305,4417.307617,,,,,,,,,,,,,,,,,,,,,,,,,,,,,,,,,,,,,,,,,,,,,,,,,,,,,,,,,,,,,,,,,,,,,,
1720179671,127,0,4251.282227,4252.179688,4273.846191,4289.102539,4362.436035,4311.410156,4262.94873,4280.769043,4288.589844,4295,4442.692383,4472.05127,4344.102539,4417.692383,,,,,,,,,,,,,,,,,,,,,,,,,,,,,,,,,,,,,,,,,,,,,,,,,,,,,,,,,,,,,,,,,,,,,,
1720179671,0,0,4251.153809,4229.230957,4279.358887,4292.307617,4358.846191,4313.333496,4260.384766,4277.563965,4288.461426,4300.512695,4441.025879,4466.410156,4337.05127,4409.615234,5.267282,28.195309,4.937178,1.957809,0.490637,1.884685,14.744278,3.63791,3.369455,1.25498,6.152493,30.22278,5.192152,1.877677,0.647349,2.358117,12.720982,2.137376,1.366443,0.54177,0.680593,2.300418,0.329831,0.379333,0.197875,0.154718,0.827109,0.29571,0.09814,0.058377,3.30043,11.655526,0.705842,0.943277,0.456943,3.095271,11.625575,0.888498,0.989251,0.453189,3.574567,0.896952,0.485112,0.380858,0.329917,2.832124,0.951094,0.585396,0.48175,0.242924,1.445166,9.25117,1.789123,0.783433,0.371334,9.406829,33.015324,5.889913,2.478647,0.758138,3.900482,20.424427,4.064897,1.262083,0.433646,7.106548,31.792233,4.855592,2.000702,0.726635
1720179671,1,0,4251.538574,4224.743652,4277.307617,4286.410156,4354.102539,4311.538574,4262.94873,4278.846191,4293.077148,4301.794922,4441.282227,4455.512695,4342.436035,4415.641113,,,,,,,,,,,,,,,,,,,,,,,,,,,,,,,,,,,,,,,,,,,,,,,,,,,,,,,,,,,,,,,,,,,,,,
1720179671,2,0,4258.333496,4251.153809,4279.487305,4278.205078,4351.025879,4311.025879,4261.538574,4276.282227,4288.461426,4289.230957,4446.153809,4459.871582,4347.94873,4427.94873,,,,,,,,,,,,,,,,,,,,,,,,,,,,,,,,,,,,,,,,,,,,,,,,,,,,,,,,,,,,,,,,,,,,,,
1720179671,3,0,4275,4270.256348,4294.102539,4292.436035,4351.282227,4311.794922,4263.461426,4277.179688,4281.410156,4279.743652,4446.538574,4476.794922,4345.128418,4430.897461,,,,,,,,,,,,,,,,,,,,,,,,,,,,,,,,,,,,,,,,,,,,,,,,,,,,,,,,,,,,,,,,,,,,,,
1720179671,4,0,4293.974121,4266.538574,4308.461426,4305.641113,4349.102539,4304.487305,4263.589844,4281.025879,4279.230957,4281.025879,4439.615234,4491.922852,4343.589844,4442.692383,,,,,,,,,,,,,,,,,,,,,,,,,,,,,,,,,,,,,,,,,,,,,,,,,,,,,,,,,,,,,,,,,,,,,,
1720179671,5,0,4295.128418,4262.692383,4312.179688,4296.794922,4343.974121,4298.077148,4250.769043,4273.589844,4275.641113,4278.717773,4435.769043,4493.205078,4341.282227,4456.410156,,,,,,,,,,,,,,,,,,,,,,,,,,,,,,,,,,,,,,,,,,,,,,,,,,,,,,,,,,,,,,,,,,,,,,
1720179671,6,0,4285.128418,4266.282227,4315.128418,4299.487305,4348.205078,4305.256348,4250.897461,4270.897461,4272.94873,4275.256348,4447.692383,4496.922852,4347.05127,4457.692383,,,,,,,,,,,,,,,,,,,,,,,,,,,,,,,,,,,,,,,,,,,,,,,,,,,,,,,,,,,,,,,,,,,,,,
1720179671,7,0,4290.128418,4264.358887,4325.641113,4312.436035,4360.641113,4313.717773,4266.410156,4283.461426,4278.589844,4280,4467.05127,4515.384766,4369.871582,4462.436035,,,,,,,,,,,,,,,,,,,,,,,,,,,,,,,,,,,,,,,,,,,,,,,,,,,,,,,,,,,,,,,,,,,,,,
1720179672,8,0,4293.974121,4246.794922,4323.205078,4303.846191,4358.333496,4311.666504,4267.692383,4286.794922,4280.256348,4278.589844,4471.666504,4513.846191,4374.487305,4460.641113,,,,,,,,,,,,,,,,,,,,,,,,,,,,,,,,,,,,,,,,,,,,,,,,,,,,,,,,,,,,,,,,,,,,,,
1720179672,9,0,4270.128418,4233.461426,4297.307617,4276.666504,4349.743652,4312.179688,4261.282227,4281.153809,4282.563965,4275.512695,4462.94873,4487.563965,4352.436035,4437.563965,,,,,,,,,,,,,,,,,,,,,,,,,,,,,,,,,,,,,,,,,,,,,,,,,,,,,,,,,,,,,,,,,,,,,,
1720179672,10,0,4239.230957,4236.153809,4269.743652,4260.769043,4350.641113,4312.307617,4263.461426,4277.05127,4277.179688,4266.025879,4450.897461,4467.307617,4336.282227,4416.410156,,,,,,,,,,,,,,,,,,,,,,,,,,,,,,,,,,,,,,,,,,,,,,,,,,,,,,,,,,,,,,,,,,,,,,
1720179672,11,0,4228.589844,4236.153809,4260.641113,4264.230957,4346.282227,4307.05127,4261.282227,4271.025879,4261.666504,4247.05127,4445,4449.487305,4327.436035,4409.487305,,,,,,,,,,,,,,,,,,,,,,,,,,,,,,,,,,,,,,,,,,,,,,,,,,,,,,,,,,,,,,,,,,,,,,
1720179672,12,0,4236.922852,4240.128418,4260.384766,4280.769043,4343.846191,4310.897461,4257.179688,4272.563965,4267.307617,4248.589844,4446.282227,4429.358887,4322.179688,4401.794922,,,,,,,,,,,,,,,,,,,,,,,,,,,,,,,,,,,,,,,,,,,,,,,,,,,,,,,,,,,,,,,,,,,,,,
1720179672,13,0,4253.974121,4256.538574,4260.128418,4303.461426,4353.205078,4315.512695,4259.871582,4277.307617,4272.179688,4259.230957,4437.94873,4422.820313,4318.461426,4387.436035,,,,,,,,,,,,,,,,,,,,,,,,,,,,,,,,,,,,,,,,,,,,,,,,,,,,,,,,,,,,,,,,,,,,,,
1720179672,14,0,4264.230957,4262.436035,4270.641113,4306.794922,4356.025879,4310.769043,4260.384766,4274.487305,4269.230957,4262.94873,4432.94873,4431.538574,4311.666504,4385.641113,,,,,,,,,,,,,,,,,,,,,,,,,,,,,,,,,,,,,,,,,,,,,,,,,,,,,,,,,,,,,,,,,,,,,,
1720179672,15,0,4257.563965,4268.077148,4276.538574,4291.794922,4349.743652,4309.358887,4260.256348,4272.820313,4277.436035,4267.05127,4446.153809,4441.410156,4309.230957,4397.179688,,,,,,,,,,,,,,,,,,,,,,,,,,,,,,,,,,,,,,,,,,,,,,,,,,,,,,,,,,,,,,,,,,,,,,
1720179672,16,0,4245.512695,4267.820313,4267.820313,4291.025879,4347.820313,4312.820313,4269.358887,4285,4280.512695,4270.384766,4456.153809,4446.794922,4315.384766,4402.05127,5.304867,30.436153,4.370849,1.898358,0.522295,1.767197,14.88529,3.376607,3.126668,1.210524,6.704152,32.898598,4.967131,1.987709,0.635823,2.420678,13.756045,2.308534,1.439545,0.570037,0.724061,2.351442,0.268055,0.359204,0.179875,0.165816,0.909251,0.323711,0.099706,0.063096,3.797898,11.272958,0.799923,1.036386,0.477488,3.672835,11.140126,1.002605,1.063676,0.461293,3.806208,1.090416,0.531453,0.419078,0.331743,3.63361,1.395103,0.784439,0.59227,0.256483,1.642946,10.395174,1.618366,0.815732,0.387311,10.445688,37.777534,5.629461,2.580723,0.801356,4.501689,22.234137,3.545474,1.180026,0.473395,7.967031,35.560314,4.37294,1.896964,0.743608
1720179672,17,0,4247.05127,4246.153809,4270.512695,4300,4350.256348,4312.94873,4279.871582,4293.717773,4275.384766,4272.436035,4459.487305,4449.230957,4323.846191,4402.307617,,,,,,,,,,,,,,,,,,,,,,,,,,,,,,,,,,,,,,,,,,,,,,,,,,,,,,,,,,,,,,,,,,,,,,
1720179672,18,0,4259.487305,4242.692383,4289.102539,4296.538574,4353.205078,4316.794922,4277.94873,4289.102539,4278.461426,4278.205078,4461.794922,4451.410156,4324.487305,4402.692383,,,,,,,,,,,,,,,,,,,,,,,,,,,,,,,,,,,,,,,,,,,,,,,,,,,,,,,,,,,,,,,,,,,,,,
1720179672,19,0,4263.846191,4262.05127,4294.615234,4296.025879,4358.461426,4319.358887,4264.871582,4279.358887,4274.743652,4276.922852,4455,4454.871582,4322.307617,4403.461426,,,,,,,,,,,,,,,,,,,,,,,,,,,,,,,,,,,,,,,,,,,,,,,,,,,,,,,,,,,,,,,,,,,,,,
1720179672,20,0,4268.077148,4274.871582,4292.563965,4309.487305,4359.230957,4313.461426,4251.666504,4269.230957,4270.256348,4275.256348,4457.179688,4465,4331.153809,4418.205078,,,,,,,,,,,,,,,,,,,,,,,,,,,,,,,,,,,,,,,,,,,,,,,,,,,,,,,,,,,,,,,,,,,,,,
1720179672,21,0,4276.282227,4278.589844,4294.871582,4310.897461,4358.846191,4308.846191,4247.692383,4264.743652,4283.205078,4284.743652,4464.743652,4470.128418,4337.05127,4432.820313,,,,,,,,,,,,,,,,,,,,,,,,,,,,,,,,,,,,,,,,,,,,,,,,,,,,,,,,,,,,,,,,,,,,,,
1720179672,22,0,4259.487305,4259.743652,4279.230957,4294.230957,4359.230957,4310.128418,4252.307617,4265.897461,4281.025879,4282.563965,4443.589844,4453.333496,4315.641113,4413.589844,,,,,,,,,,,,,,,,,,,,,,,,,,,,,,,,,,,,,,,,,,,,,,,,,,,,,,,,,,,,,,,,,,,,,,
1720179672,23,0,4230.641113,4221.538574,4263.717773,4277.692383,4351.410156,4313.077148,4261.666504,4273.974121,4272.05127,4279.102539,4427.05127,4439.102539,4293.974121,4390,,,,,,,,,,,,,,,,,,,,,,,,,,,,,,,,,,,,,,,,,,,,,,,,,,,,,,,,,,,,,,,,,,,,,,
1720179672,24,0,4232.179688,4225,4272.05127,4273.589844,4348.333496,4312.179688,4265.128418,4278.333496,4277.307617,4282.820313,4444.358887,4449.871582,4303.333496,4400.769043,,,,,,,,,,,,,,,,,,,,,,,,,,,,,,,,,,,,,,,,,,,,,,,,,,,,,,,,,,,,,,,,,,,,,,
1720179672,25,0,4250.512695,4252.436035,4282.436035,4277.94873,4351.922852,4312.563965,4261.666504,4276.282227,4280.769043,4282.307617,4449.871582,4459.358887,4314.871582,4416.282227,,,,,,,,,,,,,,,,,,,,,,,,,,,,,,,,,,,,,,,,,,,,,,,,,,,,,,,,,,,,,,,,,,,,,,
1720179672,26,0,4246.538574,4239.615234,4275.384766,4280.384766,4341.025879,4315.769043,4264.487305,4279.230957,4282.307617,4286.282227,4434.487305,4452.94873,4310.128418,4411.153809,,,,,,,,,,,,,,,,,,,,,,,,,,,,,,,,,,,,,,,,,,,,,,,,,,,,,,,,,,,,,,,,,,,,,,
1720179672,27,0,4236.666504,4220,4267.179688,4278.333496,4320.641113,4317.05127,4275,4282.05127,4283.333496,4287.179688,4438.846191,4447.307617,4309.487305,4406.666504,,,,,,,,,,,,,,,,,,,,,,,,,,,,,,,,,,,,,,,,,,,,,,,,,,,,,,,,,,,,,,,,,,,,,,
1720179672,28,0,4239.487305,4227.692383,4268.974121,4272.436035,4315.512695,4315.641113,4277.820313,4282.820313,4286.153809,4286.538574,4452.692383,4448.846191,4313.717773,4409.102539,,,,,,,,,,,,,,,,,,,,,,,,,,,,,,,,,,,,,,,,,,,,,,,,,,,,,,,,,,,,,,,,,,,,,,
1720179672,29,0,4236.794922,4229.743652,4266.794922,4264.230957,4322.307617,4314.487305,4268.205078,4280.769043,4280,4287.307617,4439.230957,4444.102539,4302.307617,4400.512695,,,,,,,,,,,,,,,,,,,,,,,,,,,,,,,,,,,,,,,,,,,,,,,,,,,,,,,,,,,,,,,,,,,,,,
1720179672,30,0,4235.256348,4210,4268.846191,4267.692383,4322.820313,4311.410156,4263.461426,4278.846191,4270.256348,4286.282227,4425.769043,4444.358887,4288.461426,4397.436035,,,,,,,,,,,,,,,,,,,,,,,,,,,,,,,,,,,,,,,,,,,,,,,,,,,,,,,,,,,,,,,,,,,,,,
1720179672,31,0,4248.461426,4212.436035,4279.615234,4283.846191,4320.769043,4308.589844,4266.025879,4278.589844,4275,4286.794922,4436.538574,4459.743652,4294.743652,4408.461426,,,,,,,,,,,,,,,,,,,,,,,,,,,,,,,,,,,,,,,,,,,,,,,,,,,,,,,,,,,,,,,,,,,,,,
1720179672,32,0,4257.179688,4245.512695,4285.641113,4295.384766,4326.922852,4312.692383,4264.615234,4277.692383,4277.307617,4287.179688,4451.153809,4470.128418,4309.743652,4413.333496,5.097982,32.071266,3.538168,1.749087,0.526974,1.696076,15.023201,2.906678,2.795233,1.200871,6.837603,35.117054,4.329944,2.04548,0.603346,2.405893,14.845519,2.335625,1.45565,0.578473,0.68999,2.258823,0.204529,0.334074,0.161653,0.172893,0.923545,0.318909,0.101304,0.066814,3.945587,10.153765,0.871559,1.100273,0.475788,3.917915,9.979856,1.079579,1.103295,0.454566,3.664011,1.25732,0.623963,0.445576,0.323736,4.438664,1.892648,1.054365,0.684261,0.261852,1.926773,10.994216,1.388235,0.800712,0.407602,11.00845,41.461018,5.073155,2.532452,0.814349,4.721358,23.295576,2.88604,1.06043,0.500551,8.428673,38.196133,3.747991,1.7257,0.724262
1720179672,33,0,4250.384766,4254.743652,4280.128418,4290.512695,4328.717773,4314.743652,4262.692383,4276.025879,4272.179688,4287.436035,4455.512695,4461.153809,4313.974121,4411.794922,,,,,,,,,,,,,,,,,,,,,,,,,,,,,,,,,,,,,,,,,,,,,,,,,,,,,,,,,,,,,,,,,,,,,,
1720179672,34,0,4236.538574,4230,4267.692383,4274.358887,4317.307617,4307.692383,4262.692383,4276.666504,4276.410156,4286.922852,4444.358887,4445.512695,4299.615234,4407.179688,,,,,,,,,,,,,,,,,,,,,,,,,,,,,,,,,,,,,,,,,,,,,,,,,,,,,,,,,,,,,,,,,,,,,,
1720179672,35,0,4222.05127,4214.743652,4253.589844,4259.871582,4308.077148,4311.794922,4262.436035,4277.307617,4277.692383,4281.666504,4426.025879,4437.94873,4281.025879,4392.563965,,,,,,,,,,,,,,,,,,,,,,,,,,,,,,,,,,,,,,,,,,,,,,,,,,,,,,,,,,,,,,,,,,,,,,
1720179672,36,0,4219.743652,4213.077148,4247.563965,4260,4308.974121,4335.256348,4265.512695,4277.307617,4268.717773,4272.820313,4426.794922,4439.102539,4278.974121,4385.769043,,,,,,,,,,,,,,,,,,,,,,,,,,,,,,,,,,,,,,,,,,,,,,,,,,,,,,,,,,,,,,,,,,,,,,
1720179672,37,0,4238.974121,4210.128418,4260.256348,4272.436035,4310.641113,4354.615234,4275.641113,4286.794922,4276.025879,4275.641113,4443.077148,4447.05127,4291.922852,4400,,,,,,,,,,,,,,,,,,,,,,,,,,,,,,,,,,,,,,,,,,,,,,,,,,,,,,,,,,,,,,,,,,,,,,
1720179672,38,0,4256.025879,4231.922852,4273.461426,4281.538574,4311.153809,4350.897461,4279.871582,4293.333496,4282.436035,4277.436035,4444.102539,4452.436035,4299.615234,4412.692383,,,,,,,,,,,,,,,,,,,,,,,,,,,,,,,,,,,,,,,,,,,,,,,,,,,,,,,,,,,,,,,,,,,,,,
1720179672,39,0,4254.743652,4249.487305,4272.820313,4285.256348,4310.641113,4342.692383,4274.358887,4285.384766,4271.794922,4275.512695,4437.307617,4450.769043,4297.563965,4414.871582,,,,,,,,,,,,,,,,,,,,,,,,,,,,,,,,,,,,,,,,,,,,,,,,,,,,,,,,,,,,,,,,,,,,,,
1720179672,40,0,4245.641113,4229.871582,4261.410156,4280.897461,4308.846191,4342.820313,4266.794922,4278.846191,4273.077148,4272.820313,4437.563965,4448.974121,4295,4413.077148,,,,,,,,,,,,,,,,,,,,,,,,,,,,,,,,,,,,,,,,,,,,,,,,,,,,,,,,,,,,,,,,,,,,,,
1720179672,41,0,4248.205078,4229.615234,4265.769043,4276.410156,4311.410156,4343.333496,4263.589844,4276.794922,4277.436035,4274.487305,4442.820313,4459.615234,4301.410156,4421.538574,,,,,,,,,,,,,,,,,,,,,,,,,,,,,,,,,,,,,,,,,,,,,,,,,,,,,,,,,,,,,,,,,,,,,,
1720179672,42,0,4259.358887,4257.436035,4279.871582,4281.538574,4313.974121,4344.615234,4270.512695,4277.692383,4292.692383,4343.589844,4452.307617,4471.666504,4317.307617,4438.589844,,,,,,,,,,,,,,,,,,,,,,,,,,,,,,,,,,,,,,,,,,,,,,,,,,,,,,,,,,,,,,,,,,,,,,
1720179672,43,0,4257.179688,4253.717773,4272.307617,4278.717773,4311.922852,4345.769043,4277.05127,4282.179688,4333.846191,4451.666504,4454.871582,4461.794922,4320.512695,4431.794922,,,,,,,,,,,,,,,,,,,,,,,,,,,,,,,,,,,,,,,,,,,,,,,,,,,,,,,,,,,,,,,,,,,,,,
1720179672,44,0,4257.820313,4240.641113,4270.384766,4275.256348,4312.820313,4342.820313,4270.897461,4282.179688,4354.871582,4477.820313,4453.333496,4456.922852,4316.666504,4421.153809,,,,,,,,,,,,,,,,,,,,,,,,,,,,,,,,,,,,,,,,,,,,,,,,,,,,,,,,,,,,,,,,,,,,,,
1720179672,45,0,4276.922852,4248.461426,4294.615234,4295.128418,4313.461426,4340.384766,4263.461426,4279.743652,4345.897461,4443.846191,4457.563965,4473.846191,4328.461426,4437.05127,,,,,,,,,,,,,,,,,,,,,,,,,,,,,,,,,,,,,,,,,,,,,,,,,,,,,,,,,,,,,,,,,,,,,,
1720179672,46,0,4279.487305,4237.307617,4297.820313,4308.974121,4310.769043,4340.128418,4257.94873,4275.897461,4351.922852,4448.589844,4459.871582,4472.05127,4331.922852,4440,,,,,,,,,,,,,,,,,,,,,,,,,,,,,,,,,,,,,,,,,,,,,,,,,,,,,,,,,,,,,,,,,,,,,,
1720179672,47,0,4249.487305,4218.333496,4265.641113,4281.794922,4308.974121,4336.666504,4250.256348,4266.666504,4354.358887,4458.461426,4447.820313,4438.974121,4316.666504,4410,,,,,,,,,,,,,,,,,,,,,,,,,,,,,,,,,,,,,,,,,,,,,,,,,,,,,,,,,,,,,,,,,,,,,,
1720179672,48,0,4236.666504,4237.94873,4250.128418,4259.615234,4307.436035,4334.102539,4253.974121,4266.794922,4337.179688,4415.512695,4445.384766,4424.615234,4318.333496,4405.897461,4.605697,33.35947,2.65356,1.551947,0.50625,1.6789,15.555953,2.365837,2.493299,1.212338,6.571197,37.026905,3.495164,2.031765,0.563485,2.357577,16.172489,2.220656,1.401601,0.559356,0.580474,2.097266,0.158209,0.31022,0.146362,0.174159,0.87261,0.285486,0.103872,0.069228,3.671269,8.585347,0.901367,1.111586,0.453424,3.727367,8.396809,1.108532,1.091905,0.436538,3.229193,1.336693,0.731244,0.448444,0.313555,5.075552,2.299306,1.33683,0.734006,0.261665,2.21386,10.945191,1.165767,0.74946,0.429692,10.971411,43.619137,4.411415,2.330049,0.799397,4.520787,23.501003,2.233274,0.922285,0.513587,8.451252,39.556877,3.096004,1.500659,0.677113
1720179672,49,0,4256.410156,4263.589844,4264.743652,4272.05127,4305.769043,4337.179688,4265.384766,4278.717773,4337.563965,4360.769043,4465.769043,4447.820313,4335.897461,4433.846191,,,,,,,,,,,,,,,,,,,,,,,,,,,,,,,,,,,,,,,,,,,,,,,,,,,,,,,,,,,,,,,,,,,,,,
1720179672,50,0,4268.846191,4250.769043,4279.615234,4288.333496,4299.615234,4335.897461,4263.589844,4281.922852,4334.743652,4324.615234,4469.743652,4470.641113,4341.153809,4438.205078,,,,,,,,,,,,,,,,,,,,,,,,,,,,,,,,,,,,,,,,,,,,,,,,,,,,,,,,,,,,,,,,,,,,,,
1720179672,51,0,4262.05127,4235.641113,4282.307617,4291.153809,4296.538574,4332.692383,4258.974121,4275.641113,4324.743652,4319.230957,4458.077148,4468.589844,4339.102539,4425.512695,,,,,,,,,,,,,,,,,,,,,,,,,,,,,,,,,,,,,,,,,,,,,,,,,,,,,,,,,,,,,,,,,,,,,,
1720179672,52,0,4246.666504,4246.153809,4271.025879,4284.743652,4305.384766,4334.230957,4261.794922,4271.025879,4324.358887,4325.897461,4451.025879,4441.922852,4326.025879,4412.436035,,,,,,,,,,,,,,,,,,,,,,,,,,,,,,,,,,,,,,,,,,,,,,,,,,,,,,,,,,,,,,,,,,,,,,
1720179672,53,0,4237.563965,4252.436035,4259.230957,4276.666504,4314.871582,4336.794922,4261.153809,4270.512695,4315.128418,4313.333496,4441.410156,4417.436035,4298.717773,4392.94873,,,,,,,,,,,,,,,,,,,,,,,,,,,,,,,,,,,,,,,,,,,,,,,,,,,,,,,,,,,,,,,,,,,,,,
1720179672,54,0,4245.384766,4245.897461,4264.358887,4277.179688,4308.846191,4334.871582,4261.794922,4276.538574,4308.589844,4307.05127,4434.487305,4419.615234,4295,4387.820313,,,,,,,,,,,,,,,,,,,,,,,,,,,,,,,,,,,,,,,,,,,,,,,,,,,,,,,,,,,,,,,,,,,,,,
1720179672,55,0,4261.153809,4249.871582,4283.077148,4284.230957,4295.384766,4330.641113,4264.358887,4278.461426,4321.794922,4335.384766,4449.230957,4443.846191,4329.102539,4413.461426,,,,,,,,,,,,,,,,,,,,,,,,,,,,,,,,,,,,,,,,,,,,,,,,,,,,,,,,,,,,,,,,,,,,,,
1720179672,56,0,4276.922852,4261.410156,4299.102539,4295.384766,4298.333496,4332.94873,4264.871582,4278.717773,4345.128418,4380.769043,4477.820313,4471.666504,4364.615234,4445.128418,,,,,,,,,,,,,,,,,,,,,,,,,,,,,,,,,,,,,,,,,,,,,,,,,,,,,,,,,,,,,,,,,,,,,,
1720179672,57,0,4286.025879,4272.692383,4300.384766,4310.384766,4308.589844,4334.102539,4263.974121,4279.871582,4352.820313,4403.974121,4480.384766,4481.794922,4364.615234,4454.743652,,,,,,,,,,,,,,,,,,,,,,,,,,,,,,,,,,,,,,,,,,,,,,,,,,,,,,,,,,,,,,,,,,,,,,
1720179672,58,0,4274.743652,4264.487305,4285.897461,4305.384766,4305.384766,4328.717773,4256.025879,4270.128418,4343.717773,4408.846191,4461.282227,4464.358887,4336.538574,4433.846191,,,,,,,,,,,,,,,,,,,,,,,,,,,,,,,,,,,,,,,,,,,,,,,,,,,,,,,,,,,,,,,,,,,,,,
1720179672,59,0,4241.666504,4235.641113,4263.589844,4276.025879,4303.333496,4329.615234,4248.589844,4261.538574,4338.461426,4415.256348,4448.846191,4431.922852,4311.410156,4395.641113,,,,,,,,,,,,,,,,,,,,,,,,,,,,,,,,,,,,,,,,,,,,,,,,,,,,,,,,,,,,,,,,,,,,,,
1720179672,60,0,4219.102539,4226.282227,4243.461426,4257.05127,4309.358887,4332.94873,4250.256348,4261.666504,4335.128418,4411.666504,4436.153809,4405.897461,4291.666504,4370.512695,,,,,,,,,,,,,,,,,,,,,,,,,,,,,,,,,,,,,,,,,,,,,,,,,,,,,,,,,,,,,,,,,,,,,,
1720179672,61,0,4220,4228.846191,4234.102539,4257.692383,4305.641113,4328.077148,4250.769043,4262.563965,4327.94873,4401.153809,4423.333496,4391.538574,4272.307617,4366.538574,,,,,,,,,,,,,,,,,,,,,,,,,,,,,,,,,,,,,,,,,,,,,,,,,,,,,,,,,,,,,,,,,,,,,,
1720179672,62,0,4227.307617,4232.307617,4237.563965,4260.256348,4298.974121,4326.025879,4249.358887,4266.410156,4326.794922,4399.743652,4425.769043,4392.436035,4275.897461,4371.410156,,,,,,,,,,,,,,,,,,,,,,,,,,,,,,,,,,,,,,,,,,,,,,,,,,,,,,,,,,,,,,,,,,,,,,
1720179672,63,0,4228.461426,4244.230957,4247.820313,4260.769043,4301.922852,4328.333496,4248.461426,4262.692383,4334.358887,4401.538574,4430.384766,4403.974121,4290.897461,4374.487305,,,,,,,,,,,,,,,,,,,,,,,,,,,,,,,,,,,,,,,,,,,,,,,,,,,,,,,,,,,,,,,,,,,,,,
1720179672,64,0,4229.615234,4235,4255.641113,4264.358887,4296.666504,4320.384766,4236.282227,4245.897461,4336.025879,4398.846191,4417.820313,4404.615234,4280.769043,4370.769043,3.94438,34.180912,1.921381,1.381506,0.470278,1.743798,16.413935,1.902161,2.323009,1.227896,6.050558,38.295727,2.716224,1.963045,0.527228,2.323774,17.494991,2.016609,1.299841,0.518125,0.487193,1.929578,0.145372,0.294116,0.136009,0.180549,0.774959,0.243225,0.107679,0.071474,3.052542,6.884993,0.912721,1.063882,0.416473,3.153699,6.669181,1.117549,1.031562,0.410858,2.658644,1.294708,0.810523,0.423164,0.305653,5.618488,2.55493,1.523681,0.730008,0.261522,2.390294,10.272439,1.032985,0.686075,0.452123,10.416651,43.812309,3.90637,2.043182,0.760412,3.98074,22.749239,1.741643,0.801782,0.515605,8.142008,39.428974,2.567572,1.272301,0.615426
1720179672,65,0,4238.974121,4221.794922,4264.487305,4262.179688,4288.589844,4316.666504,4228.974121,4241.666504,4346.410156,4406.282227,4415,4406.282227,4271.153809,4371.922852,,,,,,,,,,,,,,,,,,,,,,,,,,,,,,,,,,,,,,,,,,,,,,,,,,,,,,,,,,,,,,,,,,,,,,
1720179672,66,0,4248.461426,4245.384766,4273.589844,4264.230957,4296.153809,4323.589844,4237.05127,4250.512695,4357.820313,4417.563965,4432.820313,4418.589844,4292.820313,4376.922852,,,,,,,,,,,,,,,,,,,,,,,,,,,,,,,,,,,,,,,,,,,,,,,,,,,,,,,,,,,,,,,,,,,,,,
1720179672,67,0,4245.769043,4257.05127,4268.461426,4271.538574,4295.641113,4318.846191,4238.205078,4247.05127,4344.871582,4413.205078,4439.615234,4416.794922,4306.666504,4370.512695,,,,,,,,,,,,,,,,,,,,,,,,,,,,,,,,,,,,,,,,,,,,,,,,,,,,,,,,,,,,,,,,,,,,,,
1720179672,68,0,4245.384766,4242.820313,4261.153809,4276.282227,4283.589844,4308.974121,4236.666504,4249.102539,4346.025879,4412.94873,4441.538574,4412.05127,4298.717773,4365.769043,,,,,,,,,,,,,,,,,,,,,,,,,,,,,,,,,,,,,,,,,,,,,,,,,,,,,,,,,,,,,,,,,,,,,,
1720179672,69,0,4266.922852,4257.307617,4280.512695,4291.666504,4288.205078,4311.153809,4243.333496,4261.538574,4364.615234,4422.179688,4461.025879,4444.615234,4318.717773,4389.615234,,,,,,,,,,,,,,,,,,,,,,,,,,,,,,,,,,,,,,,,,,,,,,,,,,,,,,,,,,,,,,,,,,,,,,
1720179672,70,0,4289.615234,4272.307617,4306.025879,4312.05127,4301.666504,4319.102539,4250.128418,4264.743652,4368.974121,4428.846191,4486.666504,4485,4358.461426,4426.410156,,,,,,,,,,,,,,,,,,,,,,,,,,,,,,,,,,,,,,,,,,,,,,,,,,,,,,,,,,,,,,,,,,,,,,
1720179672,71,0,4284.615234,4266.922852,4305.128418,4315.128418,4309.615234,4326.153809,4255,4268.077148,4371.025879,4434.487305,4486.025879,4481.025879,4357.94873,4431.538574,,,,,,,,,,,,,,,,,,,,,,,,,,,,,,,,,,,,,,,,,,,,,,,,,,,,,,,,,,,,,,,,,,,,,,
1720179672,72,0,4270.641113,4267.436035,4289.102539,4302.436035,4311.410156,4331.538574,4262.692383,4276.410156,4372.692383,4433.077148,4466.922852,4461.666504,4332.436035,4406.922852,,,,,,,,,,,,,,,,,,,,,,,,,,,,,,,,,,,,,,,,,,,,,,,,,,,,,,,,,,,,,,,,,,,,,,
1720179672,73,0,4260.256348,4258.846191,4279.230957,4295.512695,4304.615234,4334.743652,4271.025879,4283.717773,4366.282227,4424.871582,4462.692383,4461.410156,4327.179688,4392.820313,,,,,,,,,,,,,,,,,,,,,,,,,,,,,,,,,,,,,,,,,,,,,,,,,,,,,,,,,,,,,,,,,,,,,,
1720179672,74,0,4252.820313,4246.025879,4278.974121,4296.922852,4300.128418,4336.282227,4282.05127,4294.230957,4369.358887,4426.153809,4469.871582,4461.153809,4326.153809,4393.846191,,,,,,,,,,,,,,,,,,,,,,,,,,,,,,,,,,,,,,,,,,,,,,,,,,,,,,,,,,,,,,,,,,,,,,
1720179672,75,0,4247.436035,4247.820313,4277.307617,4293.846191,4307.179688,4337.94873,4283.589844,4297.563965,4369.743652,4417.563965,4463.974121,4446.666504,4312.307617,4381.153809,,,,,,,,,,,,,,,,,,,,,,,,,,,,,,,,,,,,,,,,,,,,,,,,,,,,,,,,,,,,,,,,,,,,,,
1720179672,76,0,4243.974121,4252.05127,4272.05127,4287.179688,4304.230957,4337.179688,4268.717773,4285,4350.384766,4386.538574,4460.641113,4443.077148,4315.641113,4373.589844,,,,,,,,,,,,,,,,,,,,,,,,,,,,,,,,,,,,,,,,,,,,,,,,,,,,,,,,,,,,,,,,,,,,,,
1720179672,77,0,4251.538574,4255.897461,4278.461426,4293.461426,4295.641113,4333.974121,4262.563965,4279.358887,4349.102539,4377.05127,4475.512695,4462.692383,4336.282227,4390.641113,,,,,,,,,,,,,,,,,,,,,,,,,,,,,,,,,,,,,,,,,,,,,,,,,,,,,,,,,,,,,,,,,,,,,,
1720179672,78,0,4273.461426,4267.692383,4295,4310.897461,4300.897461,4328.205078,4262.94873,4279.615234,4355.128418,4381.153809,4484.230957,4475,4342.820313,4403.205078,,,,,,,,,,,,,,,,,,,,,,,,,,,,,,,,,,,,,,,,,,,,,,,,,,,,,,,,,,,,,,,,,,,,,,
1720179672,79,0,4293.077148,4277.94873,4309.358887,4314.487305,4303.589844,4326.410156,4263.077148,4276.794922,4349.615234,4378.077148,4475.256348,4474.487305,4340.641113,4407.436035,,,,,,,,,,,,,,,,,,,,,,,,,,,,,,,,,,,,,,,,,,,,,,,,,,,,,,,,,,,,,,,,,,,,,,
1720179672,80,0,4300,4277.94873,4323.077148,4313.333496,4299.358887,4330,4265.897461,4278.717773,4360.256348,4384.615234,4446.282227,4482.436035,4345.256348,4411.922852,3.294004,33.987988,1.437938,1.310256,0.434045,1.931628,17.049517,1.611227,2.319361,1.236113,5.45314,38.15839,2.139867,1.873546,0.500057,2.343951,18.208961,1.787145,1.20427,0.470795,0.477116,1.782218,0.168694,0.289042,0.130581,0.226389,0.661888,0.217157,0.114508,0.075556,2.260499,5.303481,0.920686,0.969299,0.37191,2.352987,5.029094,1.122949,0.937225,0.37888,2.297954,1.195343,0.842481,0.382666,0.300401,6.840973,3.322556,1.665632,0.710129,0.28499,2.357587,9.085064,1.032519,0.640802,0.475117,9.531193,41.673164,3.680791,1.77844,0.704856,3.289451,20.958424,1.480276,0.744634,0.51162,7.673042,37.50581,2.234735,1.101874,0.554714
1720179672,81,0,4288.846191,4274.102539,4317.692383,4307.820313,4298.974121,4322.307617,4251.666504,4268.461426,4355.512695,4381.282227,4405.641113,4476.153809,4339.615234,4395.512695,,,,,,,,,,,,,,,,,,,,,,,,,,,,,,,,,,,,,,,,,,,,,,,,,,,,,,,,,,,,,,,,,,,,,,
1720179672,82,0,4250.256348,4255.256348,4272.179688,4284.102539,4296.282227,4312.307617,4227.436035,4244.358887,4313.077148,4362.94873,4378.205078,4430.384766,4309.871582,4354.487305,,,,,,,,,,,,,,,,,,,,,,,,,,,,,,,,,,,,,,,,,,,,,,,,,,,,,,,,,,,,,,,,,,,,,,
1720179672,83,0,4206.282227,4214.102539,4229.871582,4262.820313,4289.615234,4314.871582,4229.871582,4241.282227,4281.666504,4356.794922,4363.974121,4384.871582,4279.487305,4316.410156,,,,,,,,,,,,,,,,,,,,,,,,,,,,,,,,,,,,,,,,,,,,,,,,,,,,,,,,,,,,,,,,,,,,,,
1720179672,84,0,4194.230957,4190.512695,4222.436035,4253.461426,4289.230957,4322.307617,4251.538574,4258.717773,4288.205078,4360.512695,4362.692383,4376.282227,4270.769043,4300.897461,,,,,,,,,,,,,,,,,,,,,,,,,,,,,,,,,,,,,,,,,,,,,,,,,,,,,,,,,,,,,,,,,,,,,,
1720179672,85,0,4205.769043,4218.846191,4227.820313,4244.743652,4290.769043,4324.743652,4253.974121,4264.615234,4297.05127,4354.871582,4372.307617,4385.384766,4276.666504,4304.871582,,,,,,,,,,,,,,,,,,,,,,,,,,,,,,,,,,,,,,,,,,,,,,,,,,,,,,,,,,,,,,,,,,,,,,
1720179672,86,0,4215.769043,4241.410156,4233.205078,4250.256348,4285.256348,4319.358887,4249.102539,4262.179688,4292.820313,4347.692383,4378.846191,4393.846191,4283.333496,4314.230957,,,,,,,,,,,,,,,,,,,,,,,,,,,,,,,,,,,,,,,,,,,,,,,,,,,,,,,,,,,,,,,,,,,,,,
1720179672,87,0,4223.077148,4216.282227,4244.102539,4258.974121,4277.692383,4312.820313,4258.205078,4265.384766,4293.205078,4342.820313,4381.025879,4406.922852,4291.794922,4323.589844,,,,,,,,,,,,,,,,,,,,,,,,,,,,,,,,,,,,,,,,,,,,,,,,,,,,,,,,,,,,,,,,,,,,,,
1720179672,88,0,4238.461426,4212.179688,4257.94873,4258.205078,4276.922852,4311.153809,4261.794922,4268.205078,4300.128418,4340.384766,4393.077148,4428.589844,4307.692383,4345,,,,,,,,,,,,,,,,,,,,,,,,,,,,,,,,,,,,,,,,,,,,,,,,,,,,,,,,,,,,,,,,,,,,,,
1720179672,89,0,4252.436035,4242.94873,4267.179688,4270.641113,4279.358887,4311.282227,4252.436035,4267.820313,4306.153809,4351.025879,4406.282227,4446.282227,4328.077148,4370.128418,,,,,,,,,,,,,,,,,,,,,,,,,,,,,,,,,,,,,,,,,,,,,,,,,,,,,,,,,,,,,,,,,,,,,,
1720179672,90,0,4250.512695,4254.615234,4267.94873,4284.102539,4283.333496,4309.615234,4246.410156,4258.717773,4304.358887,4355,4401.153809,4441.410156,4332.05127,4365.769043,,,,,,,,,,,,,,,,,,,,,,,,,,,,,,,,,,,,,,,,,,,,,,,,,,,,,,,,,,,,,,,,,,,,,,
1720179672,91,0,4246.794922,4250.128418,4269.871582,4281.282227,4289.871582,4310.384766,4244.102539,4249.230957,4298.333496,4340.512695,4386.794922,4425.384766,4316.153809,4341.922852,,,,,,,,,,,,,,,,,,,,,,,,,,,,,,,,,,,,,,,,,,,,,,,,,,,,,,,,,,,,,,,,,,,,,,
1720179672,92,0,4262.94873,4255.384766,4289.358887,4285.641113,4286.538574,4311.153809,4243.974121,4252.94873,4292.94873,4327.05127,4392.05127,4433.717773,4315.256348,4345.384766,,,,,,,,,,,,,,,,,,,,,,,,,,,,,,,,,,,,,,,,,,,,,,,,,,,,,,,,,,,,,,,,,,,,,,
1720179672,93,0,4285,4264.615234,4313.077148,4300.769043,4277.05127,4312.179688,4253.717773,4266.410156,4305.128418,4334.487305,4421.794922,4470.641113,4346.153809,4381.282227,,,,,,,,,,,,,,,,,,,,,,,,,,,,,,,,,,,,,,,,,,,,,,,,,,,,,,,,,,,,,,,,,,,,,,
1720179672,94,0,4286.794922,4267.563965,4312.05127,4298.461426,4278.333496,4312.820313,4260.128418,4271.410156,4323.717773,4350.128418,4432.820313,4488.717773,4366.794922,4400.256348,,,,,,,,,,,,,,,,,,,,,,,,,,,,,,,,,,,,,,,,,,,,,,,,,,,,,,,,,,,,,,,,,,,,,,
1720179672,95,0,4266.538574,4265.897461,4282.179688,4277.820313,4282.692383,4307.436035,4243.077148,4257.692383,4307.179688,4335.769043,4408.717773,4449.743652,4346.922852,4368.589844,,,,,,,,,,,,,,,,,,,,,,,,,,,,,,,,,,,,,,,,,,,,,,,,,,,,,,,,,,,,,,,,,,,,,,
1720179672,96,0,4238.846191,4248.205078,4251.538574,4265,4284.615234,4308.333496,4230.128418,4248.974121,4283.589844,4302.820313,4391.025879,4398.717773,4314.487305,4321.153809,2.871749,32.150078,1.204302,1.393555,0.411062,2.264702,16.768526,1.526969,2.441584,1.230832,4.963672,35.888256,1.782556,1.807544,0.482384,2.449689,17.694077,1.592561,1.18157,0.434783,0.609485,1.639704,0.219846,0.292842,0.129294,0.36917,0.567744,0.222485,0.125953,0.082857,1.525525,3.98947,0.929181,0.851199,0.325329,1.576031,3.631721,1.122545,0.828673,0.340431,2.479027,1.220986,0.848479,0.358234,0.295915,9.955231,6.061303,1.957615,0.738524,0.367869,2.213336,7.570684,1.135384,0.641572,0.498713,8.652193,37.187317,3.681161,1.659639,0.646167,2.773771,18.228882,1.420626,0.814288,0.508869,7.24801,33.647038,2.074941,1.069327,0.50968
1720179672,97,0,4217.179688,4227.820313,4237.563965,4253.974121,4291.794922,4315.641113,4238.717773,4251.410156,4273.461426,4264.871582,4386.794922,4378.974121,4294.743652,4298.846191,,,,,,,,,,,,,,,,,,,,,,,,,,,,,,,,,,,,,,,,,,,,,,,,,,,,,,,,,,,,,,,,,,,,,,
1720179672,98,0,4210.128418,4226.025879,4228.717773,4244.487305,4294.615234,4318.077148,4246.922852,4252.05127,4257.05127,4227.05127,4378.077148,4378.846191,4287.436035,4295.897461,,,,,,,,,,,,,,,,,,,,,,,,,,,,,,,,,,,,,,,,,,,,,,,,,,,,,,,,,,,,,,,,,,,,,,
1720179672,99,0,4216.025879,4228.205078,4229.230957,4258.077148,4293.205078,4320.512695,4248.589844,4257.436035,4252.179688,4215,4377.94873,4386.153809,4291.153809,4296.025879,,,,,,,,,,,,,,,,,,,,,,,,,,,,,,,,,,,,,,,,,,,,,,,,,,,,,,,,,,,,,,,,,,,,,,
1720179672,100,0,4226.538574,4229.743652,4246.153809,4274.487305,4297.563965,4320,4249.487305,4260.512695,4255.897461,4217.05127,4386.794922,4393.717773,4295.128418,4300.384766,,,,,,,,,,,,,,,,,,,,,,,,,,,,,,,,,,,,,,,,,,,,,,,,,,,,,,,,,,,,,,,,,,,,,,
1720179672,101,0,4243.077148,4242.436035,4261.282227,4270.128418,4292.820313,4312.94873,4246.666504,4252.820313,4249.358887,4213.077148,4389.102539,4399.230957,4295.512695,4319.358887,,,,,,,,,,,,,,,,,,,,,,,,,,,,,,,,,,,,,,,,,,,,,,,,,,,,,,,,,,,,,,,,,,,,,,
1720179672,102,0,4253.205078,4256.538574,4265.256348,4271.410156,4281.025879,4309.358887,4244.230957,4251.410156,4256.922852,4217.307617,4393.077148,4415.512695,4304.358887,4344.230957,,,,,,,,,,,,,,,,,,,,,,,,,,,,,,,,,,,,,,,,,,,,,,,,,,,,,,,,,,,,,,,,,,,,,,
1720179672,103,0,4252.05127,4261.538574,4273.461426,4286.922852,4284.230957,4312.436035,4245.897461,4262.436035,4270.384766,4211.666504,4407.94873,4438.846191,4320,4352.436035,,,,,,,,,,,,,,,,,,,,,,,,,,,,,,,,,,,,,,,,,,,,,,,,,,,,,,,,,,,,,,,,,,,,,,
1720179672,104,0,4264.615234,4266.666504,4292.307617,4292.94873,4297.179688,4311.538574,4247.05127,4263.717773,4254.487305,4171.282227,4419.102539,4456.794922,4331.282227,4357.436035,,,,,,,,,,,,,,,,,,,,,,,,,,,,,,,,,,,,,,,,,,,,,,,,,,,,,,,,,,,,,,,,,,,,,,
1720179672,105,0,4282.307617,4268.461426,4307.307617,4296.922852,4295.641113,4307.820313,4247.436035,4260.384766,4251.538574,4157.94873,4424.871582,4471.153809,4341.153809,4378.077148,,,,,,,,,,,,,,,,,,,,,,,,,,,,,,,,,,,,,,,,,,,,,,,,,,,,,,,,,,,,,,,,,,,,,,
1720179672,106,0,4276.410156,4263.589844,4303.333496,4300.256348,4284.743652,4308.333496,4246.025879,4261.410156,4262.692383,4177.820313,4427.820313,4474.871582,4349.743652,4386.666504,,,,,,,,,,,,,,,,,,,,,,,,,,,,,,,,,,,,,,,,,,,,,,,,,,,,,,,,,,,,,,,,,,,,,,
1720179672,107,0,4260.641113,4263.846191,4284.615234,4293.461426,4283.717773,4310.384766,4246.153809,4260.128418,4254.615234,4174.615234,4423.333496,4457.563965,4343.333496,4370.641113,,,,,,,,,,,,,,,,,,,,,,,,,,,,,,,,,,,,,,,,,,,,,,,,,,,,,,,,,,,,,,,,,,,,,,
1720179672,108,0,4253.205078,4258.205078,4273.974121,4288.974121,4291.538574,4311.538574,4254.743652,4263.717773,4255.128418,4172.563965,4415.128418,4433.717773,4320.384766,4351.282227,,,,,,,,,,,,,,,,,,,,,,,,,,,,,,,,,,,,,,,,,,,,,,,,,,,,,,,,,,,,,,,,,,,,,,
1720179672,109,0,4236.282227,4236.794922,4261.794922,4274.230957,4290,4309.487305,4253.974121,4263.589844,4251.282227,4174.358887,4400.512695,4412.820313,4296.025879,4326.794922,,,,,,,,,,,,,,,,,,,,,,,,,,,,,,,,,,,,,,,,,,,,,,,,,,,,,,,,,,,,,,,,,,,,,,
1720179672,110,0,4212.05127,4214.487305,4234.615234,4247.307617,4278.974121,4310.128418,4246.794922,4260.128418,4236.153809,4159.871582,4388.589844,4402.94873,4287.820313,4309.615234,,,,,,,,,,,,,,,,,,,,,,,,,,,,,,,,,,,,,,,,,,,,,,,,,,,,,,,,,,,,,,,,,,,,,,
1720179672,111,0,4212.820313,4215.641113,4225.512695,4242.820313,4281.922852,4312.307617,4255.128418,4263.717773,4234.487305,4151.282227,4389.487305,4413.589844,4294.487305,4322.05127,,,,,,,,,,,,,,,,,,,,,,,,,,,,,,,,,,,,,,,,,,,,,,,,,,,,,,,,,,,,,,,,,,,,,,
1720179672,112,0,4234.230957,4240.256348,4247.563965,4262.820313,4288.333496,4311.025879,4264.743652,4265.512695,4236.025879,4155.897461,4397.692383,4431.025879,4301.153809,4343.717773,2.857403,28.474215,1.188915,1.645249,0.408535,2.747013,15.194951,1.612015,2.595098,1.217654,4.739701,31.396236,1.583441,1.815471,0.474413,2.760644,15.761626,1.47288,1.275737,0.418915,0.879184,1.472926,0.284685,0.29998,0.132458,0.646535,0.522447,0.257512,0.142233,0.093463,1.085388,3.003357,0.929572,0.736926,0.28211,1.092568,2.558442,1.105054,0.726744,0.297149,3.394691,1.577717,0.868518,0.386681,0.292606,15.906688,11.996464,2.54716,0.864494,0.531613,2.507273,6.022306,1.303694,0.720457,0.522309,8.306763,30.954168,3.748467,1.799763,0.60296,2.941488,14.99064,1.499007,1.073028,0.517029,7.216302,28.202816,2.029586,1.265449,0.493049
1720179672,113,0,4250.256348,4257.563965,4268.717773,4274.230957,4280.384766,4313.205078,4262.436035,4262.820313,4237.94873,4158.846191,4409.230957,4441.794922,4315.128418,4362.05127,,,,,,,,,,,,,,,,,,,,,,,,,,,,,,,,,,,,,,,,,,,,,,,,,,,,,,,,,,,,,,,,,,,,,,
1720179672,114,0,4266.410156,4258.077148,4287.563965,4284.487305,4276.538574,4318.333496,4260.641113,4265,4246.410156,4161.666504,4420,4454.487305,4339.102539,4381.666504,,,,,,,,,,,,,,,,,,,,,,,,,,,,,,,,,,,,,,,,,,,,,,,,,,,,,,,,,,,,,,,,,,,,,,
1720179672,115,0,4292.307617,4277.179688,4319.487305,4310.256348,4284.102539,4321.025879,4261.282227,4272.307617,4256.282227,4174.487305,4436.666504,4483.461426,4361.922852,4396.922852,,,,,,,,,,,,,,,,,,,,,,,,,,,,,,,,,,,,,,,,,,,,,,,,,,,,,,,,,,,,,,,,,,,,,,
1720179672,116,0,4306.538574,4301.153809,4338.717773,4322.563965,4283.974121,4318.846191,4261.794922,4278.846191,4264.615234,4186.282227,4448.717773,4511.538574,4373.205078,4409.615234,,,,,,,,,,,,,,,,,,,,,,,,,,,,,,,,,,,,,,,,,,,,,,,,,,,,,,,,,,,,,,,,,,,,,,
1720179672,117,0,4299.743652,4282.05127,4329.871582,4311.410156,4277.820313,4312.563965,4265,4280.384766,4268.974121,4183.846191,4446.794922,4514.358887,4369.615234,4418.333496,,,,,,,,,,,,,,,,,,,,,,,,,,,,,,,,,,,,,,,,,,,,,,,,,,,,,,,,,,,,,,,,,,,,,,
1720179672,118,0,4294.102539,4252.820313,4320,4303.589844,4284.871582,4307.820313,4265.256348,4277.436035,4270.384766,4184.230957,4446.538574,4510.769043,4365.512695,4413.077148,,,,,,,,,,,,,,,,,,,,,,,,,,,,,,,,,,,,,,,,,,,,,,,,,,,,,,,,,,,,,,,,,,,,,,
1720179672,119,0,4286.538574,4260.641113,4313.461426,4299.102539,4296.794922,4310.641113,4262.05127,4276.538574,4272.94873,4191.025879,4442.563965,4507.307617,4359.871582,4396.410156,,,,,,,,,,,,,,,,,,,,,,,,,,,,,,,,,,,,,,,,,,,,,,,,,,,,,,,,,,,,,,,,,,,,,,
1720179672,120,0,4264.871582,4272.05127,4296.922852,4284.871582,4292.436035,4315.512695,4264.230957,4275.897461,4260.384766,4183.461426,4421.922852,4486.410156,4336.922852,4377.179688,,,,,,,,,,,,,,,,,,,,,,,,,,,,,,,,,,,,,,,,,,,,,,,,,,,,,,,,,,,,,,,,,,,,,,
1720179672,121,0,4246.922852,4256.025879,4280.128418,4272.820313,4282.820313,4317.05127,4273.077148,4278.717773,4247.436035,4180,4407.563965,4464.615234,4311.153809,4358.077148,,,,,,,,,,,,,,,,,,,,,,,,,,,,,,,,,,,,,,,,,,,,,,,,,,,,,,,,,,,,,,,,,,,,,,
1720179672,122,0,4243.077148,4239.615234,4273.717773,4277.563965,4286.666504,4318.077148,4279.230957,4284.871582,4262.563965,4201.538574,4411.922852,4458.205078,4305.897461,4348.461426,,,,,,,,,,,,,,,,,,,,,,,,,,,,,,,,,,,,,,,,,,,,,,,,,,,,,,,,,,,,,,,,,,,,,,
1720179672,123,0,4246.153809,4246.025879,4275,4284.487305,4289.487305,4313.717773,4277.307617,4283.205078,4266.025879,4213.846191,4406.282227,4457.05127,4306.666504,4349.102539,,,,,,,,,,,,,,,,,,,,,,,,,,,,,,,,,,,,,,,,,,,,,,,,,,,,,,,,,,,,,,,,,,,,,,
1720179672,124,0,4255.256348,4257.692383,4287.563965,4281.794922,4279.487305,4310,4276.922852,4282.820313,4259.743652,4222.692383,4405.128418,4467.307617,4309.230957,4355.897461,,,,,,,,,,,,,,,,,,,,,,,,,,,,,,,,,,,,,,,,,,,,,,,,,,,,,,,,,,,,,,,,,,,,,,
1720179672,125,0,4269.743652,4260,4304.743652,4282.436035,4275.384766,4314.743652,4280.256348,4291.666504,4275,4249.102539,4429.102539,4490.256348,4332.820313,4379.230957,,,,,,,,,,,,,,,,,,,,,,,,,,,,,,,,,,,,,,,,,,,,,,,,,,,,,,,,,,,,,,,,,,,,,,
1720179672,126,0,4277.692383,4258.461426,4308.205078,4295,4284.743652,4321.025879,4280.769043,4296.410156,4282.563965,4259.871582,4444.487305,4499.230957,4355.769043,4395,,,,,,,,,,,,,,,,,,,,,,,,,,,,,,,,,,,,,,,,,,,,,,,,,,,,,,,,,,,,,,,,,,,,,,
1720179672,127,0,4284.615234,4262.820313,4312.563965,4316.025879,4291.538574,4319.487305,4283.717773,4295.384766,4282.563965,4253.461426,4447.436035,4499.230957,4360.384766,4386.794922,,,,,,,,,,,,,,,,,,,,,,,,,,,,,,,,,,,,,,,,,,,,,,,,,,,,,,,,,,,,,,,,,,,,,,
1720179672,0,0,4297.563965,4277.692383,4326.153809,4327.94873,4292.307617,4313.846191,4284.102539,4294.487305,4292.307617,4252.820313,4456.025879,4508.846191,4366.025879,4389.743652,3.341737,23.678497,1.351989,2.053025,0.425489,3.386628,12.629991,1.762238,2.689543,1.20838,4.86525,25.66366,1.471367,1.956403,0.477419,3.402368,12.903167,1.436173,1.476752,0.420357,1.21076,1.27264,0.349077,0.304656,0.141015,1.063143,0.538486,0.303899,0.161527,0.105922,1.090277,2.338115,0.901658,0.650288,0.249153,1.100548,1.821382,1.050305,0.6493,0.255328,5.015218,2.359725,0.926101,0.497794,0.296496,24.278891,20.946033,3.390191,1.10445,0.761724,3.937113,4.802011,1.564144,0.903548,0.545083,8.923577,24.372435,3.759342,2.276765,0.595966,4.176134,11.98569,1.679176,1.551693,0.545515,7.886761,22.323126,2.088364,1.770477,0.516288
1720179672,1,0,4301.922852,4292.94873,4331.282227,4318.077148,4292.820313,4311.025879,4271.922852,4283.974121,4293.461426,4254.615234,4460.384766,4513.077148,4375.384766,4410.128418,,,,,,,,,,,,,,,,,,,,,,,,,,,,,,,,,,,,,,,,,,,,,,,,,,,,,,,,,,,,,,,,,,,,,,
1720179672,2,0,4298.333496,4290.128418,4328.205078,4310.512695,4290.256348,4309.615234,4258.846191,4266.666504,4293.846191,4262.307617,4457.05127,4505.897461,4381.410156,4414.230957,,,,,,,,,,,,,,,,,,,,,,,,,,,,,,,,,,,,,,,,,,,,,,,,,,,,,,,,,,,,,,,,,,,,,,
1720179672,3,0,4293.589844,4280.769043,4319.871582,4313.846191,4282.05127,4305.897461,4258.589844,4263.333496,4308.461426,4272.94873,4461.410156,4498.717773,4383.333496,4400,,,,,,,,,,,,,,,,,,,,,,,,,,,,,,,,,,,,,,,,,,,,,,,,,,,,,,,,,,,,,,,,,,,,,,
1720179672,4,0,4273.333496,4275.769043,4296.153809,4295.256348,4279.871582,4303.717773,4266.666504,4274.102539,4302.94873,4266.922852,4460.128418,4487.307617,4368.205078,4377.307617,,,,,,,,,,,,,,,,,,,,,,,,,,,,,,,,,,,,,,,,,,,,,,,,,,,,,,,,,,,,,,,,,,,,,,
1720179672,5,0,4248.461426,4255.897461,4277.692383,4270.512695,4289.615234,4313.717773,4281.794922,4289.358887,4294.615234,4260.128418,4445.128418,4476.282227,4343.589844,4357.179688,,,,,,,,,,,,,,,,,,,,,,,,,,,,,,,,,,,,,,,,,,,,,,,,,,,,,,,,,,,,,,,,,,,,,,
1720179672,6,0,4245.384766,4230.641113,4274.871582,4276.922852,4293.461426,4322.563965,4292.307617,4297.179688,4302.307617,4261.153809,4431.282227,4464.743652,4325.256348,4341.666504,,,,,,,,,,,,,,,,,,,,,,,,,,,,,,,,,,,,,,,,,,,,,,,,,,,,,,,,,,,,,,,,,,,,,,
1720179672,7,0,4242.692383,4235.512695,4263.589844,4280.512695,4289.743652,4317.05127,4287.436035,4295.769043,4293.077148,4254.487305,4422.307617,4443.717773,4310.128418,4322.94873,,,,,,,,,,,,,,,,,,,,,,,,,,,,,,,,,,,,,,,,,,,,,,,,,,,,,,,,,,,,,,,,,,,,,,
1720179673,8,0,4226.410156,4253.717773,4253.461426,4267.436035,4286.153809,4315.384766,4281.025879,4294.871582,4286.538574,4248.461426,4424.487305,4434.230957,4307.563965,4319.871582,,,,,,,,,,,,,,,,,,,,,,,,,,,,,,,,,,,,,,,,,,,,,,,,,,,,,,,,,,,,,,,,,,,,,,
1720179673,9,0,4234.102539,4246.922852,4270.128418,4269.487305,4283.333496,4318.974121,4282.94873,4295,4293.461426,4243.589844,4435.128418,4461.922852,4327.563965,4343.846191,,,,,,,,,,,,,,,,,,,,,,,,,,,,,,,,,,,,,,,,,,,,,,,,,,,,,,,,,,,,,,,,,,,,,,
1720179673,10,0,4264.615234,4243.589844,4295,4290.384766,4280.769043,4314.871582,4283.589844,4296.794922,4299.358887,4246.153809,4451.922852,4496.153809,4353.077148,4370,,,,,,,,,,,,,,,,,,,,,,,,,,,,,,,,,,,,,,,,,,,,,,,,,,,,,,,,,,,,,,,,,,,,,,
1720179673,11,0,4278.461426,4272.179688,4307.692383,4307.179688,4272.179688,4307.05127,4280.384766,4294.230957,4306.025879,4261.282227,4468.077148,4497.820313,4366.153809,4379.871582,,,,,,,,,,,,,,,,,,,,,,,,,,,,,,,,,,,,,,,,,,,,,,,,,,,,,,,,,,,,,,,,,,,,,,
1720179673,12,0,4290.769043,4286.538574,4325.897461,4308.077148,4263.205078,4305.256348,4278.589844,4289.871582,4312.436035,4272.179688,4464.487305,4493.589844,4368.589844,4389.230957,,,,,,,,,,,,,,,,,,,,,,,,,,,,,,,,,,,,,,,,,,,,,,,,,,,,,,,,,,,,,,,,,,,,,,
1720179673,13,0,4317.820313,4274.615234,4345.769043,4310.512695,4269.871582,4305.897461,4279.615234,4290.256348,4312.563965,4274.487305,4451.282227,4512.179688,4367.179688,4402.179688,,,,,,,,,,,,,,,,,,,,,,,,,,,,,,,,,,,,,,,,,,,,,,,,,,,,,,,,,,,,,,,,,,,,,,
1720179673,14,0,4324.102539,4289.615234,4344.487305,4325.897461,4281.922852,4305.641113,4276.794922,4286.282227,4303.333496,4273.205078,4446.025879,4526.025879,4364.615234,4401.410156,,,,,,,,,,,,,,,,,,,,,,,,,,,,,,,,,,,,,,,,,,,,,,,,,,,,,,,,,,,,,,,,,,,,,,
1720179673,15,0,4301.922852,4312.563965,4330.897461,4328.205078,4280.512695,4307.05127,4269.487305,4280.384766,4301.282227,4272.179688,4446.794922,4512.692383,4358.077148,4383.846191,,,,,,,,,,,,,,,,,,,,,,,,,,,,,,,,,,,,,,,,,,,,,,,,,,,,,,,,,,,,,,,,,,,,,,
1720179673,16,0,4278.974121,4286.025879,4310,4306.153809,4283.205078,4306.025879,4263.589844,4275.512695,4300.641113,4271.794922,4444.358887,4487.94873,4345.769043,4364.743652,4.230733,19.318615,1.656135,2.560463,0.45399,4.112122,10.00824,1.871479,2.671631,1.212067,5.295054,20.58688,1.407734,2.245047,0.493351,4.370039,10.155228,1.43777,1.716187,0.428248,1.525642,1.051899,0.402157,0.304088,0.155056,1.535668,0.604609,0.338013,0.181168,0.117155,1.515279,1.976844,0.821995,0.60378,0.232303,1.592243,1.421659,0.941637,0.607424,0.223647,7.021461,3.476118,1.006402,0.693942,0.315569,33.329342,30.990665,4.244457,1.444738,1.005904,6.883385,4.280798,1.959606,1.178585,0.564966,10.526415,19.409973,3.657751,3.057926,0.635957,6.420769,10.126315,1.952556,2.193289,0.595895,9.259578,17.781603,2.277555,2.569789,0.581734
1720179673,17,0,4257.307617,4253.717773,4284.230957,4282.436035,4291.538574,4303.717773,4261.922852,4267.563965,4284.487305,4265.512695,4439.615234,4465.256348,4328.589844,4350.769043,,,,,,,,,,,,,,,,,,,,,,,,,,,,,,,,,,,,,,,,,,,,,,,,,,,,,,,,,,,,,,,,,,,,,,
1720179673,18,0,4242.692383,4242.563965,4268.717773,4272.563965,4286.153809,4306.794922,4264.487305,4266.282227,4276.922852,4256.922852,4432.05127,4447.307617,4313.461426,4336.025879,,,,,,,,,,,,,,,,,,,,,,,,,,,,,,,,,,,,,,,,,,,,,,,,,,,,,,,,,,,,,,,,,,,,,,
1720179673,19,0,4249.615234,4226.153809,4273.205078,4278.974121,4277.692383,4313.974121,4274.871582,4278.333496,4295.256348,4260.512695,4425.769043,4445.384766,4314.743652,4333.974121,,,,,,,,,,,,,,,,,,,,,,,,,,,,,,,,,,,,,,,,,,,,,,,,,,,,,,,,,,,,,,,,,,,,,,
1720179673,20,0,4261.025879,4244.102539,4282.94873,4286.538574,4281.025879,4313.974121,4281.922852,4285.769043,4300,4260.384766,4428.974121,4453.461426,4325.769043,4347.05127,,,,,,,,,,,,,,,,,,,,,,,,,,,,,,,,,,,,,,,,,,,,,,,,,,,,,,,,,,,,,,,,,,,,,,
1720179673,21,0,4266.666504,4278.846191,4290.897461,4285.512695,4283.717773,4311.794922,4279.102539,4285,4289.102539,4251.410156,4437.179688,4462.179688,4336.666504,4362.179688,,,,,,,,,,,,,,,,,,,,,,,,,,,,,,,,,,,,,,,,,,,,,,,,,,,,,,,,,,,,,,,,,,,,,,
1720179673,22,0,4275.897461,4263.461426,4302.307617,4289.358887,4274.743652,4315,4280,4294.615234,4305.128418,4261.025879,4448.205078,4479.102539,4348.077148,4376.025879,,,,,,,,,,,,,,,,,,,,,,,,,,,,,,,,,,,,,,,,,,,,,,,,,,,,,,,,,,,,,,,,,,,,,,
1720179673,23,0,4279.871582,4240.641113,4307.179688,4292.05127,4265.384766,4312.820313,4282.307617,4295.384766,4312.820313,4268.077148,4450.641113,4493.974121,4350.641113,4381.538574,,,,,,,,,,,,,,,,,,,,,,,,,,,,,,,,,,,,,,,,,,,,,,,,,,,,,,,,,,,,,,,,,,,,,,
1720179673,24,0,4279.487305,4259.102539,4309.615234,4291.153809,4263.974121,4309.615234,4279.615234,4286.410156,4300.641113,4261.538574,4454.743652,4498.077148,4358.717773,4385.641113,,,,,,,,,,,,,,,,,,,,,,,,,,,,,,,,,,,,,,,,,,,,,,,,,,,,,,,,,,,,,,,,,,,,,,
1720179673,25,0,4292.563965,4280.384766,4319.358887,4299.871582,4267.179688,4308.717773,4276.410156,4288.205078,4307.94873,4262.820313,4469.487305,4502.820313,4376.538574,4395.897461,,,,,,,,,,,,,,,,,,,,,,,,,,,,,,,,,,,,,,,,,,,,,,,,,,,,,,,,,,,,,,,,,,,,,,
1720179673,26,0,4310.641113,4284.487305,4335.384766,4315.641113,4273.846191,4307.307617,4271.282227,4285.256348,4312.436035,4260.769043,4472.692383,4508.846191,4379.230957,4400.384766,,,,,,,,,,,,,,,,,,,,,,,,,,,,,,,,,,,,,,,,,,,,,,,,,,,,,,,,,,,,,,,,,,,,,,
1720179673,27,0,4321.282227,4293.974121,4348.589844,4337.179688,4281.538574,4307.307617,4259.743652,4267.692383,4305.512695,4253.461426,4467.692383,4513.461426,4376.025879,4400.769043,,,,,,,,,,,,,,,,,,,,,,,,,,,,,,,,,,,,,,,,,,,,,,,,,,,,,,,,,,,,,,,,,,,,,,
1720179673,28,0,4327.563965,4310,4348.974121,4345.769043,4283.333496,4303.974121,4248.974121,4256.153809,4305.384766,4256.922852,4466.538574,4517.436035,4382.820313,4406.794922,,,,,,,,,,,,,,,,,,,,,,,,,,,,,,,,,,,,,,,,,,,,,,,,,,,,,,,,,,,,,,,,,,,,,,
1720179673,29,0,4320.512695,4310.256348,4339.487305,4326.153809,4282.436035,4301.410156,4254.358887,4267.94873,4306.794922,4262.179688,4466.153809,4512.307617,4379.230957,4406.153809,,,,,,,,,,,,,,,,,,,,,,,,,,,,,,,,,,,,,,,,,,,,,,,,,,,,,,,,,,,,,,,,,,,,,,
1720179673,30,0,4289.487305,4275.128418,4312.563965,4300.128418,4277.820313,4306.666504,4270.641113,4283.461426,4302.94873,4254.102539,4460.769043,4488.461426,4355.512695,4378.461426,,,,,,,,,,,,,,,,,,,,,,,,,,,,,,,,,,,,,,,,,,,,,,,,,,,,,,,,,,,,,,,,,,,,,,
1720179673,31,0,4239.743652,4237.179688,4263.333496,4269.487305,4265.641113,4308.461426,4269.230957,4277.307617,4289.358887,4230.897461,4435.641113,4438.077148,4311.282227,4322.436035,,,,,,,,,,,,,,,,,,,,,,,,,,,,,,,,,,,,,,,,,,,,,,,,,,,,,,,,,,,,,,,,,,,,,,
1720179673,32,0,4206.153809,4228.461426,4226.538574,4238.974121,4258.077148,4302.05127,4254.358887,4259.487305,4259.615234,4202.307617,4404.743652,4391.666504,4269.102539,4283.333496,5.282153,17.03743,2.051821,3.063474,0.481419,4.792199,8.394781,1.898087,2.536222,1.222771,5.898021,18.07822,1.40902,2.619292,0.517854,5.471872,8.594265,1.427331,1.902258,0.431751,1.737164,0.834439,0.438036,0.299123,0.173361,1.938257,0.687833,0.342936,0.198525,0.123736,2.165658,1.874246,0.682184,0.5948,0.231712,2.371114,1.322819,0.789585,0.600729,0.206724,8.952377,4.708857,1.069047,0.938632,0.352153,40.845879,39.123859,4.79946,1.838646,1.192687,10.964718,4.73279,2.483893,1.486826,0.576138,12.652209,17.692799,3.479025,3.974794,0.71232,9.155308,10.207243,2.291433,2.841158,0.655477,10.898437,16.180115,2.596806,3.502414,0.672841
1720179673,33,0,4220.384766,4229.743652,4244.358887,4250.641113,4263.846191,4306.922852,4262.563965,4265.512695,4257.563965,4204.230957,4416.282227,4410.256348,4286.538574,4310.256348,,,,,,,,,,,,,,,,,,,,,,,,,,,,,,,,,,,,,,,,,,,,,,,,,,,,,,,,,,,,,,,,,,,,,,
1720179673,34,0,4263.205078,4243.717773,4294.871582,4289.358887,4268.846191,4318.205078,4286.025879,4295.897461,4295.512695,4233.589844,4452.436035,4476.282227,4343.589844,4370.256348,,,,,,,,,,,,,,,,,,,,,,,,,,,,,,,,,,,,,,,,,,,,,,,,,,,,,,,,,,,,,,,,,,,,,,
1720179673,35,0,4288.461426,4278.461426,4322.05127,4300,4267.05127,4314.615234,4285.256348,4301.410156,4303.717773,4238.077148,4458.846191,4507.94873,4364.102539,4391.153809,,,,,,,,,,,,,,,,,,,,,,,,,,,,,,,,,,,,,,,,,,,,,,,,,,,,,,,,,,,,,,,,,,,,,,
1720179673,36,0,4293.846191,4288.205078,4324.358887,4298.333496,4264.230957,4302.563965,4265.512695,4282.179688,4289.358887,4230.128418,4459.230957,4499.487305,4357.692383,4385.769043,,,,,,,,,,,,,,,,,,,,,,,,,,,,,,,,,,,,,,,,,,,,,,,,,,,,,,,,,,,,,,,,,,,,,,
1720179673,37,0,4299.358887,4264.871582,4329.743652,4303.717773,4258.333496,4296.538574,4260.256348,4274.358887,4291.922852,4234.102539,4472.94873,4500,4370.128418,4397.179688,,,,,,,,,,,,,,,,,,,,,,,,,,,,,,,,,,,,,,,,,,,,,,,,,,,,,,,,,,,,,,,,,,,,,,
1720179673,38,0,4309.102539,4267.05127,4338.717773,4307.05127,4255.128418,4297.307617,4275.641113,4286.025879,4303.846191,4240,4485.128418,4520.897461,4395.512695,4420.256348,,,,,,,,,,,,,,,,,,,,,,,,,,,,,,,,,,,,,,,,,,,,,,,,,,,,,,,,,,,,,,,,,,,,,,
1720179673,39,0,4320.512695,4290.512695,4343.333496,4318.205078,4260,4296.666504,4273.589844,4284.743652,4309.871582,4243.461426,4491.153809,4532.179688,4400.128418,4430.384766,,,,,,,,,,,,,,,,,,,,,,,,,,,,,,,,,,,,,,,,,,,,,,,,,,,,,,,,,,,,,,,,,,,,,,
1720179673,40,0,4323.717773,4298.077148,4341.282227,4321.922852,4264.871582,4295.256348,4245.641113,4255.897461,4301.410156,4235.769043,4489.487305,4515.128418,4389.487305,4423.205078,,,,,,,,,,,,,,,,,,,,,,,,,,,,,,,,,,,,,,,,,,,,,,,,,,,,,,,,,,,,,,,,,,,,,,
1720179673,41,0,4316.025879,4295.897461,4333.077148,4314.230957,4264.871582,4296.282227,4231.025879,4237.307617,4293.974121,4224.743652,4488.461426,4495.128418,4390.512695,4415.897461,,,,,,,,,,,,,,,,,,,,,,,,,,,,,,,,,,,,,,,,,,,,,,,,,,,,,,,,,,,,,,,,,,,,,,
1720179673,42,0,4299.743652,4287.820313,4316.794922,4310.384766,4266.410156,4300.384766,4243.589844,4252.05127,4290.512695,4219.871582,4487.179688,4486.410156,4382.692383,4403.846191,,,,,,,,,,,,,,,,,,,,,,,,,,,,,,,,,,,,,,,,,,,,,,,,,,,,,,,,,,,,,,,,,,,,,,
1720179673,43,0,4271.794922,4269.230957,4288.205078,4292.563965,4269.358887,4307.436035,4263.077148,4272.94873,4283.461426,4209.871582,4471.794922,4461.666504,4346.410156,4367.307617,,,,,,,,,,,,,,,,,,,,,,,,,,,,,,,,,,,,,,,,,,,,,,,,,,,,,,,,,,,,,,,,,,,,,,
1720179673,44,0,4241.282227,4252.307617,4257.563965,4262.94873,4264.487305,4310.769043,4272.05127,4278.846191,4274.871582,4193.461426,4456.282227,4425.256348,4320.128418,4327.820313,,,,,,,,,,,,,,,,,,,,,,,,,,,,,,,,,,,,,,,,,,,,,,,,,,,,,,,,,,,,,,,,,,,,,,
1720179673,45,0,4229.743652,4233.717773,4244.487305,4253.717773,4261.410156,4307.307617,4269.487305,4278.461426,4271.538574,4185.769043,4455.384766,4414.743652,4320.641113,4319.615234,,,,,,,,,,,,,,,,,,,,,,,,,,,,,,,,,,,,,,,,,,,,,,,,,,,,,,,,,,,,,,,,,,,,,,
1720179673,46,0,4240.897461,4223.589844,4255.641113,4266.538574,4262.692383,4306.282227,4263.717773,4272.179688,4265.256348,4179.615234,4455.897461,4424.871582,4320,4330.512695,,,,,,,,,,,,,,,,,,,,,,,,,,,,,,,,,,,,,,,,,,,,,,,,,,,,,,,,,,,,,,,,,,,,,,
1720179673,47,0,4257.179688,4244.358887,4271.794922,4270.897461,4265.641113,4311.025879,4262.820313,4263.846191,4264.487305,4171.794922,4452.179688,4430.384766,4316.666504,4332.05127,,,,,,,,,,,,,,,,,,,,,,,,,,,,,,,,,,,,,,,,,,,,,,,,,,,,,,,,,,,,,,,,,,,,,,
1720179673,48,0,4267.820313,4268.077148,4281.538574,4273.077148,4271.282227,4312.307617,4263.589844,4266.410156,4270.256348,4179.358887,4449.871582,4433.717773,4320.128418,4336.282227,6.212132,17.842646,2.427777,3.433653,0.495456,5.25879,8.461905,1.86445,2.31202,1.227747,6.502964,19.221163,1.468549,2.957862,0.539255,6.403452,8.853024,1.385262,1.961045,0.426889,1.817013,0.646048,0.458737,0.291095,0.193522,2.149161,0.748733,0.316338,0.21112,0.12341,2.770643,1.924233,0.51729,0.609079,0.241144,3.139266,1.429405,0.64793,0.617543,0.202542,10.289648,5.790381,1.068476,1.167911,0.39789,44.55714,42.597244,4.828663,2.212063,1.260413,15.138093,6.221539,3.034746,1.744501,0.570425,14.609608,19.880709,3.255716,4.774218,0.796805,11.588819,12.657937,2.607157,3.304683,0.7008,12.283618,18.345642,2.952981,4.311968,0.758328
1720179673,49,0,4275.128418,4273.205078,4300.641113,4295.512695,4270.256348,4311.410156,4265.769043,4277.94873,4265,4190.256348,4452.05127,4446.538574,4330,4354.615234,,,,,,,,,,,,,,,,,,,,,,,,,,,,,,,,,,,,,,,,,,,,,,,,,,,,,,,,,,,,,,,,,,,,,,
1720179673,50,0,4284.358887,4279.102539,4324.102539,4312.436035,4260.641113,4312.05127,4268.974121,4282.692383,4277.692383,4202.307617,4469.871582,4468.077148,4348.077148,4370.128418,,,,,,,,,,,,,,,,,,,,,,,,,,,,,,,,,,,,,,,,,,,,,,,,,,,,,,,,,,,,,,,,,,,,,,
1720179673,51,0,4294.743652,4283.077148,4331.025879,4304.487305,4257.820313,4303.717773,4262.436035,4270.384766,4295.512695,4212.94873,4484.487305,4485,4362.05127,4379.102539,,,,,,,,,,,,,,,,,,,,,,,,,,,,,,,,,,,,,,,,,,,,,,,,,,,,,,,,,,,,,,,,,,,,,,
1720179673,52,0,4304.230957,4276.666504,4328.974121,4302.436035,4265,4293.717773,4262.307617,4266.153809,4291.282227,4211.922852,4485.512695,4495.256348,4369.487305,4395.256348,,,,,,,,,,,,,,,,,,,,,,,,,,,,,,,,,,,,,,,,,,,,,,,,,,,,,,,,,,,,,,,,,,,,,,
1720179673,53,0,4299.102539,4267.692383,4328.717773,4313.717773,4264.615234,4296.794922,4269.487305,4279.743652,4293.846191,4219.743652,4493.333496,4498.717773,4376.025879,4405.897461,,,,,,,,,,,,,,,,,,,,,,,,,,,,,,,,,,,,,,,,,,,,,,,,,,,,,,,,,,,,,,,,,,,,,,
1720179673,54,0,4283.205078,4264.358887,4317.179688,4307.307617,4262.563965,4302.820313,4269.102539,4283.205078,4296.922852,4232.692383,4492.179688,4490.256348,4367.820313,4394.358887,,,,,,,,,,,,,,,,,,,,,,,,,,,,,,,,,,,,,,,,,,,,,,,,,,,,,,,,,,,,,,,,,,,,,,
1720179673,55,0,4278.717773,4276.538574,4299.743652,4293.589844,4273.846191,4306.282227,4272.179688,4279.358887,4289.230957,4228.974121,4471.410156,4474.743652,4352.179688,4379.615234,,,,,,,,,,,,,,,,,,,,,,,,,,,,,,,,,,,,,,,,,,,,,,,,,,,,,,,,,,,,,,,,,,,,,,
1720179673,56,0,4273.461426,4282.94873,4287.05127,4286.025879,4278.333496,4309.743652,4277.307617,4280.641113,4282.436035,4215.641113,4455.641113,4458.589844,4340.897461,4366.538574,,,,,,,,,,,,,,,,,,,,,,,,,,,,,,,,,,,,,,,,,,,,,,,,,,,,,,,,,,,,,,,,,,,,,,
1720179673,57,0,4244.487305,4257.692383,4267.563965,4268.974121,4267.820313,4309.743652,4267.563965,4270.897461,4270.256348,4206.794922,4445.128418,4437.05127,4318.717773,4338.205078,,,,,,,,,,,,,,,,,,,,,,,,,,,,,,,,,,,,,,,,,,,,,,,,,,,,,,,,,,,,,,,,,,,,,,
1720179673,58,0,4225.384766,4241.282227,4252.692383,4265.384766,4263.717773,4307.436035,4256.025879,4260.256348,4256.153809,4202.692383,4431.922852,4418.846191,4296.794922,4318.974121,,,,,,,,,,,,,,,,,,,,,,,,,,,,,,,,,,,,,,,,,,,,,,,,,,,,,,,,,,,,,,,,,,,,,,
1720179673,59,0,4248.461426,4250,4267.94873,4284.230957,4274.743652,4312.05127,4264.743652,4271.282227,4264.230957,4206.794922,4429.487305,4423.589844,4300.897461,4334.615234,,,,,,,,,,,,,,,,,,,,,,,,,,,,,,,,,,,,,,,,,,,,,,,,,,,,,,,,,,,,,,,,,,,,,,
1720179673,60,0,4272.179688,4251.153809,4287.05127,4295.128418,4277.692383,4312.436035,4271.922852,4280.512695,4267.94873,4207.307617,4436.538574,4437.563965,4309.615234,4350.384766,,,,,,,,,,,,,,,,,,,,,,,,,,,,,,,,,,,,,,,,,,,,,,,,,,,,,,,,,,,,,,,,,,,,,,
1720179673,61,0,4274.487305,4255,4288.333496,4292.692383,4265.128418,4301.666504,4264.871582,4275.897461,4259.743652,4204.358887,4444.102539,4449.230957,4314.358887,4354.230957,,,,,,,,,,,,,,,,,,,,,,,,,,,,,,,,,,,,,,,,,,,,,,,,,,,,,,,,,,,,,,,,,,,,,,
1720179673,62,0,4285.384766,4279.230957,4297.692383,4293.846191,4260,4300.384766,4262.307617,4272.179688,4272.563965,4214.615234,4453.974121,4470.769043,4332.436035,4378.333496,,,,,,,,,,,,,,,,,,,,,,,,,,,,,,,,,,,,,,,,,,,,,,,,,,,,,,,,,,,,,,,,,,,,,,
1720179673,63,0,4307.179688,4296.025879,4318.717773,4303.589844,4263.846191,4303.205078,4259.743652,4265.769043,4280.769043,4213.846191,4450.769043,4484.102539,4346.410156,4406.538574,,,,,,,,,,,,,,,,,,,,,,,,,,,,,,,,,,,,,,,,,,,,,,,,,,,,,,,,,,,,,,,,,,,,,,
1720179673,64,0,4318.974121,4296.410156,4325.256348,4313.589844,4265.641113,4298.717773,4254.102539,4258.205078,4282.436035,4211.410156,4455.512695,4480,4357.820313,4415,6.711779,21.786417,2.69241,3.599118,0.489725,5.327809,10.28317,1.803739,2.074167,1.223679,6.839368,23.944527,1.604959,3.166524,0.545172,6.817495,10.932197,1.349151,1.890514,0.418094,1.780838,0.51897,0.473601,0.28494,0.211859,2.096245,0.763788,0.266715,0.217337,0.116366,3.076293,2.040659,0.37372,0.629029,0.255505,3.582962,1.665606,0.564202,0.643413,0.210327,10.570287,6.489049,0.980332,1.319124,0.440727,43.404118,40.177773,4.297937,2.489973,1.187008,18.051229,8.559917,3.460116,1.876676,0.544149,15.593278,25.631437,3.030781,5.239236,0.863373,12.939615,17.377163,2.841999,3.464034,0.713852,12.881495,24.117035,3.253919,4.782017,0.811944
1720179673,65,0,4313.717773,4293.846191,4311.666504,4317.05127,4272.05127,4297.692383,4257.820313,4263.717773,4290.512695,4227.05127,4474.743652,4480.384766,4366.922852,4415.128418,,,,,,,,,,,,,,,,,,,,,,,,,,,,,,,,,,,,,,,,,,,,,,,,,,,,,,,,,,,,,,,,,,,,,,
1720179673,66,0,4299.743652,4287.820313,4298.333496,4307.179688,4277.307617,4305,4264.871582,4276.153809,4291.410156,4233.333496,4452.692383,4482.436035,4352.179688,4404.102539,,,,,,,,,,,,,,,,,,,,,,,,,,,,,,,,,,,,,,,,,,,,,,,,,,,,,,,,,,,,,,,,,,,,,,
1720179673,67,0,4280,4269.487305,4288.846191,4297.05127,4267.436035,4306.410156,4263.974121,4278.974121,4289.871582,4232.05127,4398.461426,4466.794922,4338.589844,4382.563965,,,,,,,,,,,,,,,,,,,,,,,,,,,,,,,,,,,,,,,,,,,,,,,,,,,,,,,,,,,,,,,,,,,,,,
1720179673,68,0,4264.615234,4244.230957,4281.025879,4293.589844,4263.461426,4303.461426,4270.512695,4278.333496,4289.871582,4236.538574,4378.717773,4450.512695,4344.487305,4374.743652,,,,,,,,,,,,,,,,,,,,,,,,,,,,,,,,,,,,,,,,,,,,,,,,,,,,,,,,,,,,,,,,,,,,,,
1720179673,69,0,4259.230957,4251.025879,4270.769043,4283.077148,4276.794922,4308.974121,4278.974121,4281.794922,4286.282227,4235.897461,4385,4438.461426,4334.230957,4368.333496,,,,,,,,,,,,,,,,,,,,,,,,,,,,,,,,,,,,,,,,,,,,,,,,,,,,,,,,,,,,,,,,,,,,,,
1720179673,70,0,4258.589844,4280,4264.102539,4272.436035,4277.307617,4307.820313,4267.692383,4273.846191,4274.230957,4230.128418,4374.230957,4418.461426,4307.307617,4347.94873,,,,,,,,,,,,,,,,,,,,,,,,,,,,,,,,,,,,,,,,,,,,,,,,,,,,,,,,,,,,,,,,,,,,,,
1720179673,71,0,4263.589844,4270.128418,4270,4274.102539,4271.538574,4302.307617,4257.436035,4262.563965,4266.666504,4232.179688,4362.307617,4414.230957,4302.179688,4340.128418,,,,,,,,,,,,,,,,,,,,,,,,,,,,,,,,,,,,,,,,,,,,,,,,,,,,,,,,,,,,,,,,,,,,,,
1720179673,72,0,4264.358887,4251.666504,4267.820313,4277.563965,4278.205078,4306.794922,4263.077148,4264.615234,4273.974121,4236.538574,4363.589844,4427.692383,4309.615234,4352.307617,,,,,,,,,,,,,,,,,,,,,,,,,,,,,,,,,,,,,,,,,,,,,,,,,,,,,,,,,,,,,,,,,,,,,,
1720179673,73,0,4259.615234,4264.487305,4259.743652,4281.410156,4274.230957,4307.692383,4264.615234,4267.94873,4280.384766,4233.974121,4381.282227,4430,4313.589844,4363.717773,,,,,,,,,,,,,,,,,,,,,,,,,,,,,,,,,,,,,,,,,,,,,,,,,,,,,,,,,,,,,,,,,,,,,,
1720179673,74,0,4269.358887,4267.436035,4275.256348,4294.487305,4260.512695,4298.846191,4263.461426,4269.230957,4274.102539,4231.794922,4378.589844,4433.333496,4322.820313,4372.692383,,,,,,,,,,,,,,,,,,,,,,,,,,,,,,,,,,,,,,,,,,,,,,,,,,,,,,,,,,,,,,,,,,,,,,
1720179673,75,0,4287.307617,4268.077148,4296.025879,4300.769043,4258.717773,4294.615234,4267.692383,4278.717773,4277.820313,4243.846191,4304.743652,4455.256348,4334.487305,4388.461426,,,,,,,,,,,,,,,,,,,,,,,,,,,,,,,,,,,,,,,,,,,,,,,,,,,,,,,,,,,,,,,,,,,,,,
1720179673,76,0,4287.307617,4280.384766,4293.717773,4292.05127,4262.94873,4298.461426,4266.794922,4278.333496,4287.94873,4261.025879,4222.179688,4464.358887,4333.589844,4388.846191,,,,,,,,,,,,,,,,,,,,,,,,,,,,,,,,,,,,,,,,,,,,,,,,,,,,,,,,,,,,,,,,,,,,,,
1720179673,77,0,4280.641113,4279.615234,4291.538574,4293.461426,4262.820313,4299.743652,4261.794922,4265.641113,4273.974121,4254.230957,4208.589844,4457.563965,4326.025879,4372.563965,,,,,,,,,,,,,,,,,,,,,,,,,,,,,,,,,,,,,,,,,,,,,,,,,,,,,,,,,,,,,,,,,,,,,,
1720179673,78,0,4282.692383,4278.333496,4296.922852,4303.846191,4262.94873,4303.333496,4262.436035,4267.94873,4269.487305,4246.922852,4228.461426,4465,4332.94873,4374.487305,,,,,,,,,,,,,,,,,,,,,,,,,,,,,,,,,,,,,,,,,,,,,,,,,,,,,,,,,,,,,,,,,,,,,,
1720179673,79,0,4284.871582,4271.153809,4298.974121,4307.94873,4272.436035,4311.410156,4268.717773,4279.230957,4286.666504,4258.461426,4235.256348,4477.436035,4351.666504,4391.922852,,,,,,,,,,,,,,,,,,,,,,,,,,,,,,,,,,,,,,,,,,,,,,,,,,,,,,,,,,,,,,,,,,,,,,
1720179673,80,0,4279.871582,4252.05127,4290.128418,4299.358887,4276.282227,4310.384766,4270.128418,4280,4285.769043,4258.461426,4237.436035,4468.205078,4353.589844,4390.512695,6.525832,27.987963,2.794407,3.58744,0.466264,4.897482,13.392384,1.733351,1.940631,1.216225,6.641969,31.141489,1.807877,3.233959,0.529826,6.472624,14.308377,1.356044,1.772016,0.414816,1.607234,0.476076,0.492546,0.287909,0.224442,1.80725,0.747836,0.210724,0.217492,0.105638,2.962425,2.206127,0.283074,0.642645,0.275977,3.530427,2.019001,0.55102,0.671349,0.235123,9.659418,6.745467,0.82523,1.356653,0.472632,37.723598,32.845173,3.402527,2.617139,1.002421,18.65431,11.327234,3.634556,1.851042,0.502678,15.015183,33.602669,2.791454,5.29157,0.901103,12.762992,23.717632,2.962912,3.328518,0.694499,12.283834,32.265026,3.396408,4.841647,0.826568
1720179673,81,0,4260.384766,4252.94873,4262.692383,4282.05127,4260.384766,4300.256348,4265.769043,4276.410156,4275.384766,4247.307617,4232.563965,4442.820313,4331.153809,4366.025879,,,,,,,,,,,,,,,,,,,,,,,,,,,,,,,,,,,,,,,,,,,,,,,,,,,,,,,,,,,,,,,,,,,,,,
1720179673,82,0,4240.128418,4258.974121,4247.05127,4270.512695,4253.461426,4297.563965,4269.230957,4276.538574,4269.615234,4239.230957,4226.410156,4427.563965,4317.820313,4348.717773,,,,,,,,,,,,,,,,,,,,,,,,,,,,,,,,,,,,,,,,,,,,,,,,,,,,,,,,,,,,,,,,,,,,,,
1720179673,83,0,4248.077148,4250.512695,4259.358887,4274.743652,4271.025879,4310.128418,4279.487305,4281.025879,4271.025879,4234.871582,4236.666504,4428.461426,4325.512695,4355.128418,,,,,,,,,,,,,,,,,,,,,,,,,,,,,,,,,,,,,,,,,,,,,,,,,,,,,,,,,,,,,,,,,,,,,,
1720179673,84,0,4266.025879,4258.205078,4269.358887,4283.589844,4276.794922,4314.230957,4275.897461,4281.025879,4281.794922,4239.102539,4242.05127,4430.641113,4323.846191,4364.230957,,,,,,,,,,,,,,,,,,,,,,,,,,,,,,,,,,,,,,,,,,,,,,,,,,,,,,,,,,,,,,,,,,,,,,
1720179673,85,0,4257.94873,4271.025879,4262.436035,4281.282227,4262.05127,4301.282227,4258.333496,4266.282227,4281.282227,4247.692383,4234.743652,4424.102539,4308.589844,4352.692383,,,,,,,,,,,,,,,,,,,,,,,,,,,,,,,,,,,,,,,,,,,,,,,,,,,,,,,,,,,,,,,,,,,,,,
1720179673,86,0,4251.282227,4265.769043,4263.205078,4285.128418,4260.641113,4294.102539,4257.436035,4259.102539,4268.717773,4248.717773,4238.077148,4428.717773,4315.641113,4350.128418,,,,,,,,,,,,,,,,,,,,,,,,,,,,,,,,,,,,,,,,,,,,,,,,,,,,,,,,,,,,,,,,,,,,,,
1720179673,87,0,4268.461426,4262.820313,4276.794922,4294.743652,4266.794922,4299.230957,4272.05127,4275.641113,4282.820313,4257.563965,4264.871582,4453.846191,4351.282227,4375.384766,,,,,,,,,,,,,,,,,,,,,,,,,,,,,,,,,,,,,,,,,,,,,,,,,,,,,,,,,,,,,,,,,,,,,,
1720179673,88,0,4282.05127,4263.846191,4290.769043,4288.077148,4261.666504,4297.563965,4270.769043,4280,4305.384766,4270.897461,4283.589844,4470.128418,4371.794922,4391.410156,,,,,,,,,,,,,,,,,,,,,,,,,,,,,,,,,,,,,,,,,,,,,,,,,,,,,,,,,,,,,,,,,,,,,,
1720179673,89,0,4277.436035,4261.025879,4291.922852,4286.025879,4256.794922,4290.256348,4259.487305,4267.307617,4297.436035,4265,4282.05127,4464.358887,4365.641113,4389.358887,,,,,,,,,,,,,,,,,,,,,,,,,,,,,,,,,,,,,,,,,,,,,,,,,,,,,,,,,,,,,,,,,,,,,,
1720179673,90,0,4276.282227,4264.487305,4282.563965,4297.94873,4260.641113,4296.538574,4268.205078,4276.153809,4298.077148,4258.846191,4288.333496,4462.820313,4368.205078,4395.512695,,,,,,,,,,,,,,,,,,,,,,,,,,,,,,,,,,,,,,,,,,,,,,,,,,,,,,,,,,,,,,,,,,,,,,
1720179673,91,0,4288.077148,4266.410156,4291.666504,4298.974121,4265.384766,4305,4288.077148,4296.282227,4312.692383,4264.230957,4305.128418,4485.897461,4383.205078,4407.436035,,,,,,,,,,,,,,,,,,,,,,,,,,,,,,,,,,,,,,,,,,,,,,,,,,,,,,,,,,,,,,,,,,,,,,
1720179673,92,0,4297.179688,4266.538574,4312.436035,4293.717773,4262.820313,4299.871582,4283.974121,4292.820313,4308.205078,4265.256348,4314.871582,4509.358887,4382.563965,4411.922852,,,,,,,,,,,,,,,,,,,,,,,,,,,,,,,,,,,,,,,,,,,,,,,,,,,,,,,,,,,,,,,,,,,,,,
1720179673,93,0,4296.794922,4280,4311.025879,4296.666504,4262.179688,4294.358887,4263.974121,4273.589844,4295.897461,4257.692383,4308.846191,4498.846191,4367.179688,4409.102539,,,,,,,,,,,,,,,,,,,,,,,,,,,,,,,,,,,,,,,,,,,,,,,,,,,,,,,,,,,,,,,,,,,,,,
1720179673,94,0,4289.102539,4281.410156,4292.94873,4297.179688,4271.025879,4298.333496,4260,4264.102539,4289.230957,4254.615234,4293.846191,4466.410156,4351.666504,4395.512695,,,,,,,,,,,,,,,,,,,,,,,,,,,,,,,,,,,,,,,,,,,,,,,,,,,,,,,,,,,,,,,,,,,,,,
1720179673,95,0,4273.333496,4264.615234,4278.077148,4294.487305,4274.615234,4304.487305,4263.846191,4265,4283.846191,4263.461426,4282.436035,4440.641113,4327.94873,4367.05127,,,,,,,,,,,,,,,,,,,,,,,,,,,,,,,,,,,,,,,,,,,,,,,,,,,,,,,,,,,,,,,,,,,,,,
1720179673,96,0,4252.692383,4259.487305,4260,4288.974121,4267.692383,4303.846191,4253.717773,4257.820313,4271.922852,4269.615234,4269.230957,4416.282227,4296.794922,4332.05127,5.638692,35.102264,2.738301,3.481695,0.43657,4.035579,16.976479,1.644825,2.00366,1.209862,5.823616,39.195099,2.011132,3.207503,0.498084,5.406116,18.154968,1.394648,1.711096,0.424025,1.369375,0.516461,0.520369,0.304629,0.228938,1.379634,0.737244,0.166931,0.213806,0.095864,2.469735,2.397016,0.25779,0.649938,0.306341,3.009082,2.447429,0.590191,0.707706,0.283027,7.831301,6.71754,0.662013,1.279986,0.49136,29.446585,23.350727,2.459518,2.570531,0.77221,16.618658,14.045705,3.577862,1.696451,0.462849,12.833254,42.033794,2.494691,4.997875,0.913809,11.137193,30.760406,2.969304,3.009244,0.659563,10.538338,41.186749,3.327204,4.568487,0.813707
1720179673,97,0,4239.487305,4257.307617,4242.307617,4279.487305,4264.230957,4300,4242.94873,4245.512695,4266.922852,4268.461426,4260.384766,4395.256348,4285,4315.128418,,,,,,,,,,,,,,,,,,,,,,,,,,,,,,,,,,,,,,,,,,,,,,,,,,,,,,,,,,,,,,,,,,,,,,
1720179673,98,0,4251.025879,4249.615234,4250.641113,4276.794922,4261.025879,4296.410156,4246.025879,4245.769043,4278.461426,4273.205078,4276.153809,4406.794922,4307.692383,4335,,,,,,,,,,,,,,,,,,,,,,,,,,,,,,,,,,,,,,,,,,,,,,,,,,,,,,,,,,,,,,,,,,,,,,
1720179673,99,0,4272.563965,4265.384766,4273.846191,4278.846191,4252.307617,4293.974121,4246.794922,4251.025879,4292.94873,4283.461426,4306.153809,4438.846191,4341.153809,4368.589844,,,,,,,,,,,,,,,,,,,,,,,,,,,,,,,,,,,,,,,,,,,,,,,,,,,,,,,,,,,,,,,,,,,,,,
1720179673,100,0,4281.153809,4283.589844,4284.487305,4283.589844,4253.589844,4292.307617,4245.897461,4254.230957,4299.487305,4289.871582,4321.153809,4454.615234,4356.538574,4380,,,,,,,,,,,,,,,,,,,,,,,,,,,,,,,,,,,,,,,,,,,,,,,,,,,,,,,,,,,,,,,,,,,,,,
1720179673,101,0,4280.128418,4268.077148,4287.05127,4290.897461,4263.333496,4292.179688,4255.256348,4260.128418,4298.846191,4291.666504,4324.102539,4458.589844,4358.717773,4373.717773,,,,,,,,,,,,,,,,,,,,,,,,,,,,,,,,,,,,,,,,,,,,,,,,,,,,,,,,,,,,,,,,,,,,,,
1720179673,102,0,4279.615234,4258.077148,4287.94873,4294.487305,4264.358887,4293.846191,4263.205078,4266.282227,4297.94873,4284.871582,4329.102539,4467.563965,4363.077148,4377.94873,,,,,,,,,,,,,,,,,,,,,,,,,,,,,,,,,,,,,,,,,,,,,,,,,,,,,,,,,,,,,,,,,,,,,,
1720179673,103,0,4280.384766,4278.589844,4289.743652,4300.256348,4261.538574,4294.615234,4264.871582,4272.563965,4305,4285.256348,4336.282227,4474.871582,4369.230957,4384.743652,,,,,,,,,,,,,,,,,,,,,,,,,,,,,,,,,,,,,,,,,,,,,,,,,,,,,,,,,,,,,,,,,,,,,,
1720179673,104,0,4290.769043,4291.410156,4300.512695,4313.461426,4262.94873,4295.384766,4266.794922,4280.769043,4312.05127,4292.692383,4337.436035,4477.05127,4369.230957,4386.282227,,,,,,,,,,,,,,,,,,,,,,,,,,,,,,,,,,,,,,,,,,,,,,,,,,,,,,,,,,,,,,,,,,,,,,
1720179673,105,0,4305.512695,4283.589844,4310.256348,4313.717773,4265.897461,4296.666504,4266.282227,4276.153809,4300.512695,4270.769043,4335.256348,4478.461426,4366.410156,4394.871582,,,,,,,,,,,,,,,,,,,,,,,,,,,,,,,,,,,,,,,,,,,,,,,,,,,,,,,,,,,,,,,,,,,,,,
1720179673,106,0,4305.256348,4281.282227,4306.538574,4302.307617,4265.641113,4297.692383,4262.692383,4265,4306.538574,4304.615234,4342.307617,4475.641113,4364.615234,4398.205078,,,,,,,,,,,,,,,,,,,,,,,,,,,,,,,,,,,,,,,,,,,,,,,,,,,,,,,,,,,,,,,,,,,,,,
1720179673,107,0,4286.538574,4278.205078,4288.589844,4291.666504,4263.333496,4295.256348,4258.589844,4260.897461,4341.410156,4438.205078,4342.692383,4463.461426,4354.743652,4380.128418,,,,,,,,,,,,,,,,,,,,,,,,,,,,,,,,,,,,,,,,,,,,,,,,,,,,,,,,,,,,,,,,,,,,,,
1720179673,108,0,4271.410156,4248.846191,4279.358887,4284.230957,4264.487305,4297.436035,4260.641113,4261.538574,4350.897461,4511.538574,4330.641113,4452.563965,4341.538574,4365.256348,,,,,,,,,,,,,,,,,,,,,,,,,,,,,,,,,,,,,,,,,,,,,,,,,,,,,,,,,,,,,,,,,,,,,,
1720179673,109,0,4270.641113,4242.307617,4287.820313,4285,4266.922852,4308.205078,4269.358887,4272.436035,4342.563965,4480.641113,4335.256348,4449.615234,4341.282227,4365.384766,,,,,,,,,,,,,,,,,,,,,,,,,,,,,,,,,,,,,,,,,,,,,,,,,,,,,,,,,,,,,,,,,,,,,,
1720179673,110,0,4270.256348,4273.333496,4284.487305,4285.512695,4266.025879,4307.05127,4268.846191,4276.538574,4346.666504,4474.358887,4346.025879,4442.94873,4345,4360,,,,,,,,,,,,,,,,,,,,,,,,,,,,,,,,,,,,,,,,,,,,,,,,,,,,,,,,,,,,,,,,,,,,,,
1720179673,111,0,4264.487305,4273.205078,4264.358887,4279.743652,4263.333496,4299.615234,4263.589844,4268.077148,4350,4506.794922,4345.897461,4441.282227,4347.94873,4362.05127,,,,,,,,,,,,,,,,,,,,,,,,,,,,,,,,,,,,,,,,,,,,,,,,,,,,,,,,,,,,,,,,,,,,,,
1720179673,112,0,4257.179688,4249.102539,4257.436035,4277.692383,4256.153809,4297.436035,4266.794922,4267.05127,4352.05127,4512.820313,4355.769043,4453.717773,4360.128418,4377.179688,4.335506,41.752018,2.621033,3.358426,0.416164,2.959452,20.173061,1.524796,2.279117,1.199995,4.578592,46.549206,2.177081,3.145882,0.463794,3.922853,21.646196,1.441577,1.762779,0.444449,1.076715,0.616459,0.551126,0.334658,0.226689,0.943631,0.764222,0.143344,0.208926,0.091382,1.792212,2.587395,0.28546,0.654716,0.347132,2.231496,2.885632,0.6429,0.762881,0.353544,5.677343,6.648117,0.542677,1.119869,0.499738,21.010773,14.854883,1.711832,2.359657,0.566197,13.336018,16.334692,3.550898,1.508722,0.455106,9.770028,49.589798,2.184891,4.512845,0.912093,8.73528,37.487022,2.874363,2.648451,0.632268,8.227283,49.488827,3.115617,4.122806,0.794394
1720179673,113,0,4247.307617,4245.128418,4262.94873,4270.769043,4247.820313,4288.333496,4257.820313,4262.820313,4350.769043,4505.641113,4356.666504,4448.846191,4351.282227,4368.333496,,,,,,,,,,,,,,,,,,,,,,,,,,,,,,,,,,,,,,,,,,,,,,,,,,,,,,,,,,,,,,,,,,,,,,
1720179673,114,0,4248.461426,4249.487305,4263.846191,4263.589844,4246.666504,4279.230957,4242.436035,4250.384766,4329.615234,4490,4335.512695,4425.128418,4321.153809,4343.461426,,,,,,,,,,,,,,,,,,,,,,,,,,,,,,,,,,,,,,,,,,,,,,,,,,,,,,,,,,,,,,,,,,,,,,
1720179673,115,0,4271.410156,4261.794922,4282.820313,4290.897461,4251.282227,4287.179688,4259.615234,4264.230957,4327.563965,4484.102539,4352.05127,4438.717773,4335.384766,4356.153809,,,,,,,,,,,,,,,,,,,,,,,,,,,,,,,,,,,,,,,,,,,,,,,,,,,,,,,,,,,,,,,,,,,,,,
1720179673,116,0,4294.871582,4282.179688,4308.589844,4323.077148,4260.512695,4299.615234,4285.512695,4293.077148,4360.897461,4508.205078,4393.589844,4485.897461,4382.436035,4396.153809,,,,,,,,,,,,,,,,,,,,,,,,,,,,,,,,,,,,,,,,,,,,,,,,,,,,,,,,,,,,,,,,,,,,,,
1720179673,117,0,4296.153809,4287.563965,4303.461426,4304.871582,4266.410156,4302.820313,4277.179688,4288.589844,4365.769043,4512.05127,4387.307617,4500.384766,4388.077148,4407.436035,,,,,,,,,,,,,,,,,,,,,,,,,,,,,,,,,,,,,,,,,,,,,,,,,,,,,,,,,,,,,,,,,,,,,,
1720179673,118,0,4285.769043,4270.128418,4291.282227,4277.436035,4260.384766,4304.358887,4258.846191,4266.922852,4346.025879,4495.512695,4360,4480.256348,4355.897461,4386.794922,,,,,,,,,,,,,,,,,,,,,,,,,,,,,,,,,,,,,,,,,,,,,,,,,,,,,,,,,,,,,,,,,,,,,,
1720179673,119,0,4278.077148,4251.282227,4296.538574,4279.615234,4255.512695,4301.794922,4256.794922,4261.282227,4339.743652,4491.025879,4360.128418,4466.794922,4338.205078,4369.230957,,,,,,,,,,,,,,,,,,,,,,,,,,,,,,,,,,,,,,,,,,,,,,,,,,,,,,,,,,,,,,,,,,,,,,
1720179673,120,0,4276.153809,4247.692383,4296.282227,4282.05127,4252.820313,4295.384766,4260.897461,4264.487305,4344.615234,4495,4369.102539,4459.358887,4342.05127,4366.153809,,,,,,,,,,,,,,,,,,,,,,,,,,,,,,,,,,,,,,,,,,,,,,,,,,,,,,,,,,,,,,,,,,,,,,
1720179673,121,0,4268.461426,4254.615234,4279.871582,4276.025879,4251.666504,4295.384766,4262.179688,4267.05127,4345.384766,4494.871582,4366.025879,4448.077148,4339.230957,4364.102539,,,,,,,,,,,,,,,,,,,,,,,,,,,,,,,,,,,,,,,,,,,,,,,,,,,,,,,,,,,,,,,,,,,,,,
1720179673,122,0,4257.94873,4256.282227,4275,4279.102539,4254.743652,4297.94873,4262.563965,4269.230957,4341.282227,4490,4367.05127,4447.436035,4327.436035,4362.05127,,,,,,,,,,,,,,,,,,,,,,,,,,,,,,,,,,,,,,,,,,,,,,,,,,,,,,,,,,,,,,,,,,,,,,
1720179673,123,0,4275,4267.05127,4295,4287.820313,4256.025879,4298.589844,4264.487305,4277.05127,4351.794922,4492.692383,4395.128418,4467.436035,4338.205078,4371.153809,,,,,,,,,,,,,,,,,,,,,,,,,,,,,,,,,,,,,,,,,,,,,,,,,,,,,,,,,,,,,,,,,,,,,,
1720179673,124,0,4305.128418,4293.846191,4313.461426,4295.256348,4255.256348,4297.05127,4265.256348,4279.743652,4365.512695,4495.641113,4429.743652,4487.820313,4372.820313,4388.461426,,,,,,,,,,,,,,,,,,,,,,,,,,,,,,,,,,,,,,,,,,,,,,,,,,,,,,,,,,,,,,,,,,,,,,
1720179673,125,0,4309.230957,4296.025879,4313.589844,4306.922852,4254.487305,4295.897461,4263.205078,4271.025879,4363.846191,4492.692383,4436.794922,4494.102539,4385,4404.743652,,,,,,,,,,,,,,,,,,,,,,,,,,,,,,,,,,,,,,,,,,,,,,,,,,,,,,,,,,,,,,,,,,,,,,
1720179673,126,0,4294.358887,4276.538574,4310.256348,4312.820313,4250.384766,4295.897461,4256.922852,4264.487305,4358.974121,4493.077148,4431.153809,4490.128418,4375.128418,4412.94873,,,,,,,,,,,,,,,,,,,,,,,,,,,,,,,,,,,,,,,,,,,,,,,,,,,,,,,,,,,,,,,,,,,,,,
1720179673,127,0,4291.282227,4264.487305,4315,4305,4247.563965,4291.666504,4248.974121,4262.05127,4359.615234,4491.282227,4438.333496,4482.179688,4376.538574,4401.153809,,,,,,,,,,,,,,,,,,,,,,,,,,,,,,,,,,,,,,,,,,,,,,,,,,,,,,,,,,,,,,,,,,,,,,
1720179673,0,0,4291.666504,4261.794922,4312.94873,4289.230957,4251.410156,4285.256348,4247.820313,4262.179688,4358.846191,4478.974121,4444.487305,4476.282227,4376.922852,4382.692383,3.058379,46.565395,2.536676,3.254418,0.418194,1.926006,22.236023,1.369449,2.686613,1.17681,3.323262,51.765659,2.320156,3.084801,0.44401,2.464539,24.057674,1.476177,1.894711,0.467043,0.79532,0.738776,0.56854,0.372044,0.222423,0.598876,0.838875,0.13565,0.204921,0.094655,1.175202,2.732802,0.338715,0.658871,0.395345,1.490878,3.243971,0.676488,0.838822,0.437838,3.804114,6.694888,0.490559,0.924864,0.503341,14.060351,9.497375,1.291539,2.05054,0.429026,11.096685,17.766882,3.989563,1.415387,0.510175,6.949997,55.161446,1.998304,4.005706,0.904961,6.469261,42.781925,2.728198,2.35091,0.630908,6.268109,55.781353,2.931228,3.67103,0.787
1720179673,1,0,4284.358887,4266.538574,4304.871582,4281.922852,4251.922852,4286.538574,4258.589844,4271.410156,4360.769043,4472.94873,4445.512695,4482.179688,4371.282227,4391.794922,,,,,,,,,,,,,,,,,,,,,,,,,,,,,,,,,,,,,,,,,,,,,,,,,,,,,,,,,,,,,,,,,,,,,,
1720179673,2,0,4288.589844,4273.717773,4314.615234,4291.794922,4248.846191,4295.128418,4271.410156,4280,4366.922852,4483.717773,4454.230957,4498.205078,4374.743652,4414.358887,,,,,,,,,,,,,,,,,,,,,,,,,,,,,,,,,,,,,,,,,,,,,,,,,,,,,,,,,,,,,,,,,,,,,,
1720179673,3,0,4292.436035,4274.487305,4322.436035,4299.487305,4248.846191,4298.717773,4271.282227,4280.128418,4366.794922,4488.589844,4458.589844,4500.641113,4374.743652,4412.563965,,,,,,,,,,,,,,,,,,,,,,,,,,,,,,,,,,,,,,,,,,,,,,,,,,,,,,,,,,,,,,,,,,,,,,
1720179673,4,0,4284.615234,4271.025879,4304.743652,4296.410156,4254.230957,4295.512695,4264.743652,4277.179688,4365.384766,4482.179688,4445.256348,4482.436035,4360.384766,4393.333496,,,,,,,,,,,,,,,,,,,,,,,,,,,,,,,,,,,,,,,,,,,,,,,,,,,,,,,,,,,,,,,,,,,,,,
1720179673,5,0,4273.461426,4265.256348,4288.974121,4290.384766,4265.641113,4295.897461,4261.794922,4269.358887,4355.256348,4474.743652,4426.922852,4456.794922,4343.846191,4374.743652,,,,,,,,,,,,,,,,,,,,,,,,,,,,,,,,,,,,,,,,,,,,,,,,,,,,,,,,,,,,,,,,,,,,,,
1720179673,6,0,4264.871582,4267.563965,4291.282227,4291.538574,4268.461426,4301.794922,4263.846191,4265.256348,4348.846191,4473.589844,4425.512695,4439.871582,4337.179688,4359.487305,,,,,,,,,,,,,,,,,,,,,,,,,,,,,,,,,,,,,,,,,,,,,,,,,,,,,,,,,,,,,,,,,,,,,,
1720179673,7,0,4271.282227,4286.666504,4294.358887,4310,4264.358887,4303.717773,4266.025879,4271.922852,4355.128418,4478.205078,4433.333496,4444.743652,4338.717773,4361.922852,,,,,,,,,,,,,,,,,,,,,,,,,,,,,,,,,,,,,,,,,,,,,,,,,,,,,,,,,,,,,,,,,,,,,,
1720179674,8,0,4288.846191,4292.05127,4293.846191,4323.589844,4267.436035,4297.820313,4265,4274.743652,4347.563965,4467.563965,4430,4456.794922,4340.384766,4376.666504,,,,,,,,,,,,,,,,,,,,,,,,,,,,,,,,,,,,,,,,,,,,,,,,,,,,,,,,,,,,,,,,,,,,,,
1720179674,9,0,4299.871582,4282.05127,4303.077148,4311.410156,4270.128418,4295.384766,4264.871582,4275,4345.512695,4461.025879,4434.358887,4462.436035,4344.615234,4385.384766,,,,,,,,,,,,,,,,,,,,,,,,,,,,,,,,,,,,,,,,,,,,,,,,,,,,,,,,,,,,,,,,,,,,,,
1720179674,10,0,4298.205078,4279.230957,4310.512695,4302.820313,4259.230957,4296.666504,4264.102539,4272.179688,4356.666504,4466.410156,4451.922852,4465.128418,4356.410156,4393.461426,,,,,,,,,,,,,,,,,,,,,,,,,,,,,,,,,,,,,,,,,,,,,,,,,,,,,,,,,,,,,,,,,,,,,,
1720179674,11,0,4298.974121,4279.102539,4312.820313,4315,4253.333496,4295,4262.563965,4266.410156,4350.384766,4458.205078,4454.871582,4474.487305,4361.410156,4404.230957,,,,,,,,,,,,,,,,,,,,,,,,,,,,,,,,,,,,,,,,,,,,,,,,,,,,,,,,,,,,,,,,,,,,,,
1720179674,12,0,4301.538574,4285.769043,4318.589844,4313.974121,4261.794922,4297.05127,4263.205078,4270.384766,4342.307617,4451.153809,4446.666504,4479.743652,4352.94873,4406.282227,,,,,,,,,,,,,,,,,,,,,,,,,,,,,,,,,,,,,,,,,,,,,,,,,,,,,,,,,,,,,,,,,,,,,,
1720179674,13,0,4297.692383,4290.128418,4313.974121,4305,4262.179688,4294.487305,4262.94873,4274.102539,4348.461426,4456.410156,4444.487305,4467.179688,4342.94873,4398.589844,,,,,,,,,,,,,,,,,,,,,,,,,,,,,,,,,,,,,,,,,,,,,,,,,,,,,,,,,,,,,,,,,,,,,,
1720179674,14,0,4285.769043,4273.846191,4289.230957,4303.333496,4250.641113,4284.487305,4256.666504,4262.94873,4337.436035,4445.641113,4434.102539,4447.05127,4330.769043,4384.102539,,,,,,,,,,,,,,,,,,,,,,,,,,,,,,,,,,,,,,,,,,,,,,,,,,,,,,,,,,,,,,,,,,,,,,
1720179674,15,0,4276.538574,4263.333496,4278.205078,4296.666504,4250.512695,4286.410156,4256.153809,4258.077148,4319.487305,4431.153809,4426.282227,4443.589844,4319.871582,4376.666504,,,,,,,,,,,,,,,,,,,,,,,,,,,,,,,,,,,,,,,,,,,,,,,,,,,,,,,,,,,,,,,,,,,,,,
1720179674,16,0,4279.871582,4279.871582,4292.307617,4295.128418,4259.615234,4296.025879,4259.871582,4265.512695,4326.538574,4437.05127,4430.384766,4454.358887,4315.128418,4385.769043,2.127882,48.484283,2.498775,3.160538,0.444516,1.135234,22.640871,1.209861,3.081391,1.130237,2.351616,53.771469,2.404049,3.019221,0.44854,1.343414,24.839249,1.470756,2.017565,0.481657,0.539695,0.838257,0.549818,0.407598,0.220765,0.376227,0.941121,0.13502,0.204097,0.104995,0.793964,2.776283,0.389716,0.660741,0.444071,0.992494,3.441155,0.675633,0.924783,0.51917,2.578971,6.80551,0.520794,0.742229,0.509618,9.77757,7.482446,1.291997,1.763768,0.395164,11.590183,18.091593,5.205803,1.503966,0.638248,5.030492,57.993767,1.9871,3.594253,0.894048,4.937819,45.75106,2.591965,2.159717,0.660321,5.056462,58.963154,2.880766,3.324365,0.797497
1720179674,17,0,4275.897461,4281.025879,4286.538574,4291.922852,4260.512695,4295.512695,4252.307617,4261.922852,4326.922852,4433.333496,4423.589844,4442.436035,4306.410156,4381.666504,,,,,,,,,,,,,,,,,,,,,,,,,,,,,,,,,,,,,,,,,,,,,,,,,,,,,,,,,,,,,,,,,,,,,,
1720179674,18,0,4271.025879,4264.230957,4271.666504,4280.384766,4260.769043,4293.205078,4252.436035,4261.153809,4319.487305,4426.025879,4426.153809,4432.94873,4304.871582,4375.897461,,,,,,,,,,,,,,,,,,,,,,,,,,,,,,,,,,,,,,,,,,,,,,,,,,,,,,,,,,,,,,,,,,,,,,
1720179674,19,0,4276.410156,4260.641113,4284.102539,4287.563965,4262.692383,4296.922852,4266.794922,4273.974121,4327.436035,4432.692383,4445.769043,4457.692383,4319.871582,4399.102539,,,,,,,,,,,,,,,,,,,,,,,,,,,,,,,,,,,,,,,,,,,,,,,,,,,,,,,,,,,,,,,,,,,,,,
1720179674,20,0,4274.871582,4268.974121,4290.256348,4298.846191,4262.179688,4297.307617,4272.436035,4281.794922,4333.974121,4431.538574,4448.077148,4474.102539,4327.94873,4417.94873,,,,,,,,,,,,,,,,,,,,,,,,,,,,,,,,,,,,,,,,,,,,,,,,,,,,,,,,,,,,,,,,,,,,,,
1720179674,21,0,4268.974121,4263.077148,4277.692383,4288.589844,4258.717773,4295,4265.512695,4278.589844,4333.205078,4429.102539,4443.717773,4462.820313,4324.230957,4409.358887,,,,,,,,,,,,,,,,,,,,,,,,,,,,,,,,,,,,,,,,,,,,,,,,,,,,,,,,,,,,,,,,,,,,,,
1720179674,22,0,4282.94873,4246.922852,4289.615234,4295.641113,4253.846191,4295.512695,4262.692383,4275.256348,4337.05127,4436.410156,4456.666504,4462.436035,4332.179688,4412.563965,,,,,,,,,,,,,,,,,,,,,,,,,,,,,,,,,,,,,,,,,,,,,,,,,,,,,,,,,,,,,,,,,,,,,,
1720179674,23,0,4306.410156,4265.256348,4313.717773,4320.128418,4250.128418,4296.153809,4269.102539,4279.487305,4348.077148,4443.205078,4472.05127,4487.820313,4348.717773,4438.717773,,,,,,,,,,,,,,,,,,,,,,,,,,,,,,,,,,,,,,,,,,,,,,,,,,,,,,,,,,,,,,,,,,,,,,
1720179674,24,0,4310,4304.102539,4312.94873,4313.974121,4245.897461,4292.692383,4269.487305,4279.230957,4353.974121,4444.871582,4477.307617,4505,4351.538574,4453.589844,,,,,,,,,,,,,,,,,,,,,,,,,,,,,,,,,,,,,,,,,,,,,,,,,,,,,,,,,,,,,,,,,,,,,,
1720179674,25,0,4314.871582,4316.410156,4317.307617,4302.179688,4248.589844,4290.384766,4265.769043,4277.05127,4353.461426,4442.436035,4483.846191,4510.769043,4355.128418,4457.436035,,,,,,,,,,,,,,,,,,,,,,,,,,,,,,,,,,,,,,,,,,,,,,,,,,,,,,,,,,,,,,,,,,,,,,
1720179674,26,0,4329.358887,4302.436035,4331.794922,4318.461426,4259.358887,4294.358887,4272.94873,4282.820313,4351.922852,4431.410156,4487.436035,4510.512695,4357.436035,4457.563965,,,,,,,,,,,,,,,,,,,,,,,,,,,,,,,,,,,,,,,,,,,,,,,,,,,,,,,,,,,,,,,,,,,,,,
1720179674,27,0,4321.282227,4278.974121,4321.922852,4325,4265.512695,4295.384766,4281.153809,4286.282227,4345,4415.641113,4479.743652,4496.538574,4337.94873,4449.358887,,,,,,,,,,,,,,,,,,,,,,,,,,,,,,,,,,,,,,,,,,,,,,,,,,,,,,,,,,,,,,,,,,,,,,
1720179674,28,0,4301.666504,4275.897461,4307.692383,4314.743652,4268.077148,4298.589844,4272.05127,4281.922852,4338.974121,4409.358887,4469.487305,4483.205078,4320.641113,4440.256348,,,,,,,,,,,,,,,,,,,,,,,,,,,,,,,,,,,,,,,,,,,,,,,,,,,,,,,,,,,,,,,,,,,,,,
1720179674,29,0,4304.102539,4293.205078,4307.94873,4311.666504,4272.307617,4306.153809,4261.410156,4271.410156,4337.563965,4412.820313,4465.384766,4475.769043,4319.743652,4433.077148,,,,,,,,,,,,,,,,,,,,,,,,,,,,,,,,,,,,,,,,,,,,,,,,,,,,,,,,,,,,,,,,,,,,,,
1720179674,30,0,4301.666504,4288.461426,4297.94873,4302.692383,4269.230957,4302.692383,4261.282227,4266.025879,4328.717773,4408.589844,4457.94873,4466.153809,4310.641113,4424.358887,,,,,,,,,,,,,,,,,,,,,,,,,,,,,,,,,,,,,,,,,,,,,,,,,,,,,,,,,,,,,,,,,,,,,,
1720179674,31,0,4282.307617,4269.102539,4285.128418,4290.512695,4260.256348,4293.333496,4263.717773,4272.563965,4318.846191,4394.615234,4452.307617,4458.333496,4301.282227,4423.205078,,,,,,,,,,,,,,,,,,,,,,,,,,,,,,,,,,,,,,,,,,,,,,,,,,,,,,,,,,,,,,,,,,,,,,
1720179674,32,0,4283.077148,4265.128418,4288.077148,4293.077148,4255.384766,4294.230957,4269.743652,4281.153809,4330,4397.692383,4465.769043,4459.102539,4308.717773,4430,1.709455,47.059727,2.443291,3.040446,0.485392,0.687024,21.247173,1.112673,3.328381,1.056501,1.839999,52.130966,2.361849,2.913177,0.475608,0.707538,23.798803,1.425742,2.043864,0.484916,0.339637,0.89191,0.489618,0.43502,0.222965,0.257743,1.035064,0.135125,0.210335,0.118905,0.701027,2.682755,0.42994,0.662049,0.484425,0.815845,3.440778,0.656756,1.009338,0.577655,2.138152,6.774046,0.640672,0.605336,0.523358,9.087242,7.753013,1.815434,1.632604,0.484615,15.163763,17.321547,7.087039,1.773268,0.820459,4.243535,57.795986,2.094067,3.32526,0.874681,4.315417,45.936024,2.500318,2.067112,0.713902,4.703856,58.473804,2.936428,3.116126,0.820555
1720179674,33,0,4293.717773,4263.846191,4288.333496,4300.128418,4253.461426,4295,4271.922852,4278.974121,4336.794922,4402.820313,4471.282227,4457.692383,4310,4420.128418,,,,,,,,,,,,,,,,,,,,,,,,,,,,,,,,,,,,,,,,,,,,,,,,,,,,,,,,,,,,,,,,,,,,,,
1720179674,34,0,4290.769043,4273.333496,4284.743652,4303.077148,4253.974121,4292.179688,4270.128418,4277.436035,4326.538574,4394.358887,4462.692383,4457.692383,4305.512695,4408.846191,,,,,,,,,,,,,,,,,,,,,,,,,,,,,,,,,,,,,,,,,,,,,,,,,,,,,,,,,,,,,,,,,,,,,,
1720179674,35,0,4296.410156,4283.333496,4297.94873,4315,4255,4294.102539,4274.871582,4283.717773,4333.205078,4400.384766,4473.589844,4474.230957,4318.589844,4424.230957,,,,,,,,,,,,,,,,,,,,,,,,,,,,,,,,,,,,,,,,,,,,,,,,,,,,,,,,,,,,,,,,,,,,,,
1720179674,36,0,4312.820313,4272.820313,4311.794922,4317.436035,4255.128418,4295.384766,4276.025879,4281.282227,4342.692383,4408.077148,4489.102539,4486.794922,4330.641113,4443.846191,,,,,,,,,,,,,,,,,,,,,,,,,,,,,,,,,,,,,,,,,,,,,,,,,,,,,,,,,,,,,,,,,,,,,,
1720179674,37,0,4321.794922,4289.615234,4312.563965,4312.436035,4261.666504,4299.358887,4276.153809,4283.077148,4346.025879,4406.922852,4494.358887,4493.205078,4337.94873,4452.692383,,,,,,,,,,,,,,,,,,,,,,,,,,,,,,,,,,,,,,,,,,,,,,,,,,,,,,,,,,,,,,,,,,,,,,
1720179674,38,0,4324.102539,4321.282227,4313.846191,4321.922852,4267.94873,4303.846191,4283.717773,4296.922852,4355.512695,4412.307617,4505.128418,4503.205078,4352.436035,4461.025879,,,,,,,,,,,,,,,,,,,,,,,,,,,,,,,,,,,,,,,,,,,,,,,,,,,,,,,,,,,,,,,,,,,,,,
1720179674,39,0,4319.871582,4312.05127,4311.794922,4320.256348,4265.256348,4298.205078,4285.769043,4298.461426,4356.538574,4414.743652,4507.563965,4502.05127,4354.487305,4461.282227,,,,,,,,,,,,,,,,,,,,,,,,,,,,,,,,,,,,,,,,,,,,,,,,,,,,,,,,,,,,,,,,,,,,,,
1720179674,40,0,4308.589844,4297.05127,4301.922852,4312.563965,4259.615234,4294.230957,4280.256348,4292.179688,4351.666504,4414.102539,4499.487305,4491.153809,4341.666504,4453.461426,,,,,,,,,,,,,,,,,,,,,,,,,,,,,,,,,,,,,,,,,,,,,,,,,,,,,,,,,,,,,,,,,,,,,,
1720179674,41,0,4307.820313,4291.794922,4300.897461,4320.512695,4260,4302.05127,4279.615234,4293.461426,4354.615234,4421.410156,4501.666504,4488.333496,4336.025879,4459.102539,,,,,,,,,,,,,,,,,,,,,,,,,,,,,,,,,,,,,,,,,,,,,,,,,,,,,,,,,,,,,,,,,,,,,,
1720179674,42,0,4313.333496,4277.179688,4311.538574,4321.410156,4266.794922,4307.436035,4281.153809,4290.769043,4350,4418.077148,4500.384766,4485,4334.487305,4459.102539,,,,,,,,,,,,,,,,,,,,,,,,,,,,,,,,,,,,,,,,,,,,,,,,,,,,,,,,,,,,,,,,,,,,,,
1720179674,43,0,4311.666504,4274.743652,4312.05127,4309.871582,4273.461426,4302.05127,4276.794922,4277.820313,4336.666504,4401.666504,4490.384766,4476.153809,4326.410156,4445.769043,,,,,,,,,,,,,,,,,,,,,,,,,,,,,,,,,,,,,,,,,,,,,,,,,,,,,,,,,,,,,,,,,,,,,,
1720179674,44,0,4307.179688,4289.871582,4298.717773,4303.205078,4273.333496,4297.307617,4275.256348,4277.820313,4335.512695,4401.153809,4489.358887,4479.871582,4317.05127,4452.179688,,,,,,,,,,,,,,,,,,,,,,,,,,,,,,,,,,,,,,,,,,,,,,,,,,,,,,,,,,,,,,,,,,,,,,
1720179674,45,0,4304.358887,4290.256348,4293.717773,4298.717773,4268.974121,4296.666504,4277.820313,4289.358887,4334.102539,4395.641113,4490,4490.384766,4313.077148,4463.589844,,,,,,,,,,,,,,,,,,,,,,,,,,,,,,,,,,,,,,,,,,,,,,,,,,,,,,,,,,,,,,,,,,,,,,
1720179674,46,0,4308.077148,4286.153809,4309.743652,4303.077148,4263.589844,4296.282227,4279.615234,4295.128418,4330.384766,4380.512695,4495.384766,4493.974121,4318.077148,4458.461426,,,,,,,,,,,,,,,,,,,,,,,,,,,,,,,,,,,,,,,,,,,,,,,,,,,,,,,,,,,,,,,,,,,,,,
1720179674,47,0,4327.179688,4298.846191,4332.820313,4328.077148,4263.077148,4295.897461,4283.461426,4295.512695,4332.436035,4380.769043,4510.897461,4504.615234,4331.025879,4465.256348,,,,,,,,,,,,,,,,,,,,,,,,,,,,,,,,,,,,,,,,,,,,,,,,,,,,,,,,,,,,,,,,,,,,,,
1720179674,48,0,4334.743652,4305.512695,4333.846191,4334.743652,4263.974121,4296.025879,4284.487305,4295.769043,4326.153809,4380.641113,4510.128418,4510.384766,4329.358887,4477.692383,1.782528,42.523808,2.297576,2.859626,0.524888,0.572647,18.329815,1.122653,3.36206,0.965433,1.809543,47.12553,2.158107,2.72676,0.515202,0.511763,21.144461,1.366084,1.93389,0.482478,0.212747,0.903681,0.40691,0.450432,0.226378,0.192611,1.090033,0.136095,0.227505,0.132031,0.812393,2.45953,0.461839,0.666973,0.50754,0.875219,3.262006,0.645346,1.083271,0.597246,2.335284,6.403801,0.838637,0.525284,0.544003,12.010179,9.007026,2.907949,1.728573,0.692465,20.676834,15.691277,9.047783,2.135787,1.011278,4.382052,54.676258,2.222168,3.185539,0.843255,4.418902,43.421806,2.447366,2.032288,0.775683,4.960577,54.382473,2.986723,3.014186,0.843201
1720179674,49,0,4317.563965,4297.436035,4316.282227,4316.538574,4261.410156,4295.512695,4280.256348,4295.641113,4321.794922,4369.230957,4502.94873,4497.563965,4319.743652,4465.897461,,,,,,,,,,,,,,,,,,,,,,,,,,,,,,,,,,,,,,,,,,,,,,,,,,,,,,,,,,,,,,,,,,,,,,
1720179674,50,0,4309.615234,4289.230957,4312.307617,4314.102539,4260,4294.230957,4281.282227,4295.128418,4321.282227,4355.769043,4505.512695,4487.563965,4320.512695,4454.230957,,,,,,,,,,,,,,,,,,,,,,,,,,,,,,,,,,,,,,,,,,,,,,,,,,,,,,,,,,,,,,,,,,,,,,
1720179674,51,0,4324.615234,4298.077148,4323.461426,4322.436035,4258.205078,4296.922852,4291.282227,4296.794922,4320.256348,4350.384766,4506.153809,4489.871582,4323.077148,4462.563965,,,,,,,,,,,,,,,,,,,,,,,,,,,,,,,,,,,,,,,,,,,,,,,,,,,,,,,,,,,,,,,,,,,,,,
1720179674,52,0,4328.333496,4301.153809,4327.563965,4320.256348,4256.538574,4301.025879,4296.025879,4298.461426,4321.153809,4352.436035,4507.05127,4492.179688,4325,4466.153809,,,,,,,,,,,,,,,,,,,,,,,,,,,,,,,,,,,,,,,,,,,,,,,,,,,,,,,,,,,,,,,,,,,,,,
1720179674,53,0,4317.94873,4295.512695,4325.769043,4316.794922,4262.563965,4303.461426,4297.307617,4299.102539,4320.384766,4352.436035,4508.205078,4496.025879,4320.128418,4462.563965,,,,,,,,,,,,,,,,,,,,,,,,,,,,,,,,,,,,,,,,,,,,,,,,,,,,,,,,,,,,,,,,,,,,,,
1720179674,54,0,4311.025879,4305.128418,4321.666504,4325.256348,4267.692383,4305.256348,4295.769043,4298.974121,4320,4348.461426,4504.615234,4492.563965,4311.153809,4460.256348,,,,,,,,,,,,,,,,,,,,,,,,,,,,,,,,,,,,,,,,,,,,,,,,,,,,,,,,,,,,,,,,,,,,,,
1720179674,55,0,4311.922852,4302.692383,4315,4330,4265.256348,4306.666504,4284.230957,4295.384766,4322.436035,4351.794922,4506.410156,4482.563965,4316.922852,4454.615234,,,,,,,,,,,,,,,,,,,,,,,,,,,,,,,,,,,,,,,,,,,,,,,,,,,,,,,,,,,,,,,,,,,,,,
1720179674,56,0,4325,4290,4318.974121,4322.820313,4266.794922,4304.743652,4278.333496,4292.179688,4327.94873,4364.487305,4514.743652,4488.846191,4332.692383,4462.94873,,,,,,,,,,,,,,,,,,,,,,,,,,,,,,,,,,,,,,,,,,,,,,,,,,,,,,,,,,,,,,,,,,,,,,
1720179674,57,0,4337.436035,4304.358887,4329.487305,4321.666504,4267.94873,4299.358887,4280.769043,4289.487305,4333.717773,4369.102539,4524.358887,4508.461426,4341.025879,4489.615234,,,,,,,,,,,,,,,,,,,,,,,,,,,,,,,,,,,,,,,,,,,,,,,,,,,,,,,,,,,,,,,,,,,,,,
1720179674,58,0,4330.128418,4321.410156,4325.256348,4317.436035,4260.769043,4295.641113,4271.922852,4281.794922,4331.794922,4360.769043,4531.025879,4516.410156,4347.436035,4501.153809,,,,,,,,,,,,,,,,,,,,,,,,,,,,,,,,,,,,,,,,,,,,,,,,,,,,,,,,,,,,,,,,,,,,,,
1720179674,59,0,4322.436035,4303.077148,4321.538574,4308.461426,4258.077148,4295.128418,4263.846191,4277.563965,4322.820313,4352.692383,4528.974121,4518.205078,4350.897461,4493.461426,,,,,,,,,,,,,,,,,,,,,,,,,,,,,,,,,,,,,,,,,,,,,,,,,,,,,,,,,,,,,,,,,,,,,,
1720179674,60,0,4331.922852,4280,4333.717773,4312.307617,4262.563965,4298.205078,4276.538574,4289.743652,4328.461426,4357.307617,4525.897461,4523.077148,4337.307617,4493.974121,,,,,,,,,,,,,,,,,,,,,,,,,,,,,,,,,,,,,,,,,,,,,,,,,,,,,,,,,,,,,,,,,,,,,,
1720179674,61,0,4334.615234,4278.717773,4336.153809,4313.077148,4263.333496,4297.692383,4284.743652,4296.666504,4330.512695,4348.333496,4520.641113,4512.820313,4322.692383,4499.102539,,,,,,,,,,,,,,,,,,,,,,,,,,,,,,,,,,,,,,,,,,,,,,,,,,,,,,,,,,,,,,,,,,,,,,
1720179674,62,0,4323.461426,4285.769043,4323.205078,4303.461426,4260.128418,4296.410156,4278.205078,4290.897461,4311.538574,4319.871582,4513.717773,4498.717773,4325.128418,4495.384766,,,,,,,,,,,,,,,,,,,,,,,,,,,,,,,,,,,,,,,,,,,,,,,,,,,,,,,,,,,,,,,,,,,,,,
1720179674,63,0,4321.922852,4303.717773,4322.436035,4310.256348,4262.05127,4301.666504,4281.538574,4293.846191,4313.205078,4318.077148,4525.384766,4506.153809,4337.179688,4493.589844,,,,,,,,,,,,,,,,,,,,,,,,,,,,,,,,,,,,,,,,,,,,,,,,,,,,,,,,,,,,,,,,,,,,,,
1720179674,64,0,4326.922852,4312.692383,4328.205078,4323.589844,4263.846191,4300.641113,4279.487305,4290.512695,4318.974121,4326.666504,4538.205078,4513.846191,4345.128418,4496.794922,2.156893,35.790619,2.0401,2.611054,0.547615,0.701154,14.519751,1.260944,3.207933,0.87703,2.082584,39.731644,1.817857,2.449054,0.555581,0.581975,17.435675,1.335998,1.709692,0.485095,0.162346,0.893881,0.339943,0.453492,0.225907,0.158564,1.089052,0.141551,0.255549,0.140658,0.977658,2.151783,0.480882,0.675579,0.507128,1.00741,2.9631,0.640011,1.134697,0.572691,2.929636,5.688402,1.053469,0.488975,0.564643,17.889347,10.44171,4.360296,2.004455,0.983715,25.834465,13.638153,10.313931,2.451437,1.152795,4.876549,49.129036,2.266603,3.131984,0.800383,4.861497,38.883694,2.383444,2.01476,0.824422,5.391686,47.438496,2.90434,2.962377,0.850506
1720179674,65,0,4317.307617,4298.205078,4313.461426,4315.512695,4255.256348,4291.410156,4258.333496,4267.820313,4302.563965,4315.641113,4529.871582,4490,4337.94873,4486.153809,,,,,,,,,,,,,,,,,,,,,,,,,,,,,,,,,,,,,,,,,,,,,,,,,,,,,,,,,,,,,,,,,,,,,,
1720179674,66,0,4296.410156,4287.05127,4287.820313,4306.282227,4249.871582,4290.256348,4248.461426,4257.692383,4293.717773,4313.461426,4519.230957,4456.410156,4316.538574,4458.077148,,,,,,,,,,,,,,,,,,,,,,,,,,,,,,,,,,,,,,,,,,,,,,,,,,,,,,,,,,,,,,,,,,,,,,
1720179674,67,0,4286.922852,4284.102539,4282.05127,4308.846191,4257.179688,4295.641113,4261.666504,4272.820313,4296.538574,4320.641113,4518.717773,4449.615234,4301.922852,4441.794922,,,,,,,,,,,,,,,,,,,,,,,,,,,,,,,,,,,,,,,,,,,,,,,,,,,,,,,,,,,,,,,,,,,,,,
1720179674,68,0,4292.307617,4287.179688,4295.897461,4311.153809,4265.128418,4295.512695,4281.410156,4289.487305,4298.974121,4318.846191,4517.436035,4463.846191,4309.358887,4455.769043,,,,,,,,,,,,,,,,,,,,,,,,,,,,,,,,,,,,,,,,,,,,,,,,,,,,,,,,,,,,,,,,,,,,,,
1720179674,69,0,4300.128418,4296.153809,4307.692383,4311.922852,4264.871582,4299.487305,4293.589844,4300.256348,4306.538574,4322.436035,4522.179688,4482.307617,4325,4474.102539,,,,,,,,,,,,,,,,,,,,,,,,,,,,,,,,,,,,,,,,,,,,,,,,,,,,,,,,,,,,,,,,,,,,,,
