Timestamp,EEG.Counter,EEG.Interpolated,EEG.AF3,EEG.F7,EEG.F3,EEG.FC5,EEG.T7,EEG.P7,EEG.O1,EEG.O2,EEG.P8,EEG.T8,EEG.FC6,EEG.F4,EEG.F8,EEG.AF4,POW.AF3.Theta,POW.AF3.Alpha,POW.AF3.BetaL,POW.AF3.BetaH,POW.AF3.Gamma,POW.F7.Theta,POW.F7.Alpha,POW.F7.BetaL,POW.F7.BetaH,POW.F7.Gamma,POW.F3.Theta,POW.F3.Alpha,POW.F3.BetaL,POW.F3.BetaH,POW.F3.Gamma,POW.FC5.Theta,POW.FC5.Alpha,POW.FC5.BetaL,POW.FC5.BetaH,POW.FC5.Gamma,POW.T7.Theta,POW.T7.Alpha,POW.T7.BetaL,POW.T7.BetaH,POW.T7.Gamma,POW.P7.Theta,POW.P7.Alpha,POW.P7.BetaL,POW.P7.BetaH,POW.P7.Gamma,POW.O1.Theta,POW.O1.Alpha,POW.O1.BetaL,POW.O1.BetaH,POW.O1.Gamma,POW.O2.Theta,POW.O2.Alpha,POW.O2.BetaL,POW.O2.BetaH,POW.O2.Gamma,POW.P8.Theta,POW.P8.Alpha,POW.P8.BetaL,POW.P8.BetaH,POW.P8.Gamma,POW.T8.Theta,POW.T8.Alpha,POW.T8.BetaL,POW.T8.BetaH,POW.T8.Gamma,POW.FC6.Theta,POW.FC6.Alpha,POW.FC6.BetaL,POW.FC6.BetaH,POW.FC6.Gamma,POW.F4.Theta,POW.F4.Alpha,POW.F4.BetaL,POW.F4.BetaH,POW.F4.Gamma,POW.F8.Theta,POW.F8.Alpha,POW.F8.BetaL,POW.F8.BetaH,POW.F8.Gamma,POW.AF4.Theta,POW.AF4.Alpha,POW.AF4.BetaL,POW.AF4.BetaH,POW.AF4.Gamma
1720417452,96,0,4328.846191,4170.512695,4266.025879,4172.563965,4186.025879,4230.384766,4399.358887,4454.743652,4205.512695,4091.025635,4427.820313,4475,4341.922852,4398.205078,,,,,,,,,,,,,,,,,,,,,,,,,,,,,,,,,,,,,,,,,,,,,,,,,,,,,,,,,,,,,,,,,,,,,,
1720417452,97,0,4322.307617,4185.256348,4261.153809,4177.94873,4184.102539,4226.410156,4398.461426,4446.153809,4196.666504,4085,4413.974121,4458.077148,4329.871582,4375.769043,,,,,,,,,,,,,,,,,,,,,,,,,,,,,,,,,,,,,,,,,,,,,,,,,,,,,,,,,,,,,,,,,,,,,,
1720417452,98,0,4333.077148,4183.974121,4256.153809,4183.846191,4193.589844,4232.692383,4407.05127,4443.333496,4196.153809,4093.846191,4416.282227,4453.461426,4321.922852,4341.794922,,,,,,,,,,,,,,,,,,,,,,,,,,,,,,,,,,,,,,,,,,,,,,,,,,,,,,,,,,,,,,,,,,,,,,
1720417452,99,0,4320.512695,4186.666504,4259.871582,4189.743652,4201.282227,4236.153809,4410.512695,4448.077148,4205.384766,4107.179688,4417.436035,4461.410156,4328.205078,4355.128418,,,,,,,,,,,,,,,,,,,,,,,,,,,,,,,,,,,,,,,,,,,,,,,,,,,,,,,,,,,,,,,,,,,,,,
1720417452,100,0,4310.384766,4201.922852,4263.589844,4201.025879,4198.589844,4231.666504,4392.05127,4439.102539,4216.410156,4106.666504,4421.153809,4458.717773,4339.230957,4389.615234,,,,,,,,,,,,,,,,,,,,,,,,,,,,,,,,,,,,,,,,,,,,,,,,,,,,,,,,,,,,,,,,,,,,,,
1720417452,101,0,4346.025879,4199.487305,4258.077148,4206.282227,4200.641113,4232.179688,4389.615234,4438.205078,4217.436035,4110.128418,4435.128418,4461.666504,4336.410156,4394.102539,,,,,,,,,,,,,,,,,,,,,,,,,,,,,,,,,,,,,,,,,,,,,,,,,,,,,,,,,,,,,,,,,,,,,,
1720417452,102,0,4373.846191,4176.282227,4256.153809,4186.922852,4201.153809,4237.563965,4397.820313,4448.589844,4215.641113,4116.153809,4440,4473.717773,4327.179688,4377.692383,,,,,,,,,,,,,,,,,,,,,,,,,,,,,,,,,,,,,,,,,,,,,,,,,,,,,,,,,,,,,,,,,,,,,,
1720417452,103,0,4382.563965,4166.410156,4259.102539,4170.769043,4190.897461,4230.384766,4381.153809,4444.358887,4220.897461,4104.871582,4433.333496,4465.128418,4325.128418,4362.563965,,,,,,,,,,,,,,,,,,,,,,,,,,,,,,,,,,,,,,,,,,,,,,,,,,,,,,,,,,,,,,,,,,,,,,
1720417452,104,0,4395.384766,4177.563965,4253.205078,4186.922852,4181.666504,4223.205078,4368.333496,4443.461426,4221.538574,4098.846191,4426.025879,4453.077148,4323.846191,4369.615234,6.112455,3.362253,4.844486,0.925445,1.691438,2.645808,1.051542,1.790877,0.724835,0.796822,1.58929,1.283764,2.573128,0.627654,0.574045,1.105294,0.711111,1.865179,1.037001,0.96163,1.863671,0.92456,0.452304,0.411035,0.291171,1.543028,0.310071,0.487105,0.254716,0.175897,139.968521,40.799522,20.311186,8.152946,3.108039,1.246579,0.367231,0.281883,0.172512,0.126878,1.709859,0.402891,1.037033,0.353642,0.222376,0.825374,0.889658,1.171395,0.703254,0.551475,1.260345,1.373495,3.624762,1.359901,1.293442,2.65939,1.973625,4.686292,1.267841,0.572288,4.32672,2.379574,5.045778,0.938568,0.481809,2.232466,2.222966,5.127298,1.102046,1.095019
1720417452,105,0,4383.589844,4184.230957,4247.94873,4200.512695,4185.384766,4236.922852,4382.05127,4444.358887,4216.538574,4116.794922,4415,4461.538574,4312.94873,4379.743652,,,,,,,,,,,,,,,,,,,,,,,,,,,,,,,,,,,,,,,,,,,,,,,,,,,,,,,,,,,,,,,,,,,,,,
1720417452,106,0,4374.743652,4186.282227,4263.589844,4200.384766,4194.102539,4249.358887,4395.256348,4442.820313,4216.538574,4119.871582,4426.794922,4478.333496,4312.563965,4381.410156,,,,,,,,,,,,,,,,,,,,,,,,,,,,,,,,,,,,,,,,,,,,,,,,,,,,,,,,,,,,,,,,,,,,,,
1720417452,107,0,4384.615234,4197.05127,4278.077148,4209.743652,4201.922852,4245.512695,4378.717773,4445.641113,4213.333496,4105.128418,4443.589844,4480.641113,4322.820313,4383.205078,,,,,,,,,,,,,,,,,,,,,,,,,,,,,,,,,,,,,,,,,,,,,,,,,,,,,,,,,,,,,,,,,,,,,,
1720417452,108,0,4369.615234,4204.230957,4268.333496,4220.769043,4202.05127,4241.538574,4347.179688,4444.230957,4203.333496,4108.077148,4426.025879,4466.025879,4319.102539,4379.230957,,,,,,,,,,,,,,,,,,,,,,,,,,,,,,,,,,,,,,,,,,,,,,,,,,,,,,,,,,,,,,,,,,,,,,
1720417452,109,0,4350.769043,4198.205078,4258.717773,4214.871582,4197.307617,4239.230957,4337.563965,4442.692383,4197.692383,4112.179688,4419.487305,4455,4308.077148,4376.666504,,,,,,,,,,,,,,,,,,,,,,,,,,,,,,,,,,,,,,,,,,,,,,,,,,,,,,,,,,,,,,,,,,,,,,
1720417452,110,0,4354.358887,4195.512695,4264.230957,4208.461426,4199.871582,4235.256348,4343.461426,4442.820313,4199.743652,4107.820313,4431.153809,4457.179688,4305.384766,4376.538574,,,,,,,,,,,,,,,,,,,,,,,,,,,,,,,,,,,,,,,,,,,,,,,,,,,,,,,,,,,,,,,,,,,,,,
1720417452,111,0,4352.436035,4201.025879,4272.94873,4221.282227,4202.05127,4235.256348,4345.256348,4443.461426,4207.179688,4122.94873,4424.102539,4465.128418,4311.922852,4374.743652,,,,,,,,,,,,,,,,,,,,,,,,,,,,,,,,,,,,,,,,,,,,,,,,,,,,,,,,,,,,,,,,,,,,,,
1720417452,112,0,4337.436035,4205.641113,4276.666504,4232.94873,4197.436035,4235,4348.846191,4443.077148,4217.05127,4144.871582,4434.358887,4470.897461,4322.94873,4372.563965,,,,,,,,,,,,,,,,,,,,,,,,,,,,,,,,,,,,,,,,,,,,,,,,,,,,,,,,,,,,,,,,,,,,,,
1720417452,113,0,4328.974121,4210.769043,4278.205078,4233.589844,4196.922852,4239.743652,4347.820313,4446.153809,4220.256348,4138.333496,4441.538574,4476.538574,4327.307617,4376.794922,,,,,,,,,,,,,,,,,,,,,,,,,,,,,,,,,,,,,,,,,,,,,,,,,,,,,,,,,,,,,,,,,,,,,,
1720417452,114,0,4322.179688,4207.692383,4283.333496,4236.153809,4202.05127,4245.512695,4331.282227,4450.384766,4216.794922,4125.897461,4425.641113,4479.615234,4323.974121,4383.077148,,,,,,,,,,,,,,,,,,,,,,,,,,,,,,,,,,,,,,,,,,,,,,,,,,,,,,,,,,,,,,,,,,,,,,
1720417452,115,0,4328.846191,4197.05127,4277.436035,4234.487305,4202.436035,4237.05127,4322.692383,4448.461426,4216.282227,4133.077148,4431.282227,4468.846191,4322.307617,4381.794922,,,,,,,,,,,,,,,,,,,,,,,,,,,,,,,,,,,,,,,,,,,,,,,,,,,,,,,,,,,,,,,,,,,,,,
1720417452,116,0,4333.589844,4197.692383,4262.692383,4223.589844,4202.436035,4229.871582,4324.871582,4442.307617,4216.666504,4141.025879,4437.307617,4453.974121,4316.794922,4378.205078,,,,,,,,,,,,,,,,,,,,,,,,,,,,,,,,,,,,,,,,,,,,,,,,,,,,,,,,,,,,,,,,,,,,,,
1720417452,117,0,4314.102539,4212.563965,4264.230957,4227.436035,4212.692383,4233.974121,4323.333496,4443.205078,4214.358887,4138.974121,4428.846191,4462.563965,4311.282227,4376.922852,,,,,,,,,,,,,,,,,,,,,,,,,,,,,,,,,,,,,,,,,,,,,,,,,,,,,,,,,,,,,,,,,,,,,,
1720417452,118,0,4317.436035,4220.512695,4279.102539,4233.205078,4213.717773,4234.743652,4324.487305,4448.333496,4214.230957,4135.641113,4442.179688,4480,4320.128418,4380.384766,,,,,,,,,,,,,,,,,,,,,,,,,,,,,,,,,,,,,,,,,,,,,,,,,,,,,,,,,,,,,,,,,,,,,,
1720417452,119,0,4358.077148,4217.307617,4282.820313,4215.512695,4206.153809,4236.282227,4324.871582,4437.820313,4216.282227,4136.922852,4448.333496,4471.025879,4329.871582,4389.358887,,,,,,,,,,,,,,,,,,,,,,,,,,,,,,,,,,,,,,,,,,,,,,,,,,,,,,,,,,,,,,,,,,,,,,
1720417452,120,0,4379.358887,4219.615234,4277.94873,4216.282227,4207.563965,4243.077148,4327.307617,4437.94873,4218.205078,4142.307617,4420.512695,4463.589844,4324.615234,4410.897461,6.037355,4.239933,4.174501,1.025675,1.78572,2.817982,1.176716,1.647038,0.691856,0.896055,1.604185,1.310326,2.112286,0.570996,0.620492,1.302921,0.770871,1.776814,1.188381,0.967344,1.741693,0.782083,0.457959,0.429805,0.289455,1.203807,0.319443,0.437469,0.263391,0.185424,278.209076,84.225731,43.401318,17.631046,6.727228,1.135769,0.383677,0.307252,0.193057,0.130235,1.355175,0.339701,0.846032,0.370259,0.245116,1.248679,1.165567,1.025836,0.659386,0.561205,1.264722,1.404239,3.247249,1.286042,1.391108,2.342137,1.67639,4.221659,1.18487,0.606646,4.104305,2.217841,4.511925,0.928188,0.542588,2.216855,2.066236,4.775474,1.112243,1.249023
1720417452,121,0,4368.974121,4226.025879,4281.282227,4231.666504,4206.410156,4241.794922,4329.487305,4453.974121,4218.589844,4142.179688,4421.794922,4477.179688,4319.743652,4415.641113,,,,,,,,,,,,,,,,,,,,,,,,,,,,,,,,,,,,,,,,,,,,,,,,,,,,,,,,,,,,,,,,,,,,,,
1720417452,122,0,4381.666504,4224.487305,4295,4227.692383,4206.922852,4228.846191,4320.384766,4449.487305,4218.846191,4146.794922,4461.153809,4489.230957,4330.384766,4398.333496,,,,,,,,,,,,,,,,,,,,,,,,,,,,,,,,,,,,,,,,,,,,,,,,,,,,,,,,,,,,,,,,,,,,,,
1720417452,123,0,4399.487305,4217.436035,4297.436035,4227.563965,4211.282227,4215.641113,4314.487305,4439.871582,4220.256348,4151.410156,4467.307617,4496.794922,4333.846191,4400.897461,,,,,,,,,,,,,,,,,,,,,,,,,,,,,,,,,,,,,,,,,,,,,,,,,,,,,,,,,,,,,,,,,,,,,,
1720417452,124,0,4381.410156,4218.846191,4282.05127,4233.205078,4206.410156,4214.102539,4316.025879,4441.666504,4217.94873,4135.384766,4438.974121,4488.205078,4318.205078,4406.153809,,,,,,,,,,,,,,,,,,,,,,,,,,,,,,,,,,,,,,,,,,,,,,,,,,,,,,,,,,,,,,,,,,,,,,
1720417452,125,0,4374.743652,4222.820313,4270.641113,4221.794922,4204.102539,4219.358887,4312.94873,4433.974121,4214.230957,4123.717773,4422.307617,4458.589844,4306.922852,4390.641113,,,,,,,,,,,,,,,,,,,,,,,,,,,,,,,,,,,,,,,,,,,,,,,,,,,,,,,,,,,,,,,,,,,,,,
1720417452,126,0,4394.615234,4214.358887,4276.282227,4214.487305,4212.563965,4218.717773,4308.205078,4422.692383,4213.205078,4137.692383,4428.589844,4445.256348,4310.512695,4382.05127,,,,,,,,,,,,,,,,,,,,,,,,,,,,,,,,,,,,,,,,,,,,,,,,,,,,,,,,,,,,,,,,,,,,,,
1720417452,127,0,4393.461426,4208.846191,4281.922852,4223.333496,4216.282227,4220.641113,4310.769043,4427.94873,4209.743652,4144.230957,4429.102539,4464.230957,4311.025879,4388.333496,,,,,,,,,,,,,,,,,,,,,,,,,,,,,,,,,,,,,,,,,,,,,,,,,,,,,,,,,,,,,,,,,,,,,,
1720417452,0,0,4366.025879,4218.205078,4280.384766,4231.794922,4215.384766,4232.05127,4316.410156,4433.205078,4207.307617,4136.538574,4419.230957,4477.307617,4304.358887,4388.846191,,,,,,,,,,,,,,,,,,,,,,,,,,,,,,,,,,,,,,,,,,,,,,,,,,,,,,,,,,,,,,,,,,,,,,
1720417452,1,0,4341.666504,4220.512695,4278.205078,4236.025879,4216.153809,4237.307617,4323.461426,4430,4212.692383,4143.846191,4427.179688,4474.743652,4301.410156,4395.512695,,,,,,,,,,,,,,,,,,,,,,,,,,,,,,,,,,,,,,,,,,,,,,,,,,,,,,,,,,,,,,,,,,,,,,
1720417452,2,0,4326.282227,4212.307617,4279.487305,4227.820313,4211.794922,4230,4329.487305,4430.897461,4212.307617,4147.563965,4440.769043,4475.256348,4307.94873,4409.230957,,,,,,,,,,,,,,,,,,,,,,,,,,,,,,,,,,,,,,,,,,,,,,,,,,,,,,,,,,,,,,,,,,,,,,
1720417452,3,0,4331.410156,4219.615234,4288.333496,4218.717773,4207.307617,4222.692383,4328.333496,4436.666504,4205,4138.205078,4437.307617,4476.153809,4314.743652,4415,,,,,,,,,,,,,,,,,,,,,,,,,,,,,,,,,,,,,,,,,,,,,,,,,,,,,,,,,,,,,,,,,,,,,,
1720417452,4,0,4341.794922,4217.563965,4293.205078,4217.179688,4200.384766,4218.205078,4328.077148,4441.153809,4201.666504,4135.256348,4433.077148,4477.179688,4304.743652,4415.769043,,,,,,,,,,,,,,,,,,,,,,,,,,,,,,,,,,,,,,,,,,,,,,,,,,,,,,,,,,,,,,,,,,,,,,
1720417452,5,0,4317.179688,4199.743652,4285.128418,4218.846191,4197.94873,4215.128418,4326.666504,4435.128418,4197.179688,4137.692383,4432.820313,4473.717773,4288.717773,4412.307617,,,,,,,,,,,,,,,,,,,,,,,,,,,,,,,,,,,,,,,,,,,,,,,,,,,,,,,,,,,,,,,,,,,,,,
1720417452,6,0,4296.282227,4205.897461,4277.820313,4226.282227,4213.461426,4215.769043,4325.384766,4429.871582,4202.307617,4148.333496,4437.05127,4465.384766,4293.333496,4417.436035,,,,,,,,,,,,,,,,,,,,,,,,,,,,,,,,,,,,,,,,,,,,,,,,,,,,,,,,,,,,,,,,,,,,,,
1720417452,7,0,4307.307617,4220.128418,4278.333496,4233.333496,4221.025879,4218.461426,4329.102539,4430.641113,4216.282227,4158.717773,4434.230957,4461.025879,4298.333496,4418.974121,,,,,,,,,,,,,,,,,,,,,,,,,,,,,,,,,,,,,,,,,,,,,,,,,,,,,,,,,,,,,,,,,,,,,,
1720417452,8,0,4311.794922,4206.025879,4277.820313,4233.333496,4216.538574,4220.512695,4335.256348,4425.769043,4209.487305,4152.820313,4417.820313,4459.230957,4285.256348,4405.897461,6.498476,5.547101,3.688156,1.162573,1.810877,3.114783,1.340745,1.49102,0.702383,1.017749,1.58058,1.428564,1.649879,0.534961,0.653854,1.748662,1.020467,1.612022,1.318529,0.963677,1.67836,0.722188,0.537572,0.441678,0.290552,0.8613,0.343204,0.416033,0.268801,0.1951,449.967255,138.966537,73.13929,29.924183,11.389271,0.985242,0.383549,0.311349,0.218547,0.137902,1.081396,0.339148,0.690464,0.381911,0.256534,2.566228,1.732772,0.911218,0.672306,0.560601,1.161912,1.330221,2.774751,1.226243,1.473426,1.979048,1.416108,3.551792,1.099894,0.612351,3.393563,1.892497,3.859946,0.901647,0.583141,2.110867,1.829815,4.126492,1.186956,1.364075
1720417452,9,0,4313.974121,4195.641113,4275.769043,4228.717773,4220.769043,4220.897461,4341.025879,4423.974121,4198.974121,4149.743652,4419.871582,4455.512695,4283.717773,4396.922852,,,,,,,,,,,,,,,,,,,,,,,,,,,,,,,,,,,,,,,,,,,,,,,,,,,,,,,,,,,,,,,,,,,,,,
1720417452,10,0,4337.307617,4210.897461,4278.333496,4228.461426,4226.153809,4220.128418,4342.820313,4429.871582,4211.410156,4162.436035,4446.025879,4460.512695,4302.307617,4394.230957,,,,,,,,,,,,,,,,,,,,,,,,,,,,,,,,,,,,,,,,,,,,,,,,,,,,,,,,,,,,,,,,,,,,,,
1720417452,11,0,4342.94873,4218.717773,4278.589844,4233.461426,4218.205078,4218.846191,4342.436035,4428.974121,4216.922852,4161.666504,4451.922852,4475.256348,4312.05127,4393.333496,,,,,,,,,,,,,,,,,,,,,,,,,,,,,,,,,,,,,,,,,,,,,,,,,,,,,,,,,,,,,,,,,,,,,,
1720417452,12,0,4320,4211.794922,4278.589844,4233.974121,4210.897461,4220.384766,4342.436035,4426.538574,4203.589844,4149.358887,4428.974121,4474.487305,4305.128418,4398.846191,,,,,,,,,,,,,,,,,,,,,,,,,,,,,,,,,,,,,,,,,,,,,,,,,,,,,,,,,,,,,,,,,,,,,,
1720417452,13,0,4302.436035,4214.871582,4278.461426,4234.487305,4224.358887,4220.128418,4343.205078,4429.615234,4198.589844,4154.615234,4429.487305,4461.410156,4304.871582,4401.410156,,,,,,,,,,,,,,,,,,,,,,,,,,,,,,,,,,,,,,,,,,,,,,,,,,,,,,,,,,,,,,,,,,,,,,
1720417452,14,0,4289.230957,4217.820313,4267.692383,4242.307617,4233.333496,4216.538574,4343.717773,4424.230957,4203.717773,4151.794922,4432.94873,4449.487305,4306.410156,4383.974121,,,,,,,,,,,,,,,,,,,,,,,,,,,,,,,,,,,,,,,,,,,,,,,,,,,,,,,,,,,,,,,,,,,,,,
1720417452,15,0,4298.974121,4201.025879,4258.077148,4244.358887,4219.230957,4223.974121,4345.128418,4418.461426,4210.128418,4142.94873,4416.153809,4439.102539,4291.794922,4364.487305,,,,,,,,,,,,,,,,,,,,,,,,,,,,,,,,,,,,,,,,,,,,,,,,,,,,,,,,,,,,,,,,,,,,,,
1720417452,16,0,4326.282227,4190.641113,4262.179688,4238.589844,4209.743652,4235.769043,4343.846191,4420.641113,4212.307617,4148.846191,4409.230957,4434.358887,4283.717773,4353.333496,,,,,,,,,,,,,,,,,,,,,,,,,,,,,,,,,,,,,,,,,,,,,,,,,,,,,,,,,,,,,,,,,,,,,,
1720417452,17,0,4301.794922,4207.179688,4262.94873,4248.717773,4216.922852,4230.897461,4340.641113,4418.846191,4206.538574,4153.589844,4410.128418,4435,4289.487305,4351.282227,,,,,,,,,,,,,,,,,,,,,,,,,,,,,,,,,,,,,,,,,,,,,,,,,,,,,,,,,,,,,,,,,,,,,,
1720417452,18,0,4263.846191,4216.410156,4258.077148,4256.025879,4215,4217.307617,4345.769043,4421.666504,4203.717773,4158.974121,4413.717773,4439.102539,4296.153809,4367.436035,,,,,,,,,,,,,,,,,,,,,,,,,,,,,,,,,,,,,,,,,,,,,,,,,,,,,,,,,,,,,,,,,,,,,,
1720417452,19,0,4291.666504,4217.563965,4270,4244.230957,4208.846191,4215.512695,4344.487305,4421.538574,4205.897461,4166.666504,4426.538574,4449.358887,4303.974121,4378.461426,,,,,,,,,,,,,,,,,,,,,,,,,,,,,,,,,,,,,,,,,,,,,,,,,,,,,,,,,,,,,,,,,,,,,,
1720417452,20,0,4317.307617,4233.974121,4284.615234,4252.820313,4214.743652,4219.487305,4340.384766,4414.871582,4197.563965,4156.025879,4436.282227,4463.205078,4304.358887,4376.410156,,,,,,,,,,,,,,,,,,,,,,,,,,,,,,,,,,,,,,,,,,,,,,,,,,,,,,,,,,,,,,,,,,,,,,
1720417452,21,0,4283.333496,4230.897461,4274.615234,4268.717773,4212.692383,4215.897461,4343.589844,4420.256348,4185.512695,4147.94873,4417.692383,4457.436035,4287.307617,4362.179688,,,,,,,,,,,,,,,,,,,,,,,,,,,,,,,,,,,,,,,,,,,,,,,,,,,,,,,,,,,,,,,,,,,,,,
1720417452,22,0,4256.025879,4203.974121,4256.666504,4252.94873,4209.615234,4213.974121,4339.102539,4420,4184.230957,4155.769043,4396.666504,4430.384766,4273.846191,4336.025879,,,,,,,,,,,,,,,,,,,,,,,,,,,,,,,,,,,,,,,,,,,,,,,,,,,,,,,,,,,,,,,,,,,,,,
1720417452,23,0,4265.256348,4198.205078,4251.282227,4237.692383,4216.410156,4217.94873,4340.256348,4413.077148,4185.897461,4147.563965,4398.461426,4419.230957,4276.025879,4330.897461,,,,,,,,,,,,,,,,,,,,,,,,,,,,,,,,,,,,,,,,,,,,,,,,,,,,,,,,,,,,,,,,,,,,,,
1720417452,24,0,4270.769043,4205.769043,4245.641113,4235.897461,4212.05127,4219.615234,4345.256348,4412.94873,4185,4139.615234,4397.05127,4420.641113,4275,4347.436035,7.845147,7.042563,3.421453,1.308308,1.769358,3.379591,1.47577,1.325019,0.758265,1.126498,1.506922,1.566255,1.242152,0.517861,0.671058,2.478149,1.395139,1.457802,1.402857,0.937486,1.600242,0.781059,0.711743,0.441853,0.29844,0.551327,0.367863,0.422399,0.273342,0.202,609.786255,190.517914,101.560593,41.82822,15.875924,0.862733,0.380047,0.295567,0.240973,0.147728,0.972525,0.417853,0.585706,0.38502,0.254004,4.94935,2.639333,0.890632,0.784381,0.568408,0.977159,1.152732,2.284994,1.189247,1.520935,1.60867,1.195861,2.812902,1.035991,0.587417,2.509039,1.461235,3.240107,0.868844,0.590992,1.914101,1.540334,3.322338,1.290815,1.423666
1720417452,25,0,4270.897461,4207.692383,4241.794922,4231.410156,4200.384766,4217.179688,4336.922852,4409.743652,4189.230957,4151.538574,4389.358887,4416.794922,4273.333496,4349.615234,,,,,,,,,,,,,,,,,,,,,,,,,,,,,,,,,,,,,,,,,,,,,,,,,,,,,,,,,,,,,,,,,,,,,,
1720417452,26,0,4289.102539,4213.461426,4252.179688,4240.384766,4203.589844,4217.436035,4332.94873,4408.717773,4201.282227,4153.461426,4393.461426,4426.538574,4283.974121,4339.102539,,,,,,,,,,,,,,,,,,,,,,,,,,,,,,,,,,,,,,,,,,,,,,,,,,,,,,,,,,,,,,,,,,,,,,
1720417452,27,0,4315.512695,4213.846191,4262.94873,4257.179688,4207.820313,4219.358887,4342.179688,4420.897461,4206.410156,4161.153809,4413.717773,4446.666504,4296.794922,4338.846191,,,,,,,,,,,,,,,,,,,,,,,,,,,,,,,,,,,,,,,,,,,,,,,,,,,,,,,,,,,,,,,,,,,,,,
1720417452,28,0,4322.692383,4208.461426,4260.512695,4253.717773,4197.94873,4219.743652,4342.179688,4419.230957,4202.179688,4177.307617,4425.769043,4441.410156,4296.794922,4344.230957,,,,,,,,,,,,,,,,,,,,,,,,,,,,,,,,,,,,,,,,,,,,,,,,,,,,,,,,,,,,,,,,,,,,,,
1720417452,29,0,4308.974121,4218.205078,4257.436035,4253.333496,4200.384766,4225.384766,4339.487305,4408.333496,4201.794922,4165.641113,4411.666504,4424.871582,4285.384766,4347.563965,,,,,,,,,,,,,,,,,,,,,,,,,,,,,,,,,,,,,,,,,,,,,,,,,,,,,,,,,,,,,,,,,,,,,,
1720417452,30,0,4300.897461,4221.282227,4263.846191,4267.179688,4219.102539,4230.384766,4346.538574,4414.615234,4201.025879,4151.922852,4395.512695,4427.307617,4273.974121,4339.358887,,,,,,,,,,,,,,,,,,,,,,,,,,,,,,,,,,,,,,,,,,,,,,,,,,,,,,,,,,,,,,,,,,,,,,
1720417452,31,0,4312.05127,4212.692383,4261.666504,4261.410156,4220,4226.410156,4344.358887,4412.94873,4199.358887,4163.077148,4394.871582,4430,4273.333496,4323.077148,,,,,,,,,,,,,,,,,,,,,,,,,,,,,,,,,,,,,,,,,,,,,,,,,,,,,,,,,,,,,,,,,,,,,,
1720417452,32,0,4313.974121,4220,4250.897461,4257.820313,4204.487305,4225.769043,4340.384766,4408.333496,4207.179688,4173.846191,4395.512695,4428.846191,4286.666504,4324.102539,,,,,,,,,,,,,,,,,,,,,,,,,,,,,,,,,,,,,,,,,,,,,,,,,,,,,,,,,,,,,,,,,,,,,,
1720417452,33,0,4291.153809,4227.692383,4254.871582,4271.922852,4208.333496,4231.410156,4342.05127,4414.102539,4214.615234,4177.179688,4394.743652,4430.641113,4296.794922,4329.358887,,,,,,,,,,,,,,,,,,,,,,,,,,,,,,,,,,,,,,,,,,,,,,,,,,,,,,,,,,,,,,,,,,,,,,
1720417452,34,0,4273.589844,4212.692383,4264.871582,4255.512695,4218.205078,4226.282227,4339.358887,4412.692383,4211.666504,4175.256348,4403.717773,4427.179688,4286.025879,4331.282227,,,,,,,,,,,,,,,,,,,,,,,,,,,,,,,,,,,,,,,,,,,,,,,,,,,,,,,,,,,,,,,,,,,,,,
1720417452,35,0,4285.897461,4209.487305,4262.05127,4233.846191,4207.05127,4215.897461,4336.538574,4412.307617,4210.897461,4172.05127,4411.025879,4427.94873,4275.512695,4342.820313,,,,,,,,,,,,,,,,,,,,,,,,,,,,,,,,,,,,,,,,,,,,,,,,,,,,,,,,,,,,,,,,,,,,,,
1720417452,36,0,4302.692383,4235,4261.794922,4262.05127,4204.487305,4222.307617,4336.153809,4415.769043,4219.358887,4183.589844,4419.102539,4435,4289.102539,4349.102539,,,,,,,,,,,,,,,,,,,,,,,,,,,,,,,,,,,,,,,,,,,,,,,,,,,,,,,,,,,,,,,,,,,,,,
1720417452,37,0,4293.974121,4240.769043,4264.230957,4277.563965,4217.563965,4232.820313,4339.487305,4415,4223.205078,4186.922852,4416.153809,4430.256348,4295,4336.410156,,,,,,,,,,,,,,,,,,,,,,,,,,,,,,,,,,,,,,,,,,,,,,,,,,,,,,,,,,,,,,,,,,,,,,
1720417452,38,0,4291.794922,4220.897461,4256.282227,4249.230957,4215.897461,4228.974121,4342.820313,4413.205078,4214.743652,4172.179688,4392.179688,4421.025879,4281.538574,4325.256348,,,,,,,,,,,,,,,,,,,,,,,,,,,,,,,,,,,,,,,,,,,,,,,,,,,,,,,,,,,,,,,,,,,,,,
1720417452,39,0,4294.615234,4216.153809,4250.384766,4246.794922,4211.410156,4228.205078,4345.769043,4415.641113,4203.846191,4170.769043,4391.794922,4427.179688,4277.179688,4321.666504,,,,,,,,,,,,,,,,,,,,,,,,,,,,,,,,,,,,,,,,,,,,,,,,,,,,,,,,,,,,,,,,,,,,,,
1720417452,40,0,4271.538574,4219.487305,4245.384766,4260.897461,4218.974121,4232.05127,4343.589844,4412.436035,4200.769043,4172.692383,4409.615234,4424.615234,4276.538574,4316.922852,10.345951,8.341538,3.293962,1.447537,1.676902,3.457408,1.53154,1.167464,0.843124,1.181349,1.37803,1.641053,0.930145,0.518509,0.669695,3.363381,1.782503,1.361022,1.434355,0.888802,1.50157,0.932483,0.958718,0.426765,0.311199,0.343073,0.385917,0.448691,0.284137,0.204041,705.112549,222.150146,119.353401,49.490746,18.741367,0.766892,0.379415,0.272124,0.250293,0.156411,0.959918,0.572281,0.526587,0.377348,0.239063,8.075469,3.750801,0.964857,0.99231,0.593972,0.739576,0.916963,1.854505,1.186844,1.521121,1.260925,1.009283,2.174619,1.021802,0.539122,1.643081,1.018555,2.728698,0.842061,0.562719,1.699693,1.265083,2.539477,1.389024,1.419629
1720417452,41,0,4267.179688,4211.922852,4244.358887,4251.025879,4216.410156,4222.05127,4335.512695,4404.230957,4201.538574,4172.436035,4406.922852,4411.922852,4275.641113,4320.256348,,,,,,,,,,,,,,,,,,,,,,,,,,,,,,,,,,,,,,,,,,,,,,,,,,,,,,,,,,,,,,,,,,,,,,
1720417452,42,0,4302.563965,4212.307617,4258.589844,4255.512695,4216.410156,4214.102539,4334.743652,4405.641113,4201.282227,4185.384766,4390,4420.897461,4281.922852,4324.871582,,,,,,,,,,,,,,,,,,,,,,,,,,,,,,,,,,,,,,,,,,,,,,,,,,,,,,,,,,,,,,,,,,,,,,
1720417452,43,0,4307.563965,4226.794922,4268.077148,4274.871582,4228.589844,4225.384766,4342.820313,4411.922852,4207.436035,4192.179688,4398.077148,4438.461426,4284.102539,4326.025879,,,,,,,,,,,,,,,,,,,,,,,,,,,,,,,,,,,,,,,,,,,,,,,,,,,,,,,,,,,,,,,,,,,,,,
1720417452,44,0,4285.384766,4231.410156,4264.487305,4272.436035,4222.436035,4226.922852,4343.333496,4408.717773,4217.307617,4185.512695,4429.871582,4438.589844,4277.563965,4326.922852,,,,,,,,,,,,,,,,,,,,,,,,,,,,,,,,,,,,,,,,,,,,,,,,,,,,,,,,,,,,,,,,,,,,,,
1720417452,45,0,4298.589844,4219.102539,4260.256348,4261.025879,4211.282227,4215.769043,4335.769043,4394.230957,4214.230957,4184.358887,4416.153809,4427.94873,4266.922852,4313.205078,,,,,,,,,,,,,,,,,,,,,,,,,,,,,,,,,,,,,,,,,,,,,,,,,,,,,,,,,,,,,,,,,,,,,,
1720417452,46,0,4301.410156,4201.666504,4250.641113,4256.538574,4223.205078,4220.769043,4341.153809,4393.846191,4195.641113,4184.743652,4370.512695,4416.922852,4253.461426,4295.897461,,,,,,,,,,,,,,,,,,,,,,,,,,,,,,,,,,,,,,,,,,,,,,,,,,,,,,,,,,,,,,,,,,,,,,
1720417452,47,0,4272.436035,4197.436035,4242.05127,4261.410156,4234.102539,4230.897461,4342.179688,4399.615234,4183.333496,4179.743652,4375.256348,4409.615234,4248.974121,4300.256348,,,,,,,,,,,,,,,,,,,,,,,,,,,,,,,,,,,,,,,,,,,,,,,,,,,,,,,,,,,,,,,,,,,,,,
1720417452,48,0,4271.410156,4209.487305,4252.94873,4272.94873,4229.743652,4230.512695,4326.794922,4390.384766,4190.769043,4187.307617,4402.692383,4417.179688,4261.410156,4312.820313,,,,,,,,,,,,,,,,,,,,,,,,,,,,,,,,,,,,,,,,,,,,,,,,,,,,,,,,,,,,,,,,,,,,,,
1720417452,49,0,4304.102539,4215.641113,4263.461426,4266.922852,4231.153809,4229.102539,4328.205078,4389.358887,4197.179688,4202.436035,4396.153809,4431.922852,4273.974121,4315.897461,,,,,,,,,,,,,,,,,,,,,,,,,,,,,,,,,,,,,,,,,,,,,,,,,,,,,,,,,,,,,,,,,,,,,,
1720417452,50,0,4338.077148,4222.820313,4265.256348,4263.846191,4236.666504,4230,4331.153809,4394.871582,4196.666504,4198.077148,4401.794922,4434.743652,4280.512695,4328.205078,,,,,,,,,,,,,,,,,,,,,,,,,,,,,,,,,,,,,,,,,,,,,,,,,,,,,,,,,,,,,,,,,,,,,,
1720417453,51,0,4340.128418,4243.974121,4269.743652,4290.256348,4235,4233.333496,4319.358887,4396.282227,4201.666504,4190.384766,4421.025879,4433.333496,4284.102539,4345.384766,,,,,,,,,,,,,,,,,,,,,,,,,,,,,,,,,,,,,,,,,,,,,,,,,,,,,,,,,,,,,,,,,,,,,,
1720417453,52,0,4319.743652,4248.589844,4268.077148,4297.563965,4230.769043,4231.922852,4314.615234,4396.922852,4205.769043,4197.563965,4412.05127,4435.769043,4280.512695,4330.641113,,,,,,,,,,,,,,,,,,,,,,,,,,,,,,,,,,,,,,,,,,,,,,,,,,,,,,,,,,,,,,,,,,,,,,
1720417453,53,0,4322.563965,4232.05127,4259.358887,4265.769043,4228.974121,4219.871582,4315.641113,4388.974121,4202.94873,4195.384766,4411.794922,4429.230957,4276.282227,4304.230957,,,,,,,,,,,,,,,,,,,,,,,,,,,,,,,,,,,,,,,,,,,,,,,,,,,,,,,,,,,,,,,,,,,,,,
1720417453,54,0,4333.589844,4229.487305,4259.358887,4257.692383,4225.897461,4212.820313,4313.077148,4381.922852,4201.282227,4186.538574,4417.692383,4421.025879,4280.384766,4313.461426,,,,,,,,,,,,,,,,,,,,,,,,,,,,,,,,,,,,,,,,,,,,,,,,,,,,,,,,,,,,,,,,,,,,,,
1720417453,55,0,4316.666504,4234.743652,4262.820313,4273.846191,4224.743652,4217.307617,4317.179688,4387.820313,4201.282227,4197.436035,4399.230957,4419.615234,4278.461426,4330.384766,,,,,,,,,,,,,,,,,,,,,,,,,,,,,,,,,,,,,,,,,,,,,,,,,,,,,,,,,,,,,,,,,,,,,,
1720417453,56,0,4313.205078,4226.922852,4255.256348,4270.512695,4230.256348,4217.94873,4315.128418,4384.358887,4199.102539,4207.692383,4389.358887,4408.461426,4265.769043,4313.589844,13.806163,9.086565,3.226697,1.586006,1.565794,3.207273,1.480915,1.061621,0.930385,1.155851,1.187572,1.59343,0.748898,0.528689,0.647668,4.255216,2.065803,1.318253,1.420744,0.8257,1.333832,1.097793,1.215907,0.39748,0.323159,0.242148,0.397104,0.482812,0.308402,0.200909,702.400696,222.560532,120.113098,50.185677,18.976452,0.677779,0.378439,0.259872,0.239446,0.161123,1.033511,0.76535,0.505082,0.35644,0.217316,11.111288,4.761472,1.080433,1.237834,0.630714,0.523039,0.679264,1.554314,1.223286,1.473427,0.94745,0.833345,1.802359,1.064822,0.480794,1.095057,0.650374,2.339418,0.82595,0.507145,1.524213,1.083458,1.918239,1.464244,1.351526
1720417453,57,0,4331.282227,4224.615234,4245.897461,4269.358887,4234.615234,4216.025879,4308.461426,4371.794922,4200.128418,4201.538574,4383.589844,4400.128418,4266.922852,4300,,,,,,,,,,,,,,,,,,,,,,,,,,,,,,,,,,,,,,,,,,,,,,,,,,,,,,,,,,,,,,,,,,,,,,
1720417453,58,0,4316.666504,4236.666504,4246.538574,4282.179688,4233.077148,4216.153809,4316.282227,4378.205078,4200.897461,4198.077148,4381.922852,4412.05127,4277.179688,4313.333496,,,,,,,,,,,,,,,,,,,,,,,,,,,,,,,,,,,,,,,,,,,,,,,,,,,,,,,,,,,,,,,,,,,,,,
1720417453,59,0,4278.974121,4245.641113,4247.05127,4280.641113,4230.897461,4216.922852,4316.794922,4379.230957,4199.230957,4196.025879,4404.871582,4412.820313,4270.769043,4311.666504,,,,,,,,,,,,,,,,,,,,,,,,,,,,,,,,,,,,,,,,,,,,,,,,,,,,,,,,,,,,,,,,,,,,,,
1720417453,60,0,4271.410156,4251.538574,4245.897461,4275.897461,4231.922852,4224.487305,4311.410156,4374.358887,4203.974121,4196.666504,4418.077148,4402.692383,4266.282227,4306.153809,,,,,,,,,,,,,,,,,,,,,,,,,,,,,,,,,,,,,,,,,,,,,,,,,,,,,,,,,,,,,,,,,,,,,,
1720417453,61,0,4291.922852,4252.692383,4255.256348,4281.538574,4235.512695,4236.666504,4318.333496,4383.205078,4217.307617,4214.487305,4408.077148,4418.974121,4278.974121,4328.589844,,,,,,,,,,,,,,,,,,,,,,,,,,,,,,,,,,,,,,,,,,,,,,,,,,,,,,,,,,,,,,,,,,,,,,
1720417453,62,0,4294.871582,4246.025879,4261.282227,4282.436035,4235.769043,4235.128418,4318.333496,4384.230957,4220,4224.358887,4412.307617,4433.077148,4284.615234,4335.384766,,,,,,,,,,,,,,,,,,,,,,,,,,,,,,,,,,,,,,,,,,,,,,,,,,,,,,,,,,,,,,,,,,,,,,
1720417453,63,0,4276.410156,4241.922852,4249.102539,4277.820313,4234.615234,4222.179688,4311.666504,4377.05127,4206.025879,4208.461426,4414.871582,4414.102539,4272.05127,4315.512695,,,,,,,,,,,,,,,,,,,,,,,,,,,,,,,,,,,,,,,,,,,,,,,,,,,,,,,,,,,,,,,,,,,,,,
1720417453,64,0,4268.589844,4246.410156,4243.717773,4280.641113,4236.666504,4221.922852,4311.025879,4374.230957,4199.102539,4198.077148,4400.769043,4403.717773,4265.128418,4316.153809,,,,,,,,,,,,,,,,,,,,,,,,,,,,,,,,,,,,,,,,,,,,,,,,,,,,,,,,,,,,,,,,,,,,,,
1720417453,65,0,4277.94873,4250.641113,4257.94873,4289.487305,4239.871582,4228.205078,4315.769043,4377.436035,4203.333496,4207.05127,4396.794922,4421.666504,4268.846191,4337.436035,,,,,,,,,,,,,,,,,,,,,,,,,,,,,,,,,,,,,,,,,,,,,,,,,,,,,,,,,,,,,,,,,,,,,,
1720417453,66,0,4284.358887,4253.846191,4267.563965,4291.025879,4237.820313,4225.641113,4317.179688,4382.179688,4202.692383,4208.846191,4394.615234,4432.94873,4270.256348,4340.256348,,,,,,,,,,,,,,,,,,,,,,,,,,,,,,,,,,,,,,,,,,,,,,,,,,,,,,,,,,,,,,,,,,,,,,
1720417453,67,0,4274.743652,4262.94873,4263.974121,4283.205078,4235.256348,4225.512695,4317.179688,4381.025879,4201.794922,4204.230957,4393.589844,4431.153809,4267.820313,4338.974121,,,,,,,,,,,,,,,,,,,,,,,,,,,,,,,,,,,,,,,,,,,,,,,,,,,,,,,,,,,,,,,,,,,,,,
1720417453,68,0,4264.615234,4267.307617,4264.230957,4273.333496,4237.179688,4231.922852,4319.615234,4380.512695,4202.94873,4213.205078,4415.384766,4437.692383,4272.563965,4345.641113,,,,,,,,,,,,,,,,,,,,,,,,,,,,,,,,,,,,,,,,,,,,,,,,,,,,,,,,,,,,,,,,,,,,,,
1720417453,69,0,4274.102539,4265.641113,4274.102539,4277.05127,4245,4231.410156,4323.205078,4382.563965,4201.666504,4221.025879,4430.512695,4447.94873,4281.538574,4341.282227,,,,,,,,,,,,,,,,,,,,,,,,,,,,,,,,,,,,,,,,,,,,,,,,,,,,,,,,,,,,,,,,,,,,,,
1720417453,70,0,4278.461426,4268.717773,4279.487305,4297.307617,4244.871582,4227.820313,4322.307617,4377.179688,4202.05127,4219.743652,4410.384766,4441.794922,4277.436035,4333.974121,,,,,,,,,,,,,,,,,,,,,,,,,,,,,,,,,,,,,,,,,,,,,,,,,,,,,,,,,,,,,,,,,,,,,,
1720417453,71,0,4247.563965,4261.538574,4267.307617,4295.897461,4235.769043,4229.743652,4319.102539,4368.717773,4201.410156,4215.384766,4385.641113,4418.077148,4261.922852,4333.333496,,,,,,,,,,,,,,,,,,,,,,,,,,,,,,,,,,,,,,,,,,,,,,,,,,,,,,,,,,,,,,,,,,,,,,
1720417453,72,0,4230,4251.538574,4253.589844,4273.974121,4238.077148,4231.538574,4319.102539,4371.794922,4197.05127,4213.077148,4385,4403.974121,4253.589844,4330.256348,17.671143,9.09787,3.176063,1.72613,1.475049,2.675331,1.324658,1.054009,1.003279,1.052217,0.959907,1.423249,0.723743,0.541169,0.604853,4.758095,2.178865,1.284859,1.377595,0.760087,1.131989,1.184997,1.409963,0.361912,0.329191,0.227615,0.407511,0.517444,0.34885,0.194434,601.676514,191.396393,103.458412,43.64278,16.49688,0.617807,0.367586,0.273432,0.209571,0.161188,1.108891,0.940865,0.528537,0.32292,0.195845,13.034019,5.323558,1.167154,1.431582,0.659626,0.39462,0.494621,1.460653,1.291354,1.389922,0.689918,0.665998,1.798594,1.1554,0.426294,0.878945,0.410622,2.053344,0.822671,0.442166,1.47024,1.048625,1.541356,1.529186,1.226939
1720417453,73,0,4245.641113,4265.128418,4260,4280.769043,4249.615234,4233.205078,4314.487305,4369.358887,4198.205078,4221.922852,4398.589844,4418.077148,4268.077148,4325.512695,,,,,,,,,,,,,,,,,,,,,,,,,,,,,,,,,,,,,,,,,,,,,,,,,,,,,,,,,,,,,,,,,,,,,,
1720417453,74,0,4244.743652,4284.102539,4276.153809,4299.615234,4246.922852,4231.410156,4316.794922,4367.563965,4203.461426,4230,4418.205078,4441.794922,4282.179688,4327.820313,,,,,,,,,,,,,,,,,,,,,,,,,,,,,,,,,,,,,,,,,,,,,,,,,,,,,,,,,,,,,,,,,,,,,,
1720417453,75,0,4225.897461,4278.974121,4278.461426,4282.692383,4233.077148,4225.512695,4323.205078,4376.666504,4210.512695,4229.487305,4423.846191,4448.077148,4276.666504,4328.717773,,,,,,,,,,,,,,,,,,,,,,,,,,,,,,,,,,,,,,,,,,,,,,,,,,,,,,,,,,,,,,,,,,,,,,
1720417453,76,0,4225.897461,4275.256348,4274.102539,4275,4228.205078,4228.461426,4317.692383,4372.563965,4217.436035,4229.102539,4415.256348,4441.410156,4276.794922,4331.666504,,,,,,,,,,,,,,,,,,,,,,,,,,,,,,,,,,,,,,,,,,,,,,,,,,,,,,,,,,,,,,,,,,,,,,
1720417453,77,0,4238.846191,4290.128418,4277.692383,4301.538574,4232.307617,4232.05127,4324.358887,4372.436035,4214.487305,4231.922852,4412.179688,4440.897461,4288.589844,4346.666504,,,,,,,,,,,,,,,,,,,,,,,,,,,,,,,,,,,,,,,,,,,,,,,,,,,,,,,,,,,,,,,,,,,,,,
1720417453,78,0,4244.358887,4282.94873,4278.461426,4296.922852,4236.282227,4222.179688,4330.512695,4378.589844,4208.846191,4232.436035,4416.153809,4444.615234,4294.743652,4343.461426,,,,,,,,,,,,,,,,,,,,,,,,,,,,,,,,,,,,,,,,,,,,,,,,,,,,,,,,,,,,,,,,,,,,,,
1720417453,79,0,4253.461426,4257.436035,4277.94873,4272.05127,4233.461426,4217.436035,4320.256348,4372.563965,4215.256348,4225.769043,4416.282227,4445.769043,4289.358887,4315.769043,,,,,,,,,,,,,,,,,,,,,,,,,,,,,,,,,,,,,,,,,,,,,,,,,,,,,,,,,,,,,,,,,,,,,,
1720417453,80,0,4248.589844,4261.282227,4280,4284.102539,4231.794922,4228.589844,4318.333496,4369.743652,4217.05127,4217.692383,4408.205078,4438.589844,4282.94873,4307.692383,,,,,,,,,,,,,,,,,,,,,,,,,,,,,,,,,,,,,,,,,,,,,,,,,,,,,,,,,,,,,,,,,,,,,,
1720417453,81,0,4200.769043,4275.769043,4271.410156,4299.871582,4241.538574,4236.153809,4323.205078,4370.128418,4202.820313,4215,4399.615234,4418.333496,4272.820313,4320.512695,,,,,,,,,,,,,,,,,,,,,,,,,,,,,,,,,,,,,,,,,,,,,,,,,,,,,,,,,,,,,,,,,,,,,,
1720417453,82,0,4151.410156,4265.384766,4256.794922,4286.794922,4247.05127,4233.974121,4314.743652,4360.897461,4195.512695,4221.153809,4397.307617,4401.666504,4265.128418,4318.205078,,,,,,,,,,,,,,,,,,,,,,,,,,,,,,,,,,,,,,,,,,,,,,,,,,,,,,,,,,,,,,,,,,,,,,
1720417453,83,0,4151.922852,4257.307617,4257.820313,4273.974121,4247.94873,4233.974121,4311.153809,4358.974121,4201.538574,4239.102539,4402.05127,4410.256348,4275.641113,4312.94873,,,,,,,,,,,,,,,,,,,,,,,,,,,,,,,,,,,,,,,,,,,,,,,,,,,,,,,,,,,,,,,,,,,,,,
1720417453,84,0,4159.358887,4266.538574,4263.717773,4272.179688,4248.589844,4233.846191,4317.436035,4365.641113,4202.563965,4249.230957,4398.077148,4422.692383,4282.179688,4313.974121,,,,,,,,,,,,,,,,,,,,,,,,,,,,,,,,,,,,,,,,,,,,,,,,,,,,,,,,,,,,,,,,,,,,,,
1720417453,85,0,4143.589844,4261.282227,4258.205078,4265.512695,4240.128418,4230.384766,4309.871582,4356.922852,4196.794922,4234.615234,4390.384766,4412.05127,4264.871582,4301.922852,,,,,,,,,,,,,,,,,,,,,,,,,,,,,,,,,,,,,,,,,,,,,,,,,,,,,,,,,,,,,,,,,,,,,,
1720417453,86,0,4148.974121,4252.436035,4259.615234,4267.179688,4233.717773,4232.05127,4308.205078,4354.230957,4198.461426,4231.538574,4399.358887,4406.794922,4258.205078,4297.436035,,,,,,,,,,,,,,,,,,,,,,,,,,,,,,,,,,,,,,,,,,,,,,,,,,,,,,,,,,,,,,,,,,,,,,
1720417453,87,0,4146.538574,4259.358887,4267.436035,4287.05127,4242.820313,4234.871582,4314.358887,4360.128418,4204.615234,4245.128418,4403.461426,4421.025879,4279.102539,4314.615234,,,,,,,,,,,,,,,,,,,,,,,,,,,,,,,,,,,,,,,,,,,,,,,,,,,,,,,,,,,,,,,,,,,,,,
1720417453,88,0,4112.820313,4262.820313,4265.641113,4296.666504,4251.282227,4231.538574,4313.717773,4357.692383,4203.205078,4235.769043,4394.615234,4429.615234,4279.102539,4322.563965,20.99357,8.434469,3.155813,1.880614,1.437225,1.954642,1.096893,1.164089,1.059897,0.900282,0.740411,1.181524,0.843955,0.555853,0.544357,4.806028,2.111364,1.217455,1.317276,0.705132,0.950252,1.14011,1.476996,0.325209,0.327904,0.27863,0.429228,0.544473,0.397086,0.187469,437.31189,139.551926,75.297897,32.196228,12.184543,0.522602,0.338772,0.311441,0.169439,0.15803,1.233979,1.039451,0.611218,0.284392,0.180667,13.223003,5.220891,1.185802,1.498003,0.661527,0.382332,0.394994,1.629824,1.372817,1.295953,0.537879,0.530064,2.130334,1.27035,0.385804,0.961269,0.299407,1.860775,0.836163,0.387498,1.565184,1.164481,1.399389,1.610955,1.064277
1720417453,89,0,4108.974121,4259.743652,4261.025879,4286.666504,4247.692383,4233.717773,4317.820313,4360.641113,4201.538574,4229.230957,4397.94873,4427.94873,4261.538574,4315.641113,,,,,,,,,,,,,,,,,,,,,,,,,,,,,,,,,,,,,,,,,,,,,,,,,,,,,,,,,,,,,,,,,,,,,,
1720417453,90,0,4132.179688,4256.282227,4262.436035,4280.641113,4243.589844,4241.538574,4321.794922,4365.897461,4212.563965,4247.307617,4412.563965,4427.179688,4268.461426,4319.487305,,,,,,,,,,,,,,,,,,,,,,,,,,,,,,,,,,,,,,,,,,,,,,,,,,,,,,,,,,,,,,,,,,,,,,
1720417453,91,0,4128.205078,4245.641113,4264.871582,4285.897461,4241.025879,4237.179688,4320.128418,4365.897461,4218.205078,4254.487305,4418.717773,4431.282227,4282.563965,4326.153809,,,,,,,,,,,,,,,,,,,,,,,,,,,,,,,,,,,,,,,,,,,,,,,,,,,,,,,,,,,,,,,,,,,,,,
1720417453,92,0,4113.846191,4242.307617,4263.589844,4288.717773,4241.794922,4228.077148,4314.102539,4360.897461,4206.538574,4244.102539,4415.641113,4433.974121,4281.922852,4318.846191,,,,,,,,,,,,,,,,,,,,,,,,,,,,,,,,,,,,,,,,,,,,,,,,,,,,,,,,,,,,,,,,,,,,,,
1720417453,93,0,4121.666504,4254.102539,4265.128418,4280.641113,4247.94873,4231.410156,4310.641113,4359.615234,4199.743652,4240.897461,4418.974121,4435.512695,4275,4319.358887,,,,,,,,,,,,,,,,,,,,,,,,,,,,,,,,,,,,,,,,,,,,,,,,,,,,,,,,,,,,,,,,,,,,,,
1720417453,94,0,4122.692383,4255.897461,4267.436035,4276.153809,4250.512695,4234.230957,4310.897461,4361.666504,4200.769043,4241.538574,4411.153809,4434.615234,4270.384766,4331.410156,,,,,,,,,,,,,,,,,,,,,,,,,,,,,,,,,,,,,,,,,,,,,,,,,,,,,,,,,,,,,,,,,,,,,,
1720417453,95,0,4104.871582,4257.436035,4261.666504,4285.897461,4245,4231.922852,4307.436035,4358.077148,4199.615234,4243.461426,4390.128418,4425.769043,4263.846191,4324.230957,,,,,,,,,,,,,,,,,,,,,,,,,,,,,,,,,,,,,,,,,,,,,,,,,,,,,,,,,,,,,,,,,,,,,,
1720417453,96,0,4104.743652,4267.436035,4261.410156,4296.025879,4246.666504,4236.794922,4307.307617,4357.307617,4206.282227,4256.025879,4390,4426.410156,4264.230957,4305.769043,,,,,,,,,,,,,,,,,,,,,,,,,,,,,,,,,,,,,,,,,,,,,,,,,,,,,,,,,,,,,,,,,,,,,,
1720417453,97,0,4125.384766,4257.05127,4273.077148,4292.307617,4258.974121,4239.487305,4312.307617,4361.666504,4213.717773,4264.102539,4412.436035,4441.282227,4275.512695,4311.666504,,,,,,,,,,,,,,,,,,,,,,,,,,,,,,,,,,,,,,,,,,,,,,,,,,,,,,,,,,,,,,,,,,,,,,
1720417453,98,0,4126.153809,4247.179688,4276.922852,4291.538574,4260.897461,4232.692383,4313.333496,4358.205078,4206.025879,4254.871582,4422.563965,4439.743652,4278.333496,4328.717773,,,,,,,,,,,,,,,,,,,,,,,,,,,,,,,,,,,,,,,,,,,,,,,,,,,,,,,,,,,,,,,,,,,,,,
1720417453,99,0,4099.743652,4269.102539,4262.820313,4299.487305,4244.743652,4230,4310.256348,4352.179688,4197.692383,4242.05127,4412.692383,4420.256348,4268.461426,4331.153809,,,,,,,,,,,,,,,,,,,,,,,,,,,,,,,,,,,,,,,,,,,,,,,,,,,,,,,,,,,,,,,,,,,,,,
1720417453,100,0,4090.384521,4290.897461,4258.589844,4296.025879,4235,4233.205078,4309.615234,4355.128418,4198.077148,4239.230957,4398.077148,4423.333496,4261.666504,4324.487305,,,,,,,,,,,,,,,,,,,,,,,,,,,,,,,,,,,,,,,,,,,,,,,,,,,,,,,,,,,,,,,,,,,,,,
1720417453,101,0,4108.461426,4279.871582,4275.641113,4295.128418,4238.461426,4232.692383,4310.641113,4358.589844,4204.102539,4246.794922,4388.205078,4444.871582,4267.307617,4317.307617,,,,,,,,,,,,,,,,,,,,,,,,,,,,,,,,,,,,,,,,,,,,,,,,,,,,,,,,,,,,,,,,,,,,,,
1720417453,102,0,4102.820313,4263.205078,4281.153809,4295.256348,4244.230957,4228.205078,4307.436035,4354.102539,4211.538574,4255.897461,4395.128418,4442.436035,4266.538574,4307.563965,,,,,,,,,,,,,,,,,,,,,,,,,,,,,,,,,,,,,,,,,,,,,,,,,,,,,,,,,,,,,,,,,,,,,,
1720417453,103,0,4070.897461,4262.692383,4258.974121,4286.153809,4248.717773,4230.384766,4305.128418,4351.538574,4209.615234,4259.743652,4407.307617,4416.153809,4255.384766,4305.256348,,,,,,,,,,,,,,,,,,,,,,,,,,,,,,,,,,,,,,,,,,,,,,,,,,,,,,,,,,,,,,,,,,,,,,
1720417453,104,0,4066.281982,4266.538574,4245.128418,4285.384766,4238.461426,4242.307617,4307.94873,4351.666504,4203.717773,4260.512695,4411.410156,4409.615234,4255,4310.769043,22.978548,7.38209,3.161401,2.058502,1.463668,1.315428,0.857832,1.374043,1.106003,0.742815,0.576472,0.944584,1.060826,0.575718,0.474042,4.259679,1.910803,1.098651,1.245592,0.673948,0.809042,0.968485,1.398343,0.289903,0.322014,0.343965,0.470663,0.554621,0.436539,0.183004,262.742065,83.868294,44.971897,19.644094,7.459236,0.46106,0.300451,0.361757,0.130824,0.153726,1.376166,1.023181,0.753847,0.252558,0.174504,11.566861,4.468335,1.138157,1.411502,0.628633,0.451173,0.38475,2.060997,1.452289,1.220827,0.477672,0.457302,2.652348,1.376353,0.365308,1.189191,0.281938,1.767015,0.861937,0.356357,1.760812,1.375226,1.426286,1.719531,0.889719
1720417453,105,0,4088.333252,4270.256348,4255.897461,4293.461426,4218.077148,4250,4309.743652,4348.974121,4204.358887,4259.871582,4408.974121,4426.025879,4265,4309.487305,,,,,,,,,,,,,,,,,,,,,,,,,,,,,,,,,,,,,,,,,,,,,,,,,,,,,,,,,,,,,,,,,,,,,,
1720417453,106,0,4086.666748,4273.589844,4259.743652,4292.563965,4211.153809,4244.102539,4305.897461,4348.461426,4203.974121,4253.717773,4395.256348,4425,4264.871582,4309.102539,,,,,,,,,,,,,,,,,,,,,,,,,,,,,,,,,,,,,,,,,,,,,,,,,,,,,,,,,,,,,,,,,,,,,,
1720417453,107,0,4067.692383,4271.794922,4243.333496,4284.487305,4214.871582,4242.692383,4303.077148,4355.641113,4200.384766,4251.922852,4382.179688,4405.769043,4255.256348,4311.666504,,,,,,,,,,,,,,,,,,,,,,,,,,,,,,,,,,,,,,,,,,,,,,,,,,,,,,,,,,,,,,,,,,,,,,
1720417453,108,0,4084.487061,4262.692383,4242.307617,4277.94873,4213.717773,4249.871582,4307.307617,4367.563965,4201.282227,4260.641113,4388.077148,4413.717773,4258.077148,4310,,,,,,,,,,,,,,,,,,,,,,,,,,,,,,,,,,,,,,,,,,,,,,,,,,,,,,,,,,,,,,,,,,,,,,
1720417453,109,0,4113.589844,4264.871582,4261.922852,4279.358887,4212.692383,4247.179688,4311.794922,4375.128418,4206.922852,4264.487305,4407.692383,4441.025879,4266.794922,4314.487305,,,,,,,,,,,,,,,,,,,,,,,,,,,,,,,,,,,,,,,,,,,,,,,,,,,,,,,,,,,,,,,,,,,,,,
1720417453,110,0,4100.512695,4276.282227,4258.717773,4286.538574,4216.153809,4237.563965,4310,4376.666504,4212.436035,4262.820313,4416.153809,4442.820313,4264.743652,4316.794922,,,,,,,,,,,,,,,,,,,,,,,,,,,,,,,,,,,,,,,,,,,,,,,,,,,,,,,,,,,,,,,,,,,,,,
1720417453,111,0,4070.128174,4273.974121,4231.922852,4283.205078,4218.333496,4241.153809,4306.538574,4375,4213.974121,4263.846191,4408.589844,4424.743652,4260.384766,4303.846191,,,,,,,,,,,,,,,,,,,,,,,,,,,,,,,,,,,,,,,,,,,,,,,,,,,,,,,,,,,,,,,,,,,,,,
1720417453,112,0,4068.846191,4275.256348,4222.436035,4280.128418,4216.794922,4246.538574,4308.846191,4374.358887,4215.384766,4269.102539,4393.846191,4419.743652,4263.333496,4307.05127,,,,,,,,,,,,,,,,,,,,,,,,,,,,,,,,,,,,,,,,,,,,,,,,,,,,,,,,,,,,,,,,,,,,,,
1720417453,113,0,4080,4278.589844,4232.307617,4285.897461,4207.820313,4238.077148,4313.333496,4375.384766,4214.615234,4266.922852,4386.666504,4426.282227,4266.922852,4325.769043,,,,,,,,,,,,,,,,,,,,,,,,,,,,,,,,,,,,,,,,,,,,,,,,,,,,,,,,,,,,,,,,,,,,,,
1720417453,114,0,4088.333252,4270.384766,4237.436035,4289.230957,4199.358887,4236.538574,4307.692383,4372.179688,4206.282227,4254.358887,4394.230957,4432.05127,4263.589844,4323.077148,,,,,,,,,,,,,,,,,,,,,,,,,,,,,,,,,,,,,,,,,,,,,,,,,,,,,,,,,,,,,,,,,,,,,,
1720417453,115,0,4094.487061,4270.256348,4229.615234,4293.589844,4195.641113,4247.05127,4300.384766,4367.307617,4198.461426,4251.153809,4407.307617,4430,4261.922852,4309.358887,,,,,,,,,,,,,,,,,,,,,,,,,,,,,,,,,,,,,,,,,,,,,,,,,,,,,,,,,,,,,,,,,,,,,,
1720417453,116,0,4081.666748,4279.615234,4222.820313,4296.794922,4187.563965,4248.974121,4305.128418,4369.487305,4201.282227,4260.769043,4410.641113,4422.436035,4263.333496,4304.230957,,,,,,,,,,,,,,,,,,,,,,,,,,,,,,,,,,,,,,,,,,,,,,,,,,,,,,,,,,,,,,,,,,,,,,
1720417453,117,0,4075,4281.025879,4227.05127,4297.436035,4184.487305,4247.307617,4312.436035,4375,4210.128418,4262.820313,4400.641113,4424.230957,4267.94873,4304.871582,,,,,,,,,,,,,,,,,,,,,,,,,,,,,,,,,,,,,,,,,,,,,,,,,,,,,,,,,,,,,,,,,,,,,,
1720417453,118,0,4097.436035,4274.743652,4239.615234,4292.94873,4195.128418,4245.641113,4309.615234,4373.205078,4213.717773,4263.846191,4395.641113,4437.563965,4273.077148,4314.102539,,,,,,,,,,,,,,,,,,,,,,,,,,,,,,,,,,,,,,,,,,,,,,,,,,,,,,,,,,,,,,,,,,,,,,
1720417453,119,0,4100.897461,4268.205078,4232.692383,4283.205078,4192.179688,4237.05127,4298.333496,4366.025879,4206.666504,4264.487305,4398.461426,4433.974121,4275.512695,4319.615234,,,,,,,,,,,,,,,,,,,,,,,,,,,,,,,,,,,,,,,,,,,,,,,,,,,,,,,,,,,,,,,,,,,,,,
1720417453,120,0,4075.769287,4259.358887,4214.871582,4283.077148,4177.563965,4233.974121,4293.461426,4363.717773,4199.871582,4250.769043,4406.922852,4415.128418,4263.974121,4309.230957,23.084547,6.295301,3.15692,2.255147,1.537767,0.868603,0.667228,1.626742,1.149236,0.617369,0.518125,0.77776,1.298481,0.606163,0.406181,3.414102,1.650443,0.941115,1.162138,0.678224,0.711414,0.72375,1.20507,0.257453,0.3162,0.411796,0.527986,0.541103,0.450751,0.182701,122.955597,39.293514,20.829262,9.451839,3.618494,0.385752,0.271767,0.40176,0.10372,0.150082,1.526075,0.907488,0.931044,0.239034,0.175825,8.652328,3.309583,1.046654,1.212065,0.56985,0.556437,0.459427,2.661535,1.529948,1.179836,0.545874,0.491988,3.171702,1.45048,0.368688,1.388299,0.33003,1.755943,0.891722,0.35286,1.9922,1.606323,1.540134,1.841557,0.730566
1720417453,121,0,4073.076904,4262.820313,4219.615234,4288.717773,4188.205078,4243.974121,4306.025879,4366.794922,4201.153809,4244.487305,4412.179688,4415.384766,4236.538574,4305.128418,,,,,,,,,,,,,,,,,,,,,,,,,,,,,,,,,,,,,,,,,,,,,,,,,,,,,,,,,,,,,,,,,,,,,,
1720417453,122,0,4085.512939,4276.922852,4233.461426,4269.871582,4206.794922,4248.205078,4311.410156,4366.922852,4201.410156,4255.256348,4399.230957,4430.512695,4217.307617,4309.743652,,,,,,,,,,,,,,,,,,,,,,,,,,,,,,,,,,,,,,,,,,,,,,,,,,,,,,,,,,,,,,,,,,,,,,
1720417453,123,0,4096.538574,4276.025879,4234.615234,4246.025879,4204.871582,4245.128418,4302.436035,4363.077148,4203.205078,4264.230957,4391.794922,4439.230957,4216.410156,4317.179688,,,,,,,,,,,,,,,,,,,,,,,,,,,,,,,,,,,,,,,,,,,,,,,,,,,,,,,,,,,,,,,,,,,,,,
1720417453,124,0,4110.769043,4272.307617,4232.563965,4253.974121,4205.384766,4240.641113,4301.153809,4362.563965,4206.666504,4272.563965,4406.282227,4443.333496,4211.794922,4328.333496,,,,,,,,,,,,,,,,,,,,,,,,,,,,,,,,,,,,,,,,,,,,,,,,,,,,,,,,,,,,,,,,,,,,,,
1720417453,125,0,4101.794922,4272.94873,4232.94873,4262.563965,4222.820313,4232.05127,4304.358887,4362.436035,4202.307617,4281.025879,4411.410156,4437.563965,4198.846191,4329.871582,,,,,,,,,,,,,,,,,,,,,,,,,,,,,,,,,,,,,,,,,,,,,,,,,,,,,,,,,,,,,,,,,,,,,,
1720417453,126,0,4084.743652,4282.179688,4234.743652,4259.102539,4217.179688,4231.794922,4301.922852,4358.461426,4205.769043,4291.538574,4417.563965,4430.384766,4205.897461,4328.333496,,,,,,,,,,,,,,,,,,,,,,,,,,,,,,,,,,,,,,,,,,,,,,,,,,,,,,,,,,,,,,,,,,,,,,
1720417453,127,0,4095.256348,4292.94873,4241.922852,4266.153809,4177.94873,4242.179688,4306.025879,4355.897461,4217.692383,4307.820313,4432.179688,4438.974121,4218.846191,4329.615234,,,,,,,,,,,,,,,,,,,,,,,,,,,,,,,,,,,,,,,,,,,,,,,,,,,,,,,,,,,,,,,,,,,,,,
1720417453,0,0,4110.512695,4289.487305,4242.820313,4268.077148,4142.436035,4248.333496,4313.974121,4354.743652,4217.692383,4317.05127,4415.384766,4446.153809,4212.436035,4325.256348,,,,,,,,,,,,,,,,,,,,,,,,,,,,,,,,,,,,,,,,,,,,,,,,,,,,,,,,,,,,,,,,,,,,,,
1720417453,1,0,4121.153809,4286.025879,4238.461426,4262.563965,4131.025879,4247.820313,4311.410156,4351.922852,4215.641113,4310.897461,4407.692383,4443.974121,4211.538574,4323.846191,,,,,,,,,,,,,,,,,,,,,,,,,,,,,,,,,,,,,,,,,,,,,,,,,,,,,,,,,,,,,,,,,,,,,,
1720417453,2,0,4126.410156,4291.410156,4247.179688,4267.05127,4124.102539,4241.666504,4308.205078,4349.358887,4212.436035,4303.589844,4428.461426,4441.666504,4217.563965,4328.077148,,,,,,,,,,,,,,,,,,,,,,,,,,,,,,,,,,,,,,,,,,,,,,,,,,,,,,,,,,,,,,,,,,,,,,
1720417453,3,0,4104.743652,4290.897461,4249.487305,4265.512695,4107.820313,4237.179688,4309.487305,4349.743652,4197.94873,4299.358887,4407.563965,4433.205078,4208.974121,4325.512695,,,,,,,,,,,,,,,,,,,,,,,,,,,,,,,,,,,,,,,,,,,,,,,,,,,,,,,,,,,,,,,,,,,,,,
1720417453,4,0,4092.820557,4271.538574,4234.871582,4247.94873,4089.230713,4230.128418,4302.436035,4343.974121,4191.410156,4288.333496,4368.077148,4419.230957,4192.05127,4312.05127,,,,,,,,,,,,,,,,,,,,,,,,,,,,,,,,,,,,,,,,,,,,,,,,,,,,,,,,,,,,,,,,,,,,,,
1720417453,5,0,4106.410156,4260.641113,4224.487305,4244.358887,4071.153809,4217.692383,4302.307617,4339.871582,4191.922852,4283.461426,4378.846191,4415.512695,4186.794922,4306.282227,,,,,,,,,,,,,,,,,,,,,,,,,,,,,,,,,,,,,,,,,,,,,,,,,,,,,,,,,,,,,,,,,,,,,,
1720417453,6,0,4099.358887,4270.512695,4228.205078,4257.820313,4062.564209,4218.333496,4312.692383,4341.666504,4185.769043,4284.230957,4400.384766,4420.128418,4192.179688,4309.487305,,,,,,,,,,,,,,,,,,,,,,,,,,,,,,,,,,,,,,,,,,,,,,,,,,,,,,,,,,,,,,,,,,,,,,
1720417453,7,0,4097.94873,4278.717773,4241.410156,4265,4068.205078,4233.974121,4317.820313,4338.717773,4191.025879,4287.692383,4395.512695,4425.128418,4204.743652,4315.641113,,,,,,,,,,,,,,,,,,,,,,,,,,,,,,,,,,,,,,,,,,,,,,,,,,,,,,,,,,,,,,,,,,,,,,
1720417453,8,0,4133.974121,4286.153809,4256.410156,4273.974121,4077.307617,4238.077148,4320.897461,4338.846191,4208.974121,4304.358887,4396.922852,4435.256348,4212.563965,4329.487305,21.475214,5.470589,3.094403,2.451589,1.626643,0.688203,0.561709,1.851974,1.194599,0.542138,0.614711,0.70161,1.486256,0.639714,0.354675,2.401911,1.389863,0.790646,1.066073,0.720627,0.649538,0.487296,0.95816,0.2328,0.313828,0.458081,0.588428,0.503212,0.430795,0.186495,40.160496,12.764847,6.688044,3.307633,1.30081,0.344167,0.272268,0.418916,0.090899,0.147434,1.647124,0.749813,1.093352,0.248406,0.180572,5.490361,2.113439,0.940526,0.984735,0.503948,0.646096,0.603655,3.26977,1.609334,1.163909,0.763102,0.669551,3.536441,1.470069,0.398831,1.53291,0.430014,1.781534,0.905806,0.372905,2.212146,1.783589,1.672443,1.937169,0.6071
1720417453,9,0,4143.717773,4301.153809,4255.512695,4282.05127,4082.05127,4229.102539,4326.666504,4347.05127,4214.487305,4311.282227,4405.256348,4446.153809,4221.794922,4344.230957,,,,,,,,,,,,,,,,,,,,,,,,,,,,,,,,,,,,,,,,,,,,,,,,,,,,,,,,,,,,,,,,,,,,,,
1720417453,10,0,4112.179688,4309.102539,4248.205078,4276.538574,4090.641113,4235,4323.077148,4347.436035,4212.563965,4301.538574,4409.230957,4451.153809,4257.563965,4358.974121,,,,,,,,,,,,,,,,,,,,,,,,,,,,,,,,,,,,,,,,,,,,,,,,,,,,,,,,,,,,,,,,,,,,,,
1720417453,11,0,4102.307617,4300.384766,4256.025879,4273.589844,4113.589844,4247.307617,4321.153809,4339.358887,4217.05127,4300.897461,4413.846191,4450.512695,4288.974121,4366.025879,,,,,,,,,,,,,,,,,,,,,,,,,,,,,,,,,,,,,,,,,,,,,,,,,,,,,,,,,,,,,,,,,,,,,,
1720417453,12,0,4112.94873,4293.974121,4267.563965,4282.05127,4136.794922,4245.641113,4331.666504,4341.666504,4223.461426,4313.846191,4414.743652,4451.538574,4290.256348,4353.589844,,,,,,,,,,,,,,,,,,,,,,,,,,,,,,,,,,,,,,,,,,,,,,,,,,,,,,,,,,,,,,,,,,,,,,
1720417453,13,0,4102.436035,4289.743652,4260,4281.153809,4132.692383,4235.256348,4327.05127,4342.563965,4218.205078,4311.025879,4411.025879,4444.230957,4286.153809,4340.128418,,,,,,,,,,,,,,,,,,,,,,,,,,,,,,,,,,,,,,,,,,,,,,,,,,,,,,,,,,,,,,,,,,,,,,
1720417453,14,0,4083.589844,4294.487305,4248.077148,4275.128418,4124.871582,4230.769043,4313.846191,4331.794922,4202.436035,4294.102539,4412.94873,4431.410156,4290.897461,4347.820313,,,,,,,,,,,,,,,,,,,,,,,,,,,,,,,,,,,,,,,,,,,,,,,,,,,,,,,,,,,,,,,,,,,,,,
1720417453,15,0,4096.538574,4308.717773,4254.743652,4284.615234,4147.820313,4240.512695,4322.820313,4331.153809,4205,4297.436035,4418.461426,4439.871582,4294.102539,4362.05127,,,,,,,,,,,,,,,,,,,,,,,,,,,,,,,,,,,,,,,,,,,,,,,,,,,,,,,,,,,,,,,,,,,,,,
1720417453,16,0,4121.666504,4306.025879,4268.333496,4285,4178.333496,4245.512695,4338.333496,4336.410156,4217.692383,4311.538574,4412.94873,4451.794922,4291.794922,4363.717773,,,,,,,,,,,,,,,,,,,,,,,,,,,,,,,,,,,,,,,,,,,,,,,,,,,,,,,,,,,,,,,,,,,,,,
1720417453,17,0,4116.282227,4302.94873,4267.692383,4278.717773,4190.641113,4237.820313,4341.538574,4335.128418,4215.512695,4313.333496,4399.743652,4444.615234,4292.436035,4364.871582,,,,,,,,,,,,,,,,,,,,,,,,,,,,,,,,,,,,,,,,,,,,,,,,,,,,,,,,,,,,,,,,,,,,,,
1720417453,18,0,4104.487305,4313.717773,4262.563965,4288.333496,4198.077148,4235.128418,4342.179688,4332.179688,4213.461426,4303.846191,4406.410156,4444.102539,4300.641113,4368.077148,,,,,,,,,,,,,,,,,,,,,,,,,,,,,,,,,,,,,,,,,,,,,,,,,,,,,,,,,,,,,,,,,,,,,,
1720417453,19,0,4107.94873,4307.563965,4267.563965,4285.128418,4205.641113,4246.025879,4344.230957,4331.410156,4215.256348,4302.436035,4428.974121,4454.487305,4301.025879,4369.358887,,,,,,,,,,,,,,,,,,,,,,,,,,,,,,,,,,,,,,,,,,,,,,,,,,,,,,,,,,,,,,,,,,,,,,
1720417453,20,0,4098.333496,4291.282227,4261.794922,4267.179688,4200.512695,4247.820313,4337.692383,4327.436035,4204.743652,4302.692383,4423.974121,4443.974121,4281.922852,4364.102539,,,,,,,,,,,,,,,,,,,,,,,,,,,,,,,,,,,,,,,,,,,,,,,,,,,,,,,,,,,,,,,,,,,,,,
1720417453,21,0,4074.487061,4290.256348,4247.94873,4270.769043,4199.358887,4234.102539,4326.922852,4323.077148,4195.512695,4294.743652,4397.94873,4424.230957,4272.436035,4352.179688,,,,,,,,,,,,,,,,,,,,,,,,,,,,,,,,,,,,,,,,,,,,,,,,,,,,,,,,,,,,,,,,,,,,,,
1720417453,22,0,4071.794922,4292.179688,4254.358887,4282.436035,4212.307617,4234.230957,4324.358887,4322.94873,4197.692383,4289.230957,4395.897461,4424.102539,4281.922852,4352.563965,,,,,,,,,,,,,,,,,,,,,,,,,,,,,,,,,,,,,,,,,,,,,,,,,,,,,,,,,,,,,,,,,,,,,,
1720417453,23,0,4094.487061,4291.153809,4268.333496,4280.769043,4217.307617,4246.410156,4326.794922,4326.794922,4199.358887,4288.333496,4407.563965,4433.461426,4282.436035,4365.769043,,,,,,,,,,,,,,,,,,,,,,,,,,,,,,,,,,,,,,,,,,,,,,,,,,,,,,,,,,,,,,,,,,,,,,
1720417453,24,0,4108.077148,4289.102539,4266.922852,4282.692383,4213.333496,4245.641113,4326.410156,4331.538574,4205.641113,4292.94873,4400.256348,4434.102539,4279.871582,4368.461426,18.548508,4.972927,2.973912,2.609602,1.702716,0.725295,0.548111,1.973086,1.233195,0.510368,0.883215,0.694622,1.568551,0.659454,0.332615,1.602146,1.164485,0.685833,0.959534,0.786387,0.699189,0.392861,0.727597,0.227789,0.315811,0.482456,0.639192,0.450168,0.383512,0.192916,7.340946,2.228749,1.266161,0.792294,0.354587,0.337649,0.306121,0.411339,0.089854,0.144511,1.699821,0.61835,1.186139,0.278358,0.184057,2.904444,1.194053,0.840131,0.812931,0.447272,0.716922,0.791394,3.687738,1.702624,1.144092,1.14822,0.977379,3.648834,1.420086,0.458649,1.583699,0.567241,1.791155,0.883381,0.405571,2.391613,1.849526,1.743329,1.960739,0.525607
1720417453,25,0,4105.256348,4281.410156,4261.666504,4282.436035,4221.666504,4237.563965,4323.589844,4332.05127,4214.102539,4292.307617,4395.897461,4429.743652,4279.615234,4345.512695,,,,,,,,,,,,,,,,,,,,,,,,,,,,,,,,,,,,,,,,,,,,,,,,,,,,,,,,,,,,,,,,,,,,,,
1720417453,26,0,4110.641113,4280.897461,4267.307617,4273.589844,4230,4240.384766,4325,4327.563965,4216.282227,4295,4414.871582,4434.358887,4281.410156,4332.307617,,,,,,,,,,,,,,,,,,,,,,,,,,,,,,,,,,,,,,,,,,,,,,,,,,,,,,,,,,,,,,,,,,,,,,
1720417453,27,0,4120.512695,4281.794922,4268.846191,4282.820313,4222.820313,4248.077148,4328.461426,4325.384766,4219.358887,4307.436035,4423.589844,4443.974121,4289.230957,4355.897461,,,,,,,,,,,,,,,,,,,,,,,,,,,,,,,,,,,,,,,,,,,,,,,,,,,,,,,,,,,,,,,,,,,,,,
1720417453,28,0,4114.871582,4274.102539,4263.717773,4290.256348,4222.563965,4249.102539,4329.743652,4328.333496,4221.538574,4308.589844,4407.820313,4446.922852,4289.358887,4378.461426,,,,,,,,,,,,,,,,,,,,,,,,,,,,,,,,,,,,,,,,,,,,,,,,,,,,,,,,,,,,,,,,,,,,,,
1720417453,29,0,4100.512695,4270.256348,4263.589844,4279.743652,4226.153809,4245.769043,4326.666504,4327.94873,4212.436035,4292.563965,4408.077148,4441.794922,4275.384766,4368.461426,,,,,,,,,,,,,,,,,,,,,,,,,,,,,,,,,,,,,,,,,,,,,,,,,,,,,,,,,,,,,,,,,,,,,,
1720417453,30,0,4096.794922,4277.692383,4272.307617,4287.307617,4217.94873,4246.410156,4325.512695,4322.436035,4211.922852,4290.897461,4428.461426,4440.384766,4262.692383,4361.922852,,,,,,,,,,,,,,,,,,,,,,,,,,,,,,,,,,,,,,,,,,,,,,,,,,,,,,,,,,,,,,,,,,,,,,
1720417453,31,0,4098.974121,4279.102539,4282.563965,4302.563965,4212.179688,4253.846191,4334.871582,4329.743652,4225.512695,4306.666504,4426.538574,4446.666504,4249.358887,4379.743652,,,,,,,,,,,,,,,,,,,,,,,,,,,,,,,,,,,,,,,,,,,,,,,,,,,,,,,,,,,,,,,,,,,,,,
1720417453,32,0,4101.922852,4268.205078,4276.794922,4285,4214.358887,4253.589844,4335.384766,4331.794922,4224.615234,4307.692383,4407.05127,4442.692383,4222.692383,4373.461426,,,,,,,,,,,,,,,,,,,,,,,,,,,,,,,,,,,,,,,,,,,,,,,,,,,,,,,,,,,,,,,,,,,,,,
1720417453,33,0,4108.205078,4259.487305,4265.256348,4266.410156,4215.769043,4249.358887,4330.256348,4323.717773,4216.794922,4299.358887,4402.436035,4433.077148,4215.769043,4354.615234,,,,,,,,,,,,,,,,,,,,,,,,,,,,,,,,,,,,,,,,,,,,,,,,,,,,,,,,,,,,,,,,,,,,,,
1720417453,34,0,4107.692383,4262.94873,4270.641113,4289.358887,4213.333496,4263.461426,4341.538574,4329.102539,4216.666504,4289.487305,4405.512695,4439.743652,4249.615234,4363.461426,,,,,,,,,,,,,,,,,,,,,,,,,,,,,,,,,,,,,,,,,,,,,,,,,,,,,,,,,,,,,,,,,,,,,,
1720417453,35,0,4103.846191,4266.922852,4281.282227,4304.230957,4212.692383,4283.333496,4345.769043,4329.230957,4215.769043,4282.436035,4401.794922,4443.974121,4283.205078,4372.820313,,,,,,,,,,,,,,,,,,,,,,,,,,,,,,,,,,,,,,,,,,,,,,,,,,,,,,,,,,,,,,,,,,,,,,
1720417453,36,0,4111.025879,4262.563965,4276.538574,4282.563965,4216.410156,4283.589844,4343.974121,4322.179688,4213.333496,4287.820313,4403.205078,4437.307617,4292.436035,4363.974121,,,,,,,,,,,,,,,,,,,,,,,,,,,,,,,,,,,,,,,,,,,,,,,,,,,,,,,,,,,,,,,,,,,,,,
1720417453,37,0,4115.641113,4257.820313,4270.256348,4267.05127,4221.794922,4277.436035,4353.974121,4328.077148,4215.256348,4292.179688,4407.05127,4438.974121,4291.410156,4352.05127,,,,,,,,,,,,,,,,,,,,,,,,,,,,,,,,,,,,,,,,,,,,,,,,,,,,,,,,,,,,,,,,,,,,,,
1720417453,38,0,4110,4257.436035,4277.820313,4278.461426,4224.102539,4282.692383,4359.615234,4331.922852,4220.512695,4291.025879,4415.897461,4442.179688,4292.563965,4351.153809,,,,,,,,,,,,,,,,,,,,,,,,,,,,,,,,,,,,,,,,,,,,,,,,,,,,,,,,,,,,,,,,,,,,,,
1720417453,39,0,4104.487305,4266.538574,4282.179688,4293.333496,4227.307617,4287.820313,4356.922852,4324.743652,4227.94873,4294.102539,4421.922852,4435.128418,4290.641113,4355.128418,,,,,,,,,,,,,,,,,,,,,,,,,,,,,,,,,,,,,,,,,,,,,,,,,,,,,,,,,,,,,,,,,,,,,,
1720417453,40,0,4105.384766,4273.205078,4273.077148,4287.94873,4229.102539,4286.153809,4356.025879,4326.153809,4232.179688,4297.820313,4401.794922,4429.358887,4284.230957,4343.717773,15.215165,4.712131,2.827445,2.699169,1.749894,0.860286,0.614378,1.943177,1.252711,0.499098,1.251225,0.713208,1.521632,0.65245,0.346048,1.147625,0.993717,0.651748,0.847359,0.845649,1.50842,0.583572,0.560853,0.260988,0.323907,0.482518,0.667633,0.395025,0.328947,0.199806,1.228445,0.256874,0.327177,0.237973,0.153001,0.370157,0.366946,0.388823,0.095239,0.139407,1.646447,0.576017,1.19146,0.319983,0.18332,1.454447,0.721806,0.777845,0.737967,0.40674,0.777868,1.004913,3.77315,1.81985,1.094215,1.620221,1.363808,3.479427,1.309789,0.544245,1.864288,0.778666,1.786119,0.823593,0.439174,2.444082,1.808503,1.69375,1.896411,0.480726
1720417453,41,0,4115.641113,4265.641113,4265.641113,4277.436035,4229.743652,4286.282227,4348.974121,4328.333496,4229.871582,4293.846191,4385.384766,4427.820313,4282.05127,4326.794922,,,,,,,,,,,,,,,,,,,,,,,,,,,,,,,,,,,,,,,,,,,,,,,,,,,,,,,,,,,,,,,,,,,,,,
1720417453,42,0,4123.333496,4265.641113,4269.358887,4282.179688,4236.410156,4293.589844,4343.846191,4323.333496,4231.794922,4294.230957,4399.615234,4430.128418,4289.358887,4344.871582,,,,,,,,,,,,,,,,,,,,,,,,,,,,,,,,,,,,,,,,,,,,,,,,,,,,,,,,,,,,,,,,,,,,,,
1720417453,43,0,4127.820313,4279.871582,4281.922852,4294.871582,4238.205078,4295.384766,4349.615234,4329.230957,4236.025879,4296.794922,4418.846191,4447.05127,4298.589844,4373.077148,,,,,,,,,,,,,,,,,,,,,,,,,,,,,,,,,,,,,,,,,,,,,,,,,,,,,,,,,,,,,,,,,,,,,,
1720417453,44,0,4134.102539,4286.025879,4292.820313,4303.461426,4231.153809,4289.102539,4343.589844,4332.820313,4240.384766,4296.025879,4426.794922,4461.794922,4301.282227,4367.94873,,,,,,,,,,,,,,,,,,,,,,,,,,,,,,,,,,,,,,,,,,,,,,,,,,,,,,,,,,,,,,,,,,,,,,
1720417453,45,0,4130.897461,4276.666504,4290,4299.102539,4229.615234,4287.307617,4338.205078,4330.128418,4248.461426,4304.615234,4432.307617,4454.871582,4305.769043,4358.205078,,,,,,,,,,,,,,,,,,,,,,,,,,,,,,,,,,,,,,,,,,,,,,,,,,,,,,,,,,,,,,,,,,,,,,
1720417453,46,0,4126.282227,4267.563965,4280.769043,4296.538574,4235.512695,4286.153809,4344.230957,4330.256348,4248.333496,4309.358887,4422.692383,4443.717773,4311.282227,4353.205078,,,,,,,,,,,,,,,,,,,,,,,,,,,,,,,,,,,,,,,,,,,,,,,,,,,,,,,,,,,,,,,,,,,,,,
1720417453,47,0,4128.205078,4263.333496,4279.102539,4307.05127,4236.794922,4277.692383,4339.743652,4325.512695,4240.256348,4300.897461,4401.538574,4442.436035,4293.205078,4343.077148,,,,,,,,,,,,,,,,,,,,,,,,,,,,,,,,,,,,,,,,,,,,,,,,,,,,,,,,,,,,,,,,,,,,,,
1720417453,48,0,4123.205078,4260.769043,4279.871582,4305.769043,4233.589844,4274.230957,4332.563965,4315.128418,4227.94873,4292.692383,4398.974121,4443.461426,4259.230957,4343.333496,,,,,,,,,,,,,,,,,,,,,,,,,,,,,,,,,,,,,,,,,,,,,,,,,,,,,,,,,,,,,,,,,,,,,,
1720417453,49,0,4112.05127,4265.128418,4277.179688,4292.179688,4233.589844,4277.436035,4326.922852,4311.410156,4215.769043,4288.333496,4404.487305,4438.974121,4240.256348,4343.205078,,,,,,,,,,,,,,,,,,,,,,,,,,,,,,,,,,,,,,,,,,,,,,,,,,,,,,,,,,,,,,,,,,,,,,
1720417453,50,0,4118.077148,4275.512695,4277.179688,4301.538574,4230.512695,4274.487305,4322.179688,4318.205078,4219.358887,4288.461426,4405.897461,4435.384766,4243.589844,4345.641113,,,,,,,,,,,,,,,,,,,,,,,,,,,,,,,,,,,,,,,,,,,,,,,,,,,,,,,,,,,,,,,,,,,,,,
1720417454,51,0,4131.922852,4282.820313,4278.974121,4311.410156,4227.436035,4275.128418,4326.153809,4321.666504,4234.615234,4296.666504,4414.743652,4441.025879,4255,4366.282227,,,,,,,,,,,,,,,,,,,,,,,,,,,,,,,,,,,,,,,,,,,,,,,,,,,,,,,,,,,,,,,,,,,,,,
1720417454,52,0,4134.487305,4276.666504,4278.333496,4295.256348,4229.487305,4280.512695,4332.05127,4319.615234,4238.589844,4295,4414.102539,4442.692383,4253.077148,4369.615234,,,,,,,,,,,,,,,,,,,,,,,,,,,,,,,,,,,,,,,,,,,,,,,,,,,,,,,,,,,,,,,,,,,,,,
1720417454,53,0,4132.436035,4275,4276.025879,4290.128418,4233.077148,4279.102539,4327.05127,4317.692383,4232.05127,4284.615234,4398.846191,4436.282227,4241.794922,4346.666504,,,,,,,,,,,,,,,,,,,,,,,,,,,,,,,,,,,,,,,,,,,,,,,,,,,,,,,,,,,,,,,,,,,,,,
1720417454,54,0,4118.846191,4279.743652,4270.128418,4302.820313,4237.563965,4278.461426,4320.256348,4315.128418,4231.922852,4288.846191,4397.307617,4428.461426,4237.94873,4337.05127,,,,,,,,,,,,,,,,,,,,,,,,,,,,,,,,,,,,,,,,,,,,,,,,,,,,,,,,,,,,,,,,,,,,,,
1720417454,55,0,4103.589844,4267.692383,4259.615234,4296.153809,4230.512695,4277.94873,4319.743652,4310.641113,4236.282227,4295.256348,4393.333496,4414.487305,4234.743652,4336.922852,,,,,,,,,,,,,,,,,,,,,,,,,,,,,,,,,,,,,,,,,,,,,,,,,,,,,,,,,,,,,,,,,,,,,,
1720417454,56,0,4109.102539,4257.179688,4260.769043,4283.846191,4218.974121,4273.717773,4320.641113,4310.769043,4236.538574,4291.282227,4378.461426,4409.743652,4231.922852,4335.769043,11.943672,4.526425,2.712521,2.712595,1.761375,1.001496,0.740464,1.774471,1.242973,0.486844,1.622115,0.713518,1.364723,0.619,0.392241,1.040389,0.880936,0.68659,0.7377,0.866611,4.217772,1.155728,0.468353,0.348181,0.340647,0.468999,0.665521,0.355623,0.289457,0.206286,1.07271,0.234291,0.289346,0.160237,0.135192,0.466328,0.438689,0.3622,0.101807,0.130847,1.497902,0.65392,1.134987,0.360525,0.178325,0.974052,0.684616,0.788393,0.742124,0.380029,0.885284,1.232323,3.510713,1.948036,1.012146,2.084163,1.743163,3.087836,1.162984,0.641143,2.945873,1.151077,1.814705,0.743512,0.466141,2.421396,1.722737,1.530176,1.759759,0.463964
1720417454,57,0,4130.512695,4273.589844,4277.436035,4303.717773,4220.897461,4270.512695,4322.820313,4314.871582,4235,4295.128418,4392.436035,4429.358887,4243.077148,4347.820313,,,,,,,,,,,,,,,,,,,,,,,,,,,,,,,,,,,,,,,,,,,,,,,,,,,,,,,,,,,,,,,,,,,,,,
1720417454,58,0,4145.897461,4282.179688,4281.922852,4322.179688,4223.717773,4266.794922,4318.846191,4312.307617,4231.538574,4291.666504,4412.436035,4442.05127,4255.641113,4362.05127,,,,,,,,,,,,,,,,,,,,,,,,,,,,,,,,,,,,,,,,,,,,,,,,,,,,,,,,,,,,,,,,,,,,,,
1720417454,59,0,4143.205078,4262.179688,4269.358887,4300.769043,4218.461426,4265.128418,4314.743652,4313.589844,4227.05127,4281.153809,4400.897461,4432.820313,4251.282227,4356.410156,,,,,,,,,,,,,,,,,,,,,,,,,,,,,,,,,,,,,,,,,,,,,,,,,,,,,,,,,,,,,,,,,,,,,,
1720417454,60,0,4127.692383,4254.871582,4262.436035,4287.563965,4226.025879,4269.615234,4310.641113,4318.205078,4225.897461,4287.692383,4389.102539,4423.974121,4243.974121,4345.641113,,,,,,,,,,,,,,,,,,,,,,,,,,,,,,,,,,,,,,,,,,,,,,,,,,,,,,,,,,,,,,,,,,,,,,
1720417454,61,0,4119.871582,4265.512695,4261.794922,4303.974121,4244.487305,4274.615234,4300.256348,4313.717773,4226.282227,4291.025879,4387.436035,4421.794922,4240.384766,4349.871582,,,,,,,,,,,,,,,,,,,,,,,,,,,,,,,,,,,,,,,,,,,,,,,,,,,,,,,,,,,,,,,,,,,,,,
1720417454,62,0,4130.256348,4265.897461,4265.384766,4306.538574,4243.333496,4274.743652,4304.102539,4314.871582,4224.230957,4278.333496,4376.538574,4431.282227,4235.128418,4346.153809,,,,,,,,,,,,,,,,,,,,,,,,,,,,,,,,,,,,,,,,,,,,,,,,,,,,,,,,,,,,,,,,,,,,,,
1720417454,63,0,4139.871582,4267.179688,4276.282227,4296.922852,4237.307617,4270,4317.94873,4321.666504,4224.487305,4276.538574,4374.102539,4443.589844,4233.077148,4334.871582,,,,,,,,,,,,,,,,,,,,,,,,,,,,,,,,,,,,,,,,,,,,,,,,,,,,,,,,,,,,,,,,,,,,,,
1720417454,64,0,4148.333496,4267.820313,4281.153809,4299.487305,4239.102539,4261.794922,4314.487305,4317.692383,4228.974121,4279.615234,4389.871582,4437.94873,4236.282227,4347.436035,,,,,,,,,,,,,,,,,,,,,,,,,,,,,,,,,,,,,,,,,,,,,,,,,,,,,,,,,,,,,,,,,,,,,,
1720417454,65,0,4153.717773,4254.358887,4277.692383,4294.615234,4235.256348,4263.461426,4308.717773,4316.538574,4233.205078,4281.025879,4400.128418,4433.846191,4243.205078,4362.692383,,,,,,,,,,,,,,,,,,,,,,,,,,,,,,,,,,,,,,,,,,,,,,,,,,,,,,,,,,,,,,,,,,,,,,
1720417454,66,0,4142.179688,4251.410156,4280.256348,4294.487305,4236.410156,4275.641113,4316.794922,4320.769043,4233.589844,4287.94873,4398.974121,4446.025879,4249.487305,4357.94873,,,,,,,,,,,,,,,,,,,,,,,,,,,,,,,,,,,,,,,,,,,,,,,,,,,,,,,,,,,,,,,,,,,,,,
1720417454,67,0,4145.897461,4263.589844,4285.256348,4314.358887,4248.205078,4277.05127,4316.666504,4313.589844,4229.743652,4284.871582,4395.641113,4448.077148,4254.743652,4356.794922,,,,,,,,,,,,,,,,,,,,,,,,,,,,,,,,,,,,,,,,,,,,,,,,,,,,,,,,,,,,,,,,,,,,,,
1720417454,68,0,4160.512695,4272.307617,4287.436035,4325.897461,4250.641113,4268.846191,4311.666504,4311.153809,4230.256348,4280.512695,4400.384766,4445.128418,4260.769043,4369.102539,,,,,,,,,,,,,,,,,,,,,,,,,,,,,,,,,,,,,,,,,,,,,,,,,,,,,,,,,,,,,,,,,,,,,,
1720417454,69,0,4141.922852,4276.666504,4286.025879,4313.846191,4241.410156,4266.025879,4309.871582,4317.563965,4235.128418,4286.794922,4402.05127,4445.384766,4256.538574,4363.333496,,,,,,,,,,,,,,,,,,,,,,,,,,,,,,,,,,,,,,,,,,,,,,,,,,,,,,,,,,,,,,,,,,,,,,
1720417454,70,0,4134.358887,4266.025879,4279.871582,4297.820313,4243.333496,4266.410156,4306.153809,4313.717773,4233.717773,4282.563965,4387.179688,4431.025879,4243.846191,4344.102539,,,,,,,,,,,,,,,,,,,,,,,,,,,,,,,,,,,,,,,,,,,,,,,,,,,,,,,,,,,,,,,,,,,,,,
1720417454,71,0,4157.436035,4246.922852,4279.230957,4305.256348,4245.256348,4266.282227,4305.512695,4310.512695,4228.717773,4274.102539,4385.512695,4427.94873,4243.717773,4342.307617,,,,,,,,,,,,,,,,,,,,,,,,,,,,,,,,,,,,,,,,,,,,,,,,,,,,,,,,,,,,,,,,,,,,,,
1720417454,72,0,4145.256348,4245.256348,4281.025879,4317.692383,4233.846191,4266.153809,4307.820313,4315.384766,4225.769043,4281.538574,4393.461426,4442.692383,4251.282227,4352.820313,9.28871,4.216198,2.696905,2.648557,1.734916,1.130041,0.900656,1.540348,1.199103,0.465266,1.900059,0.679979,1.151494,0.571699,0.459005,1.168371,0.824274,0.7643,0.639833,0.83736,9.551447,2.073776,0.431467,0.487823,0.366342,0.492452,0.638144,0.347874,0.277409,0.213702,1.038352,0.244857,0.291879,0.131632,0.134836,0.556945,0.503675,0.339529,0.108274,0.119516,1.3063,0.843618,1.063571,0.392649,0.171137,1.128116,0.953208,0.881511,0.769751,0.360142,1.066151,1.458068,3.008252,2.053858,0.918222,2.426886,2.031919,2.600401,1.007264,0.725197,5.331127,1.799181,1.970681,0.671013,0.482811,2.393834,1.671427,1.326742,1.588201,0.464551
1720417454,73,0,4112.94873,4254.871582,4275.384766,4310.641113,4228.333496,4263.846191,4305.256348,4316.153809,4218.461426,4280,4383.974121,4440.384766,4248.205078,4355.897461,,,,,,,,,,,,,,,,,,,,,,,,,,,,,,,,,,,,,,,,,,,,,,,,,,,,,,,,,,,,,,,,,,,,,,
1720417454,74,0,4119.615234,4264.102539,4277.820313,4311.666504,4229.358887,4261.410156,4301.025879,4314.871582,4213.974121,4268.974121,4381.025879,4429.871582,4246.538574,4353.333496,,,,,,,,,,,,,,,,,,,,,,,,,,,,,,,,,,,,,,,,,,,,,,,,,,,,,,,,,,,,,,,,,,,,,,
1720417454,75,0,4147.94873,4269.358887,4289.358887,4316.025879,4231.025879,4262.563965,4306.794922,4318.974121,4221.410156,4275,4394.102539,4437.94873,4255.512695,4357.692383,,,,,,,,,,,,,,,,,,,,,,,,,,,,,,,,,,,,,,,,,,,,,,,,,,,,,,,,,,,,,,,,,,,,,,
1720417454,76,0,4147.820313,4266.025879,4288.589844,4301.794922,4231.410156,4264.487305,4310.128418,4320.897461,4230,4283.974121,4400.256348,4449.358887,4263.333496,4367.94873,,,,,,,,,,,,,,,,,,,,,,,,,,,,,,,,,,,,,,,,,,,,,,,,,,,,,,,,,,,,,,,,,,,,,,
1720417454,77,0,4126.794922,4265.897461,4279.230957,4300.897461,4233.974121,4262.94873,4304.230957,4314.871582,4232.820313,4286.153809,4398.461426,4447.94873,4262.179688,4369.743652,,,,,,,,,,,,,,,,,,,,,,,,,,,,,,,,,,,,,,,,,,,,,,,,,,,,,,,,,,,,,,,,,,,,,,
1720417454,78,0,4132.436035,4261.922852,4278.846191,4317.436035,4239.102539,4254.743652,4301.153809,4312.563965,4233.589844,4288.077148,4386.410156,4439.487305,4251.538574,4354.230957,,,,,,,,,,,,,,,,,,,,,,,,,,,,,,,,,,,,,,,,,,,,,,,,,,,,,,,,,,,,,,,,,,,,,,
1720417454,79,0,4143.846191,4252.307617,4281.538574,4313.333496,4246.282227,4251.153809,4303.461426,4317.05127,4233.717773,4284.743652,4375.256348,4428.461426,4244.743652,4344.230957,,,,,,,,,,,,,,,,,,,,,,,,,,,,,,,,,,,,,,,,,,,,,,,,,,,,,,,,,,,,,,,,,,,,,,
1720417454,80,0,4121.666504,4260.769043,4280.769043,4306.410156,4249.743652,4257.307617,4306.666504,4315.641113,4233.077148,4278.974121,4385.128418,4432.692383,4258.846191,4354.743652,,,,,,,,,,,,,,,,,,,,,,,,,,,,,,,,,,,,,,,,,,,,,,,,,,,,,,,,,,,,,,,,,,,,,,
1720417454,81,0,4106.666504,4270.512695,4280.897461,4310.128418,4239.102539,4255.897461,4306.794922,4309.615234,4230.512695,4284.102539,4392.179688,4446.282227,4277.94873,4351.153809,,,,,,,,,,,,,,,,,,,,,,,,,,,,,,,,,,,,,,,,,,,,,,,,,,,,,,,,,,,,,,,,,,,,,,
1720417454,82,0,4123.077148,4263.333496,4280.512695,4307.307617,4231.025879,4249.615234,4303.846191,4309.743652,4229.102539,4288.205078,4391.282227,4446.153809,4278.461426,4344.358887,,,,,,,,,,,,,,,,,,,,,,,,,,,,,,,,,,,,,,,,,,,,,,,,,,,,,,,,,,,,,,,,,,,,,,
1720417454,83,0,4128.205078,4261.538574,4279.230957,4307.436035,4241.922852,4251.922852,4303.333496,4313.333496,4232.94873,4287.179688,4402.436035,4441.410156,4276.282227,4353.589844,,,,,,,,,,,,,,,,,,,,,,,,,,,,,,,,,,,,,,,,,,,,,,,,,,,,,,,,,,,,,,,,,,,,,,
1720417454,84,0,4116.922852,4261.282227,4279.487305,4308.974121,4252.436035,4252.307617,4311.922852,4314.102539,4237.179688,4296.282227,4392.307617,4439.871582,4281.794922,4349.102539,,,,,,,,,,,,,,,,,,,,,,,,,,,,,,,,,,,,,,,,,,,,,,,,,,,,,,,,,,,,,,,,,,,,,,
1720417454,85,0,4117.307617,4249.230957,4276.538574,4298.589844,4250.641113,4246.538574,4313.589844,4310.128418,4230.641113,4304.615234,4368.717773,4437.05127,4280.128418,4341.538574,,,,,,,,,,,,,,,,,,,,,,,,,,,,,,,,,,,,,,,,,,,,,,,,,,,,,,,,,,,,,,,,,,,,,,
1720417454,86,0,4124.871582,4244.743652,4271.153809,4291.538574,4247.820313,4245.256348,4305.641113,4306.794922,4223.846191,4310.769043,4381.153809,4434.230957,4276.922852,4358.333496,,,,,,,,,,,,,,,,,,,,,,,,,,,,,,,,,,,,,,,,,,,,,,,,,,,,,,,,,,,,,,,,,,,,,,
1720417454,87,0,4127.436035,4252.05127,4272.692383,4299.487305,4252.94873,4245.256348,4311.666504,4311.794922,4227.307617,4326.410156,4394.230957,4441.025879,4279.230957,4367.436035,,,,,,,,,,,,,,,,,,,,,,,,,,,,,,,,,,,,,,,,,,,,,,,,,,,,,,,,,,,,,,,,,,,,,,
1720417454,88,0,4119.615234,4258.461426,4277.692383,4310.512695,4257.94873,4245.769043,4319.230957,4315.641113,4231.538574,4335.128418,4387.05127,4443.589844,4282.179688,4344.230957,7.261901,3.663876,2.798602,2.510875,1.667709,1.216828,1.05843,1.321044,1.123781,0.434998,2.014351,0.623203,0.942159,0.531574,0.525778,1.404192,0.817349,0.842491,0.558391,0.775052,17.050209,3.133716,0.426891,0.651707,0.396893,0.594093,0.598891,0.379727,0.289079,0.223941,1.120287,0.24219,0.33884,0.136237,0.143035,0.682897,0.540299,0.319943,0.114991,0.107569,1.12757,1.110286,1.020483,0.416309,0.164506,1.460184,1.375359,1.030021,0.769975,0.342694,1.313381,1.645862,2.439805,2.101474,0.836818,2.608962,2.169654,2.155015,0.870108,0.770602,9.400164,2.760932,2.375753,0.653287,0.486684,2.406126,1.69402,1.180451,1.433859,0.474881
1720417454,89,0,4126.666504,4262.820313,4276.025879,4304.615234,4260.897461,4248.461426,4312.179688,4309.487305,4232.94873,4328.461426,4386.282227,4429.871582,4281.666504,4328.589844,,,,,,,,,,,,,,,,,,,,,,,,,,,,,,,,,,,,,,,,,,,,,,,,,,,,,,,,,,,,,,,,,,,,,,
1720417454,90,0,4148.846191,4262.820313,4277.179688,4297.563965,4263.077148,4242.436035,4308.333496,4311.794922,4234.615234,4330.897461,4383.589844,4427.692383,4277.820313,4348.846191,,,,,,,,,,,,,,,,,,,,,,,,,,,,,,,,,,,,,,,,,,,,,,,,,,,,,,,,,,,,,,,,,,,,,,
1720417454,91,0,4139.871582,4261.282227,4275.512695,4302.820313,4264.230957,4232.307617,4315.897461,4319.487305,4233.333496,4334.743652,4375.897461,4436.282227,4276.153809,4363.461426,,,,,,,,,,,,,,,,,,,,,,,,,,,,,,,,,,,,,,,,,,,,,,,,,,,,,,,,,,,,,,,,,,,,,,
1720417454,92,0,4119.358887,4265.897461,4267.692383,4288.717773,4264.102539,4231.922852,4321.538574,4314.487305,4231.538574,4333.717773,4375.128418,4431.538574,4277.307617,4343.846191,,,,,,,,,,,,,,,,,,,,,,,,,,,,,,,,,,,,,,,,,,,,,,,,,,,,,,,,,,,,,,,,,,,,,,
1720417454,93,0,4131.153809,4268.589844,4272.692383,4265.384766,4263.461426,4233.846191,4321.666504,4308.205078,4234.230957,4345.256348,4388.717773,4429.487305,4279.102539,4341.794922,,,,,,,,,,,,,,,,,,,,,,,,,,,,,,,,,,,,,,,,,,,,,,,,,,,,,,,,,,,,,,,,,,,,,,
1720417454,94,0,4145.641113,4256.794922,4286.153809,4259.615234,4260.512695,4231.025879,4324.487305,4310.769043,4235.384766,4347.436035,4404.487305,4441.282227,4281.153809,4368.333496,,,,,,,,,,,,,,,,,,,,,,,,,,,,,,,,,,,,,,,,,,,,,,,,,,,,,,,,,,,,,,,,,,,,,,
1720417454,95,0,4143.205078,4244.743652,4280,4249.102539,4255.384766,4232.05127,4325.256348,4308.846191,4230.897461,4329.615234,4394.487305,4441.794922,4281.153809,4366.153809,,,,,,,,,,,,,,,,,,,,,,,,,,,,,,,,,,,,,,,,,,,,,,,,,,,,,,,,,,,,,,,,,,,,,,
1720417454,96,0,4129.871582,4254.102539,4261.153809,4240.384766,4249.102539,4237.05127,4325.128418,4307.179688,4230.128418,4334.615234,4376.666504,4433.461426,4277.94873,4346.282227,,,,,,,,,,,,,,,,,,,,,,,,,,,,,,,,,,,,,,,,,,,,,,,,,,,,,,,,,,,,,,,,,,,,,,
1720417454,97,0,4123.717773,4263.461426,4261.410156,4258.717773,4249.487305,4236.153809,4327.820313,4314.358887,4241.410156,4360.641113,4383.461426,4438.461426,4280.128418,4352.563965,,,,,,,,,,,,,,,,,,,,,,,,,,,,,,,,,,,,,,,,,,,,,,,,,,,,,,,,,,,,,,,,,,,,,,
1720417454,98,0,4141.794922,4257.436035,4276.282227,4266.794922,4255.384766,4231.538574,4329.615234,4312.179688,4245.512695,4356.666504,4384.230957,4440.512695,4279.615234,4358.461426,,,,,,,,,,,,,,,,,,,,,,,,,,,,,,,,,,,,,,,,,,,,,,,,,,,,,,,,,,,,,,,,,,,,,,
1720417454,99,0,4144.743652,4256.666504,4278.589844,4256.025879,4253.077148,4232.94873,4325.897461,4307.05127,4236.025879,4337.563965,4372.820313,4434.871582,4268.333496,4347.563965,,,,,,,,,,,,,,,,,,,,,,,,,,,,,,,,,,,,,,,,,,,,,,,,,,,,,,,,,,,,,,,,,,,,,,
1720417454,100,0,4128.333496,4260,4265.512695,4262.307617,4247.820313,4243.333496,4324.358887,4312.563965,4238.589844,4340.769043,4375.769043,4430.128418,4263.077148,4342.820313,,,,,,,,,,,,,,,,,,,,,,,,,,,,,,,,,,,,,,,,,,,,,,,,,,,,,,,,,,,,,,,,,,,,,,
1720417454,101,0,4137.436035,4251.025879,4256.410156,4260,4258.974121,4248.333496,4336.410156,4317.307617,4249.871582,4345.897461,4376.538574,4424.871582,4266.153809,4344.358887,,,,,,,,,,,,,,,,,,,,,,,,,,,,,,,,,,,,,,,,,,,,,,,,,,,,,,,,,,,,,,,,,,,,,,
1720417454,102,0,4150.769043,4244.230957,4266.025879,4242.307617,4270.512695,4237.307617,4328.333496,4311.025879,4243.077148,4338.717773,4377.563965,4427.820313,4266.794922,4351.794922,,,,,,,,,,,,,,,,,,,,,,,,,,,,,,,,,,,,,,,,,,,,,,,,,,,,,,,,,,,,,,,,,,,,,,
1720417454,103,0,4141.922852,4258.205078,4283.205078,4257.436035,4256.538574,4228.077148,4321.794922,4307.179688,4231.666504,4337.179688,4387.179688,4437.05127,4269.102539,4369.615234,,,,,,,,,,,,,,,,,,,,,,,,,,,,,,,,,,,,,,,,,,,,,,,,,,,,,,,,,,,,,,,,,,,,,,
1720417454,104,0,4151.666504,4275.897461,4290.769043,4296.666504,4241.282227,4230.641113,4389.102539,4314.102539,4240.512695,4343.717773,4380.512695,4446.025879,4277.94873,4377.307617,5.680909,2.909292,2.98558,2.317853,1.558878,1.351731,1.176456,1.167134,1.031822,0.402214,1.972955,0.555982,0.770718,0.515237,0.569367,1.706336,0.840773,0.89195,0.496288,0.714931,25.044685,4.017483,0.443929,0.795298,0.422989,0.816174,0.558676,0.44367,0.309621,0.236439,1.297415,0.228442,0.416142,0.157752,0.153681,0.750778,0.537008,0.300191,0.122726,0.097486,1.010605,1.397648,1.017013,0.434847,0.159985,1.748552,1.797965,1.185421,0.723787,0.328465,1.565767,1.758416,1.958426,2.079711,0.781743,2.628407,2.132567,1.827785,0.768884,0.762119,14.485881,3.916808,3.043461,0.733844,0.47639,2.454056,1.772347,1.139927,1.339566,0.495139
1720417454,105,0,4168.846191,4279.871582,4284.358887,4299.871582,4245.769043,4231.538574,4469.615234,4313.846191,4249.487305,4339.743652,4365.769043,4449.615234,4275.897461,4376.282227,,,,,,,,,,,,,,,,,,,,,,,,,,,,,,,,,,,,,,,,,,,,,,,,,,,,,,,,,,,,,,,,,,,,,,
1720417454,106,0,4145.641113,4276.922852,4275.897461,4268.717773,4249.743652,4229.615234,4473.205078,4310.256348,4247.307617,4335.384766,4375.512695,4444.358887,4264.615234,4372.692383,,,,,,,,,,,,,,,,,,,,,,,,,,,,,,,,,,,,,,,,,,,,,,,,,,,,,,,,,,,,,,,,,,,,,,
1720417454,107,0,4134.871582,4279.743652,4276.922852,4268.077148,4249.615234,4233.974121,4450.641113,4314.871582,4244.487305,4331.922852,4395.641113,4436.922852,4268.461426,4366.410156,,,,,,,,,,,,,,,,,,,,,,,,,,,,,,,,,,,,,,,,,,,,,,,,,,,,,,,,,,,,,,,,,,,,,,
1720417454,108,0,4152.179688,4280.384766,4284.743652,4285.512695,4255.769043,4235.641113,4458.461426,4313.846191,4243.589844,4326.922852,4398.589844,4440.384766,4281.538574,4372.05127,,,,,,,,,,,,,,,,,,,,,,,,,,,,,,,,,,,,,,,,,,,,,,,,,,,,,,,,,,,,,,,,,,,,,,
1720417454,109,0,4148.974121,4269.358887,4290,4275.512695,4264.487305,4232.05127,4460.384766,4307.563965,4243.205078,4333.717773,4385.641113,4447.05127,4283.077148,4378.717773,,,,,,,,,,,,,,,,,,,,,,,,,,,,,,,,,,,,,,,,,,,,,,,,,,,,,,,,,,,,,,,,,,,,,,
1720417454,110,0,4135.128418,4259.230957,4279.743652,4265.512695,4266.282227,4230.128418,4448.077148,4306.922852,4237.436035,4331.025879,4370.641113,4435,4271.922852,4366.410156,,,,,,,,,,,,,,,,,,,,,,,,,,,,,,,,,,,,,,,,,,,,,,,,,,,,,,,,,,,,,,,,,,,,,,
1720417454,111,0,4133.589844,4261.794922,4262.563965,4281.025879,4262.307617,4234.230957,4443.461426,4307.436035,4231.282227,4320,4373.333496,4426.922852,4269.358887,4365.384766,,,,,,,,,,,,,,,,,,,,,,,,,,,,,,,,,,,,,,,,,,,,,,,,,,,,,,,,,,,,,,,,,,,,,,
1720417454,112,0,4134.230957,4266.538574,4264.487305,4285,4262.692383,4244.487305,4443.333496,4308.717773,4236.794922,4325.897461,4395.384766,4442.692383,4279.487305,4387.05127,,,,,,,,,,,,,,,,,,,,,,,,,,,,,,,,,,,,,,,,,,,,,,,,,,,,,,,,,,,,,,,,,,,,,,
1720417454,113,0,4152.436035,4260.384766,4277.563965,4266.666504,4275.384766,4245.769043,4446.153809,4311.922852,4247.05127,4331.282227,4398.333496,4452.179688,4279.743652,4391.025879,,,,,,,,,,,,,,,,,,,,,,,,,,,,,,,,,,,,,,,,,,,,,,,,,,,,,,,,,,,,,,,,,,,,,,
1720417454,114,0,4171.282227,4259.743652,4277.563965,4263.974121,4283.333496,4237.307617,4443.974121,4310.128418,4247.94873,4322.94873,4373.974121,4439.615234,4273.974121,4375.128418,,,,,,,,,,,,,,,,,,,,,,,,,,,,,,,,,,,,,,,,,,,,,,,,,,,,,,,,,,,,,,,,,,,,,,
1720417454,115,0,4142.179688,4265.641113,4273.461426,4279.102539,4270.641113,4233.077148,4439.102539,4310.128418,4247.307617,4321.922852,4376.282227,4434.871582,4277.692383,4369.102539,,,,,,,,,,,,,,,,,,,,,,,,,,,,,,,,,,,,,,,,,,,,,,,,,,,,,,,,,,,,,,,,,,,,,,
1720417454,116,0,4110,4257.179688,4273.205078,4281.153809,4262.179688,4232.820313,4437.179688,4313.333496,4243.333496,4322.436035,4384.102539,4439.230957,4272.563965,4374.102539,,,,,,,,,,,,,,,,,,,,,,,,,,,,,,,,,,,,,,,,,,,,,,,,,,,,,,,,,,,,,,,,,,,,,,
1720417454,117,0,4122.563965,4249.615234,4268.589844,4265.897461,4274.487305,4229.871582,4431.282227,4304.871582,4237.05127,4314.615234,4359.102539,4433.077148,4258.205078,4383.205078,,,,,,,,,,,,,,,,,,,,,,,,,,,,,,,,,,,,,,,,,,,,,,,,,,,,,,,,,,,,,,,,,,,,,,
1720417454,118,0,4132.179688,4264.487305,4269.743652,4268.846191,4282.436035,4227.05127,4428.846191,4307.563965,4241.794922,4313.077148,4366.025879,4436.025879,4267.179688,4391.794922,,,,,,,,,,,,,,,,,,,,,,,,,,,,,,,,,,,,,,,,,,,,,,,,,,,,,,,,,,,,,,,,,,,,,,
1720417454,119,0,4125.641113,4278.974121,4281.794922,4291.282227,4279.743652,4230,4428.461426,4318.461426,4244.102539,4314.871582,4403.461426,4448.461426,4282.179688,4391.666504,,,,,,,,,,,,,,,,,,,,,,,,,,,,,,,,,,,,,,,,,,,,,,,,,,,,,,,,,,,,,,,,,,,,,,
1720417454,120,0,4142.05127,4270.641113,4283.205078,4278.846191,4280.512695,4230,4422.307617,4306.538574,4239.358887,4318.461426,4392.179688,4444.871582,4278.205078,4385,4.376295,2.102507,3.183415,2.102363,1.415723,1.42851,1.230767,1.084643,0.946108,0.373019,1.792135,0.48962,0.635973,0.525356,0.574414,1.940449,0.859504,0.894981,0.460983,0.688124,31.182049,4.443237,0.476435,0.875375,0.433353,1.124176,0.5229,0.512745,0.321055,0.247253,1.696006,0.211137,0.499869,0.184412,0.16323,0.776721,0.491871,0.275057,0.130723,0.091084,0.9529,1.650829,1.024721,0.450258,0.157027,1.832462,2.096908,1.277795,0.640818,0.319161,1.75746,1.773179,1.633307,2.007027,0.750561,2.546036,1.940613,1.609244,0.707503,0.705211,19.445412,4.991061,3.829241,0.921939,0.453298,2.470434,1.839845,1.207258,1.316808,0.532885
1720417454,121,0,4154.615234,4262.05127,4277.692383,4256.666504,4286.794922,4231.282227,4422.307617,4301.025879,4239.743652,4320.512695,4366.922852,4444.615234,4277.307617,4384.358887,,,,,,,,,,,,,,,,,,,,,,,,,,,,,,,,,,,,,,,,,,,,,,,,,,,,,,,,,,,,,,,,,,,,,,
1720417454,122,0,4130.384766,4267.307617,4280.128418,4270.897461,4291.794922,4241.025879,4425.384766,4315.769043,4238.974121,4310.769043,4385.512695,4456.025879,4283.846191,4390.128418,,,,,,,,,,,,,,,,,,,,,,,,,,,,,,,,,,,,,,,,,,,,,,,,,,,,,,,,,,,,,,,,,,,,,,
1720417454,123,0,4105.128418,4280,4280.256348,4280.512695,4288.461426,4248.589844,4418.077148,4316.922852,4236.282227,4305.384766,4406.794922,4450.256348,4282.05127,4396.922852,,,,,,,,,,,,,,,,,,,,,,,,,,,,,,,,,,,,,,,,,,,,,,,,,,,,,,,,,,,,,,,,,,,,,,
1720417454,124,0,4113.717773,4283.333496,4276.794922,4264.743652,4274.743652,4247.436035,4413.077148,4309.871582,4242.820313,4312.05127,4402.179688,4440.641113,4278.717773,4401.025879,,,,,,,,,,,,,,,,,,,,,,,,,,,,,,,,,,,,,,,,,,,,,,,,,,,,,,,,,,,,,,,,,,,,,,
1720417454,125,0,4132.179688,4269.487305,4279.615234,4261.666504,4253.717773,4243.333496,4415.897461,4315.256348,4250.256348,4314.230957,4386.410156,4452.436035,4283.205078,4401.538574,,,,,,,,,,,,,,,,,,,,,,,,,,,,,,,,,,,,,,,,,,,,,,,,,,,,,,,,,,,,,,,,,,,,,,
1720417454,126,0,4125,4259.871582,4279.487305,4267.692383,4230.256348,4236.922852,4408.077148,4316.410156,4247.820313,4310.384766,4383.974121,4455.384766,4288.077148,4399.102539,,,,,,,,,,,,,,,,,,,,,,,,,,,,,,,,,,,,,,,,,,,,,,,,,,,,,,,,,,,,,,,,,,,,,,
1720417454,127,0,4115.384766,4268.589844,4277.436035,4263.333496,4223.077148,4230.128418,4397.692383,4307.179688,4238.846191,4311.025879,4392.94873,4441.153809,4281.922852,4392.563965,,,,,,,,,,,,,,,,,,,,,,,,,,,,,,,,,,,,,,,,,,,,,,,,,,,,,,,,,,,,,,,,,,,,,,
1720417454,0,0,4121.922852,4278.077148,4279.871582,4264.487305,4236.794922,4235.897461,4397.563965,4301.794922,4232.436035,4305,4383.077148,4437.94873,4275.641113,4385.769043,,,,,,,,,,,,,,,,,,,,,,,,,,,,,,,,,,,,,,,,,,,,,,,,,,,,,,,,,,,,,,,,,,,,,,
1720417454,1,0,4122.820313,4274.102539,4280.641113,4271.153809,4248.589844,4246.410156,4398.589844,4304.102539,4238.589844,4279.230957,4379.358887,4446.153809,4285.512695,4389.743652,,,,,,,,,,,,,,,,,,,,,,,,,,,,,,,,,,,,,,,,,,,,,,,,,,,,,,,,,,,,,,,,,,,,,,
1720417454,2,0,4110,4273.333496,4278.461426,4278.846191,4253.333496,4246.794922,4400.256348,4311.282227,4248.461426,4258.717773,4397.820313,4449.487305,4292.179688,4400.128418,,,,,,,,,,,,,,,,,,,,,,,,,,,,,,,,,,,,,,,,,,,,,,,,,,,,,,,,,,,,,,,,,,,,,,
1720417454,3,0,4111.282227,4278.333496,4279.871582,4281.025879,4263.589844,4246.794922,4399.743652,4309.871582,4248.589844,4262.692383,4405.512695,4446.538574,4281.922852,4402.563965,,,,,,,,,,,,,,,,,,,,,,,,,,,,,,,,,,,,,,,,,,,,,,,,,,,,,,,,,,,,,,,,,,,,,,
1720417454,4,0,4136.538574,4271.922852,4285.384766,4268.717773,4277.436035,4247.179688,4397.307617,4304.871582,4242.436035,4266.282227,4398.589844,4445.384766,4278.589844,4410.384766,,,,,,,,,,,,,,,,,,,,,,,,,,,,,,,,,,,,,,,,,,,,,,,,,,,,,,,,,,,,,,,,,,,,,,
1720417454,5,0,4142.05127,4263.077148,4292.563965,4269.358887,4280.641113,4244.871582,4395.384766,4308.974121,4235.256348,4258.077148,4390.769043,4447.563965,4288.461426,4422.563965,,,,,,,,,,,,,,,,,,,,,,,,,,,,,,,,,,,,,,,,,,,,,,,,,,,,,,,,,,,,,,,,,,,,,,
1720417454,6,0,4126.153809,4261.922852,4296.922852,4286.794922,4271.666504,4244.102539,4395.384766,4312.179688,4232.692383,4253.717773,4387.05127,4453.717773,4296.922852,4424.230957,,,,,,,,,,,,,,,,,,,,,,,,,,,,,,,,,,,,,,,,,,,,,,,,,,,,,,,,,,,,,,,,,,,,,,
1720417454,7,0,4118.589844,4255,4291.025879,4283.846191,4266.538574,4246.025879,4396.025879,4309.615234,4239.871582,4252.436035,4401.538574,4458.461426,4296.410156,4420.384766,,,,,,,,,,,,,,,,,,,,,,,,,,,,,,,,,,,,,,,,,,,,,,,,,,,,,,,,,,,,,,,,,,,,,,
1720417454,8,0,4115.512695,4245.512695,4275.128418,4265.512695,4267.436035,4242.692383,4394.358887,4309.487305,4246.922852,4248.846191,4402.820313,4443.846191,4286.153809,4412.179688,3.357734,1.416541,3.2749,1.894824,1.26097,1.508953,1.223961,1.04435,0.891103,0.3512,1.561541,0.436107,0.52782,0.553012,0.542389,2.155127,0.867438,0.851445,0.465929,0.70588,33.361805,4.264497,0.51941,0.869804,0.420621,1.436653,0.492245,0.551085,0.315537,0.250809,2.3994,0.280933,0.616799,0.228586,0.177972,0.710142,0.417443,0.242322,0.13702,0.089021,0.932188,1.816858,0.995112,0.460772,0.153947,1.769066,2.184392,1.261026,0.542623,0.315402,1.822079,1.68722,1.437199,1.921555,0.73078,2.397171,1.651783,1.447915,0.683818,0.622862,22.690331,5.657178,4.482852,1.177656,0.420569,2.363387,1.829264,1.346265,1.337505,0.591609
1720417454,9,0,4107.307617,4248.717773,4261.153809,4260.512695,4263.333496,4235,4386.282227,4306.538574,4244.871582,4249.230957,4367.179688,4419.743652,4270.384766,4407.436035,,,,,,,,,,,,,,,,,,,,,,,,,,,,,,,,,,,,,,,,,,,,,,,,,,,,,,,,,,,,,,,,,,,,,,
1720417454,10,0,4100.384766,4245.769043,4256.153809,4266.282227,4267.179688,4229.871582,4376.794922,4300.384766,4241.282227,4248.589844,4358.333496,4412.820313,4262.692383,4415.256348,,,,,,,,,,,,,,,,,,,,,,,,,,,,,,,,,,,,,,,,,,,,,,,,,,,,,,,,,,,,,,,,,,,,,,
1720417454,11,0,4097.94873,4236.410156,4264.615234,4272.307617,4283.717773,4232.563965,4375.897461,4303.461426,4245.641113,4245.641113,4380.128418,4424.487305,4269.487305,4429.102539,,,,,,,,,,,,,,,,,,,,,,,,,,,,,,,,,,,,,,,,,,,,,,,,,,,,,,,,,,,,,,,,,,,,,,
1720417454,12,0,4107.563965,4241.538574,4273.717773,4275.256348,4284.743652,4240.256348,4373.205078,4305.641113,4252.436035,4245.769043,4378.205078,4433.974121,4280.897461,4431.666504,,,,,,,,,,,,,,,,,,,,,,,,,,,,,,,,,,,,,,,,,,,,,,,,,,,,,,,,,,,,,,,,,,,,,,
1720417454,13,0,4135.128418,4249.102539,4280,4281.410156,4277.563965,4244.615234,4374.358887,4310.256348,4252.05127,4246.794922,4372.05127,4444.358887,4283.333496,4432.436035,,,,,,,,,,,,,,,,,,,,,,,,,,,,,,,,,,,,,,,,,,,,,,,,,,,,,,,,,,,,,,,,,,,,,,
1720417454,14,0,4145.128418,4249.615234,4291.282227,4293.333496,4282.436035,4244.487305,4379.102539,4316.794922,4249.358887,4246.025879,4388.205078,4453.974121,4280.769043,4446.410156,,,,,,,,,,,,,,,,,,,,,,,,,,,,,,,,,,,,,,,,,,,,,,,,,,,,,,,,,,,,,,,,,,,,,,
1720417454,15,0,4132.94873,4252.436035,4292.692383,4292.307617,4281.282227,4244.871582,4372.692383,4307.179688,4249.358887,4246.666504,4398.077148,4444.615234,4281.282227,4453.974121,,,,,,,,,,,,,,,,,,,,,,,,,,,,,,,,,,,,,,,,,,,,,,,,,,,,,,,,,,,,,,,,,,,,,,
1720417454,16,0,4134.230957,4246.666504,4286.153809,4281.794922,4275,4247.05127,4368.077148,4306.538574,4250.512695,4247.692383,4399.743652,4434.358887,4282.436035,4448.461426,,,,,,,,,,,,,,,,,,,,,,,,,,,,,,,,,,,,,,,,,,,,,,,,,,,,,,,,,,,,,,,,,,,,,,
1720417454,17,0,4136.282227,4232.436035,4279.615234,4280.641113,4280.512695,4248.077148,4365.384766,4311.282227,4250.641113,4239.743652,4394.615234,4430.769043,4279.615234,4433.846191,,,,,,,,,,,,,,,,,,,,,,,,,,,,,,,,,,,,,,,,,,,,,,,,,,,,,,,,,,,,,,,,,,,,,,
1720417454,18,0,4124.230957,4230.256348,4268.589844,4281.922852,4280.769043,4248.846191,4363.974121,4302.94873,4249.743652,4229.615234,4372.692383,4422.05127,4277.820313,4430.897461,,,,,,,,,,,,,,,,,,,,,,,,,,,,,,,,,,,,,,,,,,,,,,,,,,,,,,,,,,,,,,,,,,,,,,
1720417454,19,0,4120.384766,4237.179688,4266.794922,4278.717773,4273.974121,4250.128418,4365.641113,4304.102539,4251.794922,4233.846191,4367.692383,4421.538574,4279.230957,4443.974121,,,,,,,,,,,,,,,,,,,,,,,,,,,,,,,,,,,,,,,,,,,,,,,,,,,,,,,,,,,,,,,,,,,,,,
1720417454,20,0,4136.794922,4235.641113,4276.666504,4283.077148,4277.05127,4247.820313,4361.922852,4310.128418,4255.769043,4242.94873,4382.563965,4430.256348,4278.333496,4437.692383,,,,,,,,,,,,,,,,,,,,,,,,,,,,,,,,,,,,,,,,,,,,,,,,,,,,,,,,,,,,,,,,,,,,,,
1720417454,21,0,4146.410156,4233.205078,4283.205078,4294.358887,4280.512695,4247.307617,4357.94873,4307.179688,4261.025879,4247.563965,4384.358887,4435.769043,4276.025879,4429.358887,,,,,,,,,,,,,,,,,,,,,,,,,,,,,,,,,,,,,,,,,,,,,,,,,,,,,,,,,,,,,,,,,,,,,,
1720417454,22,0,4138.846191,4241.410156,4286.410156,4306.025879,4282.05127,4252.05127,4362.563965,4308.846191,4270.897461,4255.641113,4378.589844,4439.615234,4279.487305,4451.410156,,,,,,,,,,,,,,,,,,,,,,,,,,,,,,,,,,,,,,,,,,,,,,,,,,,,,,,,,,,,,,,,,,,,,,
1720417454,23,0,4131.538574,4251.025879,4289.487305,4314.871582,4290,4250.769043,4360.128418,4308.077148,4274.615234,4262.436035,4381.666504,4443.077148,4283.077148,4466.282227,,,,,,,,,,,,,,,,,,,,,,,,,,,,,,,,,,,,,,,,,,,,,,,,,,,,,,,,,,,,,,,,,,,,,,
1720417454,24,0,4132.820313,4248.333496,4279.615234,4305.128418,4295.256348,4248.846191,4354.487305,4300.512695,4271.282227,4263.589844,4381.538574,4438.717773,4281.282227,4451.538574,2.73774,0.952297,3.161902,1.720335,1.130552,1.494804,1.177882,0.997569,0.878037,0.339035,1.354031,0.405246,0.435516,0.58032,0.489909,2.37671,0.880866,0.776682,0.52139,0.759036,31.005714,3.548208,0.580363,0.790086,0.386545,1.644222,0.469057,0.53508,0.297531,0.242332,3.567988,0.62007,0.853448,0.322217,0.213796,0.594971,0.333822,0.205462,0.13871,0.09128,0.882692,1.847577,0.892589,0.462229,0.150089,1.606367,2.044506,1.129205,0.45171,0.316053,1.741776,1.516941,1.298572,1.856575,0.714294,2.229598,1.332634,1.29987,0.681903,0.542597,23.162775,5.672445,4.751218,1.41844,0.382393,2.109379,1.711371,1.516347,1.34924,0.662374
1720417454,25,0,4148.205078,4243.589844,4278.846191,4291.922852,4292.436035,4254.871582,4363.077148,4307.692383,4272.692383,4259.871582,4382.307617,4442.179688,4279.487305,4451.922852,,,,,,,,,,,,,,,,,,,,,,,,,,,,,,,,,,,,,,,,,,,,,,,,,,,,,,,,,,,,,,,,,,,,,,
1720417454,26,0,4167.307617,4255.769043,4295.641113,4301.922852,4292.820313,4256.794922,4367.05127,4308.717773,4277.436035,4259.871582,4390.769043,4455.256348,4285,4463.846191,,,,,,,,,,,,,,,,,,,,,,,,,,,,,,,,,,,,,,,,,,,,,,,,,,,,,,,,,,,,,,,,,,,,,,
1720417454,27,0,4167.692383,4270.256348,4296.922852,4314.102539,4292.820313,4255.512695,4369.230957,4300.512695,4277.05127,4270.641113,4389.230957,4456.794922,4291.922852,4458.717773,,,,,,,,,,,,,,,,,,,,,,,,,,,,,,,,,,,,,,,,,,,,,,,,,,,,,,,,,,,,,,,,,,,,,,
1720417454,28,0,4161.922852,4269.102539,4288.974121,4308.589844,4292.179688,4261.282227,4373.333496,4308.717773,4277.563965,4284.102539,4391.538574,4450,4288.333496,4450.641113,,,,,,,,,,,,,,,,,,,,,,,,,,,,,,,,,,,,,,,,,,,,,,,,,,,,,,,,,,,,,,,,,,,,,,
1720417454,29,0,4161.025879,4267.179688,4288.974121,4307.820313,4294.358887,4266.666504,4364.230957,4314.230957,4280.384766,4282.179688,4397.436035,4444.743652,4285.769043,4446.794922,,,,,,,,,,,,,,,,,,,,,,,,,,,,,,,,,,,,,,,,,,,,,,,,,,,,,,,,,,,,,,,,,,,,,,
1720417454,30,0,4158.461426,4264.615234,4282.05127,4305.128418,4293.974121,4259.102539,4359.743652,4310.512695,4271.282227,4268.846191,4384.230957,4443.077148,4280.512695,4443.205078,,,,,,,,,,,,,,,,,,,,,,,,,,,,,,,,,,,,,,,,,,,,,,,,,,,,,,,,,,,,,,,,,,,,,,
1720417454,31,0,4157.563965,4263.333496,4275.512695,4294.358887,4290.897461,4250.256348,4362.563965,4310,4264.743652,4265.897461,4373.846191,4445.512695,4260.384766,4441.666504,,,,,,,,,,,,,,,,,,,,,,,,,,,,,,,,,,,,,,,,,,,,,,,,,,,,,,,,,,,,,,,,,,,,,,
1720417454,32,0,4167.05127,4273.846191,4287.436035,4302.820313,4291.025879,4253.205078,4361.410156,4313.077148,4272.563965,4268.717773,4392.94873,4456.922852,4250.128418,4453.205078,,,,,,,,,,,,,,,,,,,,,,,,,,,,,,,,,,,,,,,,,,,,,,,,,,,,,,,,,,,,,,,,,,,,,,
1720417454,33,0,4173.589844,4288.589844,4298.205078,4316.153809,4295.769043,4261.410156,4361.794922,4317.179688,4280.256348,4265.256348,4415.641113,4472.436035,4264.615234,4465.128418,,,,,,,,,,,,,,,,,,,,,,,,,,,,,,,,,,,,,,,,,,,,,,,,,,,,,,,,,,,,,,,,,,,,,,
1720417454,34,0,4177.94873,4292.436035,4299.230957,4308.846191,4293.333496,4264.230957,4365.128418,4316.538574,4281.410156,4258.974121,4410.512695,4477.563965,4269.871582,4461.410156,,,,,,,,,,,,,,,,,,,,,,,,,,,,,,,,,,,,,,,,,,,,,,,,,,,,,,,,,,,,,,,,,,,,,,
1720417454,35,0,4190.641113,4293.333496,4307.563965,4306.410156,4289.102539,4260.256348,4365.384766,4313.846191,4281.538574,4258.333496,4398.846191,4474.230957,4258.461426,4452.692383,,,,,,,,,,,,,,,,,,,,,,,,,,,,,,,,,,,,,,,,,,,,,,,,,,,,,,,,,,,,,,,,,,,,,,
1720417454,36,0,4191.410156,4294.615234,4310.769043,4320.256348,4299.743652,4258.846191,4360.512695,4315,4281.153809,4261.922852,4391.794922,4469.487305,4258.205078,4448.077148,,,,,,,,,,,,,,,,,,,,,,,,,,,,,,,,,,,,,,,,,,,,,,,,,,,,,,,,,,,,,,,,,,,,,,
1720417454,37,0,4173.974121,4284.487305,4291.282227,4317.05127,4311.025879,4260.256348,4353.589844,4310.512695,4276.410156,4259.102539,4376.666504,4459.358887,4257.820313,4442.692383,,,,,,,,,,,,,,,,,,,,,,,,,,,,,,,,,,,,,,,,,,,,,,,,,,,,,,,,,,,,,,,,,,,,,,
1720417454,38,0,4164.358887,4283.333496,4276.666504,4297.436035,4306.410156,4262.820313,4353.333496,4301.282227,4274.743652,4253.205078,4383.589844,4452.179688,4256.922852,4443.205078,,,,,,,,,,,,,,,,,,,,,,,,,,,,,,,,,,,,,,,,,,,,,,,,,,,,,,,,,,,,,,,,,,,,,,
1720417454,39,0,4174.358887,4300.384766,4286.922852,4293.461426,4303.077148,4264.487305,4357.307617,4304.615234,4279.871582,4249.102539,4410.897461,4459.102539,4268.974121,4453.974121,,,,,,,,,,,,,,,,,,,,,,,,,,,,,,,,,,,,,,,,,,,,,,,,,,,,,,,,,,,,,,,,,,,,,,
1720417454,40,0,4183.589844,4310.897461,4295.256348,4309.230957,4312.307617,4267.179688,4351.410156,4306.794922,4285.641113,4246.410156,4399.230957,4461.538574,4269.743652,4451.410156,2.321696,0.735364,2.829571,1.596387,1.057677,1.424014,1.122411,0.908734,0.898559,0.337301,1.193544,0.410021,0.366114,0.594534,0.43812,2.686078,0.925002,0.708584,0.625152,0.826801,25.058931,2.602017,0.71068,0.675167,0.342658,1.677726,0.462563,0.473095,0.278167,0.220541,5.54494,1.372997,1.276244,0.490106,0.283574,0.456573,0.259224,0.173194,0.133692,0.097559,0.784221,1.721306,0.726585,0.452043,0.146136,1.537751,1.727974,0.930458,0.386506,0.319135,1.535595,1.297387,1.160321,1.81415,0.703262,2.016623,1.036353,1.146344,0.681517,0.482849,20.661716,5.016201,4.504318,1.558687,0.34296,1.727025,1.492367,1.664292,1.307263,0.727004
1720417454,41,0,4188.974121,4308.717773,4299.102539,4322.820313,4313.846191,4270.384766,4353.846191,4305.897461,4286.410156,4247.179688,4372.692383,4459.871582,4263.333496,4447.692383,,,,,,,,,,,,,,,,,,,,,,,,,,,,,,,,,,,,,,,,,,,,,,,,,,,,,,,,,,,,,,,,,,,,,,
1720417454,42,0,4191.922852,4307.436035,4306.794922,4316.282227,4308.461426,4265.897461,4360.384766,4305.769043,4276.025879,4247.692383,4387.94873,4468.333496,4271.410156,4460.897461,,,,,,,,,,,,,,,,,,,,,,,,,,,,,,,,,,,,,,,,,,,,,,,,,,,,,,,,,,,,,,,,,,,,,,
1720417454,43,0,4185.897461,4315.897461,4303.974121,4311.794922,4310.897461,4259.615234,4342.436035,4293.589844,4262.820313,4236.153809,4403.717773,4467.179688,4273.846191,4458.846191,,,,,,,,,,,,,,,,,,,,,,,,,,,,,,,,,,,,,,,,,,,,,,,,,,,,,,,,,,,,,,,,,,,,,,
1720417454,44,0,4193.717773,4320,4295.641113,4319.743652,4315.384766,4262.307617,4324.615234,4288.333496,4257.307617,4230.128418,4386.153809,4451.410156,4261.922852,4431.410156,,,,,,,,,,,,,,,,,,,,,,,,,,,,,,,,,,,,,,,,,,,,,,,,,,,,,,,,,,,,,,,,,,,,,,
1720417454,45,0,4196.410156,4314.230957,4288.974121,4316.282227,4324.487305,4264.102539,4326.153809,4294.358887,4258.205078,4240.384766,4378.077148,4442.563965,4258.333496,4420.256348,,,,,,,,,,,,,,,,,,,,,,,,,,,,,,,,,,,,,,,,,,,,,,,,,,,,,,,,,,,,,,,,,,,,,,
1720417454,46,0,4168.333496,4310.256348,4283.717773,4301.922852,4331.922852,4262.179688,4329.230957,4290.256348,4262.307617,4240,4387.179688,4444.743652,4264.102539,4435.256348,,,,,,,,,,,,,,,,,,,,,,,,,,,,,,,,,,,,,,,,,,,,,,,,,,,,,,,,,,,,,,,,,,,,,,
1720417454,47,0,4153.589844,4319.487305,4290.512695,4312.436035,4327.307617,4269.230957,4335.256348,4288.589844,4269.102539,4227.563965,4386.153809,4453.846191,4272.05127,4441.025879,,,,,,,,,,,,,,,,,,,,,,,,,,,,,,,,,,,,,,,,,,,,,,,,,,,,,,,,,,,,,,,,,,,,,,
1720417454,48,0,4169.487305,4327.179688,4304.102539,4332.179688,4323.333496,4274.358887,4346.153809,4300.384766,4272.820313,4229.358887,4384.230957,4463.846191,4280,4437.307617,,,,,,,,,,,,,,,,,,,,,,,,,,,,,,,,,,,,,,,,,,,,,,,,,,,,,,,,,,,,,,,,,,,,,,
1720417454,49,0,4176.922852,4319.230957,4300.384766,4321.025879,4328.717773,4267.94873,4348.974121,4301.538574,4274.230957,4234.102539,4394.358887,4463.717773,4279.871582,4440,,,,,,,,,,,,,,,,,,,,,,,,,,,,,,,,,,,,,,,,,,,,,,,,,,,,,,,,,,,,,,,,,,,,,,
1720417454,50,0,4173.077148,4313.205078,4291.282227,4310.641113,4328.974121,4264.358887,4350.512695,4295.512695,4276.538574,4228.717773,4403.077148,4456.922852,4276.666504,4432.05127,,,,,,,,,,,,,,,,,,,,,,,,,,,,,,,,,,,,,,,,,,,,,,,,,,,,,,,,,,,,,,,,,,,,,,
1720417455,51,0,4182.820313,4324.102539,4296.410156,4323.589844,4323.461426,4267.05127,4353.461426,4296.666504,4274.358887,4228.461426,4400.256348,4458.077148,4278.974121,4416.922852,,,,,,,,,,,,,,,,,,,,,,,,,,,,,,,,,,,,,,,,,,,,,,,,,,,,,,,,,,,,,,,,,,,,,,
1720417455,52,0,4190.769043,4332.05127,4294.102539,4320.384766,4331.794922,4263.846191,4352.05127,4293.333496,4272.436035,4223.461426,4395.512695,4459.615234,4280.384766,4418.333496,,,,,,,,,,,,,,,,,,,,,,,,,,,,,,,,,,,,,,,,,,,,,,,,,,,,,,,,,,,,,,,,,,,,,,
1720417455,53,0,4187.692383,4319.102539,4280.897461,4304.102539,4339.358887,4260.897461,4346.538574,4289.358887,4275.641113,4204.871582,4387.563965,4447.94873,4273.846191,4413.846191,,,,,,,,,,,,,,,,,,,,,,,,,,,,,,,,,,,,,,,,,,,,,,,,,,,,,,,,,,,,,,,,,,,,,,
1720417455,54,0,4188.333496,4309.230957,4281.794922,4314.102539,4326.538574,4263.461426,4327.820313,4288.461426,4277.563965,4196.410156,4375.256348,4434.615234,4268.205078,4394.615234,,,,,,,,,,,,,,,,,,,,,,,,,,,,,,,,,,,,,,,,,,,,,,,,,,,,,,,,,,,,,,,,,,,,,,
1720417455,55,0,4192.179688,4321.282227,4287.94873,4330.769043,4312.05127,4265.512695,4313.717773,4287.94873,4275.897461,4203.077148,4379.358887,4438.461426,4272.94873,4391.666504,,,,,,,,,,,,,,,,,,,,,,,,,,,,,,,,,,,,,,,,,,,,,,,,,,,,,,,,,,,,,,,,,,,,,,
1720417455,56,0,4195.384766,4330.641113,4284.487305,4321.794922,4311.282227,4271.666504,4318.461426,4286.410156,4272.692383,4201.794922,4389.358887,4448.461426,4280.897461,4412.05127,2.058551,0.711925,2.363905,1.538984,1.049895,1.316031,1.09276,0.788521,0.932965,0.343461,1.059365,0.460183,0.353037,0.601909,0.400898,3.019688,1.015447,0.686946,0.761696,0.886944,17.86009,1.81405,0.968504,0.570108,0.303104,1.512274,0.483982,0.398399,0.269003,0.189008,8.206736,2.509362,1.865449,0.725339,0.384619,0.332972,0.203002,0.153141,0.122909,0.107372,0.623358,1.465345,0.540832,0.433918,0.143092,1.769753,1.358181,0.727208,0.3577,0.321455,1.273448,1.094089,1.027421,1.774007,0.711222,1.746818,0.797087,1.017899,0.680774,0.446353,16.060627,3.913462,3.792932,1.554509,0.305314,1.25793,1.213747,1.772108,1.197546,0.766055
1720417455,57,0,4201.153809,4326.666504,4283.333496,4313.205078,4312.307617,4276.538574,4317.436035,4282.563965,4272.307617,4189.615234,4383.846191,4446.282227,4280,4419.615234,,,,,,,,,,,,,,,,,,,,,,,,,,,,,,,,,,,,,,,,,,,,,,,,,,,,,,,,,,,,,,,,,,,,,,
1720417455,58,0,4209.102539,4323.589844,4290.641113,4320,4307.179688,4275.897461,4310.128418,4283.589844,4278.077148,4191.794922,4387.05127,4444.487305,4278.205078,4401.538574,,,,,,,,,,,,,,,,,,,,,,,,,,,,,,,,,,,,,,,,,,,,,,,,,,,,,,,,,,,,,,,,,,,,,,
1720417455,59,0,4205.512695,4325.897461,4286.153809,4321.922852,4309.615234,4275.769043,4312.563965,4286.410156,4282.692383,4206.153809,4389.358887,4446.153809,4276.666504,4392.05127,,,,,,,,,,,,,,,,,,,,,,,,,,,,,,,,,,,,,,,,,,,,,,,,,,,,,,,,,,,,,,,,,,,,,,
1720417455,60,0,4209.615234,4327.179688,4276.025879,4316.922852,4313.461426,4273.077148,4312.692383,4285.641113,4279.102539,4198.974121,4371.922852,4442.179688,4266.410156,4400.641113,,,,,,,,,,,,,,,,,,,,,,,,,,,,,,,,,,,,,,,,,,,,,,,,,,,,,,,,,,,,,,,,,,,,,,
1720417455,61,0,4226.153809,4327.563965,4278.589844,4320.641113,4309.615234,4265.897461,4304.358887,4284.102539,4277.692383,4181.922852,4372.692383,4441.922852,4264.487305,4401.666504,,,,,,,,,,,,,,,,,,,,,,,,,,,,,,,,,,,,,,,,,,,,,,,,,,,,,,,,,,,,,,,,,,,,,,
1720417455,62,0,4215.897461,4325,4286.153809,4320,4313.717773,4266.282227,4302.692383,4282.05127,4279.230957,4191.922852,4387.179688,4444.871582,4275.256348,4392.94873,,,,,,,,,,,,,,,,,,,,,,,,,,,,,,,,,,,,,,,,,,,,,,,,,,,,,,,,,,,,,,,,,,,,,,
1720417455,63,0,4196.282227,4324.230957,4287.436035,4309.487305,4328.205078,4276.538574,4306.410156,4281.794922,4280.641113,4208.333496,4382.307617,4445.897461,4279.102539,4397.692383,,,,,,,,,,,,,,,,,,,,,,,,,,,,,,,,,,,,,,,,,,,,,,,,,,,,,,,,,,,,,,,,,,,,,,
1720417455,64,0,4205.256348,4329.743652,4283.205078,4314.230957,4329.358887,4280.128418,4305.512695,4283.589844,4286.153809,4201.153809,4383.846191,4448.077148,4283.205078,4402.179688,,,,,,,,,,,,,,,,,,,,,,,,,,,,,,,,,,,,,,,,,,,,,,,,,,,,,,,,,,,,,,,,,,,,,,
1720417455,65,0,4216.282227,4335.384766,4285.897461,4322.563965,4321.922852,4276.794922,4304.358887,4281.922852,4288.717773,4200,4405,4452.436035,4292.692383,4399.102539,,,,,,,,,,,,,,,,,,,,,,,,,,,,,,,,,,,,,,,,,,,,,,,,,,,,,,,,,,,,,,,,,,,,,,
1720417455,66,0,4218.205078,4333.974121,4298.461426,4316.153809,4337.820313,4276.538574,4306.025879,4282.820313,4284.743652,4211.666504,4405.128418,4455.128418,4290.897461,4404.102539,,,,,,,,,,,,,,,,,,,,,,,,,,,,,,,,,,,,,,,,,,,,,,,,,,,,,,,,,,,,,,,,,,,,,,
1720417455,67,0,4226.153809,4333.846191,4301.794922,4322.820313,4353.333496,4279.615234,4307.307617,4286.153809,4278.589844,4205.128418,4386.410156,4450.897461,4279.615234,4401.922852,,,,,,,,,,,,,,,,,,,,,,,,,,,,,,,,,,,,,,,,,,,,,,,,,,,,,,,,,,,,,,,,,,,,,,
1720417455,68,0,4216.282227,4343.333496,4293.717773,4340.128418,4347.94873,4280.641113,4307.563965,4283.205078,4276.025879,4194.487305,4385.512695,4444.615234,4276.538574,4390.384766,,,,,,,,,,,,,,,,,,,,,,,,,,,,,,,,,,,,,,,,,,,,,,,,,,,,,,,,,,,,,,,,,,,,,,
1720417455,69,0,4200.769043,4343.846191,4290.897461,4330.769043,4354.743652,4279.743652,4304.871582,4280.128418,4272.820313,4199.230957,4395.897461,4448.974121,4283.333496,4394.358887,,,,,,,,,,,,,,,,,,,,,,,,,,,,,,,,,,,,,,,,,,,,,,,,,,,,,,,,,,,,,,,,,,,,,,
1720417455,70,0,4220.897461,4331.282227,4301.410156,4318.974121,4369.871582,4279.743652,4300.512695,4283.077148,4269.743652,4201.794922,4398.461426,4461.666504,4293.717773,4415.641113,,,,,,,,,,,,,,,,,,,,,,,,,,,,,,,,,,,,,,,,,,,,,,,,,,,,,,,,,,,,,,,,,,,,,,
1720417455,71,0,4233.589844,4325.384766,4302.307617,4331.025879,4367.820313,4279.358887,4298.461426,4282.179688,4266.666504,4199.358887,4394.358887,4458.461426,4294.358887,4415.769043,,,,,,,,,,,,,,,,,,,,,,,,,,,,,,,,,,,,,,,,,,,,,,,,,,,,,,,,,,,,,,,,,,,,,,
1720417455,72,0,4219.743652,4325.128418,4281.794922,4321.153809,4364.230957,4277.692383,4299.358887,4280,4264.487305,4200.641113,4398.717773,4446.153809,4290.512695,4390.641113,1.77773,0.803627,1.913336,1.550388,1.08418,1.284805,1.103307,0.671535,0.951813,0.352133,0.964178,0.553936,0.434968,0.622758,0.380246,3.302377,1.133794,0.725287,0.899598,0.923121,11.465361,1.447169,1.362632,0.503684,0.276853,1.223546,0.536588,0.348686,0.273135,0.154401,11.125245,3.772446,2.50795,0.981936,0.494734,0.252891,0.162361,0.149354,0.110143,0.119501,0.459045,1.151568,0.381738,0.416206,0.141101,2.320428,1.061318,0.567227,0.365766,0.319797,1.035129,0.966238,0.946401,1.711192,0.751879,1.449036,0.631874,0.974939,0.691579,0.423579,10.827614,2.724791,2.825037,1.41553,0.272658,0.853851,0.944406,1.853271,1.03691,0.76862
1720417455,73,0,4226.025879,4327.820313,4276.922852,4301.282227,4367.307617,4274.743652,4300.897461,4277.179688,4269.871582,4202.820313,4402.179688,4443.461426,4293.974121,4379.230957,,,,,,,,,,,,,,,,,,,,,,,,,,,,,,,,,,,,,,,,,,,,,,,,,,,,,,,,,,,,,,,,,,,,,,
1720417455,74,0,4236.282227,4339.230957,4296.153809,4321.538574,4367.692383,4272.563965,4300.384766,4270,4272.179688,4202.05127,4387.563965,4440.128418,4290.384766,4391.794922,,,,,,,,,,,,,,,,,,,,,,,,,,,,,,,,,,,,,,,,,,,,,,,,,,,,,,,,,,,,,,,,,,,,,,
1720417455,75,0,4212.436035,4344.615234,4297.05127,4341.538574,4373.974121,4273.333496,4297.820313,4269.743652,4264.871582,4200.256348,4369.487305,4432.94873,4276.538574,4392.94873,,,,,,,,,,,,,,,,,,,,,,,,,,,,,,,,,,,,,,,,,,,,,,,,,,,,,,,,,,,,,,,,,,,,,,
1720417455,76,0,4200.384766,4335.128418,4286.410156,4327.820313,4383.846191,4276.666504,4298.333496,4272.436035,4263.589844,4198.846191,4369.871582,4434.615234,4277.179688,4376.666504,,,,,,,,,,,,,,,,,,,,,,,,,,,,,,,,,,,,,,,,,,,,,,,,,,,,,,,,,,,,,,,,,,,,,,
1720417455,77,0,4220.128418,4325.512695,4294.615234,4315.641113,4390.128418,4277.436035,4301.538574,4271.538574,4273.333496,4204.871582,4390.256348,4441.666504,4289.743652,4378.717773,,,,,,,,,,,,,,,,,,,,,,,,,,,,,,,,,,,,,,,,,,,,,,,,,,,,,,,,,,,,,,,,,,,,,,
1720417455,78,0,4224.871582,4323.846191,4299.230957,4322.05127,4397.820313,4278.333496,4305.769043,4272.436035,4280.256348,4213.461426,4402.692383,4443.077148,4294.871582,4389.230957,,,,,,,,,,,,,,,,,,,,,,,,,,,,,,,,,,,,,,,,,,,,,,,,,,,,,,,,,,,,,,,,,,,,,,
1720417455,79,0,4213.589844,4328.974121,4290.769043,4326.153809,4399.487305,4284.102539,4308.461426,4274.358887,4283.461426,4217.307617,4393.717773,4443.717773,4295.128418,4390,,,,,,,,,,,,,,,,,,,,,,,,,,,,,,,,,,,,,,,,,,,,,,,,,,,,,,,,,,,,,,,,,,,,,,
1720417455,80,0,4221.538574,4336.025879,4297.820313,4325.512695,4398.589844,4285.769043,4302.436035,4274.487305,4285.384766,4219.358887,4392.692383,4447.179688,4297.307617,4386.025879,,,,,,,,,,,,,,,,,,,,,,,,,,,,,,,,,,,,,,,,,,,,,,,,,,,,,,,,,,,,,,,,,,,,,,
1720417455,81,0,4235,4335.128418,4306.282227,4321.922852,4400.256348,4280.512695,4293.333496,4273.205078,4280.897461,4219.871582,4400.641113,4448.461426,4301.282227,4380.512695,,,,,,,,,,,,,,,,,,,,,,,,,,,,,,,,,,,,,,,,,,,,,,,,,,,,,,,,,,,,,,,,,,,,,,
1720417455,82,0,4232.820313,4335,4298.333496,4320.897461,4395.512695,4277.94873,4292.307617,4271.282227,4274.230957,4215.769043,4393.205078,4447.179688,4299.230957,4385.128418,,,,,,,,,,,,,,,,,,,,,,,,,,,,,,,,,,,,,,,,,,,,,,,,,,,,,,,,,,,,,,,,,,,,,,
1720417455,83,0,4234.230957,4340.769043,4293.077148,4324.358887,4398.461426,4278.589844,4296.410156,4269.743652,4267.307617,4208.974121,4380,4440.769043,4283.846191,4392.179688,,,,,,,,,,,,,,,,,,,,,,,,,,,,,,,,,,,,,,,,,,,,,,,,,,,,,,,,,,,,,,,,,,,,,,
1720417455,84,0,4238.717773,4342.05127,4294.615234,4319.102539,4410.897461,4278.077148,4299.615234,4270.641113,4264.615234,4212.563965,4377.307617,4433.717773,4275.256348,4379.487305,,,,,,,,,,,,,,,,,,,,,,,,,,,,,,,,,,,,,,,,,,,,,,,,,,,,,,,,,,,,,,,,,,,,,,
1720417455,85,0,4231.282227,4337.820313,4292.94873,4315.769043,4411.282227,4279.230957,4301.538574,4268.205078,4266.410156,4226.410156,4388.461426,4428.717773,4285.128418,4358.846191,,,,,,,,,,,,,,,,,,,,,,,,,,,,,,,,,,,,,,,,,,,,,,,,,,,,,,,,,,,,,,,,,,,,,,
1720417455,86,0,4227.05127,4331.282227,4290.128418,4319.871582,4405,4279.487305,4295.769043,4263.077148,4265.384766,4226.153809,4394.102539,4423.717773,4291.666504,4358.717773,,,,,,,,,,,,,,,,,,,,,,,,,,,,,,,,,,,,,,,,,,,,,,,,,,,,,,,,,,,,,,,,,,,,,,
1720417455,87,0,4241.153809,4325.769043,4291.794922,4312.94873,4402.436035,4276.794922,4288.205078,4265.641113,4262.307617,4217.179688,4383.333496,4428.333496,4290.256348,4373.846191,,,,,,,,,,,,,,,,,,,,,,,,,,,,,,,,,,,,,,,,,,,,,,,,,,,,,,,,,,,,,,,,,,,,,,
1720417455,88,0,4258.717773,4324.615234,4298.205078,4298.333496,4403.461426,4278.461426,4292.436035,4270.769043,4264.102539,4220.256348,4388.461426,4444.743652,4298.846191,4378.846191,1.553311,0.953159,1.618509,1.609261,1.116296,1.33992,1.133676,0.59868,0.930727,0.358437,0.854623,0.675196,0.629416,0.676081,0.3685,3.37647,1.237487,0.802987,1.003464,0.929101,7.381958,1.52447,1.824574,0.477738,0.264439,0.88169,0.604765,0.3464,0.285873,0.12335,13.42296,4.79574,3.024361,1.187844,0.579701,0.221673,0.13438,0.160899,0.100201,0.131502,0.326644,0.87431,0.278299,0.406986,0.138836,3.037922,0.899903,0.466145,0.399,0.312806,0.87249,0.930994,0.961601,1.613954,0.825517,1.160928,0.553847,1.068679,0.7253,0.400682,6.316129,1.765209,1.86147,1.196402,0.248106,0.566824,0.740888,1.93281,0.862984,0.738201
1720417455,89,0,4258.717773,4327.563965,4296.025879,4293.846191,4404.871582,4279.102539,4297.436035,4268.589844,4263.974121,4226.025879,4396.410156,4445.641113,4298.077148,4366.410156,,,,,,,,,,,,,,,,,,,,,,,,,,,,,,,,,,,,,,,,,,,,,,,,,,,,,,,,,,,,,,,,,,,,,,
1720417455,90,0,4255.128418,4322.436035,4285.769043,4296.538574,4403.461426,4277.307617,4296.153809,4265.897461,4261.410156,4226.794922,4376.282227,4429.615234,4278.333496,4357.820313,,,,,,,,,,,,,,,,,,,,,,,,,,,,,,,,,,,,,,,,,,,,,,,,,,,,,,,,,,,,,,,,,,,,,,
1720417455,91,0,4260.384766,4315,4281.025879,4296.410156,4405.256348,4279.615234,4294.487305,4268.717773,4263.717773,4230.512695,4367.692383,4426.666504,4274.615234,4358.974121,,,,,,,,,,,,,,,,,,,,,,,,,,,,,,,,,,,,,,,,,,,,,,,,,,,,,,,,,,,,,,,,,,,,,,
1720417455,92,0,4266.666504,4318.846191,4283.589844,4296.538574,4411.153809,4282.179688,4292.307617,4270.512695,4266.025879,4233.461426,4389.871582,4433.461426,4292.307617,4360.384766,,,,,,,,,,,,,,,,,,,,,,,,,,,,,,,,,,,,,,,,,,,,,,,,,,,,,,,,,,,,,,,,,,,,,,
1720417455,93,0,4270.512695,4323.589844,4290.128418,4311.922852,4411.153809,4284.358887,4292.307617,4266.538574,4266.410156,4232.307617,4399.230957,4430.384766,4303.589844,4362.94873,,,,,,,,,,,,,,,,,,,,,,,,,,,,,,,,,,,,,,,,,,,,,,,,,,,,,,,,,,,,,,,,,,,,,,
1720417455,94,0,4267.436035,4334.230957,4296.025879,4327.692383,4416.794922,4289.487305,4296.153809,4263.205078,4266.282227,4234.615234,4398.589844,4428.461426,4307.436035,4357.692383,,,,,,,,,,,,,,,,,,,,,,,,,,,,,,,,,,,,,,,,,,,,,,,,,,,,,,,,,,,,,,,,,,,,,,
1720417455,95,0,4266.538574,4349.102539,4298.205078,4318.333496,4426.666504,4287.563965,4294.358887,4264.743652,4263.077148,4229.743652,4400.641113,4439.230957,4309.871582,4356.538574,,,,,,,,,,,,,,,,,,,,,,,,,,,,,,,,,,,,,,,,,,,,,,,,,,,,,,,,,,,,,,,,,,,,,,
1720417455,96,0,4271.025879,4352.307617,4300.384766,4307.94873,4417.94873,4279.487305,4286.922852,4266.282227,4262.563965,4218.846191,4393.333496,4445.512695,4303.333496,4359.230957,,,,,,,,,,,,,,,,,,,,,,,,,,,,,,,,,,,,,,,,,,,,,,,,,,,,,,,,,,,,,,,,,,,,,,
1720417455,97,0,4270.256348,4341.666504,4295.769043,4308.077148,4408.717773,4279.487305,4284.230957,4265.897461,4262.436035,4215.256348,4390.128418,4431.410156,4286.794922,4331.410156,,,,,,,,,,,,,,,,,,,,,,,,,,,,,,,,,,,,,,,,,,,,,,,,,,,,,,,,,,,,,,,,,,,,,,
1720417455,98,0,4270.641113,4336.794922,4278.974121,4304.358887,4417.179688,4282.05127,4285.769043,4265.769043,4252.179688,4216.794922,4373.717773,4409.615234,4264.871582,4304.358887,,,,,,,,,,,,,,,,,,,,,,,,,,,,,,,,,,,,,,,,,,,,,,,,,,,,,,,,,,,,,,,,,,,,,,
1720417455,99,0,4271.666504,4343.461426,4271.794922,4309.871582,4416.922852,4282.692383,4280.769043,4257.436035,4245.384766,4213.205078,4341.410156,4403.846191,4252.820313,4314.743652,,,,,,,,,,,,,,,,,,,,,,,,,,,,,,,,,,,,,,,,,,,,,,,,,,,,,,,,,,,,,,,,,,,,,,
1720417455,100,0,4270.128418,4342.05127,4288.077148,4321.282227,4407.05127,4288.846191,4283.205078,4257.563965,4256.410156,4211.025879,4349.230957,4419.230957,4267.179688,4327.436035,,,,,,,,,,,,,,,,,,,,,,,,,,,,,,,,,,,,,,,,,,,,,,,,,,,,,,,,,,,,,,,,,,,,,,
1720417455,101,0,4277.94873,4336.666504,4306.410156,4313.333496,4415.256348,4293.974121,4295.769043,4274.871582,4265.256348,4224.102539,4393.846191,4440.384766,4291.153809,4333.717773,,,,,,,,,,,,,,,,,,,,,,,,,,,,,,,,,,,,,,,,,,,,,,,,,,,,,,,,,,,,,,,,,,,,,,
1720417455,102,0,4280.769043,4342.179688,4309.871582,4304.358887,4434.102539,4296.153809,4297.436035,4275.769043,4265.769043,4237.05127,4405.641113,4447.692383,4300.897461,4339.487305,,,,,,,,,,,,,,,,,,,,,,,,,,,,,,,,,,,,,,,,,,,,,,,,,,,,,,,,,,,,,,,,,,,,,,
1720417455,103,0,4278.333496,4355.384766,4296.922852,4309.743652,4427.436035,4294.358887,4291.282227,4263.846191,4265.897461,4235.128418,4391.410156,4443.205078,4296.922852,4331.794922,,,,,,,,,,,,,,,,,,,,,,,,,,,,,,,,,,,,,,,,,,,,,,,,,,,,,,,,,,,,,,,,,,,,,,
1720417455,104,0,4302.692383,4359.102539,4291.666504,4313.717773,4403.846191,4292.436035,4295,4268.461426,4264.615234,4236.153809,4408.205078,4446.922852,4300.897461,4339.615234,1.312244,1.096644,1.540078,1.68333,1.106308,1.426494,1.131724,0.585374,0.862519,0.359829,0.740332,0.79102,0.90334,0.761677,0.356168,3.164703,1.267227,0.874605,1.046631,0.908413,5.601526,1.840354,2.229872,0.470713,0.260281,0.603569,0.658936,0.385418,0.297875,0.100069,14.322002,5.267172,3.251194,1.276864,0.608676,0.234289,0.118267,0.183465,0.096172,0.139901,0.276679,0.707364,0.226429,0.409738,0.134432,3.68911,0.85586,0.409194,0.439916,0.303133,0.816401,0.967631,1.058472,1.49881,0.912167,0.950996,0.563555,1.287585,0.783641,0.369202,3.325309,1.1831,1.106136,0.976101,0.233813,0.473989,0.629637,2.016891,0.720013,0.69092
1720417455,105,0,4307.94873,4363.077148,4300.256348,4320.641113,4409.487305,4295.897461,4298.077148,4275.641113,4269.230957,4250.641113,4420.641113,4454.615234,4312.563965,4368.077148,,,,,,,,,,,,,,,,,,,,,,,,,,,,,,,,,,,,,,,,,,,,,,,,,,,,,,,,,,,,,,,,,,,,,,
1720417455,106,0,4269.358887,4368.333496,4300.256348,4321.794922,4429.230957,4300.512695,4292.436035,4269.487305,4275.384766,4252.94873,4399.487305,4447.436035,4309.487305,4359.743652,,,,,,,,,,,,,,,,,,,,,,,,,,,,,,,,,,,,,,,,,,,,,,,,,,,,,,,,,,,,,,,,,,,,,,
1720417455,107,0,4277.436035,4357.563965,4297.94873,4307.820313,4423.846191,4299.743652,4289.358887,4268.333496,4268.077148,4237.307617,4383.846191,4432.307617,4290.641113,4327.692383,,,,,,,,,,,,,,,,,,,,,,,,,,,,,,,,,,,,,,,,,,,,,,,,,,,,,,,,,,,,,,,,,,,,,,
1720417455,108,0,4316.794922,4359.871582,4305,4311.922852,4413.333496,4296.666504,4287.05127,4272.436035,4261.794922,4233.077148,4383.846191,4432.692383,4283.846191,4333.205078,,,,,,,,,,,,,,,,,,,,,,,,,,,,,,,,,,,,,,,,,,,,,,,,,,,,,,,,,,,,,,,,,,,,,,
1720417455,109,0,4303.589844,4382.563965,4311.794922,4333.717773,4420,4300.128418,4285.128418,4272.307617,4270.897461,4252.05127,4392.820313,4447.820313,4301.282227,4367.436035,,,,,,,,,,,,,,,,,,,,,,,,,,,,,,,,,,,,,,,,,,,,,,,,,,,,,,,,,,,,,,,,,,,,,,
1720417455,110,0,4280.641113,4386.025879,4310.641113,4336.410156,4422.436035,4302.94873,4290,4270.897461,4277.436035,4272.05127,4423.333496,4456.282227,4314.743652,4387.307617,,,,,,,,,,,,,,,,,,,,,,,,,,,,,,,,,,,,,,,,,,,,,,,,,,,,,,,,,,,,,,,,,,,,,,
1720417455,111,0,4294.358887,4364.871582,4309.358887,4326.666504,4412.820313,4298.077148,4291.794922,4264.487305,4277.436035,4265.384766,4435.897461,4453.846191,4312.820313,4371.282227,,,,,,,,,,,,,,,,,,,,,,,,,,,,,,,,,,,,,,,,,,,,,,,,,,,,,,,,,,,,,,,,,,,,,,
1720417455,112,0,4298.077148,4356.794922,4307.563965,4324.358887,4413.717773,4293.333496,4286.410156,4261.025879,4276.538574,4248.333496,4397.820313,4452.05127,4311.282227,4346.666504,,,,,,,,,,,,,,,,,,,,,,,,,,,,,,,,,,,,,,,,,,,,,,,,,,,,,,,,,,,,,,,,,,,,,,
1720417455,113,0,4286.282227,4367.820313,4306.666504,4324.871582,4425.641113,4296.410156,4282.563965,4265.641113,4270.512695,4245.384766,4387.179688,4452.820313,4313.077148,4361.153809,,,,,,,,,,,,,,,,,,,,,,,,,,,,,,,,,,,,,,,,,,,,,,,,,,,,,,,,,,,,,,,,,,,,,,
1720417455,114,0,4287.436035,4369.615234,4307.05127,4323.333496,4429.743652,4299.615234,4287.563965,4267.436035,4265.384766,4249.358887,4420.641113,4440.897461,4314.102539,4381.410156,,,,,,,,,,,,,,,,,,,,,,,,,,,,,,,,,,,,,,,,,,,,,,,,,,,,,,,,,,,,,,,,,,,,,,
1720417455,115,0,4288.333496,4354.487305,4299.487305,4323.461426,4419.230957,4295.769043,4289.487305,4265.512695,4257.436035,4249.358887,4423.333496,4422.05127,4305.384766,4360.128418,,,,,,,,,,,,,,,,,,,,,,,,,,,,,,,,,,,,,,,,,,,,,,,,,,,,,,,,,,,,,,,,,,,,,,
1720417455,116,0,4284.230957,4347.05127,4297.563965,4327.94873,4408.717773,4294.102539,4284.358887,4269.230957,4246.025879,4243.077148,4405,4425.128418,4300.641113,4346.794922,,,,,,,,,,,,,,,,,,,,,,,,,,,,,,,,,,,,,,,,,,,,,,,,,,,,,,,,,,,,,,,,,,,,,,
1720417455,117,0,4292.05127,4355.769043,4308.974121,4325.897461,4415.256348,4292.820313,4287.307617,4274.487305,4248.974121,4245.769043,4408.461426,4443.077148,4306.538574,4368.077148,,,,,,,,,,,,,,,,,,,,,,,,,,,,,,,,,,,,,,,,,,,,,,,,,,,,,,,,,,,,,,,,,,,,,,
1720417455,118,0,4301.410156,4344.743652,4313.846191,4314.871582,4423.974121,4290.384766,4289.615234,4271.410156,4251.025879,4259.615234,4413.333496,4441.794922,4306.282227,4360,,,,,,,,,,,,,,,,,,,,,,,,,,,,,,,,,,,,,,,,,,,,,,,,,,,,,,,,,,,,,,,,,,,,,,
1720417455,119,0,4293.077148,4320.128418,4303.333496,4319.230957,4416.538574,4292.692383,4278.333496,4268.974121,4236.410156,4256.282227,4393.589844,4426.538574,4290.641113,4332.563965,,,,,,,,,,,,,,,,,,,,,,,,,,,,,,,,,,,,,,,,,,,,,,,,,,,,,,,,,,,,,,,,,,,,,,
1720417455,120,0,4282.94873,4329.487305,4301.410156,4342.563965,4409.871582,4296.666504,4273.974121,4270.769043,4236.410156,4237.563965,4386.666504,4426.922852,4287.179688,4345.128418,1.231516,1.19276,1.621306,1.726114,1.040729,1.505133,1.058762,0.613953,0.762647,0.355478,0.629265,0.861524,1.17728,0.857943,0.33973,2.669901,1.187235,0.903517,1.021007,0.869937,5.383558,2.106613,2.443367,0.456706,0.256794,0.411658,0.673028,0.439467,0.300748,0.085109,13.482616,5.071769,3.112766,1.219347,0.568477,0.278062,0.115746,0.210246,0.098084,0.141365,0.328631,0.67678,0.203577,0.423304,0.12597,3.989403,0.875683,0.366837,0.472549,0.294639,0.846781,1.022752,1.165719,1.407622,0.978589,0.85401,0.627879,1.543001,0.856506,0.330043,1.862994,0.944495,0.640879,0.831951,0.228676,0.53443,0.601354,2.070037,0.640774,0.648575
1720417455,121,0,4287.05127,4345.897461,4304.358887,4349.230957,4412.05127,4295.512695,4279.615234,4265.769043,4245.641113,4236.794922,4399.230957,4431.410156,4298.974121,4352.05127,,,,,,,,,,,,,,,,,,,,,,,,,,,,,,,,,,,,,,,,,,,,,,,,,,,,,,,,,,,,,,,,,,,,,,
1720417455,122,0,4290.512695,4334.358887,4296.153809,4338.717773,4406.666504,4293.589844,4274.358887,4253.077148,4235.897461,4249.615234,4399.743652,4419.615234,4300.512695,4329.487305,,,,,,,,,,,,,,,,,,,,,,,,,,,,,,,,,,,,,,,,,,,,,,,,,,,,,,,,,,,,,,,,,,,,,,
1720417455,123,0,4300.512695,4327.05127,4299.230957,4336.794922,4404.102539,4293.077148,4267.94873,4249.871582,4233.333496,4256.153809,4395.769043,4413.077148,4306.025879,4333.846191,,,,,,,,,,,,,,,,,,,,,,,,,,,,,,,,,,,,,,,,,,,,,,,,,,,,,,,,,,,,,,,,,,,,,,
1720417455,124,0,4311.794922,4333.333496,4308.717773,4332.436035,4409.871582,4291.794922,4274.615234,4253.846191,4247.820313,4260.897461,4410,4421.538574,4320.897461,4359.871582,,,,,,,,,,,,,,,,,,,,,,,,,,,,,,,,,,,,,,,,,,,,,,,,,,,,,,,,,,,,,,,,,,,,,,
1720417455,125,0,4303.846191,4327.692383,4307.820313,4324.871582,4403.717773,4297.436035,4281.666504,4251.025879,4251.794922,4259.615234,4422.820313,4427.563965,4330.128418,4365.128418,,,,,,,,,,,,,,,,,,,,,,,,,,,,,,,,,,,,,,,,,,,,,,,,,,,,,,,,,,,,,,,,,,,,,,
1720417455,126,0,4302.563965,4321.666504,4315.384766,4330.769043,4394.743652,4307.692383,4287.436035,4256.153809,4247.563965,4256.538574,4406.538574,4434.358887,4334.230957,4364.230957,,,,,,,,,,,,,,,,,,,,,,,,,,,,,,,,,,,,,,,,,,,,,,,,,,,,,,,,,,,,,,,,,,,,,,
