Timestamp,EEG.Counter,EEG.Interpolated,EEG.AF3,EEG.F7,EEG.F3,EEG.FC5,EEG.T7,EEG.P7,EEG.O1,EEG.O2,EEG.P8,EEG.T8,EEG.FC6,EEG.F4,EEG.F8,EEG.AF4,POW.AF3.Theta,POW.AF3.Alpha,POW.AF3.BetaL,POW.AF3.BetaH,POW.AF3.Gamma,POW.F7.Theta,POW.F7.Alpha,POW.F7.BetaL,POW.F7.BetaH,POW.F7.Gamma,POW.F3.Theta,POW.F3.Alpha,POW.F3.BetaL,POW.F3.BetaH,POW.F3.Gamma,POW.FC5.Theta,POW.FC5.Alpha,POW.FC5.BetaL,POW.FC5.BetaH,POW.FC5.Gamma,POW.T7.Theta,POW.T7.Alpha,POW.T7.BetaL,POW.T7.BetaH,POW.T7.Gamma,POW.P7.Theta,POW.P7.Alpha,POW.P7.BetaL,POW.P7.BetaH,POW.P7.Gamma,POW.O1.Theta,POW.O1.Alpha,POW.O1.BetaL,POW.O1.BetaH,POW.O1.Gamma,POW.O2.Theta,POW.O2.Alpha,POW.O2.BetaL,POW.O2.BetaH,POW.O2.Gamma,POW.P8.Theta,POW.P8.Alpha,POW.P8.BetaL,POW.P8.BetaH,POW.P8.Gamma,POW.T8.Theta,POW.T8.Alpha,POW.T8.BetaL,POW.T8.BetaH,POW.T8.Gamma,POW.FC6.Theta,POW.FC6.Alpha,POW.FC6.BetaL,POW.FC6.BetaH,POW.FC6.Gamma,POW.F4.Theta,POW.F4.Alpha,POW.F4.BetaL,POW.F4.BetaH,POW.F4.Gamma,POW.F8.Theta,POW.F8.Alpha,POW.F8.BetaL,POW.F8.BetaH,POW.F8.Gamma,POW.AF4.Theta,POW.AF4.Alpha,POW.AF4.BetaL,POW.AF4.BetaH,POW.AF4.Gamma
1720526602,79,0,4281.666504,4278.333496,4330.384766,4311.538574,4261.025879,4275.256348,4259.102539,4290.512695,4271.282227,4431.666504,4516.794922,4478.717773,4464.615234,4434.230957,,,,,,,,,,,,,,,,,,,,,,,,,,,,,,,,,,,,,,,,,,,,,,,,,,,,,,,,,,,,,,,,,,,,,,
1720526602,80,0,4283.974121,4276.025879,4334.615234,4312.307617,4263.461426,4278.333496,4260.256348,4282.820313,4268.717773,4426.922852,4522.307617,4482.05127,4458.077148,4440.384766,,,,,,,,,,,,,,,,,,,,,,,,,,,,,,,,,,,,,,,,,,,,,,,,,,,,,,,,,,,,,,,,,,,,,,
1720526602,81,0,4286.410156,4276.538574,4340.769043,4315.897461,4274.615234,4277.436035,4261.153809,4276.666504,4267.436035,4422.692383,4511.922852,4480.256348,4465,4440.897461,,,,,,,,,,,,,,,,,,,,,,,,,,,,,,,,,,,,,,,,,,,,,,,,,,,,,,,,,,,,,,,,,,,,,,
1720526602,82,0,4288.974121,4278.974121,4340.769043,4311.538574,4279.743652,4278.077148,4262.94873,4279.487305,4271.153809,4448.846191,4508.974121,4480.512695,4464.358887,4441.282227,,,,,,,,,,,,,,,,,,,,,,,,,,,,,,,,,,,,,,,,,,,,,,,,,,,,,,,,,,,,,,,,,,,,,,
1720526602,83,0,4289.230957,4275.128418,4334.230957,4306.153809,4268.717773,4279.615234,4264.358887,4282.307617,4275.384766,4480.256348,4518.333496,4484.358887,4456.410156,4441.282227,,,,,,,,,,,,,,,,,,,,,,,,,,,,,,,,,,,,,,,,,,,,,,,,,,,,,,,,,,,,,,,,,,,,,,
1720526602,84,0,4282.692383,4271.282227,4328.974121,4308.974121,4257.692383,4278.461426,4261.794922,4282.563965,4277.820313,4487.94873,4518.077148,4486.153809,4457.436035,4435.256348,,,,,,,,,,,,,,,,,,,,,,,,,,,,,,,,,,,,,,,,,,,,,,,,,,,,,,,,,,,,,,,,,,,,,,
1720526602,85,0,4278.589844,4272.05127,4328.333496,4309.102539,4260.769043,4277.307617,4259.743652,4289.102539,4282.436035,4487.05127,4516.538574,4481.282227,4460.384766,4445.641113,,,,,,,,,,,,,,,,,,,,,,,,,,,,,,,,,,,,,,,,,,,,,,,,,,,,,,,,,,,,,,,,,,,,,,
1720526602,86,0,4279.487305,4269.102539,4324.743652,4304.871582,4267.692383,4275.128418,4262.94873,4297.692383,4288.974121,4488.974121,4523.974121,4480,4460.641113,4477.05127,,,,,,,,,,,,,,,,,,,,,,,,,,,,,,,,,,,,,,,,,,,,,,,,,,,,,,,,,,,,,,,,,,,,,,
1720526602,87,0,4277.563965,4263.205078,4315.384766,4305.512695,4266.153809,4270,4261.538574,4299.358887,4292.436035,4476.922852,4525.897461,4485.256348,4461.025879,4495.641113,,,,,,,,,,,,,,,,,,,,,,,,,,,,,,,,,,,,,,,,,,,,,,,,,,,,,,,,,,,,,,,,,,,,,,
1720526602,88,0,4269.487305,4261.922852,4305.769043,4300.512695,4262.94873,4263.846191,4251.538574,4297.820313,4294.102539,4460.641113,4517.692383,4471.025879,4455.256348,4487.179688,,,,,,,,,,,,,,,,,,,,,,,,,,,,,,,,,,,,,,,,,,,,,,,,,,,,,,,,,,,,,,,,,,,,,,
1720526602,89,0,4267.692383,4266.153809,4299.871582,4295.769043,4259.871582,4261.922852,4247.05127,4295.897461,4295.897461,4460.897461,4510.897461,4455.256348,4447.820313,4478.461426,,,,,,,,,,,,,,,,,,,,,,,,,,,,,,,,,,,,,,,,,,,,,,,,,,,,,,,,,,,,,,,,,,,,,,
1720526602,90,0,4275.256348,4270.897461,4297.05127,4302.563965,4255.641113,4261.025879,4249.871582,4289.102539,4293.589844,4460.641113,4509.487305,4463.461426,4450,4484.358887,,,,,,,,,,,,,,,,,,,,,,,,,,,,,,,,,,,,,,,,,,,,,,,,,,,,,,,,,,,,,,,,,,,,,,
1720526602,91,0,4272.05127,4267.94873,4292.05127,4303.589844,4254.743652,4263.333496,4248.333496,4281.666504,4286.922852,4450.256348,4503.846191,4459.358887,4450.384766,4484.358887,,,,,,,,,,,,,,,,,,,,,,,,,,,,,,,,,,,,,,,,,,,,,,,,,,,,,,,,,,,,,,,,,,,,,,
1720526602,92,0,4264.871582,4264.871582,4292.307617,4301.025879,4265.512695,4262.563965,4244.487305,4276.922852,4282.179688,4444.487305,4496.922852,4440.897461,4442.307617,4472.94873,,,,,,,,,,,,,,,,,,,,,,,,,,,,,,,,,,,,,,,,,,,,,,,,,,,,,,,,,,,,,,,,,,,,,,
1720526602,93,0,4272.05127,4270.384766,4301.025879,4304.743652,4272.436035,4254.230957,4241.025879,4269.358887,4282.692383,4443.205078,4499.743652,4441.922852,4443.205078,4469.743652,2.97053,1.557093,0.725775,0.503457,0.1656,2.531329,1.195712,0.526931,0.348931,0.143197,2.193211,1.62777,0.569587,0.49882,0.179883,0.16542,0.05214,0.06483,0.044178,0.047102,0.603048,0.541288,0.11766,0.434593,0.161639,1.312381,2.672333,0.389971,0.173344,0.084903,2.650862,3.046663,0.329266,0.405205,0.083376,4.682835,7.570089,0.364975,0.513363,0.157378,1.93609,4.510062,0.199545,0.20012,0.081083,145.571274,63.44458,22.630983,10.496977,3.164025,4.211535,1.814795,0.488831,0.828223,0.263893,3.966648,1.362775,0.376386,0.559213,0.268879,3.618297,1.372414,0.710228,0.746482,0.201436,5.365596,1.859118,0.908206,0.856746,0.157704
1720526602,94,0,4275.512695,4271.153809,4301.025879,4303.717773,4268.333496,4252.05127,4235.384766,4262.05127,4281.282227,4420.897461,4501.025879,4450.512695,4450.769043,4478.333496,,,,,,,,,,,,,,,,,,,,,,,,,,,,,,,,,,,,,,,,,,,,,,,,,,,,,,,,,,,,,,,,,,,,,,
1720526602,95,0,4268.461426,4264.615234,4292.307617,4297.563965,4261.794922,4256.538574,4231.282227,4263.589844,4276.410156,4388.461426,4490.384766,4446.153809,4445.384766,4477.563965,,,,,,,,,,,,,,,,,,,,,,,,,,,,,,,,,,,,,,,,,,,,,,,,,,,,,,,,,,,,,,,,,,,,,,
1720526602,96,0,4266.153809,4261.538574,4293.205078,4297.307617,4253.205078,4255.512695,4233.333496,4268.461426,4279.615234,4382.692383,4486.794922,4445.512695,4435,4466.538574,,,,,,,,,,,,,,,,,,,,,,,,,,,,,,,,,,,,,,,,,,,,,,,,,,,,,,,,,,,,,,,,,,,,,,
1720526602,97,0,4264.230957,4258.461426,4294.615234,4296.666504,4253.077148,4253.461426,4239.358887,4268.333496,4282.94873,4378.846191,4492.692383,4445.512695,4431.410156,4464.230957,,,,,,,,,,,,,,,,,,,,,,,,,,,,,,,,,,,,,,,,,,,,,,,,,,,,,,,,,,,,,,,,,,,,,,
1720526602,98,0,4261.410156,4257.94873,4288.205078,4293.717773,4261.025879,4258.974121,4245,4266.282227,4278.461426,4371.282227,4490,4445.384766,4426.794922,4464.871582,,,,,,,,,,,,,,,,,,,,,,,,,,,,,,,,,,,,,,,,,,,,,,,,,,,,,,,,,,,,,,,,,,,,,,
1720526602,99,0,4266.153809,4263.333496,4291.282227,4292.563965,4262.563965,4264.358887,4248.461426,4265.384766,4278.461426,4413.717773,4485.641113,4452.563965,4425.256348,4463.461426,,,,,,,,,,,,,,,,,,,,,,,,,,,,,,,,,,,,,,,,,,,,,,,,,,,,,,,,,,,,,,,,,,,,,,
1720526602,100,0,4269.230957,4262.94873,4297.307617,4289.615234,4260.897461,4264.615234,4249.230957,4265.128418,4289.102539,4483.717773,4494.358887,4450.256348,4433.846191,4471.153809,,,,,,,,,,,,,,,,,,,,,,,,,,,,,,,,,,,,,,,,,,,,,,,,,,,,,,,,,,,,,,,,,,,,,,
1720526602,101,0,4273.974121,4262.563965,4295.641113,4291.282227,4263.717773,4265.512695,4246.410156,4265.769043,4293.974121,4505.769043,4508.717773,4453.974121,4438.205078,4483.846191,,,,,,,,,,,,,,,,,,,,,,,,,,,,,,,,,,,,,,,,,,,,,,,,,,,,,,,,,,,,,,,,,,,,,,
1720526602,102,0,4281.410156,4270.256348,4295,4292.307617,4262.436035,4265,4244.230957,4264.358887,4285.256348,4488.846191,4511.282227,4460.512695,4437.820313,4487.820313,,,,,,,,,,,,,,,,,,,,,,,,,,,,,,,,,,,,,,,,,,,,,,,,,,,,,,,,,,,,,,,,,,,,,,
1720526602,103,0,4280.897461,4274.743652,4301.666504,4290.769043,4262.692383,4263.205078,4246.666504,4262.05127,4284.487305,4482.179688,4505.128418,4455.897461,4442.94873,4486.538574,,,,,,,,,,,,,,,,,,,,,,,,,,,,,,,,,,,,,,,,,,,,,,,,,,,,,,,,,,,,,,,,,,,,,,
1720526602,104,0,4278.333496,4274.230957,4307.307617,4292.307617,4272.563965,4262.692383,4244.871582,4263.589844,4294.615234,4475.128418,4502.179688,4454.358887,4441.025879,4481.922852,,,,,,,,,,,,,,,,,,,,,,,,,,,,,,,,,,,,,,,,,,,,,,,,,,,,,,,,,,,,,,,,,,,,,,
1720526602,105,0,4281.282227,4275.384766,4306.666504,4293.717773,4270.384766,4261.538574,4235.769043,4262.436035,4296.922852,4461.410156,4501.153809,4452.436035,4431.025879,4479.230957,,,,,,,,,,,,,,,,,,,,,,,,,,,,,,,,,,,,,,,,,,,,,,,,,,,,,,,,,,,,,,,,,,,,,,
1720526602,106,0,4287.94873,4278.589844,4307.563965,4290.512695,4261.153809,4254.358887,4228.333496,4253.205078,4289.230957,4459.230957,4498.333496,4450.897461,4431.153809,4487.563965,,,,,,,,,,,,,,,,,,,,,,,,,,,,,,,,,,,,,,,,,,,,,,,,,,,,,,,,,,,,,,,,,,,,,,
1720526602,107,0,4292.94873,4280.384766,4310.769043,4288.717773,4263.846191,4244.615234,4226.410156,4246.538574,4283.333496,4453.717773,4497.692383,4453.717773,4432.563965,4494.871582,,,,,,,,,,,,,,,,,,,,,,,,,,,,,,,,,,,,,,,,,,,,,,,,,,,,,,,,,,,,,,,,,,,,,,
1720526602,108,0,4295,4280.512695,4314.358887,4294.743652,4269.358887,4246.282227,4229.615234,4248.589844,4284.230957,4450.512695,4503.461426,4458.846191,4428.846191,4492.692383,,,,,,,,,,,,,,,,,,,,,,,,,,,,,,,,,,,,,,,,,,,,,,,,,,,,,,,,,,,,,,,,,,,,,,
1720526602,109,0,4296.794922,4280,4317.05127,4297.307617,4267.05127,4257.692383,4234.230957,4252.307617,4285.256348,4455.512695,4511.922852,4461.282227,4433.589844,4495.769043,2.13131,1.3388,0.757693,0.447494,0.178003,1.930943,0.977366,0.519722,0.299303,0.158176,1.491855,1.681184,0.476196,0.449516,0.20586,0.171569,0.047644,0.068091,0.042684,0.044842,0.624356,0.487599,0.089892,0.400491,0.153403,1.257716,2.740544,0.601743,0.172848,0.085018,2.569606,3.868054,0.356804,0.391301,0.081237,4.414548,7.09471,0.334686,0.537233,0.160442,1.506944,4.001947,0.2576,0.220286,0.075162,109.951668,49.760738,14.049293,7.799309,2.157049,3.734696,1.902469,0.622098,0.798375,0.257747,3.135208,1.599075,0.378621,0.47649,0.271125,3.032875,1.261958,0.836014,0.722995,0.202616,3.642915,1.983829,0.986828,0.722535,0.177193
1720526602,110,0,4298.205078,4279.102539,4314.871582,4291.666504,4266.282227,4263.589844,4237.563965,4249.615234,4281.794922,4448.589844,4513.589844,4458.205078,4436.025879,4502.692383,,,,,,,,,,,,,,,,,,,,,,,,,,,,,,,,,,,,,,,,,,,,,,,,,,,,,,,,,,,,,,,,,,,,,,
1720526602,111,0,4292.563965,4276.538574,4310.897461,4290.512695,4267.436035,4261.922852,4244.102539,4248.589844,4284.615234,4444.743652,4511.794922,4457.94873,4431.153809,4500.384766,,,,,,,,,,,,,,,,,,,,,,,,,,,,,,,,,,,,,,,,,,,,,,,,,,,,,,,,,,,,,,,,,,,,,,
1720526602,112,0,4287.05127,4274.230957,4314.358887,4294.102539,4263.333496,4262.820313,4252.179688,4258.589844,4294.615234,4460.769043,4514.358887,4460.512695,4431.025879,4495.897461,,,,,,,,,,,,,,,,,,,,,,,,,,,,,,,,,,,,,,,,,,,,,,,,,,,,,,,,,,,,,,,,,,,,,,
1720526602,113,0,4290.128418,4275.641113,4312.94873,4289.871582,4260.384766,4264.615234,4253.205078,4263.589844,4293.846191,4467.436035,4510.897461,4455.769043,4426.538574,4496.153809,,,,,,,,,,,,,,,,,,,,,,,,,,,,,,,,,,,,,,,,,,,,,,,,,,,,,,,,,,,,,,,,,,,,,,
1720526602,114,0,4286.153809,4272.436035,4300.384766,4286.153809,4255,4264.102539,4251.025879,4253.974121,4291.666504,4455.641113,4502.307617,4447.563965,4415.641113,4492.820313,,,,,,,,,,,,,,,,,,,,,,,,,,,,,,,,,,,,,,,,,,,,,,,,,,,,,,,,,,,,,,,,,,,,,,
1720526602,115,0,4273.461426,4258.974121,4293.717773,4294.358887,4251.794922,4261.666504,4248.589844,4248.974121,4299.230957,4450.897461,4498.974121,4444.743652,4412.436035,4485.256348,,,,,,,,,,,,,,,,,,,,,,,,,,,,,,,,,,,,,,,,,,,,,,,,,,,,,,,,,,,,,,,,,,,,,,
1720526602,116,0,4262.692383,4243.974121,4283.717773,4291.153809,4249.358887,4255.128418,4240.897461,4247.307617,4294.871582,4440,4485.512695,4427.436035,4402.820313,4473.974121,,,,,,,,,,,,,,,,,,,,,,,,,,,,,,,,,,,,,,,,,,,,,,,,,,,,,,,,,,,,,,,,,,,,,,
1720526602,117,0,4248.974121,4231.794922,4261.538574,4280.769043,4232.94873,4248.461426,4228.205078,4232.820313,4280.897461,4412.94873,4456.666504,4403.205078,4372.05127,4456.922852,,,,,,,,,,,,,,,,,,,,,,,,,,,,,,,,,,,,,,,,,,,,,,,,,,,,,,,,,,,,,,,,,,,,,,
1720526602,118,0,4242.94873,4225.769043,4259.871582,4289.615234,4258.846191,4245.641113,4222.307617,4223.333496,4284.743652,4401.025879,4446.794922,4410,4356.538574,4448.205078,,,,,,,,,,,,,,,,,,,,,,,,,,,,,,,,,,,,,,,,,,,,,,,,,,,,,,,,,,,,,,,,,,,,,,
1720526602,119,0,4262.179688,4237.307617,4284.615234,4300.641113,4351.153809,4247.563965,4228.589844,4231.794922,4297.05127,4412.820313,4469.358887,4431.025879,4380,4469.615234,,,,,,,,,,,,,,,,,,,,,,,,,,,,,,,,,,,,,,,,,,,,,,,,,,,,,,,,,,,,,,,,,,,,,,
1720526602,120,0,4283.589844,4259.358887,4302.436035,4297.563965,4402.563965,4255.641113,4236.282227,4239.487305,4298.333496,4423.846191,4491.666504,4441.922852,4403.717773,4496.666504,,,,,,,,,,,,,,,,,,,,,,,,,,,,,,,,,,,,,,,,,,,,,,,,,,,,,,,,,,,,,,,,,,,,,,
1720526602,121,0,4282.94873,4266.282227,4302.179688,4298.717773,4377.179688,4259.743652,4231.922852,4233.077148,4294.743652,4416.153809,4487.692383,4442.820313,4401.025879,4499.230957,,,,,,,,,,,,,,,,,,,,,,,,,,,,,,,,,,,,,,,,,,,,,,,,,,,,,,,,,,,,,,,,,,,,,,
1720526602,122,0,4277.820313,4261.666504,4299.487305,4302.94873,4370.512695,4253.077148,4220.641113,4219.871582,4291.282227,4403.461426,4477.05127,4431.794922,4390.641113,4491.538574,,,,,,,,,,,,,,,,,,,,,,,,,,,,,,,,,,,,,,,,,,,,,,,,,,,,,,,,,,,,,,,,,,,,,,
1720526602,123,0,4281.666504,4263.717773,4303.589844,4297.436035,4392.307617,4247.692383,4219.871582,4213.974121,4288.717773,4400.128418,4482.820313,4425.384766,4390.128418,4489.615234,,,,,,,,,,,,,,,,,,,,,,,,,,,,,,,,,,,,,,,,,,,,,,,,,,,,,,,,,,,,,,,,,,,,,,
1720526602,124,0,4290.512695,4267.436035,4312.179688,4298.461426,4386.666504,4253.589844,4228.205078,4216.794922,4293.077148,4395.256348,4491.025879,4440.897461,4397.436035,4494.743652,,,,,,,,,,,,,,,,,,,,,,,,,,,,,,,,,,,,,,,,,,,,,,,,,,,,,,,,,,,,,,,,,,,,,,
1720526602,125,0,4295.769043,4266.282227,4314.743652,4302.563965,4377.94873,4256.025879,4230.384766,4224.102539,4295.512695,4376.282227,4491.153809,4448.974121,4400.128418,4502.179688,1.623664,1.300164,0.817127,0.407808,0.187916,1.543994,0.84679,0.536224,0.269072,0.171166,1.122706,1.939222,0.442854,0.421353,0.225861,0.185376,0.04946,0.069414,0.04535,0.042947,0.689027,0.441788,0.069973,0.36674,0.150036,1.219308,2.677818,0.838776,0.180128,0.086898,2.598245,5.034978,0.366463,0.376984,0.082911,4.139526,6.43496,0.328596,0.563585,0.165954,1.049159,3.34861,0.330828,0.240996,0.071552,95.451057,41.734547,9.282804,6.706024,1.557588,3.363245,1.896405,0.865416,0.805009,0.258707,2.616471,1.867563,0.464838,0.420382,0.273195,3.144853,1.244489,1.097304,0.783512,0.215,2.670331,2.074716,1.178499,0.652595,0.204245
1720526602,126,0,4296.410156,4265.769043,4312.05127,4299.102539,4381.794922,4250,4231.922852,4229.358887,4292.179688,4355.769043,4494.743652,4444.615234,4396.794922,4507.05127,,,,,,,,,,,,,,,,,,,,,,,,,,,,,,,,,,,,,,,,,,,,,,,,,,,,,,,,,,,,,,,,,,,,,,
1720526602,127,0,4294.230957,4264.230957,4310.769043,4299.487305,4377.179688,4253.846191,4241.922852,4235,4294.871582,4354.102539,4498.717773,4452.692383,4396.282227,4507.820313,,,,,,,,,,,,,,,,,,,,,,,,,,,,,,,,,,,,,,,,,,,,,,,,,,,,,,,,,,,,,,,,,,,,,,
1720526602,0,0,4287.692383,4262.307617,4306.538574,4297.94873,4370.897461,4262.436035,4250.384766,4241.025879,4297.436035,4358.333496,4489.102539,4451.153809,4395.897461,4503.205078,,,,,,,,,,,,,,,,,,,,,,,,,,,,,,,,,,,,,,,,,,,,,,,,,,,,,,,,,,,,,,,,,,,,,,
1720526602,1,0,4279.230957,4260.897461,4297.563965,4293.974121,4371.025879,4255.769043,4246.922852,4241.666504,4295.128418,4356.153809,4481.538574,4435.641113,4387.692383,4494.230957,,,,,,,,,,,,,,,,,,,,,,,,,,,,,,,,,,,,,,,,,,,,,,,,,,,,,,,,,,,,,,,,,,,,,,
1720526602,2,0,4271.538574,4254.743652,4287.820313,4293.077148,4370.512695,4250.128418,4238.589844,4232.179688,4294.358887,4356.538574,4476.025879,4421.666504,4373.461426,4477.692383,,,,,,,,,,,,,,,,,,,,,,,,,,,,,,,,,,,,,,,,,,,,,,,,,,,,,,,,,,,,,,,,,,,,,,
1720526602,3,0,4262.820313,4248.717773,4278.461426,4291.538574,4363.589844,4258.717773,4233.717773,4220.641113,4291.538574,4358.589844,4461.410156,4413.717773,4358.717773,4463.717773,,,,,,,,,,,,,,,,,,,,,,,,,,,,,,,,,,,,,,,,,,,,,,,,,,,,,,,,,,,,,,,,,,,,,,
1720526602,4,0,4251.922852,4242.563965,4271.922852,4291.794922,4358.589844,4262.820313,4231.922852,4216.538574,4285.641113,4356.666504,4454.871582,4412.563965,4353.461426,4461.153809,,,,,,,,,,,,,,,,,,,,,,,,,,,,,,,,,,,,,,,,,,,,,,,,,,,,,,,,,,,,,,,,,,,,,,
1720526602,5,0,4246.794922,4233.589844,4265.769043,4292.94873,4354.230957,4258.717773,4229.487305,4213.974121,4279.743652,4356.153809,4457.820313,4406.153809,4358.333496,4459.102539,,,,,,,,,,,,,,,,,,,,,,,,,,,,,,,,,,,,,,,,,,,,,,,,,,,,,,,,,,,,,,,,,,,,,,
1720526602,6,0,4250.256348,4234.871582,4261.025879,4292.820313,4350.512695,4259.230957,4229.871582,4214.230957,4279.615234,4356.025879,4459.102539,4405.897461,4363.589844,4457.436035,,,,,,,,,,,,,,,,,,,,,,,,,,,,,,,,,,,,,,,,,,,,,,,,,,,,,,,,,,,,,,,,,,,,,,
1720526602,7,0,4257.307617,4243.846191,4265.128418,4293.333496,4354.358887,4258.333496,4228.974121,4218.077148,4283.589844,4355,4460.641113,4415,4364.743652,4462.436035,,,,,,,,,,,,,,,,,,,,,,,,,,,,,,,,,,,,,,,,,,,,,,,,,,,,,,,,,,,,,,,,,,,,,,
1720526602,8,0,4258.846191,4242.436035,4272.05127,4293.333496,4354.230957,4252.94873,4221.666504,4217.436035,4282.05127,4352.692383,4460.512695,4415.769043,4363.846191,4465.769043,,,,,,,,,,,,,,,,,,,,,,,,,,,,,,,,,,,,,,,,,,,,,,,,,,,,,,,,,,,,,,,,,,,,,,
1720526602,9,0,4258.461426,4240.769043,4274.358887,4291.538574,4347.692383,4250.512695,4215,4214.102539,4279.358887,4347.05127,4460.384766,4418.205078,4364.487305,4463.974121,,,,,,,,,,,,,,,,,,,,,,,,,,,,,,,,,,,,,,,,,,,,,,,,,,,,,,,,,,,,,,,,,,,,,,
1720526602,10,0,4266.794922,4250.641113,4280.897461,4295,4353.589844,4247.820313,4216.794922,4216.538574,4281.922852,4345.897461,4469.358887,4428.846191,4368.974121,4472.436035,,,,,,,,,,,,,,,,,,,,,,,,,,,,,,,,,,,,,,,,,,,,,,,,,,,,,,,,,,,,,,,,,,,,,,
1720526602,11,0,4272.820313,4254.102539,4290.641113,4302.820313,4360.641113,4247.307617,4222.307617,4219.230957,4283.077148,4353.461426,4475,4434.102539,4370.897461,4484.487305,,,,,,,,,,,,,,,,,,,,,,,,,,,,,,,,,,,,,,,,,,,,,,,,,,,,,,,,,,,,,,,,,,,,,,
1720526602,12,0,4275.512695,4250,4295.897461,4304.102539,4349.615234,4253.077148,4225.641113,4216.153809,4279.871582,4358.461426,4467.436035,4435.256348,4369.615234,4486.922852,,,,,,,,,,,,,,,,,,,,,,,,,,,,,,,,,,,,,,,,,,,,,,,,,,,,,,,,,,,,,,,,,,,,,,
1720526602,13,0,4278.717773,4251.282227,4296.794922,4302.436035,4340.512695,4261.153809,4230,4222.436035,4278.974121,4351.666504,4467.820313,4436.410156,4370.641113,4484.102539,1.509413,1.408734,0.855609,0.380209,0.190776,1.406206,0.840221,0.557771,0.253437,0.177071,1.237656,2.357839,0.455607,0.40817,0.231232,0.197999,0.061939,0.071442,0.052386,0.042224,0.889589,0.455933,0.086269,0.354016,0.153657,1.168266,2.48945,1.037339,0.185254,0.091498,2.661751,6.093873,0.350673,0.358923,0.086632,3.842535,5.758464,0.342448,0.573819,0.169001,0.678098,2.769061,0.384451,0.248681,0.071605,103.131798,37.80621,8.084877,6.78716,1.34987,3.10618,1.836124,1.142526,0.818278,0.264304,2.51078,2.109877,0.585087,0.386247,0.2703,4.223855,1.515804,1.437397,0.89464,0.232619,2.448312,2.151245,1.410747,0.647683,0.234268
1720526602,14,0,4273.589844,4250.256348,4294.358887,4304.871582,4344.615234,4263.205078,4238.974121,4231.922852,4279.358887,4342.94873,4471.282227,4431.922852,4368.589844,4474.871582,,,,,,,,,,,,,,,,,,,,,,,,,,,,,,,,,,,,,,,,,,,,,,,,,,,,,,,,,,,,,,,,,,,,,,
1720526602,15,0,4262.436035,4244.743652,4291.282227,4311.025879,4347.563965,4261.794922,4245,4230.769043,4279.102539,4342.820313,4470.641113,4430.897461,4366.025879,4468.461426,,,,,,,,,,,,,,,,,,,,,,,,,,,,,,,,,,,,,,,,,,,,,,,,,,,,,,,,,,,,,,,,,,,,,,
1720526602,16,0,4262.179688,4246.153809,4293.461426,4313.589844,4350.384766,4263.717773,4240.897461,4225,4275.512695,4345.769043,4471.282227,4428.333496,4369.102539,4470.512695,,,,,,,,,,,,,,,,,,,,,,,,,,,,,,,,,,,,,,,,,,,,,,,,,,,,,,,,,,,,,,,,,,,,,,
1720526602,17,0,4268.077148,4251.025879,4292.436035,4309.743652,4350.384766,4262.563965,4233.717773,4221.922852,4268.333496,4340.128418,4468.205078,4423.333496,4370.128418,4467.436035,,,,,,,,,,,,,,,,,,,,,,,,,,,,,,,,,,,,,,,,,,,,,,,,,,,,,,,,,,,,,,,,,,,,,,
1720526602,18,0,4263.974121,4249.487305,4284.102539,4311.025879,4345.384766,4262.436035,4234.615234,4221.410156,4270,4330.384766,4465.128418,4430.128418,4369.487305,4456.794922,,,,,,,,,,,,,,,,,,,,,,,,,,,,,,,,,,,,,,,,,,,,,,,,,,,,,,,,,,,,,,,,,,,,,,
1720526602,19,0,4254.487305,4245.641113,4277.179688,4312.820313,4342.436035,4261.538574,4236.410156,4216.153809,4276.538574,4322.692383,4463.333496,4422.307617,4370.256348,4449.230957,,,,,,,,,,,,,,,,,,,,,,,,,,,,,,,,,,,,,,,,,,,,,,,,,,,,,,,,,,,,,,,,,,,,,,
1720526602,20,0,4249.358887,4246.153809,4270.641113,4312.436035,4340.769043,4252.820313,4228.846191,4204.871582,4276.538574,4314.102539,4454.871582,4401.538574,4366.794922,4443.077148,,,,,,,,,,,,,,,,,,,,,,,,,,,,,,,,,,,,,,,,,,,,,,,,,,,,,,,,,,,,,,,,,,,,,,
1720526602,21,0,4248.846191,4247.94873,4263.333496,4314.358887,4337.179688,4246.410156,4217.179688,4200.128418,4276.282227,4316.153809,4451.922852,4405.769043,4363.717773,4438.589844,,,,,,,,,,,,,,,,,,,,,,,,,,,,,,,,,,,,,,,,,,,,,,,,,,,,,,,,,,,,,,,,,,,,,,
1720526602,22,0,4246.538574,4247.692383,4262.563965,4316.025879,4334.487305,4249.230957,4212.436035,4206.666504,4279.230957,4326.153809,4459.358887,4415.769043,4369.487305,4442.692383,,,,,,,,,,,,,,,,,,,,,,,,,,,,,,,,,,,,,,,,,,,,,,,,,,,,,,,,,,,,,,,,,,,,,,
1720526602,23,0,4246.922852,4246.666504,4266.282227,4312.05127,4330.769043,4248.846191,4212.307617,4211.025879,4282.563965,4329.102539,4459.230957,4406.794922,4373.717773,4442.307617,,,,,,,,,,,,,,,,,,,,,,,,,,,,,,,,,,,,,,,,,,,,,,,,,,,,,,,,,,,,,,,,,,,,,,
1720526602,24,0,4256.282227,4247.179688,4270.384766,4311.025879,4326.922852,4245,4213.333496,4219.102539,4288.461426,4324.615234,4464.102539,4413.077148,4374.358887,4440.512695,,,,,,,,,,,,,,,,,,,,,,,,,,,,,,,,,,,,,,,,,,,,,,,,,,,,,,,,,,,,,,,,,,,,,,
1720526602,25,0,4266.794922,4251.922852,4281.025879,4314.743652,4325.384766,4251.282227,4225.128418,4232.307617,4294.230957,4327.307617,4479.487305,4434.743652,4384.487305,4449.230957,,,,,,,,,,,,,,,,,,,,,,,,,,,,,,,,,,,,,,,,,,,,,,,,,,,,,,,,,,,,,,,,,,,,,,
1720526602,26,0,4273.077148,4258.205078,4296.666504,4312.179688,4323.077148,4260.897461,4243.205078,4237.179688,4292.563965,4330.512695,4482.179688,4441.025879,4397.179688,4457.820313,,,,,,,,,,,,,,,,,,,,,,,,,,,,,,,,,,,,,,,,,,,,,,,,,,,,,,,,,,,,,,,,,,,,,,
1720526602,27,0,4278.333496,4262.179688,4302.179688,4311.025879,4322.563965,4261.922852,4250.512695,4239.487305,4287.179688,4327.179688,4475.897461,4447.179688,4394.871582,4459.358887,,,,,,,,,,,,,,,,,,,,,,,,,,,,,,,,,,,,,,,,,,,,,,,,,,,,,,,,,,,,,,,,,,,,,,
1720526602,28,0,4280.769043,4262.307617,4302.94873,4315.769043,4326.666504,4260.769043,4249.871582,4244.358887,4281.282227,4329.102539,4476.025879,4450.256348,4388.974121,4462.820313,,,,,,,,,,,,,,,,,,,,,,,,,,,,,,,,,,,,,,,,,,,,,,,,,,,,,,,,,,,,,,,,,,,,,,
1720526602,29,0,4281.153809,4262.563965,4305.256348,4316.794922,4329.230957,4261.410156,4252.05127,4247.820313,4279.743652,4332.179688,4482.94873,4448.717773,4393.461426,4469.871582,1.731999,1.646512,0.841107,0.355144,0.183655,1.494404,1.000164,0.577031,0.243339,0.172562,1.797404,2.878407,0.491278,0.396838,0.218868,0.215615,0.088408,0.07601,0.061934,0.043522,1.641262,0.690254,0.228308,0.402092,0.175603,1.093879,2.208654,1.14449,0.181837,0.098631,2.618471,6.612341,0.321329,0.33578,0.089878,3.415888,5.165489,0.381604,0.555278,0.165065,0.445122,2.392048,0.399239,0.235508,0.076212,120.090187,34.470341,8.805346,7.183276,1.353188,2.945999,1.796673,1.371973,0.804834,0.270154,2.717112,2.274353,0.696456,0.365973,0.259857,6.164478,2.176489,1.765036,0.999796,0.248837,2.877906,2.225084,1.602181,0.685931,0.261023
1720526602,30,0,4281.666504,4264.358887,4303.717773,4314.230957,4326.794922,4260.641113,4252.692383,4247.05127,4281.794922,4327.307617,4481.153809,4453.077148,4393.205078,4466.922852,,,,,,,,,,,,,,,,,,,,,,,,,,,,,,,,,,,,,,,,,,,,,,,,,,,,,,,,,,,,,,,,,,,,,,
1720526602,31,0,4282.692383,4264.102539,4302.307617,4313.846191,4321.922852,4258.333496,4248.205078,4241.282227,4278.589844,4325.641113,4471.025879,4452.05127,4386.282227,4461.282227,,,,,,,,,,,,,,,,,,,,,,,,,,,,,,,,,,,,,,,,,,,,,,,,,,,,,,,,,,,,,,,,,,,,,,
1720526602,32,0,4284.743652,4265.512695,4303.974121,4315.384766,4321.666504,4259.358887,4247.307617,4235.512695,4277.563965,4337.436035,4472.05127,4451.153809,4389.871582,4465.256348,,,,,,,,,,,,,,,,,,,,,,,,,,,,,,,,,,,,,,,,,,,,,,,,,,,,,,,,,,,,,,,,,,,,,,
1720526602,33,0,4284.358887,4266.922852,4300.256348,4314.615234,4322.563965,4260.128418,4245,4231.538574,4282.436035,4342.692383,4478.077148,4448.589844,4400.512695,4467.307617,,,,,,,,,,,,,,,,,,,,,,,,,,,,,,,,,,,,,,,,,,,,,,,,,,,,,,,,,,,,,,,,,,,,,,
1720526602,34,0,4281.922852,4265.128418,4292.05127,4316.410156,4320,4257.307617,4233.846191,4217.820313,4282.179688,4335,4469.358887,4436.025879,4401.538574,4463.974121,,,,,,,,,,,,,,,,,,,,,,,,,,,,,,,,,,,,,,,,,,,,,,,,,,,,,,,,,,,,,,,,,,,,,,
1720526602,35,0,4278.333496,4260.897461,4287.820313,4320.128418,4324.615234,4258.333496,4225.512695,4201.153809,4279.230957,4332.820313,4458.589844,4424.230957,4392.563965,4459.358887,,,,,,,,,,,,,,,,,,,,,,,,,,,,,,,,,,,,,,,,,,,,,,,,,,,,,,,,,,,,,,,,,,,,,,
1720526602,36,0,4269.871582,4254.871582,4283.205078,4322.692383,4328.846191,4261.922852,4227.436035,4203.205078,4286.282227,4336.410156,4456.666504,4423.589844,4384.230957,4446.666504,,,,,,,,,,,,,,,,,,,,,,,,,,,,,,,,,,,,,,,,,,,,,,,,,,,,,,,,,,,,,,,,,,,,,,
1720526602,37,0,4261.410156,4247.436035,4272.563965,4322.179688,4317.05127,4260.769043,4230.769043,4220.641113,4296.282227,4341.410156,4456.666504,4426.025879,4381.794922,4431.282227,,,,,,,,,,,,,,,,,,,,,,,,,,,,,,,,,,,,,,,,,,,,,,,,,,,,,,,,,,,,,,,,,,,,,,
1720526602,38,0,4260.384766,4243.717773,4264.358887,4318.077148,4305.128418,4259.230957,4230.128418,4232.563965,4296.794922,4344.615234,4462.307617,4423.846191,4381.282227,4425.256348,,,,,,,,,,,,,,,,,,,,,,,,,,,,,,,,,,,,,,,,,,,,,,,,,,,,,,,,,,,,,,,,,,,,,,
1720526602,39,0,4261.794922,4247.436035,4268.077148,4315.384766,4306.922852,4259.615234,4233.205078,4233.461426,4294.743652,4340.384766,4466.922852,4429.230957,4381.922852,4426.666504,,,,,,,,,,,,,,,,,,,,,,,,,,,,,,,,,,,,,,,,,,,,,,,,,,,,,,,,,,,,,,,,,,,,,,
1720526602,40,0,4263.077148,4249.102539,4280.641113,4317.563965,4304.615234,4259.871582,4243.077148,4239.230957,4291.282227,4331.410156,4464.871582,4440.769043,4381.410156,4434.102539,,,,,,,,,,,,,,,,,,,,,,,,,,,,,,,,,,,,,,,,,,,,,,,,,,,,,,,,,,,,,,,,,,,,,,
1720526602,41,0,4265.128418,4245.384766,4285,4320.128418,4299.487305,4258.974121,4250.384766,4246.538574,4282.563965,4327.05127,4462.94873,4439.615234,4376.922852,4441.410156,,,,,,,,,,,,,,,,,,,,,,,,,,,,,,,,,,,,,,,,,,,,,,,,,,,,,,,,,,,,,,,,,,,,,,
1720526602,42,0,4263.974121,4244.871582,4287.436035,4316.794922,4304.102539,4255.128418,4248.589844,4241.025879,4278.974121,4323.974121,4463.461426,4436.282227,4372.307617,4442.05127,,,,,,,,,,,,,,,,,,,,,,,,,,,,,,,,,,,,,,,,,,,,,,,,,,,,,,,,,,,,,,,,,,,,,,
1720526602,43,0,4265,4248.846191,4297.436035,4317.307617,4305.512695,4249.230957,4246.282227,4233.333496,4281.666504,4315.256348,4463.846191,4446.025879,4372.563965,4442.820313,,,,,,,,,,,,,,,,,,,,,,,,,,,,,,,,,,,,,,,,,,,,,,,,,,,,,,,,,,,,,,,,,,,,,,
1720526602,44,0,4269.871582,4250.769043,4300.256348,4318.717773,4296.153809,4247.820313,4248.077148,4235.769043,4279.230957,4309.615234,4465.256348,4442.179688,4372.179688,4446.666504,,,,,,,,,,,,,,,,,,,,,,,,,,,,,,,,,,,,,,,,,,,,,,,,,,,,,,,,,,,,,,,,,,,,,,
1720526603,45,0,4268.717773,4249.871582,4295.641113,4314.615234,4295,4250,4243.974121,4238.589844,4276.538574,4307.94873,4464.487305,4427.307617,4365.512695,4441.794922,2.223188,2.011252,0.76522,0.32825,0.167666,1.7887,1.323824,0.595686,0.23383,0.157976,2.72877,3.452051,0.529716,0.377141,0.193331,0.241464,0.127288,0.0827,0.070998,0.047458,3.469757,1.315244,0.601598,0.549558,0.232869,0.999306,1.888621,1.138137,0.169715,0.107024,2.39429,6.423975,0.295246,0.312465,0.091141,2.831647,4.676638,0.440557,0.509952,0.153216,0.357194,2.213357,0.373023,0.204104,0.085195,132.187653,29.12668,9.700791,7.145721,1.369367,2.897251,1.854933,1.490994,0.749132,0.273097,3.115762,2.365657,0.765786,0.357247,0.243969,8.505396,3.151085,1.98369,1.047671,0.260458,3.677825,2.310704,1.684273,0.738921,0.279357
1720526603,46,0,4267.436035,4249.871582,4295.897461,4317.179688,4301.794922,4248.846191,4234.358887,4231.025879,4280.384766,4301.282227,4461.410156,4435.512695,4361.538574,4437.436035,,,,,,,,,,,,,,,,,,,,,,,,,,,,,,,,,,,,,,,,,,,,,,,,,,,,,,,,,,,,,,,,,,,,,,
1720526603,47,0,4272.179688,4249.871582,4293.589844,4320.897461,4300.128418,4248.333496,4226.794922,4215.384766,4276.410156,4294.615234,4459.230957,4436.922852,4365.384766,4442.05127,,,,,,,,,,,,,,,,,,,,,,,,,,,,,,,,,,,,,,,,,,,,,,,,,,,,,,,,,,,,,,,,,,,,,,
1720526603,48,0,4272.179688,4249.102539,4285.897461,4318.077148,4298.333496,4249.230957,4217.692383,4202.820313,4270.769043,4290.769043,4450.512695,4416.666504,4363.589844,4438.077148,,,,,,,,,,,,,,,,,,,,,,,,,,,,,,,,,,,,,,,,,,,,,,,,,,,,,,,,,,,,,,,,,,,,,,
1720526603,49,0,4263.333496,4248.461426,4277.436035,4316.538574,4301.025879,4249.358887,4204.358887,4193.846191,4272.820313,4284.358887,4434.743652,4405.641113,4350.384766,4419.487305,,,,,,,,,,,,,,,,,,,,,,,,,,,,,,,,,,,,,,,,,,,,,,,,,,,,,,,,,,,,,,,,,,,,,,
1720526603,50,0,4254.358887,4244.358887,4268.461426,4316.025879,4298.077148,4248.461426,4198.333496,4183.974121,4271.282227,4276.282227,4423.589844,4396.153809,4338.974121,4402.05127,,,,,,,,,,,,,,,,,,,,,,,,,,,,,,,,,,,,,,,,,,,,,,,,,,,,,,,,,,,,,,,,,,,,,,
1720526603,51,0,4247.05127,4233.333496,4259.230957,4312.179688,4292.179688,4250.384766,4210.128418,4187.94873,4270.512695,4274.487305,4425.128418,4388.974121,4338.461426,4398.846191,,,,,,,,,,,,,,,,,,,,,,,,,,,,,,,,,,,,,,,,,,,,,,,,,,,,,,,,,,,,,,,,,,,,,,
1720526603,52,0,4244.743652,4228.589844,4255.384766,4310.512695,4292.436035,4256.153809,4229.487305,4209.487305,4278.077148,4276.538574,4433.717773,4405.256348,4342.820313,4404.615234,,,,,,,,,,,,,,,,,,,,,,,,,,,,,,,,,,,,,,,,,,,,,,,,,,,,,,,,,,,,,,,,,,,,,,
1720526603,53,0,4255.897461,4239.358887,4265.256348,4314.358887,4294.615234,4262.05127,4243.205078,4227.820313,4281.025879,4277.05127,4446.025879,4425,4351.666504,4415.512695,,,,,,,,,,,,,,,,,,,,,,,,,,,,,,,,,,,,,,,,,,,,,,,,,,,,,,,,,,,,,,,,,,,,,,
1720526603,54,0,4269.743652,4249.615234,4285.256348,4320.128418,4289.871582,4260.641113,4248.974121,4240,4278.846191,4277.05127,4464.230957,4434.615234,4361.794922,4432.307617,,,,,,,,,,,,,,,,,,,,,,,,,,,,,,,,,,,,,,,,,,,,,,,,,,,,,,,,,,,,,,,,,,,,,,
1720526603,55,0,4272.820313,4248.589844,4296.153809,4324.871582,4282.94873,4251.794922,4249.358887,4248.717773,4278.974121,4278.333496,4472.820313,4448.717773,4365.128418,4445.769043,,,,,,,,,,,,,,,,,,,,,,,,,,,,,,,,,,,,,,,,,,,,,,,,,,,,,,,,,,,,,,,,,,,,,,
1720526603,56,0,4272.05127,4247.692383,4292.820313,4320.641113,4279.871582,4244.230957,4243.846191,4244.230957,4276.794922,4278.589844,4470.641113,4450.641113,4367.05127,4451.666504,,,,,,,,,,,,,,,,,,,,,,,,,,,,,,,,,,,,,,,,,,,,,,,,,,,,,,,,,,,,,,,,,,,,,,
1720526603,57,0,4276.025879,4249.615234,4296.282227,4315.256348,4284.487305,4242.820313,4236.410156,4233.333496,4273.077148,4273.333496,4473.717773,4444.487305,4371.410156,4454.102539,,,,,,,,,,,,,,,,,,,,,,,,,,,,,,,,,,,,,,,,,,,,,,,,,,,,,,,,,,,,,,,,,,,,,,
1720526603,58,0,4279.358887,4249.615234,4305.897461,4318.846191,4289.358887,4245.256348,4232.307617,4230.897461,4269.230957,4271.025879,4478.205078,4450.769043,4374.230957,4460.641113,,,,,,,,,,,,,,,,,,,,,,,,,,,,,,,,,,,,,,,,,,,,,,,,,,,,,,,,,,,,,,,,,,,,,,
1720526603,59,0,4283.077148,4254.871582,4301.538574,4321.153809,4292.179688,4247.436035,4231.282227,4231.922852,4265.641113,4281.282227,4474.871582,4454.743652,4375.384766,4470.384766,,,,,,,,,,,,,,,,,,,,,,,,,,,,,,,,,,,,,,,,,,,,,,,,,,,,,,,,,,,,,,,,,,,,,,
1720526603,60,0,4289.102539,4259.487305,4295.512695,4316.794922,4294.102539,4248.717773,4233.077148,4227.820313,4273.589844,4296.666504,4473.077148,4454.615234,4373.589844,4471.666504,,,,,,,,,,,,,,,,,,,,,,,,,,,,,,,,,,,,,,,,,,,,,,,,,,,,,,,,,,,,,,,,,,,,,,
1720526603,61,0,4286.922852,4255.128418,4297.820313,4314.230957,4286.794922,4250.256348,4233.589844,4226.025879,4280.641113,4302.436035,4470.897461,4449.230957,4368.846191,4462.05127,2.953654,2.507458,0.654876,0.308942,0.14776,2.254639,1.750043,0.624537,0.229258,0.137321,3.915857,4.072206,0.569474,0.352344,0.164224,0.294141,0.170426,0.089231,0.076853,0.053852,6.727584,2.364667,1.240864,0.799481,0.332651,0.903737,1.597364,1.035438,0.153232,0.114667,2.012752,5.74194,0.280057,0.295107,0.090675,2.155332,4.325481,0.508139,0.457664,0.137255,0.37894,2.127363,0.319673,0.167611,0.096943,130.5495,22.336466,10.121033,6.522447,1.31088,2.972151,2.076264,1.497476,0.672435,0.273096,3.587097,2.486175,0.795524,0.372371,0.229532,10.430453,4.199863,2.060442,1.030496,0.268592,4.733747,2.473378,1.650726,0.795982,0.286674
1720526603,62,0,4281.666504,4250.512695,4293.589844,4318.333496,4277.820313,4252.94873,4234.230957,4229.230957,4277.94873,4296.666504,4462.563965,4440.128418,4367.05127,4455.897461,,,,,,,,,,,,,,,,,,,,,,,,,,,,,,,,,,,,,,,,,,,,,,,,,,,,,,,,,,,,,,,,,,,,,,
1720526603,63,0,4278.461426,4250.256348,4278.205078,4321.922852,4279.615234,4256.794922,4240.384766,4230.384766,4279.230957,4295.128418,4456.922852,4435.641113,4362.692383,4452.436035,,,,,,,,,,,,,,,,,,,,,,,,,,,,,,,,,,,,,,,,,,,,,,,,,,,,,,,,,,,,,,,,,,,,,,
1720526603,64,0,4268.077148,4245.512695,4263.846191,4316.153809,4283.333496,4261.282227,4247.436035,4231.410156,4280.897461,4296.282227,4448.589844,4426.794922,4349.230957,4439.487305,,,,,,,,,,,,,,,,,,,,,,,,,,,,,,,,,,,,,,,,,,,,,,,,,,,,,,,,,,,,,,,,,,,,,,
1720526603,65,0,4257.692383,4235.897461,4259.615234,4311.922852,4277.820313,4259.743652,4245.256348,4233.589844,4276.282227,4288.974121,4440.769043,4418.974121,4341.538574,4431.410156,,,,,,,,,,,,,,,,,,,,,,,,,,,,,,,,,,,,,,,,,,,,,,,,,,,,,,,,,,,,,,,,,,,,,,
1720526603,66,0,4259.102539,4232.94873,4262.820313,4313.717773,4276.538574,4251.153809,4241.666504,4237.179688,4277.179688,4280.897461,4443.461426,4424.871582,4345.897461,4438.717773,,,,,,,,,,,,,,,,,,,,,,,,,,,,,,,,,,,,,,,,,,,,,,,,,,,,,,,,,,,,,,,,,,,,,,
1720526603,67,0,4261.410156,4239.102539,4264.487305,4309.487305,4276.666504,4248.461426,4244.743652,4244.358887,4280.256348,4280.641113,4447.563965,4431.025879,4347.563965,4441.153809,,,,,,,,,,,,,,,,,,,,,,,,,,,,,,,,,,,,,,,,,,,,,,,,,,,,,,,,,,,,,,,,,,,,,,
1720526603,68,0,4261.025879,4246.153809,4263.717773,4306.410156,4266.666504,4251.922852,4243.717773,4245,4278.589844,4278.974121,4445.256348,4431.282227,4343.589844,4434.487305,,,,,,,,,,,,,,,,,,,,,,,,,,,,,,,,,,,,,,,,,,,,,,,,,,,,,,,,,,,,,,,,,,,,,,
1720526603,69,0,4264.743652,4248.077148,4267.563965,4309.230957,4267.436035,4249.743652,4236.794922,4236.025879,4278.589844,4281.666504,4442.692383,4432.94873,4342.307617,4434.743652,,,,,,,,,,,,,,,,,,,,,,,,,,,,,,,,,,,,,,,,,,,,,,,,,,,,,,,,,,,,,,,,,,,,,,
1720526603,70,0,4264.487305,4244.871582,4273.333496,4306.153809,4281.410156,4244.230957,4228.077148,4234.102539,4278.974121,4288.846191,4448.461426,4433.461426,4346.282227,4440.128418,,,,,,,,,,,,,,,,,,,,,,,,,,,,,,,,,,,,,,,,,,,,,,,,,,,,,,,,,,,,,,,,,,,,,,
1720526603,71,0,4264.487305,4246.410156,4277.563965,4302.05127,4280.256348,4245,4219.358887,4233.333496,4277.05127,4286.282227,4460.641113,4437.94873,4355.769043,4445.512695,,,,,,,,,,,,,,,,,,,,,,,,,,,,,,,,,,,,,,,,,,,,,,,,,,,,,,,,,,,,,,,,,,,,,,
1720526603,72,0,4275.384766,4254.615234,4284.358887,4303.974121,4270.384766,4248.077148,4213.974121,4220.641113,4276.666504,4288.205078,4466.538574,4441.282227,4363.846191,4451.153809,,,,,,,,,,,,,,,,,,,,,,,,,,,,,,,,,,,,,,,,,,,,,,,,,,,,,,,,,,,,,,,,,,,,,,
1720526603,73,0,4281.282227,4257.307617,4281.410156,4303.846191,4262.94873,4246.025879,4210.897461,4210.512695,4277.692383,4298.205078,4457.692383,4432.05127,4361.410156,4451.794922,,,,,,,,,,,,,,,,,,,,,,,,,,,,,,,,,,,,,,,,,,,,,,,,,,,,,,,,,,,,,,,,,,,,,,
1720526603,74,0,4271.153809,4250.128418,4271.282227,4303.717773,4253.333496,4242.692383,4216.794922,4214.615234,4284.230957,4291.410156,4445.897461,4430.256348,4349.743652,4445.769043,,,,,,,,,,,,,,,,,,,,,,,,,,,,,,,,,,,,,,,,,,,,,,,,,,,,,,,,,,,,,,,,,,,,,,
1720526603,75,0,4261.538574,4244.743652,4272.692383,4303.461426,4254.871582,4243.717773,4228.974121,4223.717773,4291.538574,4278.846191,4442.692383,4427.179688,4339.102539,4436.666504,,,,,,,,,,,,,,,,,,,,,,,,,,,,,,,,,,,,,,,,,,,,,,,,,,,,,,,,,,,,,,,,,,,,,,
1720526603,76,0,4263.589844,4247.692383,4275.512695,4300.256348,4264.871582,4247.563965,4237.94873,4230.897461,4290.769043,4280.128418,4450.897461,4415.897461,4340.641113,4430.512695,,,,,,,,,,,,,,,,,,,,,,,,,,,,,,,,,,,,,,,,,,,,,,,,,,,,,,,,,,,,,,,,,,,,,,
1720526603,77,0,4267.307617,4246.538574,4267.05127,4302.820313,4261.794922,4247.94873,4241.666504,4238.974121,4286.922852,4280.641113,4458.589844,4423.077148,4348.333496,4434.358887,3.898277,3.120593,0.548892,0.312161,0.130394,2.834909,2.175807,0.665175,0.237903,0.116693,5.20644,4.796637,0.613912,0.334895,0.14132,0.37497,0.2053,0.092472,0.078518,0.061308,10.982952,3.658401,2.051482,1.105062,0.461208,0.841788,1.386254,0.878388,0.138446,0.119248,1.59805,5.024774,0.280544,0.2897,0.089977,1.574721,4.210673,0.568268,0.429602,0.123677,0.439248,2.012843,0.257829,0.140641,0.108376,114.942352,15.841687,9.974669,5.490734,1.1749,3.158286,2.494782,1.42122,0.611767,0.272227,4.065439,2.832273,0.800602,0.423998,0.222896,11.302034,5.030566,2.014474,0.973982,0.276206,5.907508,2.848534,1.53154,0.856904,0.282813
1720526603,78,0,4260.897461,4236.025879,4261.025879,4303.846191,4257.563965,4245.769043,4244.871582,4247.307617,4286.025879,4277.179688,4455.769043,4431.410156,4349.230957,4438.717773,,,,,,,,,,,,,,,,,,,,,,,,,,,,,,,,,,,,,,,,,,,,,,,,,,,,,,,,,,,,,,,,,,,,,,
1720526603,79,0,4250.384766,4231.153809,4262.179688,4298.205078,4259.487305,4245.384766,4244.102539,4249.487305,4288.846191,4281.410156,4453.461426,4424.615234,4343.974121,4429.743652,,,,,,,,,,,,,,,,,,,,,,,,,,,,,,,,,,,,,,,,,,,,,,,,,,,,,,,,,,,,,,,,,,,,,,
1720526603,80,0,4245.641113,4234.102539,4257.820313,4295.897461,4250.512695,4246.410156,4236.282227,4246.922852,4290.897461,4279.230957,4457.94873,4423.974121,4337.179688,4421.410156,,,,,,,,,,,,,,,,,,,,,,,,,,,,,,,,,,,,,,,,,,,,,,,,,,,,,,,,,,,,,,,,,,,,,,
1720526603,81,0,4244.743652,4235,4255.128418,4297.820313,4242.563965,4246.153809,4232.820313,4246.922852,4286.410156,4268.461426,4468.589844,4429.102539,4334.230957,4426.282227,,,,,,,,,,,,,,,,,,,,,,,,,,,,,,,,,,,,,,,,,,,,,,,,,,,,,,,,,,,,,,,,,,,,,,
1720526603,82,0,4249.871582,4239.102539,4262.820313,4296.666504,4255.897461,4247.820313,4233.974121,4245.384766,4279.358887,4262.820313,4476.153809,4424.358887,4339.230957,4429.615234,,,,,,,,,,,,,,,,,,,,,,,,,,,,,,,,,,,,,,,,,,,,,,,,,,,,,,,,,,,,,,,,,,,,,,
1720526603,83,0,4255.641113,4247.692383,4265.897461,4299.487305,4266.794922,4244.615234,4227.94873,4232.179688,4276.666504,4255.256348,4471.410156,4421.410156,4343.717773,4428.589844,,,,,,,,,,,,,,,,,,,,,,,,,,,,,,,,,,,,,,,,,,,,,,,,,,,,,,,,,,,,,,,,,,,,,,
1720526603,84,0,4255.384766,4248.205078,4263.461426,4299.487305,4264.743652,4238.461426,4217.820313,4219.102539,4278.461426,4249.230957,4468.077148,4419.230957,4339.615234,4428.205078,,,,,,,,,,,,,,,,,,,,,,,,,,,,,,,,,,,,,,,,,,,,,,,,,,,,,,,,,,,,,,,,,,,,,,
1720526603,85,0,4257.563965,4247.692383,4270.769043,4292.820313,4263.461426,4240.769043,4215.512695,4216.410156,4283.974121,4255.641113,4475.512695,4415.128418,4338.717773,4428.589844,,,,,,,,,,,,,,,,,,,,,,,,,,,,,,,,,,,,,,,,,,,,,,,,,,,,,,,,,,,,,,,,,,,,,,
1720526603,86,0,4263.461426,4252.563965,4277.692383,4296.025879,4258.205078,4244.102539,4215.128418,4215.512695,4291.666504,4258.077148,4478.717773,4421.153809,4343.589844,4429.102539,,,,,,,,,,,,,,,,,,,,,,,,,,,,,,,,,,,,,,,,,,,,,,,,,,,,,,,,,,,,,,,,,,,,,,
1720526603,87,0,4261.794922,4250.512695,4268.717773,4296.922852,4246.153809,4240.769043,4212.307617,4215.128418,4292.563965,4247.94873,4473.333496,4420.256348,4342.05127,4427.179688,,,,,,,,,,,,,,,,,,,,,,,,,,,,,,,,,,,,,,,,,,,,,,,,,,,,,,,,,,,,,,,,,,,,,,
1720526603,88,0,4258.589844,4247.05127,4266.282227,4293.205078,4246.025879,4243.589844,4220.512695,4222.820313,4294.102539,4244.871582,4477.94873,4417.563965,4342.307617,4428.333496,,,,,,,,,,,,,,,,,,,,,,,,,,,,,,,,,,,,,,,,,,,,,,,,,,,,,,,,,,,,,,,,,,,,,,
1720526603,89,0,4262.05127,4249.615234,4276.025879,4295.641113,4253.205078,4251.794922,4233.461426,4233.077148,4295.128418,4245.897461,4477.94873,4422.820313,4343.205078,4429.871582,,,,,,,,,,,,,,,,,,,,,,,,,,,,,,,,,,,,,,,,,,,,,,,,,,,,,,,,,,,,,,,,,,,,,,
1720526603,90,0,4262.820313,4249.615234,4279.743652,4295.769043,4251.794922,4252.563965,4239.615234,4241.153809,4290,4233.846191,4464.102539,4424.487305,4332.179688,4427.436035,,,,,,,,,,,,,,,,,,,,,,,,,,,,,,,,,,,,,,,,,,,,,,,,,,,,,,,,,,,,,,,,,,,,,,
1720526603,91,0,4256.282227,4246.153809,4276.410156,4294.358887,4245.769043,4251.025879,4244.743652,4250.769043,4289.871582,4220,4464.358887,4426.282227,4322.94873,4427.563965,,,,,,,,,,,,,,,,,,,,,,,,,,,,,,,,,,,,,,,,,,,,,,,,,,,,,,,,,,,,,,,,,,,,,,
1720526603,92,0,4250.384766,4243.846191,4271.538574,4295.512695,4235.512695,4252.05127,4250.512695,4254.230957,4289.871582,4218.717773,4477.436035,4433.333496,4329.615234,4430.512695,,,,,,,,,,,,,,,,,,,,,,,,,,,,,,,,,,,,,,,,,,,,,,,,,,,,,,,,,,,,,,,,,,,,,,
1720526603,93,0,4256.282227,4244.487305,4270.384766,4297.179688,4228.461426,4250.897461,4247.820313,4250.641113,4283.974121,4215.769043,4479.615234,4438.077148,4333.461426,4431.282227,4.92498,3.803573,0.467982,0.342694,0.119575,3.379679,2.499004,0.701048,0.260671,0.10115,6.404638,5.734532,0.658494,0.332726,0.129573,0.480509,0.220129,0.091107,0.077101,0.067692,15.246204,4.845683,2.813761,1.380599,0.584553,0.814656,1.277562,0.712244,0.130412,0.118886,1.282939,4.720716,0.304631,0.30141,0.090042,1.236996,4.473665,0.609871,0.44878,0.117118,0.49537,1.819437,0.207428,0.132129,0.11584,89.962639,10.807699,9.230881,4.285671,0.981311,3.403916,3.119453,1.297862,0.585411,0.270046,4.52525,3.607288,0.785423,0.507175,0.225038,10.876949,5.419228,1.86595,0.901239,0.282299,7.091215,3.615106,1.358595,0.909614,0.268448
1720526603,94,0,4265,4249.743652,4277.820313,4297.179688,4237.436035,4248.461426,4238.974121,4250.512695,4278.333496,4207.692383,4470.512695,4430.384766,4329.871582,4430.256348,,,,,,,,,,,,,,,,,,,,,,,,,,,,,,,,,,,,,,,,,,,,,,,,,,,,,,,,,,,,,,,,,,,,,,
1720526603,95,0,4258.461426,4247.307617,4271.025879,4296.410156,4239.102539,4242.820313,4228.717773,4239.871582,4273.461426,4202.05127,4462.94873,4414.230957,4327.307617,4421.538574,,,,,,,,,,,,,,,,,,,,,,,,,,,,,,,,,,,,,,,,,,,,,,,,,,,,,,,,,,,,,,,,,,,,,,
1720526603,96,0,4239.615234,4227.692383,4236.794922,4296.025879,4221.794922,4231.410156,4210.512695,4211.153809,4262.05127,4188.589844,4445.897461,4395.384766,4307.563965,4392.692383,,,,,,,,,,,,,,,,,,,,,,,,,,,,,,,,,,,,,,,,,,,,,,,,,,,,,,,,,,,,,,,,,,,,,,
1720526603,97,0,4226.666504,4213.077148,4215.256348,4295.384766,4212.94873,4225.897461,4195.769043,4188.589844,4249.743652,4164.615234,4425.128418,4377.436035,4288.205078,4369.230957,,,,,,,,,,,,,,,,,,,,,,,,,,,,,,,,,,,,,,,,,,,,,,,,,,,,,,,,,,,,,,,,,,,,,,
1720526603,98,0,4237.05127,4225.897461,4230.512695,4294.358887,4223.461426,4235.897461,4202.436035,4194.487305,4253.846191,4164.230957,4436.794922,4384.871582,4309.487305,4386.538574,,,,,,,,,,,,,,,,,,,,,,,,,,,,,,,,,,,,,,,,,,,,,,,,,,,,,,,,,,,,,,,,,,,,,,
1720526603,99,0,4260.384766,4247.05127,4254.487305,4295.384766,4233.461426,4247.563965,4217.563965,4213.205078,4272.179688,4188.461426,4467.94873,4417.436035,4342.05127,4421.025879,,,,,,,,,,,,,,,,,,,,,,,,,,,,,,,,,,,,,,,,,,,,,,,,,,,,,,,,,,,,,,,,,,,,,,
1720526603,100,0,4268.077148,4252.05127,4261.153809,4297.436035,4234.102539,4248.974121,4217.436035,4218.461426,4282.179688,4189.615234,4479.230957,4423.205078,4342.307617,4428.846191,,,,,,,,,,,,,,,,,,,,,,,,,,,,,,,,,,,,,,,,,,,,,,,,,,,,,,,,,,,,,,,,,,,,,,
1720526603,101,0,4263.461426,4249.615234,4259.743652,4294.615234,4232.820313,4247.05127,4215.384766,4217.563965,4275.897461,4169.230957,4470.641113,4403.461426,4331.666504,4411.538574,,,,,,,,,,,,,,,,,,,,,,,,,,,,,,,,,,,,,,,,,,,,,,,,,,,,,,,,,,,,,,,,,,,,,,
1720526603,102,0,4265.384766,4250,4264.230957,4296.794922,4229.230957,4250.512695,4225.384766,4226.153809,4274.615234,4160.897461,4468.205078,4413.589844,4334.487305,4393.205078,,,,,,,,,,,,,,,,,,,,,,,,,,,,,,,,,,,,,,,,,,,,,,,,,,,,,,,,,,,,,,,,,,,,,,
1720526603,103,0,4264.230957,4248.589844,4264.871582,4300.769043,4221.666504,4260.769043,4234.743652,4241.153809,4280.769043,4155.384766,4474.871582,4430.641113,4337.692383,4383.717773,,,,,,,,,,,,,,,,,,,,,,,,,,,,,,,,,,,,,,,,,,,,,,,,,,,,,,,,,,,,,,,,,,,,,,
1720526603,104,0,4260.512695,4245.384766,4258.717773,4294.102539,4217.436035,4265.384766,4237.307617,4248.974121,4277.05127,4143.589844,4474.615234,4420.128418,4332.692383,4381.025879,,,,,,,,,,,,,,,,,,,,,,,,,,,,,,,,,,,,,,,,,,,,,,,,,,,,,,,,,,,,,,,,,,,,,,
1720526603,105,0,4265,4244.871582,4258.461426,4292.692383,4221.538574,4256.153809,4236.922852,4249.102539,4276.538574,4135.897461,4464.743652,4415,4327.307617,4380.256348,,,,,,,,,,,,,,,,,,,,,,,,,,,,,,,,,,,,,,,,,,,,,,,,,,,,,,,,,,,,,,,,,,,,,,
1720526603,106,0,4266.922852,4245.897461,4262.94873,4293.717773,4225.512695,4246.666504,4235.641113,4247.563965,4275.769043,4125.769043,4456.922852,4418.333496,4329.743652,4376.666504,,,,,,,,,,,,,,,,,,,,,,,,,,,,,,,,,,,,,,,,,,,,,,,,,,,,,,,,,,,,,,,,,,,,,,
1720526603,107,0,4265.897461,4247.179688,4263.717773,4287.307617,4227.307617,4249.871582,4237.436035,4249.358887,4270.512695,4106.538574,4464.871582,4420.769043,4334.102539,4376.410156,,,,,,,,,,,,,,,,,,,,,,,,,,,,,,,,,,,,,,,,,,,,,,,,,,,,,,,,,,,,,,,,,,,,,,
1720526603,108,0,4269.743652,4247.692383,4265.641113,4288.589844,4230.384766,4253.974121,4239.358887,4250.769043,4269.615234,4099.102539,4475.128418,4432.05127,4336.282227,4381.153809,,,,,,,,,,,,,,,,,,,,,,,,,,,,,,,,,,,,,,,,,,,,,,,,,,,,,,,,,,,,,,,,,,,,,,
1720526603,109,0,4275.128418,4247.436035,4271.410156,4295.641113,4226.794922,4251.666504,4234.743652,4248.846191,4270,4114.487305,4474.743652,4436.410156,4339.102539,4387.94873,5.797761,4.481311,0.414271,0.389601,0.115432,3.711746,2.669914,0.705522,0.287256,0.093185,7.202559,6.945583,0.684933,0.342466,0.128006,0.577426,0.209211,0.086831,0.074473,0.071219,18.08778,5.535316,3.278334,1.535394,0.662443,0.791754,1.253608,0.57293,0.12969,0.113097,1.129715,5.055258,0.354752,0.330779,0.090803,1.209569,5.245179,0.624747,0.517936,0.118233,0.528509,1.582536,0.17877,0.14194,0.116655,61.925495,7.519749,7.976684,3.121858,0.764655,3.652955,3.91156,1.159756,0.586724,0.263702,4.930638,4.867737,0.746676,0.599721,0.231781,9.328568,5.321192,1.643476,0.825968,0.282513,8.074068,4.845448,1.15787,0.931096,0.245154
1720526603,110,0,4277.94873,4252.05127,4276.410156,4293.077148,4219.615234,4251.538574,4232.05127,4254.871582,4270.128418,4137.179688,4479.871582,4432.94873,4342.563965,4393.589844,,,,,,,,,,,,,,,,,,,,,,,,,,,,,,,,,,,,,,,,,,,,,,,,,,,,,,,,,,,,,,,,,,,,,,
1720526603,111,0,4278.589844,4255.512695,4281.282227,4292.436035,4217.307617,4253.589844,4235.769043,4266.282227,4274.871582,4145.128418,4490.897461,4446.153809,4342.820313,4396.410156,,,,,,,,,,,,,,,,,,,,,,,,,,,,,,,,,,,,,,,,,,,,,,,,,,,,,,,,,,,,,,,,,,,,,,
1720526603,112,0,4277.436035,4250.897461,4279.743652,4297.563965,4219.358887,4250.512695,4230.128418,4264.487305,4277.94873,4134.230957,4488.974121,4451.282227,4337.05127,4396.410156,,,,,,,,,,,,,,,,,,,,,,,,,,,,,,,,,,,,,,,,,,,,,,,,,,,,,,,,,,,,,,,,,,,,,,
1720526603,113,0,4276.666504,4248.974121,4268.846191,4296.922852,4222.820313,4246.538574,4217.820313,4252.05127,4276.922852,4132.05127,4482.05127,4434.230957,4337.05127,4398.205078,,,,,,,,,,,,,,,,,,,,,,,,,,,,,,,,,,,,,,,,,,,,,,,,,,,,,,,,,,,,,,,,,,,,,,
1720526603,114,0,4274.487305,4252.307617,4263.974121,4299.743652,4226.922852,4247.692383,4215.512695,4247.94873,4277.179688,4148.077148,4483.717773,4433.333496,4341.410156,4398.846191,,,,,,,,,,,,,,,,,,,,,,,,,,,,,,,,,,,,,,,,,,,,,,,,,,,,,,,,,,,,,,,,,,,,,,
1720526603,115,0,4266.666504,4250.128418,4264.102539,4307.307617,4233.077148,4248.077148,4217.436035,4249.230957,4270.256348,4146.794922,4479.743652,4433.717773,4334.102539,4386.922852,,,,,,,,,,,,,,,,,,,,,,,,,,,,,,,,,,,,,,,,,,,,,,,,,,,,,,,,,,,,,,,,,,,,,,
1720526603,116,0,4260.128418,4245.256348,4258.846191,4306.538574,4230.384766,4246.153809,4215.256348,4243.974121,4263.589844,4125,4470,4420.641113,4321.025879,4370.384766,,,,,,,,,,,,,,,,,,,,,,,,,,,,,,,,,,,,,,,,,,,,,,,,,,,,,,,,,,,,,,,,,,,,,,
1720526603,117,0,4260.641113,4246.025879,4258.205078,4302.820313,4219.358887,4247.05127,4218.846191,4243.589844,4267.307617,4110.641113,4469.871582,4418.974121,4322.94873,4358.974121,,,,,,,,,,,,,,,,,,,,,,,,,,,,,,,,,,,,,,,,,,,,,,,,,,,,,,,,,,,,,,,,,,,,,,
1720526603,118,0,4261.282227,4248.461426,4262.436035,4304.615234,4219.230957,4248.974121,4230,4256.538574,4265.256348,4108.205078,4470.128418,4422.563965,4328.333496,4351.025879,,,,,,,,,,,,,,,,,,,,,,,,,,,,,,,,,,,,,,,,,,,,,,,,,,,,,,,,,,,,,,,,,,,,,,
1720526603,119,0,4259.743652,4250.384766,4262.692383,4307.94873,4231.794922,4249.871582,4236.282227,4265.641113,4260.897461,4106.538574,4462.94873,4425.769043,4322.307617,4350.769043,,,,,,,,,,,,,,,,,,,,,,,,,,,,,,,,,,,,,,,,,,,,,,,,,,,,,,,,,,,,,,,,,,,,,,
1720526603,120,0,4262.05127,4255.769043,4267.563965,4308.974121,4232.94873,4249.230957,4234.230957,4264.487305,4261.282227,4103.461426,4462.05127,4433.333496,4319.487305,4358.717773,,,,,,,,,,,,,,,,,,,,,,,,,,,,,,,,,,,,,,,,,,,,,,,,,,,,,,,,,,,,,,,,,,,,,,
1720526603,121,0,4266.922852,4256.922852,4277.94873,4309.358887,4223.077148,4247.692383,4235.769043,4269.871582,4258.077148,4107.436035,4473.333496,4441.666504,4328.333496,4372.05127,,,,,,,,,,,,,,,,,,,,,,,,,,,,,,,,,,,,,,,,,,,,,,,,,,,,,,,,,,,,,,,,,,,,,,
1720526603,122,0,4266.282227,4251.282227,4279.743652,4310.769043,4228.077148,4253.205078,4246.282227,4278.846191,4250.512695,4120.256348,4481.794922,4447.692383,4340.512695,4383.974121,,,,,,,,,,,,,,,,,,,,,,,,,,,,,,,,,,,,,,,,,,,,,,,,,,,,,,,,,,,,,,,,,,,,,,
1720526603,123,0,4265.641113,4253.717773,4281.922852,4311.282227,4231.282227,4262.563965,4252.563965,4282.307617,4246.666504,4121.153809,4477.692383,4451.153809,4343.974121,4386.153809,,,,,,,,,,,,,,,,,,,,,,,,,,,,,,,,,,,,,,,,,,,,,,,,,,,,,,,,,,,,,,,,,,,,,,
1720526603,124,0,4272.05127,4263.589844,4290.384766,4311.410156,4220.384766,4264.487305,4250,4279.615234,4246.410156,4110.769043,4474.615234,4453.974121,4342.820313,4378.077148,,,,,,,,,,,,,,,,,,,,,,,,,,,,,,,,,,,,,,,,,,,,,,,,,,,,,,,,,,,,,,,,,,,,,,
1720526603,125,0,4277.436035,4259.871582,4289.615234,4310.384766,4219.871582,4259.358887,4250.384766,4271.025879,4247.05127,4135,4478.205078,4452.563965,4344.743652,4374.230957,6.234851,5.053234,0.372921,0.436965,0.115507,3.674387,2.699488,0.6586,0.305278,0.092767,7.49147,8.340196,0.678827,0.357059,0.133308,0.640133,0.175686,0.083013,0.072004,0.071153,18.489136,5.488152,3.287683,1.51995,0.667365,0.748545,1.269171,0.478364,0.132604,0.103488,1.13935,5.954459,0.420852,0.371651,0.091442,1.478866,6.562414,0.614018,0.618316,0.124461,0.542484,1.38604,0.166884,0.163222,0.110494,37.962883,5.568696,6.372288,2.139922,0.562497,3.884185,4.758975,1.026051,0.603575,0.25117,5.263742,6.428901,0.686617,0.679203,0.237457,7.271813,4.871992,1.372945,0.755943,0.27271,8.637121,6.376289,0.952367,0.914685,0.216576
1720526603,126,0,4274.230957,4245.769043,4279.102539,4308.974121,4230.641113,4259.871582,4248.333496,4256.666504,4251.153809,4185.256348,4475.897461,4441.666504,4342.820313,4374.615234,,,,,,,,,,,,,,,,,,,,,,,,,,,,,,,,,,,,,,,,,,,,,,,,,,,,,,,,,,,,,,,,,,,,,,
1720526603,127,0,4267.94873,4241.922852,4275.128418,4311.794922,4233.333496,4261.666504,4237.307617,4248.077148,4262.05127,4212.692383,4469.358887,4432.179688,4342.692383,4374.615234,,,,,,,,,,,,,,,,,,,,,,,,,,,,,,,,,,,,,,,,,,,,,,,,,,,,,,,,,,,,,,,,,,,,,,
1720526603,0,0,4265.769043,4244.743652,4278.077148,4311.794922,4227.307617,4255.897461,4231.025879,4251.794922,4274.230957,4223.974121,4469.358887,4434.871582,4346.538574,4376.922852,,,,,,,,,,,,,,,,,,,,,,,,,,,,,,,,,,,,,,,,,,,,,,,,,,,,,,,,,,,,,,,,,,,,,,
1720526603,1,0,4265.641113,4244.102539,4276.922852,4307.563965,4228.461426,4248.205078,4233.589844,4259.230957,4277.820313,4232.94873,4473.333496,4437.563965,4346.538574,4377.94873,,,,,,,,,,,,,,,,,,,,,,,,,,,,,,,,,,,,,,,,,,,,,,,,,,,,,,,,,,,,,,,,,,,,,,
1720526603,2,0,4261.538574,4242.436035,4272.820313,4310.512695,4227.307617,4246.794922,4235.256348,4261.794922,4278.461426,4231.794922,4473.333496,4438.717773,4341.666504,4375.128418,,,,,,,,,,,,,,,,,,,,,,,,,,,,,,,,,,,,,,,,,,,,,,,,,,,,,,,,,,,,,,,,,,,,,,
1720526603,3,0,4258.333496,4242.436035,4272.94873,4311.922852,4220.256348,4250.769043,4234.871582,4260,4279.487305,4235.641113,4471.153809,4437.94873,4342.179688,4371.666504,,,,,,,,,,,,,,,,,,,,,,,,,,,,,,,,,,,,,,,,,,,,,,,,,,,,,,,,,,,,,,,,,,,,,,
1720526603,4,0,4262.563965,4246.794922,4277.179688,4303.717773,4223.077148,4253.333496,4234.743652,4262.563965,4272.692383,4246.538574,4473.205078,4432.179688,4345.384766,4371.538574,,,,,,,,,,,,,,,,,,,,,,,,,,,,,,,,,,,,,,,,,,,,,,,,,,,,,,,,,,,,,,,,,,,,,,
1720526603,5,0,4265.384766,4248.717773,4278.461426,4303.846191,4231.666504,4250.512695,4234.102539,4262.179688,4265,4240.128418,4475,4433.846191,4342.820313,4369.102539,,,,,,,,,,,,,,,,,,,,,,,,,,,,,,,,,,,,,,,,,,,,,,,,,,,,,,,,,,,,,,,,,,,,,,
1720526603,6,0,4262.05127,4248.205078,4275,4308.333496,4233.461426,4246.922852,4232.307617,4253.077148,4264.615234,4223.077148,4471.922852,4435.769043,4348.589844,4367.94873,,,,,,,,,,,,,,,,,,,,,,,,,,,,,,,,,,,,,,,,,,,,,,,,,,,,,,,,,,,,,,,,,,,,,,
1720526603,7,0,4265.641113,4256.153809,4278.974121,4307.820313,4235.512695,4252.692383,4234.358887,4251.153809,4265,4223.077148,4473.205078,4436.282227,4360.256348,4378.205078,,,,,,,,,,,,,,,,,,,,,,,,,,,,,,,,,,,,,,,,,,,,,,,,,,,,,,,,,,,,,,,,,,,,,,
1720526603,8,0,4273.589844,4265.256348,4290.128418,4308.589844,4243.077148,4261.153809,4240.384766,4257.307617,4261.666504,4232.820313,4480.641113,4445.384766,4361.025879,4387.94873,,,,,,,,,,,,,,,,,,,,,,,,,,,,,,,,,,,,,,,,,,,,,,,,,,,,,,,,,,,,,,,,,,,,,,
1720526603,9,0,4277.05127,4263.461426,4296.666504,4304.615234,4239.487305,4261.282227,4250,4265.512695,4261.282227,4221.666504,4484.230957,4453.717773,4359.871582,4390,,,,,,,,,,,,,,,,,,,,,,,,,,,,,,,,,,,,,,,,,,,,,,,,,,,,,,,,,,,,,,,,,,,,,,
1720526603,10,0,4278.846191,4259.871582,4296.025879,4302.05127,4228.461426,4260.256348,4260,4274.102539,4262.820313,4185.641113,4486.410156,4450.512695,4365.641113,4393.717773,,,,,,,,,,,,,,,,,,,,,,,,,,,,,,,,,,,,,,,,,,,,,,,,,,,,,,,,,,,,,,,,,,,,,,
1720526603,11,0,4279.487305,4259.871582,4296.282227,4307.179688,4232.94873,4264.487305,4263.717773,4279.871582,4259.871582,4159.230957,4490.769043,4455.256348,4367.820313,4397.179688,,,,,,,,,,,,,,,,,,,,,,,,,,,,,,,,,,,,,,,,,,,,,,,,,,,,,,,,,,,,,,,,,,,,,,
1720526603,12,0,4279.358887,4260.641113,4299.615234,4307.179688,4241.666504,4269.230957,4263.333496,4281.025879,4261.538574,4168.333496,4489.743652,4467.692383,4365.384766,4395.384766,,,,,,,,,,,,,,,,,,,,,,,,,,,,,,,,,,,,,,,,,,,,,,,,,,,,,,,,,,,,,,,,,,,,,,
1720526603,13,0,4280.128418,4258.717773,4296.666504,4301.538574,4237.307617,4267.307617,4259.487305,4281.282227,4272.307617,4185,4486.410156,4461.282227,4365.897461,4394.743652,6.107833,5.415026,0.335082,0.475206,0.117523,3.290821,2.638147,0.571811,0.311828,0.098772,7.276734,9.634349,0.663839,0.37617,0.144241,0.648792,0.130474,0.081956,0.069906,0.067996,16.350313,4.71823,2.845344,1.354889,0.598281,0.665725,1.276473,0.423001,0.134204,0.093437,1.287105,7.127168,0.495303,0.412142,0.091531,1.977982,8.257214,0.613022,0.714057,0.1329,0.551624,1.290508,0.170873,0.188271,0.099653,21.115919,4.193939,4.667033,1.399109,0.402806,4.128273,5.47006,0.926901,0.631459,0.234347,5.522481,7.88928,0.645094,0.733621,0.240297,5.408791,4.297741,1.085885,0.704689,0.254114,8.772067,7.839613,0.789205,0.894773,0.189417
1720526603,14,0,4277.94873,4253.205078,4289.615234,4301.922852,4227.820313,4264.358887,4253.461426,4278.974121,4280.512695,4186.282227,4486.794922,4453.077148,4366.025879,4394.487305,,,,,,,,,,,,,,,,,,,,,,,,,,,,,,,,,,,,,,,,,,,,,,,,,,,,,,,,,,,,,,,,,,,,,,
1720526603,15,0,4274.871582,4253.461426,4287.179688,4301.538574,4231.025879,4259.615234,4245.256348,4270.641113,4279.102539,4182.820313,4482.05127,4447.179688,4365.897461,4388.333496,,,,,,,,,,,,,,,,,,,,,,,,,,,,,,,,,,,,,,,,,,,,,,,,,,,,,,,,,,,,,,,,,,,,,,
1720526603,16,0,4276.410156,4260.641113,4289.487305,4298.846191,4234.871582,4252.563965,4237.563965,4266.666504,4278.461426,4185.128418,4474.871582,4439.230957,4365.769043,4385.128418,,,,,,,,,,,,,,,,,,,,,,,,,,,,,,,,,,,,,,,,,,,,,,,,,,,,,,,,,,,,,,,,,,,,,,
1720526603,17,0,4281.410156,4263.846191,4294.487305,4305.384766,4230.769043,4254.615234,4236.794922,4266.025879,4280.641113,4190.128418,4479.743652,4442.05127,4363.846191,4388.461426,,,,,,,,,,,,,,,,,,,,,,,,,,,,,,,,,,,,,,,,,,,,,,,,,,,,,,,,,,,,,,,,,,,,,,
1720526603,18,0,4282.94873,4262.94873,4298.333496,4308.717773,4236.794922,4264.358887,4243.846191,4265.769043,4278.205078,4188.846191,4483.205078,4444.871582,4362.94873,4387.820313,,,,,,,,,,,,,,,,,,,,,,,,,,,,,,,,,,,,,,,,,,,,,,,,,,,,,,,,,,,,,,,,,,,,,,
1720526603,19,0,4279.358887,4263.461426,4297.179688,4301.025879,4250,4263.974121,4244.102539,4265,4277.05127,4184.102539,4476.153809,4439.871582,4361.282227,4383.589844,,,,,,,,,,,,,,,,,,,,,,,,,,,,,,,,,,,,,,,,,,,,,,,,,,,,,,,,,,,,,,,,,,,,,,
1720526603,20,0,4275.897461,4263.717773,4292.94873,4295.128418,4247.563965,4256.538574,4233.333496,4261.282227,4278.077148,4183.717773,4470.897461,4436.538574,4360.128418,4388.077148,,,,,,,,,,,,,,,,,,,,,,,,,,,,,,,,,,,,,,,,,,,,,,,,,,,,,,,,,,,,,,,,,,,,,,
1720526603,21,0,4281.282227,4265.128418,4293.205078,4297.94873,4241.922852,4258.077148,4235.384766,4259.743652,4276.666504,4182.179688,4474.102539,4440.256348,4360.769043,4395.641113,,,,,,,,,,,,,,,,,,,,,,,,,,,,,,,,,,,,,,,,,,,,,,,,,,,,,,,,,,,,,,,,,,,,,,
1720526603,22,0,4291.025879,4266.666504,4296.666504,4302.436035,4256.282227,4258.589844,4246.794922,4260.897461,4277.05127,4178.205078,4476.410156,4443.077148,4357.94873,4393.717773,,,,,,,,,,,,,,,,,,,,,,,,,,,,,,,,,,,,,,,,,,,,,,,,,,,,,,,,,,,,,,,,,,,,,,
1720526603,23,0,4292.307617,4264.871582,4298.077148,4296.666504,4265.897461,4257.692383,4249.358887,4262.436035,4278.974121,4187.820313,4476.153809,4449.230957,4359.743652,4392.692383,,,,,,,,,,,,,,,,,,,,,,,,,,,,,,,,,,,,,,,,,,,,,,,,,,,,,,,,,,,,,,,,,,,,,,
1720526603,24,0,4290.512695,4263.589844,4298.589844,4292.692383,4252.94873,4259.487305,4248.461426,4265.897461,4280.641113,4203.589844,4481.025879,4457.436035,4365.769043,4396.794922,,,,,,,,,,,,,,,,,,,,,,,,,,,,,,,,,,,,,,,,,,,,,,,,,,,,,,,,,,,,,,,,,,,,,,
1720526603,25,0,4290.769043,4262.94873,4297.94873,4296.410156,4243.974121,4255.128418,4250.128418,4268.717773,4281.025879,4195.769043,4483.846191,4452.563965,4361.538574,4390.897461,,,,,,,,,,,,,,,,,,,,,,,,,,,,,,,,,,,,,,,,,,,,,,,,,,,,,,,,,,,,,,,,,,,,,,
1720526603,26,0,4285.897461,4262.05127,4294.743652,4295.128418,4248.717773,4248.589844,4247.436035,4266.025879,4281.666504,4185,4478.974121,4444.358887,4353.461426,4378.846191,,,,,,,,,,,,,,,,,,,,,,,,,,,,,,,,,,,,,,,,,,,,,,,,,,,,,,,,,,,,,,,,,,,,,,
1720526603,27,0,4281.538574,4259.615234,4293.717773,4293.846191,4250.769043,4246.282227,4238.077148,4263.077148,4283.589844,4203.205078,4476.153809,4447.820313,4358.077148,4375,,,,,,,,,,,,,,,,,,,,,,,,,,,,,,,,,,,,,,,,,,,,,,,,,,,,,,,,,,,,,,,,,,,,,,
1720526603,28,0,4283.974121,4256.922852,4296.666504,4294.487305,4247.820313,4246.538574,4230.897461,4264.102539,4282.563965,4219.230957,4477.692383,4450,4361.794922,4374.871582,,,,,,,,,,,,,,,,,,,,,,,,,,,,,,,,,,,,,,,,,,,,,,,,,,,,,,,,,,,,,,,,,,,,,,
1720526603,29,0,4284.102539,4259.743652,4291.538574,4291.922852,4243.589844,4246.922852,4227.820313,4264.102539,4278.974121,4200.256348,4475.128418,4442.179688,4352.692383,4371.282227,5.461334,5.471291,0.308323,0.504099,0.121312,2.677402,2.5269,0.48432,0.313495,0.110444,6.760343,10.43461,0.689154,0.404289,0.162346,0.611383,0.08758,0.083153,0.067593,0.063233,12.411225,3.486356,2.116727,1.118321,0.481661,0.584673,1.250523,0.391494,0.132285,0.08686,1.572174,8.22684,0.574499,0.440889,0.091711,2.6122,9.977288,0.678277,0.770233,0.142424,0.579371,1.312727,0.194681,0.212134,0.088302,12.072818,3.087085,3.144057,0.930534,0.301159,4.427084,5.843274,0.902732,0.673877,0.219432,5.693358,8.80993,0.683855,0.761965,0.24442,4.149048,3.774889,0.826724,0.689409,0.235243,8.403573,8.819522,0.733263,0.920768,0.171556
1720526603,30,0,4279.487305,4261.410156,4285.256348,4294.615234,4245.897461,4249.487305,4229.615234,4263.333496,4278.589844,4172.692383,4472.436035,4442.820313,4346.282227,4370.897461,,,,,,,,,,,,,,,,,,,,,,,,,,,,,,,,,,,,,,,,,,,,,,,,,,,,,,,,,,,,,,,,,,,,,,
1720526603,31,0,4275.641113,4253.589844,4286.410156,4300.384766,4256.666504,4251.410156,4231.794922,4263.589844,4279.871582,4174.102539,4473.461426,4447.436035,4347.179688,4371.153809,,,,,,,,,,,,,,,,,,,,,,,,,,,,,,,,,,,,,,,,,,,,,,,,,,,,,,,,,,,,,,,,,,,,,,
1720526603,32,0,4273.717773,4249.743652,4283.333496,4293.333496,4254.743652,4251.025879,4234.230957,4263.974121,4277.307617,4198.589844,4468.205078,4436.282227,4347.05127,4366.666504,,,,,,,,,,,,,,,,,,,,,,,,,,,,,,,,,,,,,,,,,,,,,,,,,,,,,,,,,,,,,,,,,,,,,,
1720526603,33,0,4273.589844,4251.153809,4279.615234,4287.307617,4245.384766,4250.256348,4239.743652,4263.205078,4277.563965,4206.153809,4467.05127,4438.077148,4347.307617,4363.077148,,,,,,,,,,,,,,,,,,,,,,,,,,,,,,,,,,,,,,,,,,,,,,,,,,,,,,,,,,,,,,,,,,,,,,
1720526603,34,0,4273.846191,4247.94873,4281.410156,4286.153809,4244.871582,4249.615234,4245.641113,4263.974121,4281.538574,4187.820313,4474.230957,4449.615234,4351.025879,4362.820313,,,,,,,,,,,,,,,,,,,,,,,,,,,,,,,,,,,,,,,,,,,,,,,,,,,,,,,,,,,,,,,,,,,,,,
1720526603,35,0,4275.128418,4251.666504,4283.589844,4281.153809,4238.077148,4251.922852,4249.615234,4265.897461,4280.897461,4176.025879,4477.05127,4445.769043,4352.05127,4362.563965,,,,,,,,,,,,,,,,,,,,,,,,,,,,,,,,,,,,,,,,,,,,,,,,,,,,,,,,,,,,,,,,,,,,,,
1720526603,36,0,4278.974121,4263.589844,4288.461426,4283.717773,4230,4250.512695,4250.897461,4265.897461,4277.179688,4161.282227,4475.384766,4446.025879,4352.94873,4367.563965,,,,,,,,,,,,,,,,,,,,,,,,,,,,,,,,,,,,,,,,,,,,,,,,,,,,,,,,,,,,,,,,,,,,,,
1720526603,37,0,4282.307617,4264.358887,4296.282227,4287.307617,4241.025879,4246.666504,4249.358887,4266.153809,4276.794922,4111.922852,4478.717773,4453.333496,4358.461426,4377.692383,,,,,,,,,,,,,,,,,,,,,,,,,,,,,,,,,,,,,,,,,,,,,,,,,,,,,,,,,,,,,,,,,,,,,,
1720526603,38,0,4285.769043,4259.487305,4297.563965,4282.563965,4249.487305,4251.794922,4247.563965,4269.230957,4279.615234,4092.94873,4479.487305,4453.974121,4359.615234,4382.05127,,,,,,,,,,,,,,,,,,,,,,,,,,,,,,,,,,,,,,,,,,,,,,,,,,,,,,,,,,,,,,,,,,,,,,
1720526603,39,0,4288.461426,4262.307617,4295,4282.692383,4245.384766,4257.436035,4250.384766,4268.205078,4281.025879,4136.538574,4472.05127,4455.769043,4353.077148,4377.692383,,,,,,,,,,,,,,,,,,,,,,,,,,,,,,,,,,,,,,,,,,,,,,,,,,,,,,,,,,,,,,,,,,,,,,
1720526603,40,0,4288.589844,4263.589844,4296.410156,4287.05127,4248.589844,4253.077148,4247.179688,4265,4280.384766,4161.282227,4472.94873,4459.358887,4350.641113,4376.410156,,,,,,,,,,,,,,,,,,,,,,,,,,,,,,,,,,,,,,,,,,,,,,,,,,,,,,,,,,,,,,,,,,,,,,
1720526603,41,0,4290,4261.282227,4296.538574,4280.769043,4251.922852,4249.871582,4235.897461,4264.358887,4281.025879,4158.717773,4479.487305,4453.461426,4358.077148,4384.487305,,,,,,,,,,,,,,,,,,,,,,,,,,,,,,,,,,,,,,,,,,,,,,,,,,,,,,,,,,,,,,,,,,,,,,
1720526603,42,0,4294.358887,4261.922852,4295.384766,4278.333496,4246.025879,4251.666504,4231.922852,4258.333496,4282.05127,4179.615234,4481.538574,4454.230957,4360.384766,4391.410156,,,,,,,,,,,,,,,,,,,,,,,,,,,,,,,,,,,,,,,,,,,,,,,,,,,,,,,,,,,,,,,,,,,,,,
1720526603,43,0,4295.512695,4263.589844,4295,4282.05127,4244.615234,4248.333496,4232.05127,4247.94873,4281.922852,4197.820313,4478.974121,4457.563965,4353.846191,4385,,,,,,,,,,,,,,,,,,,,,,,,,,,,,,,,,,,,,,,,,,,,,,,,,,,,,,,,,,,,,,,,,,,,,,
1720526603,44,0,4292.820313,4262.307617,4293.461426,4280.384766,4248.205078,4243.974121,4230.384766,4244.615234,4280.384766,4195.384766,4471.410156,4446.282227,4351.410156,4376.282227,,,,,,,,,,,,,,,,,,,,,,,,,,,,,,,,,,,,,,,,,,,,,,,,,,,,,,,,,,,,,,,,,,,,,,
1720526604,45,0,4290.384766,4261.794922,4291.666504,4281.025879,4248.077148,4245.256348,4231.794922,4245.897461,4278.974121,4203.461426,4464.743652,4444.743652,4355.512695,4378.846191,4.504616,5.173802,0.31023,0.529063,0.127661,2.029539,2.381727,0.436951,0.32064,0.126356,6.103393,10.412547,0.79342,0.446381,0.188071,0.543402,0.056783,0.083913,0.06447,0.058678,8.028412,2.180162,1.341499,0.900275,0.358671,0.552345,1.208005,0.373769,0.129418,0.086186,1.965984,8.986248,0.654613,0.45284,0.092923,3.275819,11.285196,0.866834,0.77186,0.15297,0.682493,1.447323,0.243447,0.233393,0.080169,8.593792,2.554373,2.059519,0.738222,0.264799,4.714543,5.753709,0.979903,0.731161,0.212743,5.73768,8.911034,0.852706,0.770869,0.25381,3.524698,3.369455,0.63704,0.717032,0.22559,7.610851,9.038328,0.825794,1.023636,0.167397
1720526604,46,0,4289.871582,4263.461426,4289.358887,4281.666504,4243.846191,4246.153809,4234.487305,4244.743652,4279.871582,4197.820313,4465.512695,4448.974121,4353.974121,4382.563965,,,,,,,,,,,,,,,,,,,,,,,,,,,,,,,,,,,,,,,,,,,,,,,,,,,,,,,,,,,,,,,,,,,,,,
1720526604,47,0,4289.230957,4262.307617,4290.128418,4281.025879,4237.820313,4244.743652,4233.461426,4245.384766,4281.538574,4204.230957,4471.153809,4448.846191,4353.589844,4379.615234,,,,,,,,,,,,,,,,,,,,,,,,,,,,,,,,,,,,,,,,,,,,,,,,,,,,,,,,,,,,,,,,,,,,,,
1720526604,48,0,4288.717773,4262.05127,4293.077148,4282.820313,4234.230957,4244.358887,4232.94873,4248.589844,4281.025879,4228.846191,4477.436035,4454.615234,4363.461426,4378.589844,,,,,,,,,,,,,,,,,,,,,,,,,,,,,,,,,,,,,,,,,,,,,,,,,,,,,,,,,,,,,,,,,,,,,,
1720526604,49,0,4289.487305,4265.384766,4294.358887,4284.615234,4232.05127,4246.922852,4236.025879,4248.077148,4279.487305,4125.769043,4480.641113,4457.94873,4364.743652,4398.205078,,,,,,,,,,,,,,,,,,,,,,,,,,,,,,,,,,,,,,,,,,,,,,,,,,,,,,,,,,,,,,,,,,,,,,
1720526604,50,0,4285.512695,4264.358887,4293.589844,4283.333496,4229.615234,4244.102539,4235.384766,4246.025879,4280,3938.974365,4476.538574,4451.410156,4352.692383,4428.461426,,,,,,,,,,,,,,,,,,,,,,,,,,,,,,,,,,,,,,,,,,,,,,,,,,,,,,,,,,,,,,,,,,,,,,
1720526604,51,0,4280.641113,4259.358887,4292.563965,4281.153809,4230.512695,4238.717773,4231.282227,4246.794922,4278.589844,3881.923096,4470.897461,4443.717773,4346.538574,4435.641113,,,,,,,,,,,,,,,,,,,,,,,,,,,,,,,,,,,,,,,,,,,,,,,,,,,,,,,,,,,,,,,,,,,,,,
1720526604,52,0,4287.94873,4261.922852,4293.846191,4282.179688,4232.94873,4243.077148,4236.153809,4251.282227,4274.487305,3926.281982,4471.922852,4446.153809,4348.974121,4427.563965,,,,,,,,,,,,,,,,,,,,,,,,,,,,,,,,,,,,,,,,,,,,,,,,,,,,,,,,,,,,,,,,,,,,,,
1720526604,53,0,4295,4265.256348,4297.05127,4281.538574,4231.153809,4250.897461,4246.410156,4253.461426,4274.615234,3928.718018,4473.974121,4451.410156,4349.615234,4427.692383,,,,,,,,,,,,,,,,,,,,,,,,,,,,,,,,,,,,,,,,,,,,,,,,,,,,,,,,,,,,,,,,,,,,,,
1720526604,54,0,4286.666504,4260.128418,4296.922852,4279.871582,4228.717773,4250.897461,4243.461426,4250.769043,4278.717773,3914.102539,4470.641113,4448.461426,4347.307617,4429.615234,,,,,,,,,,,,,,,,,,,,,,,,,,,,,,,,,,,,,,,,,,,,,,,,,,,,,,,,,,,,,,,,,,,,,,
1720526604,55,0,4279.230957,4256.538574,4295.512695,4280.641113,4230.256348,4249.487305,4236.922852,4249.487305,4282.307617,3915.512939,4465.128418,4445.256348,4349.102539,4427.563965,,,,,,,,,,,,,,,,,,,,,,,,,,,,,,,,,,,,,,,,,,,,,,,,,,,,,,,,,,,,,,,,,,,,,,
1720526604,56,0,4280.128418,4258.205078,4295.512695,4279.487305,4231.025879,4252.436035,4243.461426,4251.922852,4282.436035,3898.205078,4469.871582,4444.358887,4352.820313,4422.05127,,,,,,,,,,,,,,,,,,,,,,,,,,,,,,,,,,,,,,,,,,,,,,,,,,,,,,,,,,,,,,,,,,,,,,
1720526604,57,0,4280.128418,4259.743652,4294.230957,4276.666504,4231.666504,4253.077148,4249.230957,4253.717773,4279.615234,3879.615479,4484.743652,4440.384766,4351.025879,4419.102539,,,,,,,,,,,,,,,,,,,,,,,,,,,,,,,,,,,,,,,,,,,,,,,,,,,,,,,,,,,,,,,,,,,,,,
1720526604,58,0,4284.102539,4262.179688,4293.589844,4278.589844,4235.384766,4250.256348,4247.692383,4251.025879,4277.692383,3858.461426,4492.692383,4442.692383,4348.974121,4425.384766,,,,,,,,,,,,,,,,,,,,,,,,,,,,,,,,,,,,,,,,,,,,,,,,,,,,,,,,,,,,,,,,,,,,,,
1720526604,59,0,4292.436035,4265.641113,4296.538574,4280.384766,4237.820313,4248.461426,4245.512695,4250.128418,4276.025879,3840.897461,4498.589844,4453.717773,4355.384766,4428.589844,,,,,,,,,,,,,,,,,,,,,,,,,,,,,,,,,,,,,,,,,,,,,,,,,,,,,,,,,,,,,,,,,,,,,,
1720526604,60,0,4295.897461,4267.436035,4297.820313,4276.666504,4235.769043,4245.897461,4239.230957,4253.461426,4270.512695,3862.307617,4505.897461,4452.692383,4362.05127,4428.589844,,,,,,,,,,,,,,,,,,,,,,,,,,,,,,,,,,,,,,,,,,,,,,,,,,,,,,,,,,,,,,,,,,,,,,
1720526604,61,0,4293.589844,4266.922852,4295.384766,4278.333496,4233.846191,4239.230957,4232.179688,4247.436035,4265.897461,3901.153809,4501.794922,4453.205078,4359.487305,4436.410156,3.503786,4.583751,0.341937,0.548579,0.134933,1.512865,2.210932,0.444564,0.335549,0.142889,5.467299,9.508097,0.968477,0.496734,0.216097,0.477359,0.042302,0.081783,0.060699,0.055983,4.375428,1.155153,0.733275,0.756568,0.266079,0.58019,1.171075,0.365837,0.128873,0.09101,2.392784,9.263859,0.724045,0.448762,0.095866,3.855965,11.811347,1.17861,0.723115,0.162905,0.87155,1.666431,0.316284,0.249218,0.076514,9.028846,3.048877,1.551952,0.775766,0.29755,4.884207,5.219463,1.133506,0.786943,0.215199,5.599494,8.223285,1.135548,0.763232,0.267716,3.2463,3.039196,0.533648,0.767608,0.227914,6.481066,8.508,1.037444,1.182555,0.174144
1720526604,62,0,4293.077148,4264.743652,4295.769043,4282.436035,4233.333496,4236.666504,4230.384766,4233.974121,4265.128418,3918.974365,4490.897461,4457.563965,4355.128418,4437.820313,,,,,,,,,,,,,,,,,,,,,,,,,,,,,,,,,,,,,,,,,,,,,,,,,,,,,,,,,,,,,,,,,,,,,,
1720526604,63,0,4291.666504,4264.358887,4296.666504,4277.307617,4230.512695,4243.077148,4229.487305,4230.641113,4264.615234,3931.923096,4491.410156,4446.025879,4353.461426,4424.102539,,,,,,,,,,,,,,,,,,,,,,,,,,,,,,,,,,,,,,,,,,,,,,,,,,,,,,,,,,,,,,,,,,,,,,
1720526604,64,0,4287.563965,4264.102539,4293.205078,4275,4228.333496,4244.230957,4228.205078,4237.05127,4265.512695,3959.615479,4498.846191,4441.538574,4347.307617,4414.743652,,,,,,,,,,,,,,,,,,,,,,,,,,,,,,,,,,,,,,,,,,,,,,,,,,,,,,,,,,,,,,,,,,,,,,
1720526604,65,0,4287.820313,4265.256348,4293.461426,4278.333496,4231.922852,4246.538574,4232.05127,4242.307617,4265.641113,3973.589844,4497.563965,4444.743652,4342.820313,4415.769043,,,,,,,,,,,,,,,,,,,,,,,,,,,,,,,,,,,,,,,,,,,,,,,,,,,,,,,,,,,,,,,,,,,,,,
1720526604,66,0,4294.487305,4269.743652,4299.230957,4279.871582,4240.256348,4258.717773,4240.384766,4244.487305,4262.436035,3959.487061,4492.692383,4444.102539,4346.282227,4418.077148,,,,,,,,,,,,,,,,,,,,,,,,,,,,,,,,,,,,,,,,,,,,,,,,,,,,,,,,,,,,,,,,,,,,,,
1720526604,67,0,4295.256348,4270.769043,4299.230957,4279.743652,4245,4266.153809,4251.282227,4249.871582,4262.436035,3956.410156,4494.615234,4448.717773,4349.230957,4417.05127,,,,,,,,,,,,,,,,,,,,,,,,,,,,,,,,,,,,,,,,,,,,,,,,,,,,,,,,,,,,,,,,,,,,,,
1720526604,68,0,4285.769043,4266.794922,4297.563965,4280.256348,4244.230957,4269.102539,4261.922852,4255.641113,4266.410156,3987.564209,4499.615234,4451.410156,4341.282227,4409.102539,,,,,,,,,,,,,,,,,,,,,,,,,,,,,,,,,,,,,,,,,,,,,,,,,,,,,,,,,,,,,,,,,,,,,,
1720526604,69,0,4280.641113,4264.102539,4296.153809,4279.102539,4241.153809,4273.333496,4266.794922,4254.743652,4264.871582,3997.05127,4493.205078,4436.666504,4330,4397.436035,,,,,,,,,,,,,,,,,,,,,,,,,,,,,,,,,,,,,,,,,,,,,,,,,,,,,,,,,,,,,,,,,,,,,,
1720526604,70,0,4279.230957,4261.538574,4286.410156,4277.94873,4237.05127,4270.769043,4261.538574,4249.743652,4261.538574,3955.512939,4479.358887,4429.230957,4326.153809,4389.358887,,,,,,,,,,,,,,,,,,,,,,,,,,,,,,,,,,,,,,,,,,,,,,,,,,,,,,,,,,,,,,,,,,,,,,
1720526604,71,0,4275.769043,4257.94873,4279.230957,4280,4234.230957,4261.282227,4254.358887,4251.922852,4265.256348,3925.641113,4476.282227,4435.512695,4327.692383,4388.974121,,,,,,,,,,,,,,,,,,,,,,,,,,,,,,,,,,,,,,,,,,,,,,,,,,,,,,,,,,,,,,,,,,,,,,
1720526604,72,0,4269.102539,4254.487305,4277.179688,4278.717773,4234.487305,4256.025879,4247.94873,4247.563965,4264.615234,3939.230713,4475.769043,4425.384766,4324.871582,4383.077148,,,,,,,,,,,,,,,,,,,,,,,,,,,,,,,,,,,,,,,,,,,,,,,,,,,,,,,,,,,,,,,,,,,,,,
1720526604,73,0,4255.897461,4244.102539,4264.102539,4277.563965,4232.179688,4245,4234.358887,4225.512695,4253.717773,3937.564209,4456.410156,4409.743652,4312.563965,4364.102539,,,,,,,,,,,,,,,,,,,,,,,,,,,,,,,,,,,,,,,,,,,,,,,,,,,,,,,,,,,,,,,,,,,,,,
1720526604,74,0,4249.230957,4235.512695,4254.871582,4278.717773,4225.384766,4231.666504,4222.307617,4205,4245.512695,3934.487061,4435.897461,4402.179688,4301.025879,4356.410156,,,,,,,,,,,,,,,,,,,,,,,,,,,,,,,,,,,,,,,,,,,,,,,,,,,,,,,,,,,,,,,,,,,,,,
1720526604,75,0,4264.871582,4250.384766,4274.102539,4278.846191,4231.538574,4236.025879,4225.897461,4206.666504,4249.230957,4002.820557,4453.974121,4414.102539,4311.538574,4377.307617,,,,,,,,,,,,,,,,,,,,,,,,,,,,,,,,,,,,,,,,,,,,,,,,,,,,,,,,,,,,,,,,,,,,,,
1720526604,76,0,4287.820313,4272.307617,4295.512695,4279.102539,4242.436035,4247.436035,4234.615234,4220.897461,4257.307617,4061.923096,4490.897461,4439.358887,4342.179688,4404.871582,,,,,,,,,,,,,,,,,,,,,,,,,,,,,,,,,,,,,,,,,,,,,,,,,,,,,,,,,,,,,,,,,,,,,,
1720526604,77,0,4291.666504,4277.307617,4294.487305,4279.743652,4240,4247.179688,4232.179688,4231.410156,4260.897461,4031.153809,4501.538574,4447.307617,4360.256348,4408.717773,2.67385,3.830475,0.383661,0.552551,0.139469,1.212136,2.015567,0.48873,0.350583,0.155332,4.892579,7.945847,1.15476,0.536286,0.236574,0.435694,0.041871,0.076377,0.057259,0.056135,2.103729,0.575356,0.391656,0.687977,0.221273,0.651454,1.145972,0.356853,0.131171,0.098934,2.740524,9.026371,0.767229,0.431565,0.100405,4.21372,11.360568,1.543506,0.640125,0.168692,1.113284,1.903859,0.397469,0.255452,0.075813,13.081525,4.992823,1.660831,1.097078,0.427821,4.798878,4.393326,1.295194,0.813504,0.221343,5.231685,7.015527,1.446772,0.73539,0.280845,2.990921,2.708633,0.50347,0.800444,0.236738,5.174652,7.457862,1.284216,1.331074,0.183631
1720526604,78,0,4285.256348,4275.641113,4291.153809,4278.461426,4239.358887,4244.615234,4232.179688,4239.102539,4265.256348,3998.974365,4487.820313,4445.512695,4352.436035,4400.769043,,,,,,,,,,,,,,,,,,,,,,,,,,,,,,,,,,,,,,,,,,,,,,,,,,,,,,,,,,,,,,,,,,,,,,
1720526604,79,0,4283.333496,4275.641113,4294.358887,4276.410156,4246.025879,4253.333496,4241.538574,4243.717773,4262.94873,4013.076904,4479.230957,4442.692383,4341.794922,4397.179688,,,,,,,,,,,,,,,,,,,,,,,,,,,,,,,,,,,,,,,,,,,,,,,,,,,,,,,,,,,,,,,,,,,,,,
1720526604,80,0,4283.461426,4270.641113,4297.692383,4274.487305,4248.589844,4266.153809,4250.641113,4243.205078,4253.077148,4014.743652,4475.384766,4441.538574,4336.538574,4394.102539,,,,,,,,,,,,,,,,,,,,,,,,,,,,,,,,,,,,,,,,,,,,,,,,,,,,,,,,,,,,,,,,,,,,,,
1720526604,81,0,4280.256348,4263.589844,4292.307617,4269.487305,4244.102539,4271.282227,4259.358887,4243.205078,4253.717773,4005.384521,4465.128418,4444.358887,4326.922852,4389.743652,,,,,,,,,,,,,,,,,,,,,,,,,,,,,,,,,,,,,,,,,,,,,,,,,,,,,,,,,,,,,,,,,,,,,,
1720526604,82,0,4276.153809,4262.94873,4281.538574,4264.487305,4238.589844,4267.563965,4266.794922,4245.384766,4262.820313,4013.076904,4459.487305,4442.307617,4323.461426,4390,,,,,,,,,,,,,,,,,,,,,,,,,,,,,,,,,,,,,,,,,,,,,,,,,,,,,,,,,,,,,,,,,,,,,,
1720526604,83,0,4278.333496,4266.666504,4284.615234,4264.102539,4233.077148,4264.487305,4269.230957,4248.461426,4264.230957,4016.281982,4470.512695,4442.307617,4331.922852,4396.282227,,,,,,,,,,,,,,,,,,,,,,,,,,,,,,,,,,,,,,,,,,,,,,,,,,,,,,,,,,,,,,,,,,,,,,
1720526604,84,0,4280,4267.563965,4293.333496,4264.102539,4232.820313,4266.922852,4269.487305,4252.563965,4260.128418,4024.871826,4483.077148,4450.384766,4333.077148,4398.846191,,,,,,,,,,,,,,,,,,,,,,,,,,,,,,,,,,,,,,,,,,,,,,,,,,,,,,,,,,,,,,,,,,,,,,
1720526604,85,0,4276.794922,4263.717773,4286.025879,4261.025879,4235.512695,4264.615234,4266.538574,4250.512695,4263.461426,4046.794922,4472.94873,4445.641113,4326.922852,4397.05127,,,,,,,,,,,,,,,,,,,,,,,,,,,,,,,,,,,,,,,,,,,,,,,,,,,,,,,,,,,,,,,,,,,,,,
1720526604,86,0,4275.897461,4261.153809,4275.769043,4261.025879,4235.512695,4261.922852,4254.487305,4239.743652,4265.512695,4060.512939,4459.615234,4435.256348,4323.333496,4397.692383,,,,,,,,,,,,,,,,,,,,,,,,,,,,,,,,,,,,,,,,,,,,,,,,,,,,,,,,,,,,,,,,,,,,,,
1720526604,87,0,4279.102539,4262.94873,4280,4263.974121,4240.769043,4262.05127,4246.410156,4231.666504,4257.94873,4065.769287,4466.666504,4438.589844,4326.794922,4399.871582,,,,,,,,,,,,,,,,,,,,,,,,,,,,,,,,,,,,,,,,,,,,,,,,,,,,,,,,,,,,,,,,,,,,,,
1720526604,88,0,4279.743652,4264.230957,4282.692383,4260.384766,4242.05127,4255.384766,4244.230957,4222.436035,4250.512695,4067.179443,4475,4434.743652,4332.692383,4398.077148,,,,,,,,,,,,,,,,,,,,,,,,,,,,,,,,,,,,,,,,,,,,,,,,,,,,,,,,,,,,,,,,,,,,,,
1720526604,89,0,4278.974121,4265,4283.077148,4259.615234,4238.846191,4244.102539,4232.820313,4211.794922,4250.128418,4069.102539,4473.205078,4432.692383,4333.846191,4394.230957,,,,,,,,,,,,,,,,,,,,,,,,,,,,,,,,,,,,,,,,,,,,,,,,,,,,,,,,,,,,,,,,,,,,,,
1720526604,90,0,4282.563965,4264.358887,4292.94873,4266.410156,4244.102539,4243.333496,4222.692383,4211.025879,4251.025879,4079.102539,4473.077148,4442.820313,4336.666504,4394.487305,,,,,,,,,,,,,,,,,,,,,,,,,,,,,,,,,,,,,,,,,,,,,,,,,,,,,,,,,,,,,,,,,,,,,,
1720526604,91,0,4289.871582,4266.666504,4297.307617,4266.282227,4247.436035,4242.563965,4227.436035,4215.641113,4246.153809,4091.025635,4476.666504,4442.436035,4344.487305,4396.282227,,,,,,,,,,,,,,,,,,,,,,,,,,,,,,,,,,,,,,,,,,,,,,,,,,,,,,,,,,,,,,,,,,,,,,
1720526604,92,0,4294.487305,4275.512695,4296.410156,4265.769043,4237.692383,4235.384766,4231.666504,4217.307617,4245.128418,4096.025879,4477.307617,4447.307617,4343.846191,4398.846191,,,,,,,,,,,,,,,,,,,,,,,,,,,,,,,,,,,,,,,,,,,,,,,,,,,,,,,,,,,,,,,,,,,,,,
1720526604,93,0,4288.974121,4274.615234,4298.717773,4267.179688,4230.769043,4238.974121,4232.179688,4217.179688,4245.256348,4094.102539,4471.025879,4446.538574,4332.94873,4393.717773,2.119715,3.046911,0.414051,0.529362,0.137148,1.10127,1.786653,0.537203,0.352298,0.159067,4.312938,6.111571,1.280005,0.542878,0.239603,0.411377,0.049361,0.069771,0.055122,0.058835,1.112802,0.382639,0.279837,0.651851,0.216693,0.727959,1.128259,0.338149,0.13421,0.106376,2.864644,8.325659,0.776926,0.404508,0.105141,4.21545,9.99726,1.872366,0.542455,0.166272,1.331332,2.076159,0.465913,0.249013,0.07462,21.466928,8.69988,2.481066,1.894875,0.704935,4.371943,3.459858,1.414289,0.788521,0.222774,4.599369,5.633069,1.683048,0.681508,0.284915,2.610646,2.334031,0.513617,0.779985,0.242353,3.898965,6.26681,1.497989,1.393893,0.188636
1720526604,94,0,4278.846191,4264.871582,4293.717773,4264.102539,4234.358887,4247.05127,4239.487305,4214.743652,4238.846191,4087.94873,4454.102539,4429.230957,4325.128418,4378.461426,,,,,,,,,,,,,,,,,,,,,,,,,,,,,,,,,,,,,,,,,,,,,,,,,,,,,,,,,,,,,,,,,,,,,,
1720526604,95,0,4270.769043,4259.615234,4282.05127,4270.128418,4235.256348,4248.333496,4246.666504,4215.897461,4232.563965,4080.769287,4445.641113,4426.666504,4318.846191,4367.179688,,,,,,,,,,,,,,,,,,,,,,,,,,,,,,,,,,,,,,,,,,,,,,,,,,,,,,,,,,,,,,,,,,,,,,
1720526604,96,0,4267.307617,4255.128418,4278.461426,4280.897461,4234.230957,4255,4255,4228.333496,4235.128418,4079.615479,4455.897461,4435,4317.692383,4365.641113,,,,,,,,,,,,,,,,,,,,,,,,,,,,,,,,,,,,,,,,,,,,,,,,,,,,,,,,,,,,,,,,,,,,,,
1720526604,97,0,4264.615234,4248.974121,4277.692383,4279.615234,4231.666504,4263.974121,4263.846191,4238.205078,4244.230957,4083.076904,4461.666504,4429.487305,4321.794922,4367.94873,,,,,,,,,,,,,,,,,,,,,,,,,,,,,,,,,,,,,,,,,,,,,,,,,,,,,,,,,,,,,,,,,,,,,,
1720526604,98,0,4255.384766,4247.563965,4269.230957,4280.256348,4226.153809,4263.333496,4259.358887,4237.692383,4249.102539,4088.461426,4452.563965,4424.487305,4315.384766,4363.205078,,,,,,,,,,,,,,,,,,,,,,,,,,,,,,,,,,,,,,,,,,,,,,,,,,,,,,,,,,,,,,,,,,,,,,
1720526604,99,0,4245.897461,4247.05127,4263.589844,4291.666504,4230.641113,4262.692383,4251.538574,4233.205078,4248.077148,4105.769043,4442.692383,4424.230957,4306.282227,4350.897461,,,,,,,,,,,,,,,,,,,,,,,,,,,,,,,,,,,,,,,,,,,,,,,,,,,,,,,,,,,,,,,,,,,,,,
1720526604,100,0,4243.846191,4245.384766,4262.307617,4297.307617,4243.589844,4266.410156,4252.820313,4227.307617,4248.205078,4123.589844,4436.025879,4410.512695,4308.333496,4339.487305,,,,,,,,,,,,,,,,,,,,,,,,,,,,,,,,,,,,,,,,,,,,,,,,,,,,,,,,,,,,,,,,,,,,,,
1720526604,101,0,4246.025879,4246.410156,4257.307617,4296.666504,4244.358887,4262.436035,4246.153809,4215.512695,4248.077148,4124.487305,4426.410156,4405.512695,4311.282227,4335,,,,,,,,,,,,,,,,,,,,,,,,,,,,,,,,,,,,,,,,,,,,,,,,,,,,,,,,,,,,,,,,,,,,,,
1720526604,102,0,4245.128418,4246.794922,4255.641113,4298.461426,4239.871582,4255.512695,4232.05127,4202.436035,4241.794922,4123.077148,4420.512695,4409.615234,4308.589844,4336.025879,,,,,,,,,,,,,,,,,,,,,,,,,,,,,,,,,,,,,,,,,,,,,,,,,,,,,,,,,,,,,,,,,,,,,,
1720526604,103,0,4245.512695,4249.487305,4264.615234,4297.05127,4241.153809,4251.410156,4230.641113,4199.743652,4235.512695,4128.717773,4421.025879,4408.974121,4312.179688,4339.358887,,,,,,,,,,,,,,,,,,,,,,,,,,,,,,,,,,,,,,,,,,,,,,,,,,,,,,,,,,,,,,,,,,,,,,
1720526604,104,0,4251.025879,4250.897461,4274.230957,4300.512695,4240.256348,4243.205078,4232.436035,4207.179688,4235,4141.538574,4426.794922,4419.102539,4319.743652,4345.256348,,,,,,,,,,,,,,,,,,,,,,,,,,,,,,,,,,,,,,,,,,,,,,,,,,,,,,,,,,,,,,,,,,,,,,
1720526604,105,0,4259.358887,4248.974121,4278.333496,4304.358887,4233.461426,4234.487305,4229.230957,4215.128418,4233.974121,4172.692383,4435.256348,4426.922852,4323.717773,4353.077148,,,,,,,,,,,,,,,,,,,,,,,,,,,,,,,,,,,,,,,,,,,,,,,,,,,,,,,,,,,,,,,,,,,,,,
1720526604,106,0,4264.487305,4255.769043,4282.563965,4301.538574,4233.333496,4229.871582,4229.871582,4216.410156,4232.436035,4209.358887,4441.282227,4421.922852,4329.358887,4361.922852,,,,,,,,,,,,,,,,,,,,,,,,,,,,,,,,,,,,,,,,,,,,,,,,,,,,,,,,,,,,,,,,,,,,,,
1720526604,107,0,4267.692383,4265,4290.384766,4303.077148,4241.538574,4232.05127,4236.538574,4217.692383,4231.922852,4218.717773,4450.641113,4420.641113,4338.974121,4371.025879,,,,,,,,,,,,,,,,,,,,,,,,,,,,,,,,,,,,,,,,,,,,,,,,,,,,,,,,,,,,,,,,,,,,,,
1720526604,108,0,4276.025879,4265.384766,4300.256348,4308.461426,4246.153809,4242.05127,4244.743652,4225.641113,4230.641113,4200.512695,4460.256348,4433.077148,4344.487305,4377.692383,,,,,,,,,,,,,,,,,,,,,,,,,,,,,,,,,,,,,,,,,,,,,,,,,,,,,,,,,,,,,,,,,,,,,,
1720526604,109,0,4282.692383,4262.563965,4304.358887,4310.128418,4246.794922,4249.615234,4252.563965,4231.025879,4227.820313,4170.769043,4458.846191,4444.487305,4343.846191,4377.05127,1.84169,2.348026,0.424167,0.478584,0.127366,1.089434,1.527642,0.567158,0.332736,0.152274,3.693282,4.427818,1.294019,0.505021,0.222111,0.395304,0.058637,0.064315,0.054468,0.062638,0.882767,0.392759,0.278601,0.59992,0.228676,0.786043,1.142808,0.307504,0.13492,0.11012,2.71513,7.349819,0.745257,0.369215,0.108123,3.844335,8.062346,2.059506,0.449986,0.154036,1.453422,2.112602,0.497086,0.230782,0.070331,36.640083,14.21441,4.135715,3.393165,1.164615,3.698185,2.595052,1.483955,0.715544,0.216156,3.829254,4.390311,1.764758,0.605387,0.274895,2.235393,1.956343,0.540184,0.702196,0.237732,2.901801,5.23694,1.634576,1.334293,0.189038
1720526604,110,0,4277.307617,4264.743652,4301.538574,4308.846191,4243.717773,4252.563965,4260.384766,4232.692383,4231.538574,4143.333496,4451.410156,4442.307617,4345.769043,4370.512695,,,,,,,,,,,,,,,,,,,,,,,,,,,,,,,,,,,,,,,,,,,,,,,,,,,,,,,,,,,,,,,,,,,,,,
1720526604,111,0,4266.025879,4263.974121,4294.230957,4306.153809,4237.94873,4256.282227,4265.384766,4242.05127,4243.205078,4133.974121,4450.256348,4436.025879,4345.384766,4368.717773,,,,,,,,,,,,,,,,,,,,,,,,,,,,,,,,,,,,,,,,,,,,,,,,,,,,,,,,,,,,,,,,,,,,,,
1720526604,112,0,4259.487305,4255,4286.025879,4306.666504,4232.05127,4257.179688,4265.897461,4250,4250.384766,4135.256348,4449.358887,4431.153809,4335.384766,4366.410156,,,,,,,,,,,,,,,,,,,,,,,,,,,,,,,,,,,,,,,,,,,,,,,,,,,,,,,,,,,,,,,,,,,,,,
1720526604,113,0,4255.512695,4247.692383,4279.230957,4308.205078,4232.692383,4251.666504,4262.307617,4242.179688,4248.461426,4134.230957,4443.717773,4422.179688,4324.871582,4357.563965,,,,,,,,,,,,,,,,,,,,,,,,,,,,,,,,,,,,,,,,,,,,,,,,,,,,,,,,,,,,,,,,,,,,,,
1720526604,114,0,4251.410156,4248.461426,4278.077148,4306.410156,4237.436035,4250.128418,4257.820313,4232.307617,4247.820313,4137.05127,4446.025879,4416.282227,4324.102539,4353.461426,,,,,,,,,,,,,,,,,,,,,,,,,,,,,,,,,,,,,,,,,,,,,,,,,,,,,,,,,,,,,,,,,,,,,,
1720526604,115,0,4250.769043,4251.153809,4278.846191,4305.512695,4233.846191,4249.871582,4249.615234,4227.436035,4250.128418,4136.666504,4448.589844,4418.333496,4328.717773,4353.077148,,,,,,,,,,,,,,,,,,,,,,,,,,,,,,,,,,,,,,,,,,,,,,,,,,,,,,,,,,,,,,,,,,,,,,
1720526604,116,0,4247.436035,4248.205078,4271.282227,4308.717773,4233.974121,4237.692383,4236.282227,4217.692383,4247.692383,4121.922852,4438.333496,4406.666504,4324.871582,4346.666504,,,,,,,,,,,,,,,,,,,,,,,,,,,,,,,,,,,,,,,,,,,,,,,,,,,,,,,,,,,,,,,,,,,,,,
1720526604,117,0,4247.692383,4247.307617,4268.846191,4313.205078,4242.563965,4226.410156,4228.717773,4212.307617,4242.692383,4117.692383,4426.410156,4403.846191,4320.256348,4346.538574,,,,,,,,,,,,,,,,,,,,,,,,,,,,,,,,,,,,,,,,,,,,,,,,,,,,,,,,,,,,,,,,,,,,,,
1720526604,118,0,4257.05127,4250.512695,4278.461426,4317.692383,4240.769043,4225.384766,4230.897461,4215.769043,4238.589844,4140.641113,4425.641113,4421.538574,4325,4349.487305,,,,,,,,,,,,,,,,,,,,,,,,,,,,,,,,,,,,,,,,,,,,,,,,,,,,,,,,,,,,,,,,,,,,,,
1720526604,119,0,4257.05127,4249.743652,4281.025879,4315.641113,4229.102539,4221.666504,4231.794922,4215.897461,4230.512695,4153.717773,4430.512695,4411.153809,4323.589844,4339.743652,,,,,,,,,,,,,,,,,,,,,,,,,,,,,,,,,,,,,,,,,,,,,,,,,,,,,,,,,,,,,,,,,,,,,,
1720526604,120,0,4249.230957,4247.307617,4276.666504,4314.871582,4225.769043,4215.256348,4227.05127,4211.666504,4227.05127,4142.179688,4427.563965,4398.205078,4312.436035,4333.974121,,,,,,,,,,,,,,,,,,,,,,,,,,,,,,,,,,,,,,,,,,,,,,,,,,,,,,,,,,,,,,,,,,,,,,
1720526604,121,0,4248.717773,4246.153809,4276.282227,4317.820313,4229.871582,4219.230957,4228.205078,4210.512695,4225.128418,4146.410156,4424.102539,4411.794922,4311.794922,4340,,,,,,,,,,,,,,,,,,,,,,,,,,,,,,,,,,,,,,,,,,,,,,,,,,,,,,,,,,,,,,,,,,,,,,
1720526604,122,0,4253.333496,4245.769043,4280.769043,4316.025879,4230.384766,4230.512695,4241.410156,4215,4220.512695,4179.358887,4436.025879,4420,4321.025879,4345.128418,,,,,,,,,,,,,,,,,,,,,,,,,,,,,,,,,,,,,,,,,,,,,,,,,,,,,,,,,,,,,,,,,,,,,,
1720526604,123,0,4257.179688,4246.410156,4290.256348,4315.769043,4230.512695,4235.128418,4252.436035,4219.743652,4223.846191,4201.666504,4445.769043,4422.179688,4323.333496,4347.307617,,,,,,,,,,,,,,,,,,,,,,,,,,,,,,,,,,,,,,,,,,,,,,,,,,,,,,,,,,,,,,,,,,,,,,
1720526604,124,0,4261.410156,4247.820313,4293.461426,4316.794922,4231.922852,4234.487305,4250.641113,4217.307617,4231.410156,4198.461426,4435.384766,4426.794922,4322.820313,4346.538574,,,,,,,,,,,,,,,,,,,,,,,,,,,,,,,,,,,,,,,,,,,,,,,,,,,,,,,,,,,,,,,,,,,,,,
1720526604,125,0,4261.410156,4247.94873,4283.589844,4314.230957,4232.692383,4239.615234,4247.05127,4213.077148,4232.563965,4202.563965,4426.666504,4423.974121,4325.512695,4346.282227,1.773759,1.832206,0.418547,0.414989,0.113853,1.086575,1.279117,0.577064,0.298125,0.137,3.016302,3.194139,1.18669,0.430694,0.190693,0.368037,0.065003,0.061595,0.054315,0.065676,0.857022,0.455811,0.296157,0.512467,0.234532,0.825988,1.270671,0.278753,0.131604,0.109204,2.356167,6.444884,0.684358,0.327152,0.108202,3.245583,6.099154,2.048335,0.381162,0.134313,1.452437,1.988777,0.481212,0.207439,0.063337,56.987286,21.057165,6.655641,5.59212,1.782474,3.034218,1.925818,1.531109,0.63238,0.206868,3.099123,3.45975,1.663995,0.525205,0.252165,1.933361,1.662057,0.57987,0.597632,0.222424,2.4713,4.512238,1.682718,1.171534,0.189363
1720526604,126,0,4254.487305,4243.205078,4280,4313.589844,4231.922852,4246.410156,4247.563965,4211.153809,4231.538574,4217.05127,4432.179688,4422.05127,4325.641113,4349.743652,,,,,,,,,,,,,,,,,,,,,,,,,,,,,,,,,,,,,,,,,,,,,,,,,,,,,,,,,,,,,,,,,,,,,,
1720526604,127,0,4250.384766,4236.410156,4280.512695,4317.436035,4229.615234,4242.05127,4240.128418,4208.846191,4235.256348,4220.256348,4435.641113,4424.871582,4320.128418,4350.512695,,,,,,,,,,,,,,,,,,,,,,,,,,,,,,,,,,,,,,,,,,,,,,,,,,,,,,,,,,,,,,,,,,,,,,
1720526604,0,0,4243.333496,4232.563965,4267.820313,4315.769043,4228.717773,4232.179688,4231.282227,4209.230957,4240.128418,4217.563965,4433.077148,4412.563965,4312.436035,4339.743652,,,,,,,,,,,,,,,,,,,,,,,,,,,,,,,,,,,,,,,,,,,,,,,,,,,,,,,,,,,,,,,,,,,,,,
1720526604,1,0,4235.641113,4231.922852,4258.846191,4312.179688,4228.077148,4228.333496,4231.922852,4215,4244.102539,4216.794922,4429.102539,4403.461426,4307.436035,4326.794922,,,,,,,,,,,,,,,,,,,,,,,,,,,,,,,,,,,,,,,,,,,,,,,,,,,,,,,,,,,,,,,,,,,,,,
1720526604,2,0,4240.256348,4230.897461,4263.077148,4313.461426,4231.794922,4229.743652,4232.94873,4220.128418,4242.692383,4213.846191,4423.974121,4407.692383,4306.922852,4329.358887,,,,,,,,,,,,,,,,,,,,,,,,,,,,,,,,,,,,,,,,,,,,,,,,,,,,,,,,,,,,,,,,,,,,,,
1720526604,3,0,4246.538574,4229.487305,4260.128418,4313.846191,4228.333496,4226.794922,4231.282227,4220.512695,4237.307617,4221.794922,4423.974121,4408.461426,4309.102539,4337.436035,,,,,,,,,,,,,,,,,,,,,,,,,,,,,,,,,,,,,,,,,,,,,,,,,,,,,,,,,,,,,,,,,,,,,,
1720526604,4,0,4250.512695,4232.05127,4256.666504,4316.666504,4218.717773,4220.128418,4232.436035,4217.94873,4232.436035,4235.256348,4428.077148,4413.077148,4314.230957,4332.94873,,,,,,,,,,,,,,,,,,,,,,,,,,,,,,,,,,,,,,,,,,,,,,,,,,,,,,,,,,,,,,,,,,,,,,
1720526604,5,0,4257.436035,4235.384766,4266.410156,4318.846191,4223.077148,4216.794922,4233.589844,4217.692383,4221.025879,4228.461426,4431.538574,4414.615234,4317.563965,4320.512695,,,,,,,,,,,,,,,,,,,,,,,,,,,,,,,,,,,,,,,,,,,,,,,,,,,,,,,,,,,,,,,,,,,,,,
1720526604,6,0,4260.641113,4233.717773,4270.512695,4316.410156,4229.743652,4219.487305,4233.717773,4215,4212.179688,4210.384766,4427.692383,4409.743652,4314.230957,4315.128418,,,,,,,,,,,,,,,,,,,,,,,,,,,,,,,,,,,,,,,,,,,,,,,,,,,,,,,,,,,,,,,,,,,,,,
1720526604,7,0,4255.512695,4231.410156,4266.794922,4313.974121,4222.94873,4222.05127,4234.230957,4206.282227,4213.077148,4200.128418,4420.256348,4408.205078,4311.153809,4316.666504,,,,,,,,,,,,,,,,,,,,,,,,,,,,,,,,,,,,,,,,,,,,,,,,,,,,,,,,,,,,,,,,,,,,,,
1720526604,8,0,4255.512695,4234.743652,4268.846191,4313.333496,4215,4220.897461,4234.102539,4201.410156,4213.461426,4190.128418,4419.871582,4406.794922,4312.307617,4314.487305,,,,,,,,,,,,,,,,,,,,,,,,,,,,,,,,,,,,,,,,,,,,,,,,,,,,,,,,,,,,,,,,,,,,,,
1720526604,9,0,4260.641113,4237.692383,4272.563965,4313.461426,4215.769043,4222.05127,4233.846191,4202.563965,4214.230957,4182.436035,4426.794922,4408.461426,4313.974121,4313.333496,,,,,,,,,,,,,,,,,,,,,,,,,,,,,,,,,,,,,,,,,,,,,,,,,,,,,,,,,,,,,,,,,,,,,,
1720526604,10,0,4261.410156,4234.871582,4272.692383,4313.205078,4217.94873,4229.487305,4233.205078,4201.025879,4218.205078,4192.563965,4435.512695,4414.487305,4320.384766,4322.820313,,,,,,,,,,,,,,,,,,,,,,,,,,,,,,,,,,,,,,,,,,,,,,,,,,,,,,,,,,,,,,,,,,,,,,
1720526604,11,0,4268.846191,4236.410156,4281.666504,4314.358887,4221.025879,4234.102539,4236.538574,4207.05127,4223.205078,4206.153809,4440.897461,4420.641113,4329.358887,4335.641113,,,,,,,,,,,,,,,,,,,,,,,,,,,,,,,,,,,,,,,,,,,,,,,,,,,,,,,,,,,,,,,,,,,,,,
1720526604,12,0,4268.333496,4235,4286.666504,4313.717773,4217.436035,4220.512695,4234.487305,4214.743652,4228.461426,4206.666504,4434.230957,4417.179688,4322.692383,4325.641113,,,,,,,,,,,,,,,,,,,,,,,,,,,,,,,,,,,,,,,,,,,,,,,,,,,,,,,,,,,,,,,,,,,,,,
1720526604,13,0,4244.230957,4216.538574,4259.743652,4312.307617,4206.410156,4201.153809,4216.794922,4204.487305,4226.794922,4201.922852,4412.179688,4396.538574,4297.563965,4297.179688,1.890286,1.569769,0.420839,0.362979,0.102117,1.080788,1.108522,0.585356,0.266634,0.118085,2.395843,2.519047,1.003137,0.345909,0.158006,0.361431,0.067787,0.062419,0.053118,0.066767,0.81548,0.524563,0.32387,0.408747,0.226148,0.869392,1.642171,0.274561,0.125541,0.105157,1.923614,5.999856,0.617885,0.281843,0.106003,2.635464,4.654274,1.871161,0.351051,0.112607,1.322095,1.746452,0.420173,0.189669,0.056521,80.256783,28.066992,9.744958,8.157142,2.446152,2.691932,1.518541,1.617827,0.595259,0.205464,2.593721,2.857606,1.433207,0.468718,0.223415,1.817792,1.539147,0.642826,0.517202,0.202587,2.775701,4.062717,1.675363,0.970349,0.194402
1720526604,14,0,4221.282227,4198.077148,4228.589844,4312.820313,4203.846191,4197.179688,4201.794922,4194.358887,4220.769043,4202.436035,4397.692383,4380,4282.05127,4290.384766,,,,,,,,,,,,,,,,,,,,,,,,,,,,,,,,,,,,,,,,,,,,,,,,,,,,,,,,,,,,,,,,,,,,,,
1720526604,15,0,4216.794922,4198.077148,4225,4310.897461,4202.94873,4196.153809,4202.94873,4202.436035,4222.05127,4200.769043,4396.794922,4382.563965,4279.102539,4295.769043,,,,,,,,,,,,,,,,,,,,,,,,,,,,,,,,,,,,,,,,,,,,,,,,,,,,,,,,,,,,,,,,,,,,,,
1720526604,16,0,4216.410156,4200.256348,4226.282227,4306.922852,4197.179688,4190.512695,4203.974121,4202.307617,4221.922852,4192.05127,4390,4377.820313,4271.922852,4284.871582,,,,,,,,,,,,,,,,,,,,,,,,,,,,,,,,,,,,,,,,,,,,,,,,,,,,,,,,,,,,,,,,,,,,,,
1720526604,17,0,4215.256348,4196.922852,4222.05127,4309.615234,4196.922852,4190.128418,4200.128418,4189.615234,4217.179688,4179.487305,4385.128418,4370.512695,4268.333496,4278.717773,,,,,,,,,,,,,,,,,,,,,,,,,,,,,,,,,,,,,,,,,,,,,,,,,,,,,,,,,,,,,,,,,,,,,,
1720526604,18,0,4226.538574,4205.769043,4231.153809,4315.256348,4205.128418,4193.974121,4207.179688,4191.153809,4217.436035,4171.410156,4391.025879,4383.333496,4273.461426,4291.794922,,,,,,,,,,,,,,,,,,,,,,,,,,,,,,,,,,,,,,,,,,,,,,,,,,,,,,,,,,,,,,,,,,,,,,
1720526604,19,0,4232.692383,4213.846191,4237.307617,4306.922852,4201.153809,4194.487305,4215.769043,4196.538574,4213.846191,4176.666504,4397.307617,4379.230957,4278.461426,4297.563965,,,,,,,,,,,,,,,,,,,,,,,,,,,,,,,,,,,,,,,,,,,,,,,,,,,,,,,,,,,,,,,,,,,,,,
1720526604,20,0,4222.692383,4205.641113,4222.307617,4303.461426,4188.974121,4194.871582,4210.512695,4190.641113,4207.563965,4181.666504,4395,4367.563965,4277.307617,4287.563965,,,,,,,,,,,,,,,,,,,,,,,,,,,,,,,,,,,,,,,,,,,,,,,,,,,,,,,,,,,,,,,,,,,,,,
1720526604,21,0,4215.384766,4197.563965,4215.641113,4311.922852,4191.282227,4198.589844,4203.589844,4183.077148,4210.641113,4173.205078,4387.94873,4370.256348,4269.615234,4279.358887,,,,,,,,,,,,,,,,,,,,,,,,,,,,,,,,,,,,,,,,,,,,,,,,,,,,,,,,,,,,,,,,,,,,,,
1720526604,22,0,4218.461426,4201.410156,4225.769043,4308.333496,4198.589844,4200.897461,4198.589844,4174.871582,4214.102539,4162.436035,4376.922852,4359.487305,4263.077148,4280,,,,,,,,,,,,,,,,,,,,,,,,,,,,,,,,,,,,,,,,,,,,,,,,,,,,,,,,,,,,,,,,,,,,,,
1720526604,23,0,4227.563965,4211.794922,4232.94873,4303.333496,4198.589844,4199.358887,4189.871582,4166.794922,4213.717773,4159.230957,4375.897461,4358.205078,4268.846191,4289.615234,,,,,,,,,,,,,,,,,,,,,,,,,,,,,,,,,,,,,,,,,,,,,,,,,,,,,,,,,,,,,,,,,,,,,,
1720526604,24,0,4235.256348,4217.820313,4234.358887,4305.384766,4199.871582,4197.692383,4183.717773,4162.820313,4214.615234,4155.897461,4391.794922,4372.94873,4278.461426,4296.538574,,,,,,,,,,,,,,,,,,,,,,,,,,,,,,,,,,,,,,,,,,,,,,,,,,,,,,,,,,,,,,,,,,,,,,
1720526604,25,0,4233.589844,4215.512695,4234.102539,4304.102539,4202.307617,4198.974121,4185.897461,4163.205078,4214.358887,4158.717773,4398.205078,4374.487305,4282.820313,4297.94873,,,,,,,,,,,,,,,,,,,,,,,,,,,,,,,,,,,,,,,,,,,,,,,,,,,,,,,,,,,,,,,,,,,,,,
1720526604,26,0,4228.461426,4213.974121,4234.230957,4301.410156,4197.94873,4200,4194.615234,4173.461426,4218.974121,4170.256348,4396.538574,4374.358887,4286.538574,4300.641113,,,,,,,,,,,,,,,,,,,,,,,,,,,,,,,,,,,,,,,,,,,,,,,,,,,,,,,,,,,,,,,,,,,,,,
1720526604,27,0,4231.153809,4212.94873,4235.256348,4302.94873,4190.769043,4201.538574,4207.94873,4194.102539,4230.512695,4174.615234,4405.384766,4387.05127,4285.641113,4299.487305,,,,,,,,,,,,,,,,,,,,,,,,,,,,,,,,,,,,,,,,,,,,,,,,,,,,,,,,,,,,,,,,,,,,,,
1720526604,28,0,4227.692383,4204.102539,4233.974121,4299.743652,4186.410156,4203.077148,4217.820313,4207.179688,4235.256348,4169.487305,4407.820313,4385.641113,4280.384766,4292.563965,,,,,,,,,,,,,,,,,,,,,,,,,,,,,,,,,,,,,,,,,,,,,,,,,,,,,,,,,,,,,,,,,,,,,,
1720526604,29,0,4219.615234,4202.692383,4229.102539,4297.820313,4188.589844,4203.461426,4217.05127,4206.282227,4231.282227,4166.282227,4396.794922,4376.538574,4276.538574,4292.307617,2.186997,1.619052,0.451853,0.342162,0.096553,1.095673,1.082567,0.6088,0.253442,0.100897,2.02929,2.399201,0.813861,0.278774,0.136254,0.416758,0.068385,0.06717,0.049695,0.065523,0.749056,0.588222,0.361038,0.31599,0.205896,0.939936,2.355438,0.29677,0.118692,0.100922,1.567034,6.23908,0.551283,0.237248,0.103553,2.188941,4.0411,1.610858,0.364799,0.094841,1.155139,1.500518,0.334012,0.185552,0.052832,100.795403,33.65044,12.729622,10.481904,2.983759,2.82581,1.39484,1.780382,0.641494,0.219996,2.409076,2.538449,1.165101,0.456134,0.19916,1.994406,1.652136,0.735556,0.499116,0.186022,3.940921,3.792341,1.661269,0.804485,0.206214
1720526604,30,0,4224.487305,4213.077148,4230.384766,4305.128418,4197.179688,4208.077148,4215.128418,4203.589844,4231.538574,4169.743652,4399.102539,4382.179688,4278.846191,4301.410156,,,,,,,,,,,,,,,,,,,,,,,,,,,,,,,,,,,,,,,,,,,,,,,,,,,,,,,,,,,,,,,,,,,,,,
1720526604,31,0,4234.230957,4219.102539,4238.717773,4307.179688,4203.205078,4214.871582,4216.794922,4203.717773,4233.717773,4170.512695,4413.717773,4385.256348,4290.641113,4308.589844,,,,,,,,,,,,,,,,,,,,,,,,,,,,,,,,,,,,,,,,,,,,,,,,,,,,,,,,,,,,,,,,,,,,,,
1720526604,32,0,4240.384766,4224.871582,4247.179688,4305,4202.94873,4215.384766,4216.666504,4203.589844,4228.846191,4171.922852,4417.179688,4389.230957,4299.743652,4313.717773,,,,,,,,,,,,,,,,,,,,,,,,,,,,,,,,,,,,,,,,,,,,,,,,,,,,,,,,,,,,,,,,,,,,,,
1720526604,33,0,4247.563965,4232.820313,4253.846191,4305.512695,4204.102539,4213.974121,4215.128418,4202.820313,4223.846191,4186.025879,4411.538574,4392.307617,4295.256348,4320.128418,,,,,,,,,,,,,,,,,,,,,,,,,,,,,,,,,,,,,,,,,,,,,,,,,,,,,,,,,,,,,,,,,,,,,,
1720526604,34,0,4251.410156,4234.230957,4260.256348,4304.102539,4206.538574,4222.307617,4217.436035,4202.692383,4227.307617,4204.102539,4410,4394.102539,4293.589844,4326.922852,,,,,,,,,,,,,,,,,,,,,,,,,,,,,,,,,,,,,,,,,,,,,,,,,,,,,,,,,,,,,,,,,,,,,,
1720526604,35,0,4249.358887,4232.179688,4262.94873,4301.922852,4205.512695,4231.794922,4220.128418,4201.025879,4233.205078,4207.179688,4417.05127,4401.282227,4302.692383,4332.94873,,,,,,,,,,,,,,,,,,,,,,,,,,,,,,,,,,,,,,,,,,,,,,,,,,,,,,,,,,,,,,,,,,,,,,
1720526604,36,0,4253.974121,4233.717773,4264.487305,4303.589844,4206.282227,4230.512695,4212.692383,4196.538574,4230.897461,4201.538574,4422.307617,4396.153809,4305.897461,4337.05127,,,,,,,,,,,,,,,,,,,,,,,,,,,,,,,,,,,,,,,,,,,,,,,,,,,,,,,,,,,,,,,,,,,,,,
1720526604,37,0,4262.436035,4233.589844,4267.436035,4307.179688,4209.615234,4227.436035,4207.820313,4194.358887,4229.743652,4202.05127,4419.102539,4387.436035,4306.410156,4339.743652,,,,,,,,,,,,,,,,,,,,,,,,,,,,,,,,,,,,,,,,,,,,,,,,,,,,,,,,,,,,,,,,,,,,,,
1720526604,38,0,4263.846191,4236.666504,4267.692383,4306.153809,4213.461426,4233.846191,4221.666504,4197.436035,4240.256348,4210.512695,4418.717773,4393.974121,4310.128418,4338.205078,,,,,,,,,,,,,,,,,,,,,,,,,,,,,,,,,,,,,,,,,,,,,,,,,,,,,,,,,,,,,,,,,,,,,,
1720526604,39,0,4261.666504,4242.94873,4271.538574,4306.410156,4214.230957,4239.102539,4236.282227,4207.436035,4251.538574,4223.461426,4428.461426,4408.589844,4311.025879,4338.333496,,,,,,,,,,,,,,,,,,,,,,,,,,,,,,,,,,,,,,,,,,,,,,,,,,,,,,,,,,,,,,,,,,,,,,
1720526604,40,0,4261.282227,4241.538574,4280.512695,4307.307617,4211.025879,4235.512695,4236.282227,4224.358887,4251.153809,4234.487305,4431.666504,4417.692383,4313.077148,4349.358887,,,,,,,,,,,,,,,,,,,,,,,,,,,,,,,,,,,,,,,,,,,,,,,,,,,,,,,,,,,,,,,,,,,,,,
1720526604,41,0,4265.384766,4236.282227,4283.846191,4306.538574,4211.025879,4234.871582,4236.025879,4234.615234,4248.205078,4242.436035,4429.871582,4422.307617,4319.615234,4363.461426,,,,,,,,,,,,,,,,,,,,,,,,,,,,,,,,,,,,,,,,,,,,,,,,,,,,,,,,,,,,,,,,,,,,,,
1720526604,42,0,4264.743652,4237.563965,4278.333496,4309.102539,4213.461426,4232.436035,4234.615234,4230.641113,4251.794922,4242.436035,4431.282227,4420.512695,4317.692383,4363.333496,,,,,,,,,,,,,,,,,,,,,,,,,,,,,,,,,,,,,,,,,,,,,,,,,,,,,,,,,,,,,,,,,,,,,,
1720526604,43,0,4249.743652,4230.769043,4265.384766,4310.256348,4208.589844,4219.743652,4218.333496,4210.641113,4246.410156,4217.820313,4415.384766,4404.358887,4292.307617,4339.487305,,,,,,,,,,,,,,,,,,,,,,,,,,,,,,,,,,,,,,,,,,,,,,,,,,,,,,,,,,,,,,,,,,,,,,
1720526604,44,0,4235,4213.077148,4253.461426,4305.897461,4201.025879,4211.025879,4204.871582,4189.358887,4230.769043,4187.692383,4391.922852,4387.436035,4270,4320.384766,,,,,,,,,,,,,,,,,,,,,,,,,,,,,,,,,,,,,,,,,,,,,,,,,,,,,,,,,,,,,,,,,,,,,,
1720526605,45,0,4251.153809,4224.230957,4267.307617,4306.666504,4203.077148,4221.666504,4212.820313,4191.922852,4227.563965,4196.922852,4405.128418,4401.153809,4289.487305,4339.871582,2.591559,1.980508,0.505652,0.363245,0.098111,1.117692,1.21173,0.636442,0.263139,0.088895,1.987487,2.748778,0.662078,0.253209,0.131899,0.549273,0.069529,0.075665,0.044225,0.062352,0.678336,0.628671,0.401779,0.251681,0.180059,1.070568,3.374769,0.327222,0.114261,0.099131,1.358573,7.090721,0.481896,0.199252,0.102718,1.966578,4.228826,1.344129,0.413137,0.084914,0.971564,1.390465,0.246698,0.196121,0.053458,113.501846,36.237022,14.773517,11.901728,3.232005,3.325775,1.512755,1.988175,0.768031,0.249985,2.48019,2.445334,0.92598,0.490499,0.18776,2.371812,1.986329,0.837437,0.551318,0.177005,5.471571,3.608803,1.649588,0.719316,0.223138
1720526605,46,0,4278.461426,4258.333496,4296.282227,4312.820313,4210.384766,4236.025879,4227.820313,4205.256348,4237.94873,4216.922852,4437.179688,4436.538574,4322.94873,4370.897461,,,,,,,,,,,,,,,,,,,,,,,,,,,,,,,,,,,,,,,,,,,,,,,,,,,,,,,,,,,,,,,,,,,,,,
1720526605,47,0,4276.282227,4266.025879,4295.256348,4309.102539,4210.897461,4236.025879,4231.282227,4204.230957,4242.179688,4210.128418,4437.307617,4431.794922,4323.717773,4370.897461,,,,,,,,,,,,,,,,,,,,,,,,,,,,,,,,,,,,,,,,,,,,,,,,,,,,,,,,,,,,,,,,,,,,,,
1720526605,48,0,4261.922852,4250.641113,4277.692383,4303.333496,4208.333496,4230.384766,4223.333496,4197.692383,4243.077148,4219.615234,4424.487305,4407.820313,4310.384766,4357.436035,,,,,,,,,,,,,,,,,,,,,,,,,,,,,,,,,,,,,,,,,,,,,,,,,,,,,,,,,,,,,,,,,,,,,,
1720526605,49,0,4256.153809,4241.538574,4274.358887,4305.641113,4206.922852,4229.487305,4217.820313,4198.846191,4248.205078,4256.794922,4426.282227,4412.307617,4303.717773,4353.333496,,,,,,,,,,,,,,,,,,,,,,,,,,,,,,,,,,,,,,,,,,,,,,,,,,,,,,,,,,,,,,,,,,,,,,
1720526605,50,0,4254.102539,4245.128418,4277.307617,4305.641113,4206.153809,4235.128418,4225.769043,4206.666504,4249.871582,4273.974121,4428.205078,4413.589844,4301.410156,4354.102539,,,,,,,,,,,,,,,,,,,,,,,,,,,,,,,,,,,,,,,,,,,,,,,,,,,,,,,,,,,,,,,,,,,,,,
1720526605,51,0,4255.897461,4250.641113,4276.538574,4307.05127,4205.897461,4238.846191,4235.769043,4215.128418,4253.717773,4265.256348,4427.692383,4412.179688,4306.666504,4360.641113,,,,,,,,,,,,,,,,,,,,,,,,,,,,,,,,,,,,,,,,,,,,,,,,,,,,,,,,,,,,,,,,,,,,,,
1720526605,52,0,4255.897461,4243.077148,4273.461426,4306.282227,4203.205078,4234.102539,4232.307617,4217.436035,4255.384766,4263.846191,4423.461426,4415.384766,4305.641113,4361.410156,,,,,,,,,,,,,,,,,,,,,,,,,,,,,,,,,,,,,,,,,,,,,,,,,,,,,,,,,,,,,,,,,,,,,,
1720526605,53,0,4254.615234,4232.179688,4271.922852,4300.897461,4196.538574,4234.358887,4231.538574,4222.05127,4251.922852,4272.563965,4419.615234,4415,4296.666504,4353.589844,,,,,,,,,,,,,,,,,,,,,,,,,,,,,,,,,,,,,,,,,,,,,,,,,,,,,,,,,,,,,,,,,,,,,,
1720526605,54,0,4260.641113,4236.922852,4276.025879,4301.410156,4196.153809,4241.794922,4243.461426,4233.333496,4254.615234,4278.205078,4427.692383,4425.256348,4302.94873,4361.153809,,,,,,,,,,,,,,,,,,,,,,,,,,,,,,,,,,,,,,,,,,,,,,,,,,,,,,,,,,,,,,,,,,,,,,
1720526605,55,0,4266.538574,4243.333496,4280.897461,4305.384766,4206.025879,4239.871582,4248.717773,4236.666504,4260.897461,4283.077148,4437.563965,4437.563965,4314.871582,4378.461426,,,,,,,,,,,,,,,,,,,,,,,,,,,,,,,,,,,,,,,,,,,,,,,,,,,,,,,,,,,,,,,,,,,,,,
1720526605,56,0,4264.102539,4240.897461,4278.974121,4302.179688,4208.205078,4232.307617,4244.615234,4234.102539,4263.205078,4280.256348,4438.717773,4432.820313,4311.538574,4379.230957,,,,,,,,,,,,,,,,,,,,,,,,,,,,,,,,,,,,,,,,,,,,,,,,,,,,,,,,,,,,,,,,,,,,,,
1720526605,57,0,4261.538574,4241.922852,4278.461426,4298.333496,4200.128418,4232.436035,4244.487305,4234.487305,4259.743652,4275.769043,4436.666504,4427.94873,4310.128418,4369.871582,,,,,,,,,,,,,,,,,,,,,,,,,,,,,,,,,,,,,,,,,,,,,,,,,,,,,,,,,,,,,,,,,,,,,,
1720526605,58,0,4261.666504,4245.641113,4281.153809,4301.025879,4200.641113,4232.94873,4246.666504,4232.94873,4256.282227,4288.974121,4438.974121,4434.102539,4317.179688,4371.666504,,,,,,,,,,,,,,,,,,,,,,,,,,,,,,,,,,,,,,,,,,,,,,,,,,,,,,,,,,,,,,,,,,,,,,
1720526605,59,0,4260.128418,4245.256348,4280.384766,4300.641113,4204.743652,4233.205078,4246.410156,4231.025879,4256.410156,4309.743652,4437.94873,4428.846191,4316.538574,4377.94873,,,,,,,,,,,,,,,,,,,,,,,,,,,,,,,,,,,,,,,,,,,,,,,,,,,,,,,,,,,,,,,,,,,,,,
1720526605,60,0,4260.641113,4243.846191,4281.538574,4300.128418,4203.461426,4241.410156,4248.205078,4229.871582,4256.922852,4312.436035,4434.358887,4424.743652,4311.153809,4375.384766,,,,,,,,,,,,,,,,,,,,,,,,,,,,,,,,,,,,,,,,,,,,,,,,,,,,,,,,,,,,,,,,,,,,,,
1720526605,61,0,4260.769043,4243.333496,4281.410156,4300.897461,4206.794922,4248.974121,4250.769043,4227.94873,4256.025879,4301.922852,4431.153809,4424.230957,4309.102539,4369.487305,3.040426,2.58717,0.55957,0.427619,0.104202,1.163704,1.45897,0.646024,0.293773,0.083067,2.245006,3.441025,0.56548,0.28233,0.143506,0.723736,0.072824,0.087216,0.037975,0.05848,0.598173,0.633026,0.434372,0.220498,0.15564,1.279564,4.514813,0.345389,0.114874,0.100915,1.324257,8.204125,0.431594,0.173561,0.104096,2.004182,4.905271,1.136191,0.477026,0.083959,0.852888,1.505346,0.179683,0.214703,0.057619,114.591713,34.950771,15.211136,11.991325,3.109799,3.970842,1.783844,2.156172,0.932996,0.286485,2.710905,2.532283,0.749341,0.560016,0.191317,2.95559,2.45064,0.914673,0.652352,0.175234,6.933137,3.473542,1.607695,0.720009,0.241274
1720526605,62,0,4258.205078,4245.384766,4277.692383,4298.461426,4214.358887,4248.846191,4248.205078,4228.846191,4258.333496,4293.974121,4428.461426,4417.436035,4309.871582,4369.102539,,,,,,,,,,,,,,,,,,,,,,,,,,,,,,,,,,,,,,,,,,,,,,,,,,,,,,,,,,,,,,,,,,,,,,
1720526605,63,0,4257.436035,4246.410156,4277.05127,4298.974121,4214.743652,4246.922852,4245,4229.102539,4259.102539,4295.897461,4433.461426,4417.563965,4313.717773,4376.922852,,,,,,,,,,,,,,,,,,,,,,,,,,,,,,,,,,,,,,,,,,,,,,,,,,,,,,,,,,,,,,,,,,,,,,
1720526605,64,0,4261.666504,4245.897461,4278.461426,4298.846191,4214.102539,4246.282227,4247.563965,4224.871582,4250.641113,4328.077148,4442.94873,4418.333496,4320,4387.692383,,,,,,,,,,,,,,,,,,,,,,,,,,,,,,,,,,,,,,,,,,,,,,,,,,,,,,,,,,,,,,,,,,,,,,
1720526605,65,0,4265.641113,4249.487305,4277.820313,4298.846191,4215.384766,4246.282227,4247.436035,4220,4247.94873,4370.769043,4445,4418.846191,4321.922852,4393.717773,,,,,,,,,,,,,,,,,,,,,,,,,,,,,,,,,,,,,,,,,,,,,,,,,,,,,,,,,,,,,,,,,,,,,,
1720526605,66,0,4261.666504,4249.230957,4276.538574,4302.94873,4207.05127,4243.846191,4237.05127,4216.153809,4250.256348,4377.563965,4440.128418,4416.794922,4318.974121,4391.282227,,,,,,,,,,,,,,,,,,,,,,,,,,,,,,,,,,,,,,,,,,,,,,,,,,,,,,,,,,,,,,,,,,,,,,
1720526605,67,0,4256.410156,4246.794922,4275.128418,4305.512695,4200.128418,4243.077148,4230.769043,4217.94873,4247.563965,4365.256348,4441.153809,4412.692383,4321.538574,4390.256348,,,,,,,,,,,,,,,,,,,,,,,,,,,,,,,,,,,,,,,,,,,,,,,,,,,,,,,,,,,,,,,,,,,,,,
1720526605,68,0,4261.282227,4248.589844,4276.282227,4305,4205.769043,4246.153809,4238.589844,4231.666504,4252.307617,4376.410156,4447.94873,4421.794922,4331.410156,4399.615234,,,,,,,,,,,,,,,,,,,,,,,,,,,,,,,,,,,,,,,,,,,,,,,,,,,,,,,,,,,,,,,,,,,,,,
1720526605,69,0,4262.820313,4248.077148,4284.487305,4305.641113,4206.410156,4245.384766,4244.743652,4246.666504,4259.615234,4398.333496,4452.05127,4431.153809,4337.05127,4406.282227,,,,,,,,,,,,,,,,,,,,,,,,,,,,,,,,,,,,,,,,,,,,,,,,,,,,,,,,,,,,,,,,,,,,,,
1720526605,70,0,4255.512695,4246.025879,4289.230957,4306.025879,4199.743652,4244.615234,4246.282227,4246.025879,4261.794922,4403.205078,4456.025879,4425.769043,4333.205078,4410.512695,,,,,,,,,,,,,,,,,,,,,,,,,,,,,,,,,,,,,,,,,,,,,,,,,,,,,,,,,,,,,,,,,,,,,,
1720526605,71,0,4255.769043,4249.487305,4285.641113,4307.820313,4200.128418,4245.641113,4249.102539,4237.94873,4259.230957,4402.436035,4455.641113,4422.820313,4331.666504,4423.077148,,,,,,,,,,,,,,,,,,,,,,,,,,,,,,,,,,,,,,,,,,,,,,,,,,,,,,,,,,,,,,,,,,,,,,
1720526605,72,0,4258.846191,4246.282227,4281.153809,4307.436035,4203.077148,4239.743652,4245,4230.128418,4250.897461,4398.461426,4441.666504,4417.307617,4331.538574,4423.205078,,,,,,,,,,,,,,,,,,,,,,,,,,,,,,,,,,,,,,,,,,,,,,,,,,,,,,,,,,,,,,,,,,,,,,
1720526605,73,0,4251.922852,4235,4279.230957,4299.615234,4199.615234,4232.563965,4239.487305,4220.769043,4242.563965,4391.282227,4427.820313,4404.871582,4324.615234,4408.846191,,,,,,,,,,,,,,,,,,,,,,,,,,,,,,,,,,,,,,,,,,,,,,,,,,,,,,,,,,,,,,,,,,,,,,
1720526605,74,0,4246.282227,4233.461426,4279.358887,4298.333496,4197.563965,4231.794922,4244.358887,4216.666504,4242.94873,4393.589844,4432.563965,4413.717773,4321.794922,4406.025879,,,,,,,,,,,,,,,,,,,,,,,,,,,,,,,,,,,,,,,,,,,,,,,,,,,,,,,,,,,,,,,,,,,,,,
1720526605,75,0,4246.282227,4235.384766,4277.179688,4302.179688,4203.461426,4235.769043,4248.717773,4219.615234,4247.05127,4393.205078,4436.025879,4412.05127,4325,4406.025879,,,,,,,,,,,,,,,,,,,,,,,,,,,,,,,,,,,,,,,,,,,,,,,,,,,,,,,,,,,,,,,,,,,,,,
1720526605,76,0,4244.871582,4233.461426,4274.871582,4298.461426,4212.05127,4240.384766,4245.897461,4218.974121,4246.922852,4378.846191,4425.769043,4390.897461,4325.512695,4393.589844,,,,,,,,,,,,,,,,,,,,,,,,,,,,,,,,,,,,,,,,,,,,,,,,,,,,,,,,,,,,,,,,,,,,,,
1720526605,77,0,4245.384766,4237.563965,4276.538574,4298.077148,4214.743652,4241.794922,4246.153809,4212.436035,4247.436035,4369.102539,4421.153809,4399.743652,4321.794922,4390.512695,3.43625,3.297226,0.582058,0.527624,0.113365,1.21807,1.753522,0.614344,0.34305,0.084779,2.668257,4.286756,0.502861,0.368178,0.165312,0.881782,0.077908,0.098854,0.032778,0.05542,0.547928,0.595316,0.44774,0.21622,0.137542,1.544456,5.481007,0.341288,0.122432,0.10608,1.439672,9.072366,0.439412,0.170996,0.107717,2.274636,5.632323,1.012322,0.54132,0.090491,0.777738,1.834558,0.149886,0.230304,0.063526,103.452888,30.042082,13.877504,10.758804,2.660787,4.534386,2.081705,2.184417,1.082656,0.318616,2.973713,2.722358,0.620798,0.652938,0.207342,3.584555,2.897918,0.929738,0.769713,0.179624,7.749511,3.354806,1.486678,0.783728,0.259505
1720526605,78,0,4250,4245.897461,4277.94873,4300.384766,4214.871582,4242.436035,4249.743652,4210,4246.794922,4363.589844,4426.922852,4410.641113,4321.794922,4401.282227,,,,,,,,,,,,,,,,,,,,,,,,,,,,,,,,,,,,,,,,,,,,,,,,,,,,,,,,,,,,,,,,,,,,,,
1720526605,79,0,4255.384766,4249.358887,4280.769043,4298.974121,4216.025879,4247.563965,4248.205078,4211.153809,4250.128418,4355.512695,4433.589844,4410.256348,4330.769043,4408.333496,,,,,,,,,,,,,,,,,,,,,,,,,,,,,,,,,,,,,,,,,,,,,,,,,,,,,,,,,,,,,,,,,,,,,,
1720526605,80,0,4260.769043,4249.358887,4288.846191,4296.666504,4216.153809,4249.487305,4243.205078,4215.897461,4257.05127,4357.436035,4440.512695,4421.153809,4339.743652,4409.743652,,,,,,,,,,,,,,,,,,,,,,,,,,,,,,,,,,,,,,,,,,,,,,,,,,,,,,,,,,,,,,,,,,,,,,
1720526605,81,0,4268.077148,4246.922852,4295.256348,4293.717773,4214.743652,4245.769043,4243.717773,4232.94873,4262.820313,4371.666504,4448.333496,4432.94873,4341.153809,4412.820313,,,,,,,,,,,,,,,,,,,,,,,,,,,,,,,,,,,,,,,,,,,,,,,,,,,,,,,,,,,,,,,,,,,,,,
1720526605,82,0,4281.282227,4245.897461,4302.692383,4293.205078,4213.333496,4246.794922,4255.641113,4258.461426,4270.256348,4391.538574,4459.487305,4448.077148,4344.358887,4417.94873,,,,,,,,,,,,,,,,,,,,,,,,,,,,,,,,,,,,,,,,,,,,,,,,,,,,,,,,,,,,,,,,,,,,,,
1720526605,83,0,4297.05127,4253.077148,4310.512695,4293.717773,4215,4250,4267.436035,4272.436035,4273.974121,4402.94873,4466.538574,4461.538574,4351.922852,4419.615234,,,,,,,,,,,,,,,,,,,,,,,,,,,,,,,,,,,,,,,,,,,,,,,,,,,,,,,,,,,,,,,,,,,,,,
1720526605,84,0,4299.358887,4260.897461,4311.922852,4292.179688,4214.615234,4249.358887,4268.205078,4268.205078,4273.461426,4393.461426,4463.461426,4458.205078,4352.820313,4420.897461,,,,,,,,,,,,,,,,,,,,,,,,,,,,,,,,,,,,,,,,,,,,,,,,,,,,,,,,,,,,,,,,,,,,,,
1720526605,85,0,4286.153809,4263.205078,4311.666504,4294.230957,4216.922852,4250,4267.179688,4265.897461,4271.410156,4385.384766,4464.487305,4454.358887,4348.077148,4423.974121,,,,,,,,,,,,,,,,,,,,,,,,,,,,,,,,,,,,,,,,,,,,,,,,,,,,,,,,,,,,,,,,,,,,,,
1720526605,86,0,4275.769043,4264.102539,4312.05127,4298.205078,4225.128418,4248.589844,4267.94873,4265.897461,4266.666504,4393.974121,4466.922852,4457.307617,4343.846191,4417.307617,,,,,,,,,,,,,,,,,,,,,,,,,,,,,,,,,,,,,,,,,,,,,,,,,,,,,,,,,,,,,,,,,,,,,,
1720526605,87,0,4280,4270.256348,4317.94873,4296.666504,4230.128418,4247.563965,4266.282227,4257.179688,4261.922852,4401.025879,4461.025879,4446.153809,4345,4410,,,,,,,,,,,,,,,,,,,,,,,,,,,,,,,,,,,,,,,,,,,,,,,,,,,,,,,,,,,,,,,,,,,,,,
1720526605,88,0,4285.512695,4278.717773,4325.897461,4298.717773,4232.179688,4253.205078,4268.589844,4250.512695,4264.615234,4401.538574,4460.897461,4443.333496,4350.897461,4411.410156,,,,,,,,,,,,,,,,,,,,,,,,,,,,,,,,,,,,,,,,,,,,,,,,,,,,,,,,,,,,,,,,,,,,,,
1720526605,89,0,4279.743652,4276.410156,4318.461426,4299.230957,4236.153809,4257.94873,4271.025879,4246.153809,4265.512695,4396.922852,4461.538574,4448.974121,4350.512695,4405.128418,,,,,,,,,,,,,,,,,,,,,,,,,,,,,,,,,,,,,,,,,,,,,,,,,,,,,,,,,,,,,,,,,,,,,,
1720526605,90,0,4277.820313,4268.333496,4306.666504,4293.846191,4236.282227,4259.102539,4265.641113,4236.666504,4261.282227,4393.846191,4455.384766,4441.153809,4347.307617,4399.358887,,,,,,,,,,,,,,,,,,,,,,,,,,,,,,,,,,,,,,,,,,,,,,,,,,,,,,,,,,,,,,,,,,,,,,
1720526605,91,0,4276.282227,4266.538574,4310.897461,4297.05127,4232.94873,4263.205078,4262.307617,4230.641113,4262.563965,4401.922852,4456.153809,4439.487305,4343.974121,4403.205078,,,,,,,,,,,,,,,,,,,,,,,,,,,,,,,,,,,,,,,,,,,,,,,,,,,,,,,,,,,,,,,,,,,,,,
1720526605,92,0,4265.512695,4266.153809,4311.410156,4298.205078,4234.615234,4266.794922,4265,4231.282227,4261.410156,4403.205078,4459.615234,4435.384766,4338.461426,4397.563965,,,,,,,,,,,,,,,,,,,,,,,,,,,,,,,,,,,,,,,,,,,,,,,,,,,,,,,,,,,,,,,,,,,,,,
1720526605,93,0,4261.922852,4262.692383,4298.974121,4291.282227,4228.974121,4264.615234,4266.410156,4236.282227,4261.153809,4398.461426,4452.820313,4428.589844,4333.589844,4390.256348,3.68917,3.911285,0.55534,0.648717,0.126664,1.263799,2.019001,0.538366,0.410204,0.09664,3.08323,5.030268,0.438951,0.500643,0.19078,0.96675,0.082932,0.106369,0.029891,0.054313,0.525078,0.525137,0.434788,0.228351,0.127443,1.81217,5.98449,0.322381,0.138158,0.113741,1.632022,9.232393,0.530491,0.201235,0.113936,2.662465,6.023758,0.956749,0.598506,0.101436,0.743576,2.266257,0.164331,0.233842,0.069538,83.956551,22.874689,11.253139,8.639826,2.035942,4.815236,2.26786,2.032902,1.175643,0.339532,3.141203,2.890656,0.510198,0.761836,0.231247,4.118016,3.178442,0.880107,0.882329,0.190239,7.667374,3.192384,1.255576,0.875609,0.280316
1720526605,94,0,4266.794922,4261.282227,4296.922852,4289.230957,4218.974121,4261.153809,4266.666504,4251.282227,4271.153809,4409.102539,4450.128418,4437.436035,4336.538574,4400.256348,,,,,,,,,,,,,,,,,,,,,,,,,,,,,,,,,,,,,,,,,,,,,,,,,,,,,,,,,,,,,,,,,,,,,,
1720526605,95,0,4263.717773,4257.563965,4302.820313,4294.487305,4221.922852,4258.974121,4266.922852,4266.025879,4274.487305,4420.384766,4457.94873,4445.897461,4344.487305,4409.743652,,,,,,,,,,,,,,,,,,,,,,,,,,,,,,,,,,,,,,,,,,,,,,,,,,,,,,,,,,,,,,,,,,,,,,
1720526605,96,0,4262.05127,4255.641113,4305.512695,4296.666504,4228.974121,4260.256348,4267.563965,4266.153809,4267.436035,4419.230957,4462.179688,4448.717773,4348.717773,4409.871582,,,,,,,,,,,,,,,,,,,,,,,,,,,,,,,,,,,,,,,,,,,,,,,,,,,,,,,,,,,,,,,,,,,,,,
1720526605,97,0,4273.205078,4261.666504,4312.436035,4296.153809,4228.589844,4263.974121,4271.794922,4268.205078,4270.897461,4421.666504,4465.897461,4457.820313,4353.717773,4417.436035,,,,,,,,,,,,,,,,,,,,,,,,,,,,,,,,,,,,,,,,,,,,,,,,,,,,,,,,,,,,,,,,,,,,,,
1720526605,98,0,4282.94873,4265.512695,4322.179688,4298.461426,4224.615234,4261.025879,4277.05127,4278.077148,4280.384766,4427.307617,4476.025879,4469.358887,4362.05127,4431.025879,,,,,,,,,,,,,,,,,,,,,,,,,,,,,,,,,,,,,,,,,,,,,,,,,,,,,,,,,,,,,,,,,,,,,,
1720526605,99,0,4287.179688,4268.077148,4327.05127,4302.05127,4225.897461,4258.333496,4275.512695,4278.077148,4281.538574,4437.05127,4481.153809,4471.794922,4366.410156,4436.025879,,,,,,,,,,,,,,,,,,,,,,,,,,,,,,,,,,,,,,,,,,,,,,,,,,,,,,,,,,,,,,,,,,,,,,
1720526605,100,0,4287.307617,4271.794922,4324.102539,4301.666504,4226.922852,4263.333496,4269.615234,4269.615234,4279.871582,4430.256348,4475.256348,4467.179688,4363.077148,4426.794922,,,,,,,,,,,,,,,,,,,,,,,,,,,,,,,,,,,,,,,,,,,,,,,,,,,,,,,,,,,,,,,,,,,,,,
1720526605,101,0,4280.128418,4267.307617,4314.615234,4295.641113,4225.384766,4259.615234,4265.769043,4259.871582,4274.358887,4407.692383,4468.205078,4457.179688,4357.820313,4414.358887,,,,,,,,,,,,,,,,,,,,,,,,,,,,,,,,,,,,,,,,,,,,,,,,,,,,,,,,,,,,,,,,,,,,,,
1720526605,102,0,4272.94873,4260.128418,4308.846191,4296.153809,4226.153809,4246.538574,4262.692383,4248.974121,4266.153809,4447.94873,4464.487305,4453.461426,4353.333496,4407.05127,,,,,,,,,,,,,,,,,,,,,,,,,,,,,,,,,,,,,,,,,,,,,,,,,,,,,,,,,,,,,,,,,,,,,,
1720526605,103,0,4271.794922,4261.282227,4308.333496,4298.205078,4231.922852,4246.922852,4262.179688,4240.256348,4263.717773,4484.743652,4456.922852,4446.666504,4346.922852,4398.974121,,,,,,,,,,,,,,,,,,,,,,,,,,,,,,,,,,,,,,,,,,,,,,,,,,,,,,,,,,,,,,,,,,,,,,
1720526605,104,0,4275.128418,4266.025879,4310,4296.538574,4239.230957,4260.128418,4269.487305,4241.666504,4263.589844,4411.922852,4453.333496,4440,4345.256348,4398.333496,,,,,,,,,,,,,,,,,,,,,,,,,,,,,,,,,,,,,,,,,,,,,,,,,,,,,,,,,,,,,,,,,,,,,,
1720526605,105,0,4278.589844,4266.282227,4317.436035,4303.077148,4239.871582,4265.769043,4278.589844,4247.94873,4262.820313,4344.615234,4460,4454.615234,4347.94873,4407.05127,,,,,,,,,,,,,,,,,,,,,,,,,,,,,,,,,,,,,,,,,,,,,,,,,,,,,,,,,,,,,,,,,,,,,,
1720526605,106,0,4278.205078,4264.102539,4326.025879,4304.871582,4239.230957,4261.025879,4277.692383,4249.743652,4262.307617,4370.384766,4464.487305,4455.384766,4352.692383,4407.436035,,,,,,,,,,,,,,,,,,,,,,,,,,,,,,,,,,,,,,,,,,,,,,,,,,,,,,,,,,,,,,,,,,,,,,
1720526605,107,0,4276.922852,4266.922852,4318.717773,4298.077148,4235.641113,4257.307617,4274.358887,4252.563965,4263.717773,4392.563965,4464.743652,4447.307617,4352.820313,4403.461426,,,,,,,,,,,,,,,,,,,,,,,,,,,,,,,,,,,,,,,,,,,,,,,,,,,,,,,,,,,,,,,,,,,,,,
1720526605,108,0,4280.641113,4273.589844,4311.794922,4300.512695,4235.128418,4261.025879,4275.384766,4261.153809,4265.641113,4384.102539,4471.025879,4459.743652,4350,4408.205078,,,,,,,,,,,,,,,,,,,,,,,,,,,,,,,,,,,,,,,,,,,,,,,,,,,,,,,,,,,,,,,,,,,,,,
1720526605,109,0,4282.05127,4270.128418,4335.897461,4305.384766,4242.436035,4260,4270.512695,4266.153809,4266.282227,4395,4478.077148,4462.307617,4352.436035,4410.512695,3.726216,4.236706,0.488252,0.770231,0.145654,1.289562,2.186522,0.444106,0.492626,0.119875,3.320496,5.411241,0.36022,0.65452,0.214976,0.945304,0.085539,0.107243,0.029181,0.055103,0.552369,0.451107,0.394262,0.245809,0.123758,2.027864,5.866425,0.304138,0.161405,0.12225,1.827036,8.517535,0.688334,0.264563,0.123305,3.055742,5.996029,0.92966,0.653064,0.113972,0.729688,2.648229,0.214851,0.225275,0.074842,61.576145,15.44822,8.19588,6.302199,1.424295,4.775059,2.266454,1.746099,1.19856,0.349142,3.116964,2.925225,0.402357,0.877644,0.258941,4.398598,3.200545,0.792974,0.982015,0.208349,6.737956,2.93644,0.953805,0.969879,0.308018
1720526605,110,0,4278.717773,4262.179688,4299.230957,4302.94873,4227.179688,4249.487305,4263.333496,4264.358887,4270.128418,4402.307617,4475.256348,4454.487305,4354.615234,4410.128418,,,,,,,,,,,,,,,,,,,,,,,,,,,,,,,,,,,,,,,,,,,,,,,,,,,,,,,,,,,,,,,,,,,,,,
