Timestamp,EEG.Counter,EEG.Interpolated,EEG.AF3,EEG.F7,EEG.F3,EEG.FC5,EEG.T7,EEG.P7,EEG.O1,EEG.O2,EEG.P8,EEG.T8,EEG.FC6,EEG.F4,EEG.F8,EEG.AF4,POW.AF3.Theta,POW.AF3.Alpha,POW.AF3.BetaL,POW.AF3.BetaH,POW.AF3.Gamma,POW.F7.Theta,POW.F7.Alpha,POW.F7.BetaL,POW.F7.BetaH,POW.F7.Gamma,POW.F3.Theta,POW.F3.Alpha,POW.F3.BetaL,POW.F3.BetaH,POW.F3.Gamma,POW.FC5.Theta,POW.FC5.Alpha,POW.FC5.BetaL,POW.FC5.BetaH,POW.FC5.Gamma,POW.T7.Theta,POW.T7.Alpha,POW.T7.BetaL,POW.T7.BetaH,POW.T7.Gamma,POW.P7.Theta,POW.P7.Alpha,POW.P7.BetaL,POW.P7.BetaH,POW.P7.Gamma,POW.O1.Theta,POW.O1.Alpha,POW.O1.BetaL,POW.O1.BetaH,POW.O1.Gamma,POW.O2.Theta,POW.O2.Alpha,POW.O2.BetaL,POW.O2.BetaH,POW.O2.Gamma,POW.P8.Theta,POW.P8.Alpha,POW.P8.BetaL,POW.P8.BetaH,POW.P8.Gamma,POW.T8.Theta,POW.T8.Alpha,POW.T8.BetaL,POW.T8.BetaH,POW.T8.Gamma,POW.FC6.Theta,POW.FC6.Alpha,POW.FC6.BetaL,POW.FC6.BetaH,POW.FC6.Gamma,POW.F4.Theta,POW.F4.Alpha,POW.F4.BetaL,POW.F4.BetaH,POW.F4.Gamma,POW.F8.Theta,POW.F8.Alpha,POW.F8.BetaL,POW.F8.BetaH,POW.F8.Gamma,POW.AF4.Theta,POW.AF4.Alpha,POW.AF4.BetaL,POW.AF4.BetaH,POW.AF4.Gamma
1720515302,126,0,4301.922852,4255.256348,4278.461426,4298.205078,4267.94873,4254.743652,4276.666504,4315.256348,4266.410156,4248.846191,4442.05127,4471.410156,4361.153809,4401.922852,,,,,,,,,,,,,,,,,,,,,,,,,,,,,,,,,,,,,,,,,,,,,,,,,,,,,,,,,,,,,,,,,,,,,,
1720515302,127,0,4306.666504,4260.769043,4276.538574,4306.025879,4271.538574,4256.666504,4276.794922,4313.077148,4268.589844,4260.384766,4449.743652,4473.333496,4375.384766,4406.794922,,,,,,,,,,,,,,,,,,,,,,,,,,,,,,,,,,,,,,,,,,,,,,,,,,,,,,,,,,,,,,,,,,,,,,
1720515302,0,0,4303.974121,4259.230957,4274.615234,4308.461426,4271.410156,4255,4270.897461,4306.538574,4263.974121,4258.974121,4448.589844,4471.153809,4373.205078,4404.487305,,,,,,,,,,,,,,,,,,,,,,,,,,,,,,,,,,,,,,,,,,,,,,,,,,,,,,,,,,,,,,,,,,,,,,
1720515302,1,0,4301.794922,4258.333496,4273.077148,4308.461426,4269.615234,4253.205078,4267.94873,4306.282227,4262.179688,4255.769043,4448.974121,4470.256348,4363.333496,4400.769043,,,,,,,,,,,,,,,,,,,,,,,,,,,,,,,,,,,,,,,,,,,,,,,,,,,,,,,,,,,,,,,,,,,,,,
1720515302,2,0,4304.615234,4263.589844,4275.128418,4310.897461,4274.487305,4254.615234,4271.666504,4306.282227,4263.717773,4252.179688,4453.077148,4472.307617,4365.512695,4408.333496,,,,,,,,,,,,,,,,,,,,,,,,,,,,,,,,,,,,,,,,,,,,,,,,,,,,,,,,,,,,,,,,,,,,,,
1720515302,3,0,4309.358887,4264.871582,4280,4311.538574,4276.282227,4257.05127,4274.871582,4305.384766,4262.94873,4251.282227,4451.538574,4478.333496,4365.384766,4416.025879,,,,,,,,,,,,,,,,,,,,,,,,,,,,,,,,,,,,,,,,,,,,,,,,,,,,,,,,,,,,,,,,,,,,,,
1720515302,4,0,4305.128418,4263.461426,4280.384766,4306.794922,4273.846191,4257.820313,4273.461426,4307.05127,4265.641113,4251.666504,4445.769043,4473.461426,4353.205078,4407.179688,,,,,,,,,,,,,,,,,,,,,,,,,,,,,,,,,,,,,,,,,,,,,,,,,,,,,,,,,,,,,,,,,,,,,,
1720515302,5,0,4301.794922,4262.307617,4278.974121,4303.077148,4273.589844,4257.563965,4271.922852,4306.025879,4271.282227,4247.307617,4442.563965,4468.205078,4345.769043,4398.974121,,,,,,,,,,,,,,,,,,,,,,,,,,,,,,,,,,,,,,,,,,,,,,,,,,,,,,,,,,,,,,,,,,,,,,
1720515302,6,0,4308.846191,4264.743652,4278.717773,4305,4272.179688,4257.436035,4271.666504,4304.230957,4270.897461,4242.436035,4446.794922,4470.641113,4345.641113,4404.487305,,,,,,,,,,,,,,,,,,,,,,,,,,,,,,,,,,,,,,,,,,,,,,,,,,,,,,,,,,,,,,,,,,,,,,
1720515302,7,0,4312.179688,4272.820313,4279.487305,4308.717773,4270.769043,4257.05127,4272.820313,4307.820313,4267.692383,4247.05127,4451.282227,4474.230957,4348.589844,4412.820313,,,,,,,,,,,,,,,,,,,,,,,,,,,,,,,,,,,,,,,,,,,,,,,,,,,,,,,,,,,,,,,,,,,,,,
1720515302,8,0,4307.05127,4276.666504,4278.974121,4311.025879,4276.153809,4256.025879,4273.717773,4310.641113,4267.307617,4254.871582,4447.94873,4475.128418,4346.410156,4413.846191,,,,,,,,,,,,,,,,,,,,,,,,,,,,,,,,,,,,,,,,,,,,,,,,,,,,,,,,,,,,,,,,,,,,,,
1720515302,9,0,4304.615234,4271.282227,4277.94873,4310.769043,4277.820313,4254.230957,4273.205078,4308.974121,4265.897461,4249.743652,4442.692383,4468.333496,4335.641113,4405.641113,,,,,,,,,,,,,,,,,,,,,,,,,,,,,,,,,,,,,,,,,,,,,,,,,,,,,,,,,,,,,,,,,,,,,,
1720515302,10,0,4306.538574,4267.94873,4278.333496,4308.077148,4271.282227,4253.974121,4269.358887,4303.846191,4262.179688,4239.615234,4443.333496,4459.358887,4329.487305,4400.128418,,,,,,,,,,,,,,,,,,,,,,,,,,,,,,,,,,,,,,,,,,,,,,,,,,,,,,,,,,,,,,,,,,,,,,
1720515302,11,0,4306.666504,4265.641113,4280,4304.358887,4267.436035,4255.769043,4269.230957,4303.846191,4262.179688,4244.230957,4446.922852,4469.230957,4329.358887,4403.461426,,,,,,,,,,,,,,,,,,,,,,,,,,,,,,,,,,,,,,,,,,,,,,,,,,,,,,,,,,,,,,,,,,,,,,
1720515302,12,0,4305.641113,4266.666504,4276.282227,4305.256348,4270.641113,4258.461426,4273.846191,4307.436035,4270.641113,4254.487305,4449.230957,4477.179688,4327.05127,4404.615234,0.576102,0.546138,0.812675,0.172398,0.210511,1.319102,1.757039,0.587805,0.184179,0.123889,0.240878,0.03939,0.212716,0.074698,0.1549,0.349223,0.198172,0.212041,0.157916,0.090255,0.144552,0.117837,0.12699,0.078336,0.072183,0.337971,0.188984,0.164143,0.058542,0.051138,0.169555,0.264027,0.148465,0.1337,0.063066,0.139666,0.442466,0.246334,0.175147,0.098647,0.371877,0.367655,0.251231,0.218986,0.097882,0.647886,0.546405,0.601972,0.154763,0.29708,0.604494,0.712622,0.541684,0.393904,0.178083,1.578071,0.956029,1.110909,0.351317,0.584796,0.82534,1.154315,0.525927,0.333328,0.246798,1.359303,1.443677,1.103573,0.30165,0.311587
1720515302,13,0,4304.615234,4271.794922,4273.077148,4309.615234,4273.846191,4258.589844,4272.436035,4307.307617,4276.282227,4251.025879,4448.333496,4459.358887,4326.410156,4402.436035,,,,,,,,,,,,,,,,,,,,,,,,,,,,,,,,,,,,,,,,,,,,,,,,,,,,,,,,,,,,,,,,,,,,,,
1720515302,14,0,4308.077148,4266.794922,4280.256348,4310.384766,4269.743652,4254.358887,4268.846191,4307.05127,4272.692383,4252.179688,4441.922852,4460.769043,4328.077148,4405.641113,,,,,,,,,,,,,,,,,,,,,,,,,,,,,,,,,,,,,,,,,,,,,,,,,,,,,,,,,,,,,,,,,,,,,,
1720515302,15,0,4306.794922,4260.641113,4278.589844,4307.563965,4266.666504,4251.922852,4266.153809,4303.717773,4262.820313,4253.077148,4433.205078,4466.794922,4314.358887,4400,,,,,,,,,,,,,,,,,,,,,,,,,,,,,,,,,,,,,,,,,,,,,,,,,,,,,,,,,,,,,,,,,,,,,,
1720515302,16,0,4299.743652,4264.615234,4273.846191,4307.436035,4268.846191,4253.974121,4267.94873,4298.205078,4259.102539,4238.589844,4430.641113,4455.128418,4297.820313,4388.333496,,,,,,,,,,,,,,,,,,,,,,,,,,,,,,,,,,,,,,,,,,,,,,,,,,,,,,,,,,,,,,,,,,,,,,
1720515302,17,0,4303.333496,4268.333496,4280.384766,4310.641113,4271.410156,4256.410156,4275.897461,4300.769043,4266.025879,4240.256348,4441.025879,4463.333496,4308.333496,4396.282227,,,,,,,,,,,,,,,,,,,,,,,,,,,,,,,,,,,,,,,,,,,,,,,,,,,,,,,,,,,,,,,,,,,,,,
1720515302,18,0,4304.615234,4270.769043,4278.461426,4311.410156,4272.05127,4259.487305,4279.871582,4307.692383,4271.282227,4251.025879,4446.666504,4468.717773,4314.358887,4403.461426,,,,,,,,,,,,,,,,,,,,,,,,,,,,,,,,,,,,,,,,,,,,,,,,,,,,,,,,,,,,,,,,,,,,,,
1720515302,19,0,4301.538574,4271.666504,4272.05127,4308.589844,4272.436035,4260,4277.05127,4308.717773,4267.05127,4242.94873,4436.794922,4458.974121,4302.307617,4394.102539,,,,,,,,,,,,,,,,,,,,,,,,,,,,,,,,,,,,,,,,,,,,,,,,,,,,,,,,,,,,,,,,,,,,,,
1720515302,20,0,4306.282227,4269.743652,4274.743652,4311.666504,4274.487305,4258.974121,4273.589844,4307.307617,4260.769043,4238.461426,4439.615234,4466.410156,4303.077148,4397.179688,,,,,,,,,,,,,,,,,,,,,,,,,,,,,,,,,,,,,,,,,,,,,,,,,,,,,,,,,,,,,,,,,,,,,,
1720515302,21,0,4310,4273.077148,4276.153809,4319.743652,4278.461426,4261.025879,4276.922852,4307.05127,4261.410156,4246.153809,4452.179688,4475.128418,4308.717773,4412.05127,,,,,,,,,,,,,,,,,,,,,,,,,,,,,,,,,,,,,,,,,,,,,,,,,,,,,,,,,,,,,,,,,,,,,,
1720515302,22,0,4304.358887,4274.487305,4275,4317.307617,4278.846191,4260.384766,4279.743652,4305.256348,4264.871582,4242.692383,4446.153809,4464.615234,4295.897461,4408.461426,,,,,,,,,,,,,,,,,,,,,,,,,,,,,,,,,,,,,,,,,,,,,,,,,,,,,,,,,,,,,,,,,,,,,,
1720515302,23,0,4305,4263.717773,4279.487305,4309.487305,4270.897461,4256.410156,4276.666504,4304.230957,4261.538574,4237.05127,4436.794922,4466.153809,4283.077148,4399.743652,,,,,,,,,,,,,,,,,,,,,,,,,,,,,,,,,,,,,,,,,,,,,,,,,,,,,,,,,,,,,,,,,,,,,,
1720515302,24,0,4305,4260.256348,4277.563965,4310.641113,4267.820313,4257.05127,4273.077148,4301.666504,4253.974121,4236.025879,4439.230957,4467.563965,4281.538574,4403.589844,,,,,,,,,,,,,,,,,,,,,,,,,,,,,,,,,,,,,,,,,,,,,,,,,,,,,,,,,,,,,,,,,,,,,,
1720515302,25,0,4300.128418,4269.743652,4275.256348,4313.333496,4272.563965,4257.94873,4272.94873,4300.384766,4256.025879,4234.230957,4439.102539,4462.179688,4282.94873,4413.205078,,,,,,,,,,,,,,,,,,,,,,,,,,,,,,,,,,,,,,,,,,,,,,,,,,,,,,,,,,,,,,,,,,,,,,
1720515302,26,0,4308.846191,4273.205078,4279.871582,4312.436035,4272.179688,4255.384766,4274.743652,4303.205078,4262.05127,4241.410156,4441.410156,4474.487305,4285.897461,4418.846191,,,,,,,,,,,,,,,,,,,,,,,,,,,,,,,,,,,,,,,,,,,,,,,,,,,,,,,,,,,,,,,,,,,,,,
1720515302,27,0,4309.615234,4269.102539,4276.025879,4313.205078,4271.282227,4255.769043,4271.538574,4299.615234,4255.897461,4238.974121,4440.897461,4465.769043,4277.692383,4404.102539,,,,,,,,,,,,,,,,,,,,,,,,,,,,,,,,,,,,,,,,,,,,,,,,,,,,,,,,,,,,,,,,,,,,,,
1720515302,28,0,4301.153809,4268.846191,4274.230957,4313.846191,4275,4258.461426,4271.538574,4297.820313,4255.128418,4229.871582,4431.282227,4453.205078,4269.615234,4390.384766,0.484877,0.469683,0.700277,0.169037,0.200361,1.495008,1.586378,0.583303,0.166927,0.111624,0.216895,0.042789,0.181135,0.07583,0.150788,0.301778,0.18435,0.218511,0.154752,0.096164,0.11346,0.12056,0.126082,0.077717,0.072329,0.274487,0.22425,0.164636,0.056389,0.047611,0.173717,0.278731,0.131405,0.124534,0.06613,0.199038,0.507248,0.218773,0.162135,0.10604,0.374692,0.385699,0.175732,0.179467,0.102661,0.5782,0.65098,0.422549,0.131373,0.310808,0.569627,0.801005,0.476668,0.379202,0.193108,1.338908,0.954526,0.915716,0.35558,0.56277,0.883942,1.191284,0.441701,0.354289,0.239522,1.192133,1.33677,0.898605,0.274788,0.293206
1720515302,29,0,4302.820313,4274.871582,4275.641113,4311.794922,4278.461426,4261.282227,4277.94873,4306.794922,4267.179688,4234.358887,4436.410156,4463.205078,4275.128418,4399.358887,,,,,,,,,,,,,,,,,,,,,,,,,,,,,,,,,,,,,,,,,,,,,,,,,,,,,,,,,,,,,,,,,,,,,,
1720515302,30,0,4308.974121,4277.436035,4272.94873,4311.153809,4276.410156,4262.820313,4279.230957,4310.512695,4267.563965,4243.077148,4452.94873,4468.846191,4280.384766,4408.974121,,,,,,,,,,,,,,,,,,,,,,,,,,,,,,,,,,,,,,,,,,,,,,,,,,,,,,,,,,,,,,,,,,,,,,
1720515302,31,0,4311.794922,4268.077148,4274.487305,4311.025879,4271.666504,4260,4275.384766,4306.282227,4262.05127,4246.153809,4453.205078,4471.794922,4283.077148,4407.94873,,,,,,,,,,,,,,,,,,,,,,,,,,,,,,,,,,,,,,,,,,,,,,,,,,,,,,,,,,,,,,,,,,,,,,
1720515302,32,0,4301.922852,4258.717773,4273.717773,4308.461426,4269.487305,4258.974121,4272.436035,4303.461426,4264.102539,4241.282227,4441.922852,4467.179688,4278.077148,4403.589844,,,,,,,,,,,,,,,,,,,,,,,,,,,,,,,,,,,,,,,,,,,,,,,,,,,,,,,,,,,,,,,,,,,,,,
1720515302,33,0,4292.563965,4258.589844,4272.820313,4307.05127,4272.692383,4262.94873,4275.512695,4302.05127,4263.974121,4235.641113,4440.384766,4460.384766,4267.05127,4397.692383,,,,,,,,,,,,,,,,,,,,,,,,,,,,,,,,,,,,,,,,,,,,,,,,,,,,,,,,,,,,,,,,,,,,,,
1720515303,34,0,4300,4261.794922,4276.922852,4309.230957,4278.205078,4263.077148,4278.846191,4301.794922,4261.025879,4238.717773,4448.589844,4465.897461,4261.153809,4395.512695,,,,,,,,,,,,,,,,,,,,,,,,,,,,,,,,,,,,,,,,,,,,,,,,,,,,,,,,,,,,,,,,,,,,,,
1720515303,35,0,4306.538574,4265.128418,4278.333496,4310.512695,4276.282227,4259.230957,4277.307617,4301.666504,4260.256348,4241.153809,4448.717773,4471.025879,4261.410156,4400.897461,,,,,,,,,,,,,,,,,,,,,,,,,,,,,,,,,,,,,,,,,,,,,,,,,,,,,,,,,,,,,,,,,,,,,,
1720515303,36,0,4301.666504,4269.358887,4277.307617,4308.717773,4272.94873,4261.282227,4276.153809,4302.179688,4260.641113,4239.615234,4444.358887,4467.692383,4262.94873,4405.897461,,,,,,,,,,,,,,,,,,,,,,,,,,,,,,,,,,,,,,,,,,,,,,,,,,,,,,,,,,,,,,,,,,,,,,
1720515303,37,0,4299.102539,4271.922852,4275.128418,4308.589844,4275.384766,4263.205078,4277.179688,4303.333496,4262.179688,4242.436035,4446.282227,4465.256348,4261.538574,4403.205078,,,,,,,,,,,,,,,,,,,,,,,,,,,,,,,,,,,,,,,,,,,,,,,,,,,,,,,,,,,,,,,,,,,,,,
1720515303,38,0,4301.794922,4278.205078,4273.333496,4310.641113,4278.461426,4262.307617,4276.794922,4303.205078,4263.461426,4241.538574,4447.436035,4459.615234,4253.846191,4398.717773,,,,,,,,,,,,,,,,,,,,,,,,,,,,,,,,,,,,,,,,,,,,,,,,,,,,,,,,,,,,,,,,,,,,,,
1720515303,39,0,4308.077148,4284.487305,4280.128418,4310.769043,4278.461426,4264.487305,4277.05127,4302.563965,4261.282227,4238.846191,4444.230957,4463.974121,4254.487305,4405.641113,,,,,,,,,,,,,,,,,,,,,,,,,,,,,,,,,,,,,,,,,,,,,,,,,,,,,,,,,,,,,,,,,,,,,,
1720515303,40,0,4312.05127,4284.358887,4281.538574,4310.512695,4281.794922,4264.743652,4279.615234,4303.974121,4261.282227,4241.794922,4448.589844,4478.333496,4263.717773,4415.641113,,,,,,,,,,,,,,,,,,,,,,,,,,,,,,,,,,,,,,,,,,,,,,,,,,,,,,,,,,,,,,,,,,,,,,
1720515303,41,0,4301.922852,4284.615234,4271.794922,4310.897461,4284.871582,4261.666504,4279.102539,4305.641113,4263.205078,4237.563965,4453.589844,4466.153809,4259.743652,4409.615234,,,,,,,,,,,,,,,,,,,,,,,,,,,,,,,,,,,,,,,,,,,,,,,,,,,,,,,,,,,,,,,,,,,,,,
1720515303,42,0,4297.563965,4282.05127,4275.641113,4309.230957,4278.077148,4259.615234,4277.563965,4307.05127,4263.974121,4242.820313,4450.769043,4462.563965,4255.128418,4402.563965,,,,,,,,,,,,,,,,,,,,,,,,,,,,,,,,,,,,,,,,,,,,,,,,,,,,,,,,,,,,,,,,,,,,,,
1720515303,43,0,4302.692383,4273.589844,4277.692383,4305.512695,4272.820313,4258.717773,4277.05127,4308.205078,4266.538574,4257.179688,4452.179688,4474.615234,4255.769043,4402.436035,,,,,,,,,,,,,,,,,,,,,,,,,,,,,,,,,,,,,,,,,,,,,,,,,,,,,,,,,,,,,,,,,,,,,,
1720515303,44,0,4303.077148,4274.102539,4272.436035,4306.410156,4276.538574,4258.077148,4275.384766,4304.358887,4267.436035,4245.384766,4452.94873,4465.512695,4251.410156,4400.641113,0.418011,0.373557,0.550728,0.170309,0.189768,1.680422,1.349942,0.580739,0.145918,0.104801,0.192698,0.057571,0.144391,0.081045,0.14844,0.262769,0.163849,0.229001,0.140777,0.099659,0.092843,0.140639,0.132406,0.072638,0.070493,0.221659,0.246632,0.161044,0.051677,0.044106,0.186898,0.298549,0.124813,0.11513,0.070772,0.261635,0.568516,0.192201,0.142662,0.1112,0.354389,0.40581,0.120314,0.140738,0.108613,0.495971,0.760864,0.290234,0.115104,0.322944,0.577688,0.882778,0.423302,0.353536,0.214176,1.13616,0.939588,0.686756,0.340434,0.539667,0.99525,1.175595,0.363575,0.360868,0.244741,1.090389,1.157106,0.664322,0.238516,0.282516
1720515303,45,0,4311.025879,4281.410156,4280.256348,4310.384766,4281.410156,4259.487305,4279.871582,4305.128418,4266.153809,4233.077148,4451.794922,4468.589844,4252.436035,4407.179688,,,,,,,,,,,,,,,,,,,,,,,,,,,,,,,,,,,,,,,,,,,,,,,,,,,,,,,,,,,,,,,,,,,,,,
1720515303,46,0,4313.974121,4284.615234,4279.487305,4311.025879,4284.102539,4261.025879,4283.717773,4306.922852,4265.256348,4242.05127,4453.077148,4475.128418,4255.384766,4412.692383,,,,,,,,,,,,,,,,,,,,,,,,,,,,,,,,,,,,,,,,,,,,,,,,,,,,,,,,,,,,,,,,,,,,,,
1720515303,47,0,4303.333496,4288.077148,4269.230957,4309.358887,4283.717773,4259.743652,4279.743652,4305.128418,4266.153809,4242.179688,4452.692383,4459.615234,4250.769043,4403.717773,,,,,,,,,,,,,,,,,,,,,,,,,,,,,,,,,,,,,,,,,,,,,,,,,,,,,,,,,,,,,,,,,,,,,,
1720515303,48,0,4302.563965,4286.666504,4270.897461,4309.615234,4279.615234,4257.94873,4275.769043,4304.230957,4265.641113,4236.282227,4447.436035,4456.153809,4246.025879,4397.307617,,,,,,,,,,,,,,,,,,,,,,,,,,,,,,,,,,,,,,,,,,,,,,,,,,,,,,,,,,,,,,,,,,,,,,
1720515303,49,0,4304.871582,4276.282227,4273.846191,4309.487305,4276.282227,4255.897461,4274.230957,4301.538574,4262.436035,4236.282227,4441.922852,4465.128418,4240.256348,4398.974121,,,,,,,,,,,,,,,,,,,,,,,,,,,,,,,,,,,,,,,,,,,,,,,,,,,,,,,,,,,,,,,,,,,,,,
1720515303,50,0,4301.666504,4274.230957,4272.692383,4308.077148,4278.717773,4256.794922,4271.922852,4299.743652,4260.641113,4234.358887,4444.487305,4462.563965,4234.230957,4400,,,,,,,,,,,,,,,,,,,,,,,,,,,,,,,,,,,,,,,,,,,,,,,,,,,,,,,,,,,,,,,,,,,,,,
1720515303,51,0,4307.692383,4281.410156,4278.974121,4309.615234,4278.589844,4258.077148,4273.205078,4303.333496,4263.717773,4236.922852,4448.461426,4468.717773,4238.461426,4403.333496,,,,,,,,,,,,,,,,,,,,,,,,,,,,,,,,,,,,,,,,,,,,,,,,,,,,,,,,,,,,,,,,,,,,,,
1720515303,52,0,4311.666504,4284.487305,4275.641113,4311.538574,4275.641113,4260.641113,4278.974121,4306.025879,4265,4244.358887,4449.230957,4469.358887,4238.717773,4402.307617,,,,,,,,,,,,,,,,,,,,,,,,,,,,,,,,,,,,,,,,,,,,,,,,,,,,,,,,,,,,,,,,,,,,,,
1720515303,53,0,4300.641113,4281.922852,4266.025879,4309.871582,4277.179688,4265.128418,4282.563965,4303.333496,4263.333496,4237.563965,4449.102539,4454.230957,4228.077148,4395.769043,,,,,,,,,,,,,,,,,,,,,,,,,,,,,,,,,,,,,,,,,,,,,,,,,,,,,,,,,,,,,,,,,,,,,,
1720515303,54,0,4300,4275.256348,4272.179688,4310.512695,4278.205078,4264.230957,4282.820313,4304.615234,4267.307617,4235.512695,4449.871582,4467.05127,4227.820313,4397.820313,,,,,,,,,,,,,,,,,,,,,,,,,,,,,,,,,,,,,,,,,,,,,,,,,,,,,,,,,,,,,,,,,,,,,,
1720515303,55,0,4302.179688,4270,4272.436035,4308.461426,4275.384766,4260.256348,4281.410156,4306.538574,4267.563965,4239.743652,4448.333496,4477.05127,4231.153809,4397.436035,,,,,,,,,,,,,,,,,,,,,,,,,,,,,,,,,,,,,,,,,,,,,,,,,,,,,,,,,,,,,,,,,,,,,,
1720515303,56,0,4300.641113,4275.512695,4268.461426,4304.102539,4273.974121,4258.974121,4281.538574,4306.410156,4265.256348,4238.846191,4451.282227,4470,4232.436035,4398.077148,,,,,,,,,,,,,,,,,,,,,,,,,,,,,,,,,,,,,,,,,,,,,,,,,,,,,,,,,,,,,,,,,,,,,,
1720515303,57,0,4306.025879,4279.358887,4270,4301.794922,4277.820313,4257.94873,4279.871582,4309.230957,4269.743652,4241.922852,4457.179688,4469.230957,4235.512695,4402.692383,,,,,,,,,,,,,,,,,,,,,,,,,,,,,,,,,,,,,,,,,,,,,,,,,,,,,,,,,,,,,,,,,,,,,,
1720515303,58,0,4302.307617,4274.743652,4267.820313,4302.436035,4280.256348,4255.769043,4273.077148,4305.384766,4268.333496,4238.846191,4450.384766,4462.692383,4226.538574,4399.615234,,,,,,,,,,,,,,,,,,,,,,,,,,,,,,,,,,,,,,,,,,,,,,,,,,,,,,,,,,,,,,,,,,,,,,
1720515303,59,0,4301.025879,4277.307617,4270.256348,4306.666504,4277.94873,4254.102539,4270.256348,4297.692383,4261.666504,4236.025879,4444.487305,4466.282227,4223.589844,4400.128418,,,,,,,,,,,,,,,,,,,,,,,,,,,,,,,,,,,,,,,,,,,,,,,,,,,,,,,,,,,,,,,,,,,,,,
1720515303,60,0,4313.846191,4290.641113,4276.025879,4310.384766,4281.666504,4255,4276.538574,4298.333496,4262.436035,4236.025879,4451.538574,4479.102539,4237.820313,4410.641113,0.400699,0.285125,0.403603,0.172087,0.181874,1.811304,1.125947,0.577975,0.12693,0.104649,0.173694,0.078237,0.109955,0.088293,0.147176,0.224557,0.142282,0.251959,0.120898,0.100013,0.081786,0.170391,0.142881,0.065197,0.067339,0.180832,0.250052,0.154152,0.046821,0.04102,0.200555,0.315506,0.129299,0.108218,0.075681,0.304118,0.617531,0.171926,0.12514,0.111672,0.316894,0.435614,0.091114,0.113163,0.114993,0.437049,0.852106,0.217927,0.110148,0.328692,0.626691,0.950527,0.395079,0.319702,0.23733,1.019151,0.921083,0.48958,0.312177,0.519366,1.153574,1.135105,0.310604,0.357143,0.260512,1.073994,0.96885,0.455234,0.202245,0.284228
1720515303,61,0,4320.384766,4295.641113,4278.846191,4311.153809,4284.487305,4257.563965,4280.897461,4305.641113,4266.153809,4231.282227,4459.487305,4483.461426,4241.794922,4421.282227,,,,,,,,,,,,,,,,,,,,,,,,,,,,,,,,,,,,,,,,,,,,,,,,,,,,,,,,,,,,,,,,,,,,,,
1720515303,62,0,4312.436035,4287.563965,4275.128418,4308.077148,4278.974121,4257.692383,4278.589844,4306.282227,4264.871582,4229.743652,4453.974121,4474.615234,4225.897461,4415.512695,,,,,,,,,,,,,,,,,,,,,,,,,,,,,,,,,,,,,,,,,,,,,,,,,,,,,,,,,,,,,,,,,,,,,,
1720515303,63,0,4307.692383,4281.282227,4268.974121,4302.692383,4274.487305,4256.025879,4277.820313,4302.563965,4264.487305,4230.384766,4445,4461.666504,4216.153809,4400.256348,,,,,,,,,,,,,,,,,,,,,,,,,,,,,,,,,,,,,,,,,,,,,,,,,,,,,,,,,,,,,,,,,,,,,,
1720515303,64,0,4312.179688,4278.589844,4270.641113,4299.871582,4277.05127,4257.05127,4280.769043,4304.102539,4265.128418,4228.333496,4446.922852,4464.230957,4219.102539,4401.794922,,,,,,,,,,,,,,,,,,,,,,,,,,,,,,,,,,,,,,,,,,,,,,,,,,,,,,,,,,,,,,,,,,,,,,
1720515303,65,0,4309.871582,4279.230957,4273.205078,4300.897461,4280.384766,4259.358887,4281.410156,4303.589844,4264.230957,4225.256348,4452.692383,4474.615234,4221.794922,4412.820313,,,,,,,,,,,,,,,,,,,,,,,,,,,,,,,,,,,,,,,,,,,,,,,,,,,,,,,,,,,,,,,,,,,,,,
1720515303,66,0,4305,4282.692383,4265.897461,4299.871582,4277.692383,4257.179688,4276.153809,4296.410156,4261.025879,4225.128418,4451.666504,4466.538574,4216.282227,4407.05127,,,,,,,,,,,,,,,,,,,,,,,,,,,,,,,,,,,,,,,,,,,,,,,,,,,,,,,,,,,,,,,,,,,,,,
1720515303,67,0,4307.179688,4281.922852,4267.307617,4296.794922,4274.743652,4253.846191,4272.563965,4297.563965,4260,4229.358887,4445.769043,4463.589844,4207.307617,4400,,,,,,,,,,,,,,,,,,,,,,,,,,,,,,,,,,,,,,,,,,,,,,,,,,,,,,,,,,,,,,,,,,,,,,
1720515303,68,0,4309.358887,4277.307617,4275,4297.307617,4274.230957,4256.666504,4274.871582,4304.487305,4264.230957,4234.487305,4442.05127,4477.94873,4206.282227,4402.179688,,,,,,,,,,,,,,,,,,,,,,,,,,,,,,,,,,,,,,,,,,,,,,,,,,,,,,,,,,,,,,,,,,,,,,
1720515303,69,0,4302.436035,4278.333496,4263.333496,4297.94873,4277.563965,4259.487305,4275.384766,4300,4262.820313,4225.641113,4445.512695,4463.205078,4202.94873,4392.94873,,,,,,,,,,,,,,,,,,,,,,,,,,,,,,,,,,,,,,,,,,,,,,,,,,,,,,,,,,,,,,,,,,,,,,
1720515303,70,0,4301.538574,4283.717773,4261.410156,4300.769043,4277.94873,4257.820313,4275.256348,4296.666504,4259.487305,4218.461426,4452.436035,4453.717773,4197.94873,4392.563965,,,,,,,,,,,,,,,,,,,,,,,,,,,,,,,,,,,,,,,,,,,,,,,,,,,,,,,,,,,,,,,,,,,,,,
1720515303,71,0,4310.897461,4286.025879,4272.820313,4306.153809,4278.333496,4255.897461,4277.436035,4304.743652,4264.743652,4229.487305,4453.974121,4474.102539,4213.077148,4408.461426,,,,,,,,,,,,,,,,,,,,,,,,,,,,,,,,,,,,,,,,,,,,,,,,,,,,,,,,,,,,,,,,,,,,,,
1720515303,72,0,4311.538574,4290.256348,4270,4310.128418,4285,4256.922852,4280.897461,4307.05127,4267.820313,4230.512695,4453.333496,4470,4225,4411.025879,,,,,,,,,,,,,,,,,,,,,,,,,,,,,,,,,,,,,,,,,,,,,,,,,,,,,,,,,,,,,,,,,,,,,,
1720515303,73,0,4303.077148,4285.769043,4266.666504,4304.615234,4283.589844,4255.384766,4278.205078,4298.205078,4259.743652,4217.94873,4446.538574,4459.743652,4208.077148,4398.589844,,,,,,,,,,,,,,,,,,,,,,,,,,,,,,,,,,,,,,,,,,,,,,,,,,,,,,,,,,,,,,,,,,,,,,
1720515303,74,0,4295.512695,4272.436035,4266.410156,4295.384766,4276.153809,4252.436035,4272.307617,4293.077148,4253.589844,4210.512695,4433.846191,4459.871582,4191.538574,4387.94873,,,,,,,,,,,,,,,,,,,,,,,,,,,,,,,,,,,,,,,,,,,,,,,,,,,,,,,,,,,,,,,,,,,,,,
1720515303,75,0,4302.94873,4273.589844,4265,4297.05127,4275.641113,4256.282227,4277.563965,4301.666504,4260.512695,4217.563965,4440.897461,4461.538574,4205.512695,4397.563965,,,,,,,,,,,,,,,,,,,,,,,,,,,,,,,,,,,,,,,,,,,,,,,,,,,,,,,,,,,,,,,,,,,,,,
1720515303,76,0,4313.846191,4285.256348,4267.820313,4302.179688,4276.538574,4260.128418,4283.333496,4307.692383,4267.94873,4230.384766,4459.358887,4476.410156,4218.205078,4418.846191,0.435041,0.221337,0.288615,0.173238,0.178193,1.845924,0.95841,0.569743,0.116314,0.109267,0.162085,0.096218,0.081491,0.094917,0.144816,0.190554,0.123634,0.285565,0.101647,0.097508,0.0774,0.19835,0.154009,0.059258,0.064125,0.150281,0.235404,0.144979,0.043844,0.03825,0.206943,0.321053,0.139989,0.104685,0.079216,0.313406,0.642705,0.159919,0.114682,0.106402,0.276452,0.472537,0.085497,0.101049,0.120398,0.417343,0.901963,0.195747,0.118773,0.3256,0.688668,0.988207,0.395154,0.282145,0.258488,0.972159,0.88795,0.358826,0.279959,0.501956,1.286115,1.096075,0.293966,0.352998,0.282154,1.115378,0.814248,0.305385,0.179926,0.298063
1720515303,77,0,4309.487305,4287.436035,4269.871582,4303.205078,4275.641113,4257.563965,4278.846191,4302.436035,4266.153809,4230.128418,4454.743652,4483.717773,4209.743652,4418.589844,,,,,,,,,,,,,,,,,,,,,,,,,,,,,,,,,,,,,,,,,,,,,,,,,,,,,,,,,,,,,,,,,,,,,,
1720515303,78,0,4300,4280.512695,4266.153809,4300.641113,4277.692383,4255.512695,4276.025879,4298.077148,4262.05127,4220.256348,4440.641113,4465.384766,4199.358887,4402.179688,,,,,,,,,,,,,,,,,,,,,,,,,,,,,,,,,,,,,,,,,,,,,,,,,,,,,,,,,,,,,,,,,,,,,,
1720515303,79,0,4300.128418,4274.871582,4266.666504,4297.692383,4276.538574,4256.282227,4275.512695,4299.615234,4261.153809,4215.769043,4437.820313,4459.102539,4192.436035,4400,,,,,,,,,,,,,,,,,,,,,,,,,,,,,,,,,,,,,,,,,,,,,,,,,,,,,,,,,,,,,,,,,,,,,,
1720515303,80,0,4303.333496,4275.384766,4264.743652,4300.641113,4275.256348,4256.666504,4274.102539,4299.487305,4260.128418,4220.641113,4436.922852,4467.820313,4190.897461,4404.230957,,,,,,,,,,,,,,,,,,,,,,,,,,,,,,,,,,,,,,,,,,,,,,,,,,,,,,,,,,,,,,,,,,,,,,
1720515303,81,0,4302.307617,4283.974121,4261.922852,4311.282227,4282.94873,4258.589844,4277.820313,4300.897461,4264.230957,4223.974121,4441.410156,4465.128418,4195.641113,4402.05127,,,,,,,,,,,,,,,,,,,,,,,,,,,,,,,,,,,,,,,,,,,,,,,,,,,,,,,,,,,,,,,,,,,,,,
1720515303,82,0,4307.692383,4287.179688,4269.487305,4312.820313,4285.769043,4262.05127,4283.974121,4307.820313,4271.153809,4228.974121,4450.128418,4474.230957,4194.102539,4402.436035,,,,,,,,,,,,,,,,,,,,,,,,,,,,,,,,,,,,,,,,,,,,,,,,,,,,,,,,,,,,,,,,,,,,,,
1720515303,83,0,4304.871582,4284.743652,4265.128418,4306.282227,4284.487305,4261.410156,4283.846191,4304.487305,4267.307617,4231.153809,4444.615234,4467.94873,4186.153809,4397.563965,,,,,,,,,,,,,,,,,,,,,,,,,,,,,,,,,,,,,,,,,,,,,,,,,,,,,,,,,,,,,,,,,,,,,,
1720515303,84,0,4297.436035,4286.153809,4258.974121,4307.692383,4282.563965,4256.922852,4278.717773,4297.307617,4259.615234,4225.769043,4433.077148,4449.487305,4183.846191,4394.615234,,,,,,,,,,,,,,,,,,,,,,,,,,,,,,,,,,,,,,,,,,,,,,,,,,,,,,,,,,,,,,,,,,,,,,
1720515303,85,0,4308.717773,4285.384766,4264.102539,4310.128418,4278.077148,4255,4272.820313,4297.692383,4261.538574,4225.384766,4437.692383,4464.743652,4186.025879,4406.666504,,,,,,,,,,,,,,,,,,,,,,,,,,,,,,,,,,,,,,,,,,,,,,,,,,,,,,,,,,,,,,,,,,,,,,
1720515303,86,0,4318.333496,4288.205078,4265.384766,4309.102539,4282.436035,4256.282227,4271.282227,4297.94873,4264.230957,4227.820313,4450,4477.692383,4187.307617,4418.461426,,,,,,,,,,,,,,,,,,,,,,,,,,,,,,,,,,,,,,,,,,,,,,,,,,,,,,,,,,,,,,,,,,,,,,
1720515303,87,0,4314.871582,4293.461426,4267.563965,4309.230957,4288.846191,4255.384766,4276.538574,4299.102539,4262.307617,4227.307617,4452.820313,4478.333496,4193.717773,4425.256348,,,,,,,,,,,,,,,,,,,,,,,,,,,,,,,,,,,,,,,,,,,,,,,,,,,,,,,,,,,,,,,,,,,,,,
1720515303,88,0,4308.717773,4291.282227,4265.256348,4311.025879,4282.563965,4254.102539,4277.563965,4299.743652,4262.692383,4227.05127,4449.102539,4474.230957,4194.743652,4420.897461,,,,,,,,,,,,,,,,,,,,,,,,,,,,,,,,,,,,,,,,,,,,,,,,,,,,,,,,,,,,,,,,,,,,,,
1720515303,89,0,4304.487305,4282.692383,4257.179688,4311.538574,4275.256348,4254.230957,4273.846191,4297.820313,4265.384766,4224.743652,4447.94873,4463.846191,4187.563965,4410,,,,,,,,,,,,,,,,,,,,,,,,,,,,,,,,,,,,,,,,,,,,,,,,,,,,,,,,,,,,,,,,,,,,,,
1720515303,90,0,4305.769043,4273.846191,4258.077148,4306.025879,4275.384766,4252.563965,4271.538574,4298.717773,4263.717773,4221.282227,4449.358887,4464.102539,4184.230957,4407.692383,,,,,,,,,,,,,,,,,,,,,,,,,,,,,,,,,,,,,,,,,,,,,,,,,,,,,,,,,,,,,,,,,,,,,,
1720515303,91,0,4311.410156,4273.974121,4261.410156,4303.077148,4278.461426,4256.153809,4275.128418,4305.512695,4262.94873,4227.563965,4453.846191,4473.974121,4185.512695,4412.563965,,,,,,,,,,,,,,,,,,,,,,,,,,,,,,,,,,,,,,,,,,,,,,,,,,,,,,,,,,,,,,,,,,,,,,
1720515303,92,0,4310.897461,4280.128418,4262.94873,4305.897461,4282.94873,4262.692383,4283.717773,4312.692383,4272.307617,4243.077148,4461.153809,4479.871582,4191.410156,4420.384766,0.489563,0.182219,0.216417,0.175988,0.178344,1.753676,0.84013,0.553726,0.11884,0.115404,0.155345,0.10501,0.06051,0.099298,0.1392,0.166475,0.108473,0.317887,0.088725,0.092752,0.078891,0.213735,0.161699,0.058448,0.06199,0.12963,0.209591,0.134736,0.043751,0.035473,0.201171,0.311068,0.151008,0.103802,0.080088,0.282036,0.634164,0.153256,0.111567,0.096445,0.244575,0.50254,0.094154,0.101466,0.123071,0.428963,0.894439,0.203588,0.138271,0.314222,0.733129,0.975534,0.416054,0.246444,0.274273,0.941908,0.815418,0.294968,0.253201,0.484563,1.340722,1.062595,0.312388,0.356479,0.303966,1.162114,0.694068,0.220092,0.184841,0.319168
1720515303,93,0,4305,4279.230957,4268.846191,4306.666504,4283.974121,4263.589844,4286.794922,4314.230957,4277.563965,4245.384766,4461.538574,4481.538574,4195.897461,4421.025879,,,,,,,,,,,,,,,,,,,,,,,,,,,,,,,,,,,,,,,,,,,,,,,,,,,,,,,,,,,,,,,,,,,,,,
1720515303,94,0,4304.102539,4277.820313,4265.897461,4302.563965,4285.897461,4261.538574,4279.743652,4306.666504,4266.153809,4228.589844,4448.974121,4471.410156,4183.461426,4409.487305,,,,,,,,,,,,,,,,,,,,,,,,,,,,,,,,,,,,,,,,,,,,,,,,,,,,,,,,,,,,,,,,,,,,,,
1720515303,95,0,4304.871582,4282.94873,4259.615234,4300.384766,4288.205078,4259.102539,4273.974121,4298.077148,4258.589844,4215.769043,4436.025879,4457.179688,4172.307617,4403.846191,,,,,,,,,,,,,,,,,,,,,,,,,,,,,,,,,,,,,,,,,,,,,,,,,,,,,,,,,,,,,,,,,,,,,,
1720515303,96,0,4306.666504,4285,4263.974121,4303.205078,4283.077148,4256.410156,4277.436035,4302.307617,4264.102539,4225.512695,4437.05127,4470.897461,4179.230957,4412.563965,,,,,,,,,,,,,,,,,,,,,,,,,,,,,,,,,,,,,,,,,,,,,,,,,,,,,,,,,,,,,,,,,,,,,,
1720515303,97,0,4307.05127,4287.436035,4258.589844,4306.282227,4283.846191,4257.436035,4279.743652,4303.974121,4265.128418,4231.538574,4444.230957,4472.179688,4181.025879,4412.179688,,,,,,,,,,,,,,,,,,,,,,,,,,,,,,,,,,,,,,,,,,,,,,,,,,,,,,,,,,,,,,,,,,,,,,
1720515303,98,0,4305.897461,4290.256348,4255.256348,4304.615234,4288.717773,4259.358887,4278.589844,4299.102539,4261.153809,4222.179688,4441.538574,4457.820313,4174.615234,4407.563965,,,,,,,,,,,,,,,,,,,,,,,,,,,,,,,,,,,,,,,,,,,,,,,,,,,,,,,,,,,,,,,,,,,,,,
1720515303,99,0,4306.538574,4285,4262.179688,4302.692383,4282.94873,4258.461426,4278.589844,4301.410156,4265.641113,4228.077148,4437.307617,4469.615234,4180.256348,4413.461426,,,,,,,,,,,,,,,,,,,,,,,,,,,,,,,,,,,,,,,,,,,,,,,,,,,,,,,,,,,,,,,,,,,,,,
1720515303,100,0,4306.538574,4285.128418,4259.230957,4306.666504,4280.256348,4262.05127,4277.436035,4305.128418,4269.743652,4239.871582,4443.333496,4470.512695,4189.871582,4417.179688,,,,,,,,,,,,,,,,,,,,,,,,,,,,,,,,,,,,,,,,,,,,,,,,,,,,,,,,,,,,,,,,,,,,,,
1720515303,101,0,4312.05127,4292.692383,4262.05127,4309.871582,4284.358887,4268.589844,4279.102539,4306.666504,4269.358887,4236.538574,4452.307617,4469.743652,4190.641113,4420.769043,,,,,,,,,,,,,,,,,,,,,,,,,,,,,,,,,,,,,,,,,,,,,,,,,,,,,,,,,,,,,,,,,,,,,,
1720515303,102,0,4312.94873,4289.615234,4269.102539,4306.922852,4283.589844,4267.692383,4282.179688,4306.410156,4269.358887,4235.256348,4453.974121,4485.641113,4187.179688,4423.589844,,,,,,,,,,,,,,,,,,,,,,,,,,,,,,,,,,,,,,,,,,,,,,,,,,,,,,,,,,,,,,,,,,,,,,
1720515303,103,0,4305.128418,4280.512695,4262.94873,4302.820313,4277.436035,4261.153809,4278.077148,4301.666504,4267.94873,4238.589844,4452.820313,4480.641113,4180.256348,4417.307617,,,,,,,,,,,,,,,,,,,,,,,,,,,,,,,,,,,,,,,,,,,,,,,,,,,,,,,,,,,,,,,,,,,,,,
1720515303,104,0,4300.641113,4277.692383,4257.307617,4298.846191,4271.794922,4256.410156,4271.794922,4298.205078,4264.871582,4235.384766,4448.846191,4461.153809,4175.897461,4407.307617,,,,,,,,,,,,,,,,,,,,,,,,,,,,,,,,,,,,,,,,,,,,,,,,,,,,,,,,,,,,,,,,,,,,,,
1720515303,105,0,4293.333496,4275.769043,4256.538574,4295.128418,4268.846191,4256.538574,4274.871582,4298.461426,4262.820313,4224.487305,4439.487305,4455.256348,4172.05127,4396.153809,,,,,,,,,,,,,,,,,,,,,,,,,,,,,,,,,,,,,,,,,,,,,,,,,,,,,,,,,,,,,,,,,,,,,,
1720515303,106,0,4287.436035,4274.615234,4251.410156,4294.487305,4272.436035,4258.846191,4281.282227,4296.282227,4262.307617,4215.897461,4433.077148,4452.94873,4165.769043,4389.615234,,,,,,,,,,,,,,,,,,,,,,,,,,,,,,,,,,,,,,,,,,,,,,,,,,,,,,,,,,,,,,,,,,,,,,
1720515303,107,0,4296.153809,4278.846191,4256.538574,4296.538574,4277.179688,4260.769043,4281.025879,4296.025879,4265.128418,4213.461426,4435.641113,4457.05127,4169.358887,4401.153809,,,,,,,,,,,,,,,,,,,,,,,,,,,,,,,,,,,,,,,,,,,,,,,,,,,,,,,,,,,,,,,,,,,,,,
1720515303,108,0,4304.102539,4282.94873,4260.384766,4297.692383,4274.230957,4257.94873,4277.05127,4297.436035,4262.436035,4215.256348,4439.230957,4468.974121,4171.666504,4414.487305,0.531559,0.15757,0.180529,0.183132,0.180957,1.535416,0.74196,0.532273,0.135956,0.120787,0.148515,0.102322,0.047399,0.101041,0.129651,0.153611,0.096948,0.33454,0.084667,0.086066,0.084695,0.210641,0.161748,0.064311,0.061154,0.115348,0.181824,0.124851,0.046192,0.03252,0.183085,0.285861,0.16023,0.104072,0.077773,0.223079,0.588046,0.148363,0.112996,0.084793,0.224802,0.506696,0.106035,0.107602,0.121807,0.440838,0.823832,0.219602,0.162562,0.297747,0.732888,0.895861,0.438522,0.219493,0.282659,0.876585,0.687895,0.272271,0.242909,0.465143,1.272331,1.024173,0.345763,0.370478,0.32177,1.169445,0.588277,0.181936,0.223929,0.341518
1720515303,109,0,4295.769043,4281.538574,4249.230957,4297.179688,4274.358887,4254.230957,4273.717773,4293.333496,4253.205078,4210.641113,4438.717773,4461.538574,4165.897461,4408.205078,,,,,,,,,,,,,,,,,,,,,,,,,,,,,,,,,,,,,,,,,,,,,,,,,,,,,,,,,,,,,,,,,,,,,,
1720515303,110,0,4297.436035,4283.205078,4256.538574,4299.230957,4278.077148,4256.410156,4276.410156,4295,4255.512695,4212.307617,4441.922852,4466.538574,4168.077148,4408.974121,,,,,,,,,,,,,,,,,,,,,,,,,,,,,,,,,,,,,,,,,,,,,,,,,,,,,,,,,,,,,,,,,,,,,,
1720515303,111,0,4307.563965,4287.94873,4266.410156,4307.05127,4278.205078,4260.128418,4282.820313,4299.743652,4266.282227,4225.512695,4451.410156,4481.282227,4170.512695,4418.589844,,,,,,,,,,,,,,,,,,,,,,,,,,,,,,,,,,,,,,,,,,,,,,,,,,,,,,,,,,,,,,,,,,,,,,
1720515303,112,0,4302.307617,4289.358887,4262.563965,4307.179688,4276.410156,4258.974121,4281.538574,4297.820313,4264.102539,4225.128418,4451.282227,4473.461426,4167.307617,4413.846191,,,,,,,,,,,,,,,,,,,,,,,,,,,,,,,,,,,,,,,,,,,,,,,,,,,,,,,,,,,,,,,,,,,,,,
1720515303,113,0,4297.820313,4287.436035,4264.487305,4297.692383,4275.256348,4257.436035,4275,4295.769043,4259.487305,4218.205078,4444.743652,4471.538574,4169.743652,4408.205078,,,,,,,,,,,,,,,,,,,,,,,,,,,,,,,,,,,,,,,,,,,,,,,,,,,,,,,,,,,,,,,,,,,,,,
1720515303,114,0,4298.974121,4288.974121,4263.333496,4298.077148,4280.384766,4257.94873,4275.512695,4294.102539,4263.461426,4222.820313,4446.794922,4471.282227,4170.384766,4408.974121,,,,,,,,,,,,,,,,,,,,,,,,,,,,,,,,,,,,,,,,,,,,,,,,,,,,,,,,,,,,,,,,,,,,,,
1720515303,115,0,4300.256348,4291.153809,4259.615234,4305.769043,4280.897461,4257.436035,4276.666504,4292.563965,4266.153809,4229.487305,4449.102539,4466.282227,4166.922852,4408.589844,,,,,,,,,,,,,,,,,,,,,,,,,,,,,,,,,,,,,,,,,,,,,,,,,,,,,,,,,,,,,,,,,,,,,,
1720515303,116,0,4301.282227,4287.692383,4261.538574,4304.487305,4276.538574,4258.333496,4269.743652,4291.025879,4258.589844,4225.641113,4438.846191,4466.282227,4167.692383,4404.615234,,,,,,,,,,,,,,,,,,,,,,,,,,,,,,,,,,,,,,,,,,,,,,,,,,,,,,,,,,,,,,,,,,,,,,
1720515303,117,0,4301.538574,4284.743652,4265.256348,4298.717773,4277.436035,4260.512695,4267.820313,4290.384766,4254.743652,4220.512695,4436.025879,4467.563965,4164.358887,4402.692383,,,,,,,,,,,,,,,,,,,,,,,,,,,,,,,,,,,,,,,,,,,,,,,,,,,,,,,,,,,,,,,,,,,,,,
1720515303,118,0,4307.05127,4285.769043,4265.897461,4302.179688,4278.846191,4262.94873,4274.487305,4292.563965,4263.077148,4226.410156,4445.128418,4474.102539,4164.487305,4411.153809,,,,,,,,,,,,,,,,,,,,,,,,,,,,,,,,,,,,,,,,,,,,,,,,,,,,,,,,,,,,,,,,,,,,,,
1720515303,119,0,4311.153809,4290.641113,4262.820313,4304.487305,4276.794922,4262.692383,4275.128418,4294.102539,4262.563965,4220.641113,4445.128418,4478.333496,4165.769043,4421.153809,,,,,,,,,,,,,,,,,,,,,,,,,,,,,,,,,,,,,,,,,,,,,,,,,,,,,,,,,,,,,,,,,,,,,,
1720515303,120,0,4310,4293.974121,4260.769043,4299.871582,4276.153809,4260.256348,4270.897461,4292.05127,4254.871582,4212.05127,4445,4477.563965,4158.333496,4421.922852,,,,,,,,,,,,,,,,,,,,,,,,,,,,,,,,,,,,,,,,,,,,,,,,,,,,,,,,,,,,,,,,,,,,,,
1720515303,121,0,4307.307617,4294.743652,4263.589844,4300.769043,4280,4260.641113,4274.871582,4292.307617,4260.384766,4224.487305,4452.307617,4478.717773,4161.538574,4420.641113,,,,,,,,,,,,,,,,,,,,,,,,,,,,,,,,,,,,,,,,,,,,,,,,,,,,,,,,,,,,,,,,,,,,,,
1720515303,122,0,4305.769043,4295.384766,4264.615234,4305.512695,4280.641113,4261.025879,4279.358887,4292.179688,4265.128418,4228.974121,4446.538574,4473.077148,4168.205078,4418.205078,,,,,,,,,,,,,,,,,,,,,,,,,,,,,,,,,,,,,,,,,,,,,,,,,,,,,,,,,,,,,,,,,,,,,,
1720515303,123,0,4306.922852,4295.641113,4265.256348,4306.922852,4281.922852,4261.153809,4276.538574,4288.333496,4258.461426,4211.922852,4436.153809,4469.487305,4163.461426,4415.384766,,,,,,,,,,,,,,,,,,,,,,,,,,,,,,,,,,,,,,,,,,,,,,,,,,,,,,,,,,,,,,,,,,,,,,
1720515303,124,0,4309.230957,4291.666504,4267.307617,4303.205078,4281.282227,4260.384766,4271.538574,4289.615234,4259.871582,4208.205078,4437.05127,4479.358887,4160.128418,4414.102539,0.534648,0.140895,0.167759,0.196254,0.185091,1.237372,0.649639,0.517332,0.166747,0.125345,0.139785,0.091467,0.043257,0.101083,0.117381,0.149544,0.091826,0.329117,0.088347,0.077806,0.093434,0.194282,0.153817,0.076372,0.06118,0.103549,0.159209,0.117163,0.050429,0.029473,0.155227,0.24805,0.169748,0.10578,0.073085,0.154072,0.510185,0.144254,0.116367,0.075276,0.207232,0.472724,0.114074,0.114267,0.117034,0.426656,0.701658,0.227986,0.185733,0.280857,0.677386,0.757378,0.441829,0.21123,0.283924,0.769985,0.523565,0.26219,0.259312,0.44539,1.077569,0.970125,0.36734,0.393302,0.334319,1.130763,0.495068,0.170507,0.295723,0.36038
1720515303,125,0,4301.153809,4285.897461,4251.794922,4297.820313,4275.769043,4256.153809,4262.563965,4287.94873,4262.436035,4215.641113,4440,4463.205078,4158.846191,4405.512695,,,,,,,,,,,,,,,,,,,,,,,,,,,,,,,,,,,,,,,,,,,,,,,,,,,,,,,,,,,,,,,,,,,,,,
1720515303,126,0,4296.153809,4288.077148,4249.871582,4300.256348,4275.512695,4256.410156,4259.230957,4285.256348,4258.333496,4215.897461,4448.461426,4450.897461,4158.974121,4407.307617,,,,,,,,,,,,,,,,,,,,,,,,,,,,,,,,,,,,,,,,,,,,,,,,,,,,,,,,,,,,,,,,,,,,,,
1720515303,127,0,4306.922852,4293.333496,4268.333496,4307.436035,4278.205078,4261.538574,4268.077148,4292.436035,4264.358887,4225.384766,4461.538574,4483.717773,4170.769043,4424.102539,,,,,,,,,,,,,,,,,,,,,,,,,,,,,,,,,,,,,,,,,,,,,,,,,,,,,,,,,,,,,,,,,,,,,,
1720515303,0,0,4302.692383,4293.333496,4261.794922,4308.205078,4278.461426,4260.128418,4271.025879,4290.769043,4263.846191,4224.230957,4448.589844,4480.641113,4168.846191,4417.563965,,,,,,,,,,,,,,,,,,,,,,,,,,,,,,,,,,,,,,,,,,,,,,,,,,,,,,,,,,,,,,,,,,,,,,
1720515303,1,0,4294.102539,4290.769043,4253.717773,4306.666504,4275.897461,4256.794922,4265.256348,4279.230957,4249.615234,4209.871582,4425.641113,4454.615234,4147.179688,4404.358887,,,,,,,,,,,,,,,,,,,,,,,,,,,,,,,,,,,,,,,,,,,,,,,,,,,,,,,,,,,,,,,,,,,,,,
1720515303,2,0,4305.641113,4293.589844,4261.922852,4312.05127,4277.563965,4261.794922,4268.461426,4278.333496,4247.179688,4215.256348,4433.589844,4467.179688,4151.282227,4415,,,,,,,,,,,,,,,,,,,,,,,,,,,,,,,,,,,,,,,,,,,,,,,,,,,,,,,,,,,,,,,,,,,,,,
1720515303,3,0,4312.05127,4301.794922,4261.538574,4314.487305,4283.461426,4264.358887,4274.358887,4284.871582,4257.692383,4226.153809,4450.769043,4475.897461,4168.974121,4426.282227,,,,,,,,,,,,,,,,,,,,,,,,,,,,,,,,,,,,,,,,,,,,,,,,,,,,,,,,,,,,,,,,,,,,,,
1720515303,4,0,4305.769043,4302.820313,4256.922852,4311.282227,4283.461426,4259.871582,4272.05127,4286.794922,4260.897461,4229.230957,4452.05127,4473.333496,4170.641113,4429.871582,,,,,,,,,,,,,,,,,,,,,,,,,,,,,,,,,,,,,,,,,,,,,,,,,,,,,,,,,,,,,,,,,,,,,,
1720515303,5,0,4302.307617,4298.589844,4259.102539,4308.589844,4282.179688,4259.615234,4273.333496,4289.358887,4261.794922,4236.025879,4453.717773,4487.563965,4172.307617,4436.410156,,,,,,,,,,,,,,,,,,,,,,,,,,,,,,,,,,,,,,,,,,,,,,,,,,,,,,,,,,,,,,,,,,,,,,
1720515303,6,0,4300.769043,4299.102539,4257.307617,4307.820313,4283.846191,4263.205078,4276.025879,4294.615234,4261.410156,4234.743652,4451.794922,4487.436035,4166.666504,4428.589844,,,,,,,,,,,,,,,,,,,,,,,,,,,,,,,,,,,,,,,,,,,,,,,,,,,,,,,,,,,,,,,,,,,,,,
1720515303,7,0,4301.666504,4301.282227,4258.333496,4312.05127,4285.128418,4264.615234,4271.922852,4289.615234,4256.666504,4223.205078,4437.820313,4472.307617,4151.153809,4411.025879,,,,,,,,,,,,,,,,,,,,,,,,,,,,,,,,,,,,,,,,,,,,,,,,,,,,,,,,,,,,,,,,,,,,,,
1720515303,8,0,4301.538574,4294.102539,4263.333496,4308.205078,4281.922852,4266.025879,4268.077148,4280.256348,4254.871582,4222.820313,4427.307617,4467.692383,4148.846191,4402.563965,,,,,,,,,,,,,,,,,,,,,,,,,,,,,,,,,,,,,,,,,,,,,,,,,,,,,,,,,,,,,,,,,,,,,,
1720515303,9,0,4289.358887,4286.666504,4254.615234,4297.307617,4279.358887,4268.717773,4267.307617,4283.461426,4254.358887,4219.487305,4426.794922,4450.512695,4148.205078,4392.94873,,,,,,,,,,,,,,,,,,,,,,,,,,,,,,,,,,,,,,,,,,,,,,,,,,,,,,,,,,,,,,,,,,,,,,
1720515303,10,0,4285.128418,4289.230957,4253.461426,4298.974121,4278.589844,4267.179688,4267.94873,4291.666504,4257.563965,4213.589844,4428.461426,4448.846191,4141.666504,4387.94873,,,,,,,,,,,,,,,,,,,,,,,,,,,,,,,,,,,,,,,,,,,,,,,,,,,,,,,,,,,,,,,,,,,,,,
1720515303,11,0,4294.102539,4293.461426,4258.974121,4306.538574,4275,4258.589844,4265,4282.692383,4255.769043,4216.025879,4424.358887,4462.436035,4143.846191,4392.94873,,,,,,,,,,,,,,,,,,,,,,,,,,,,,,,,,,,,,,,,,,,,,,,,,,,,,,,,,,,,,,,,,,,,,,
1720515303,12,0,4297.179688,4296.922852,4255.384766,4307.436035,4277.94873,4253.461426,4261.153809,4273.205078,4249.743652,4209.487305,4428.717773,4456.794922,4151.538574,4401.410156,0.498006,0.135452,0.168305,0.215064,0.190568,0.943421,0.579897,0.511044,0.207822,0.130562,0.1284,0.078822,0.050531,0.101578,0.105509,0.1525,0.09858,0.30546,0.096475,0.069321,0.102684,0.178343,0.140191,0.092535,0.061633,0.093689,0.142546,0.113473,0.055849,0.026806,0.122378,0.202942,0.182139,0.109755,0.068423,0.098049,0.412558,0.143603,0.119925,0.070935,0.18112,0.403778,0.115555,0.11858,0.111152,0.376085,0.562533,0.229469,0.204278,0.268027,0.587011,0.599832,0.42271,0.229609,0.280298,0.644599,0.364548,0.259517,0.308581,0.429823,0.839726,0.903666,0.362304,0.420821,0.342495,1.056135,0.438684,0.182415,0.392503,0.372957
1720515303,13,0,4305.384766,4303.846191,4257.820313,4308.717773,4285.769043,4255.256348,4263.974121,4284.230957,4254.230957,4209.230957,4447.820313,4466.538574,4163.717773,4417.05127,,,,,,,,,,,,,,,,,,,,,,,,,,,,,,,,,,,,,,,,,,,,,,,,,,,,,,,,,,,,,,,,,,,,,,
1720515303,14,0,4307.436035,4309.358887,4261.153809,4312.94873,4286.794922,4258.717773,4268.205078,4285.128418,4256.282227,4217.692383,4453.717773,4475.897461,4173.333496,4421.922852,,,,,,,,,,,,,,,,,,,,,,,,,,,,,,,,,,,,,,,,,,,,,,,,,,,,,,,,,,,,,,,,,,,,,,
1720515303,15,0,4292.436035,4305.641113,4253.333496,4307.563965,4277.820313,4257.307617,4264.358887,4273.974121,4250.512695,4213.205078,4446.538574,4458.589844,4161.538574,4408.205078,,,,,,,,,,,,,,,,,,,,,,,,,,,,,,,,,,,,,,,,,,,,,,,,,,,,,,,,,,,,,,,,,,,,,,
1720515303,16,0,4284.487305,4300.512695,4244.487305,4297.563965,4274.615234,4257.05127,4265,4280.128418,4254.230957,4207.307617,4447.179688,4452.307617,4152.692383,4400.128418,,,,,,,,,,,,,,,,,,,,,,,,,,,,,,,,,,,,,,,,,,,,,,,,,,,,,,,,,,,,,,,,,,,,,,
1720515303,17,0,4289.743652,4298.461426,4249.487305,4296.282227,4281.025879,4262.563965,4275.128418,4292.05127,4265.256348,4214.615234,4449.871582,4469.487305,4163.589844,4406.922852,,,,,,,,,,,,,,,,,,,,,,,,,,,,,,,,,,,,,,,,,,,,,,,,,,,,,,,,,,,,,,,,,,,,,,
1720515303,18,0,4294.871582,4295.512695,4258.205078,4300.641113,4280.384766,4268.974121,4278.846191,4293.205078,4266.410156,4219.358887,4448.333496,4478.077148,4162.307617,4409.230957,,,,,,,,,,,,,,,,,,,,,,,,,,,,,,,,,,,,,,,,,,,,,,,,,,,,,,,,,,,,,,,,,,,,,,
1720515303,19,0,4291.922852,4294.871582,4257.563965,4304.102539,4277.692383,4271.538574,4275.256348,4286.794922,4259.102539,4210.897461,4442.692383,4465,4149.487305,4401.025879,,,,,,,,,,,,,,,,,,,,,,,,,,,,,,,,,,,,,,,,,,,,,,,,,,,,,,,,,,,,,,,,,,,,,,
1720515303,20,0,4291.794922,4298.205078,4257.820313,4307.820313,4281.025879,4269.743652,4272.820313,4280.641113,4249.487305,4202.179688,4433.846191,4457.820313,4150.128418,4399.871582,,,,,,,,,,,,,,,,,,,,,,,,,,,,,,,,,,,,,,,,,,,,,,,,,,,,,,,,,,,,,,,,,,,,,,
1720515303,21,0,4303.846191,4303.205078,4264.230957,4309.615234,4282.692383,4266.410156,4272.692383,4280.256348,4248.205078,4206.282227,4438.333496,4475.128418,4159.230957,4412.820313,,,,,,,,,,,,,,,,,,,,,,,,,,,,,,,,,,,,,,,,,,,,,,,,,,,,,,,,,,,,,,,,,,,,,,
1720515303,22,0,4301.794922,4297.94873,4258.974121,4297.94873,4278.205078,4261.922852,4267.307617,4281.538574,4250.384766,4207.820313,4442.692383,4477.820313,4152.307617,4411.410156,,,,,,,,,,,,,,,,,,,,,,,,,,,,,,,,,,,,,,,,,,,,,,,,,,,,,,,,,,,,,,,,,,,,,,
1720515303,23,0,4286.538574,4287.94873,4247.563965,4287.94873,4273.333496,4256.153809,4258.589844,4278.461426,4247.307617,4196.538574,4430.641113,4448.461426,4137.179688,4393.717773,,,,,,,,,,,,,,,,,,,,,,,,,,,,,,,,,,,,,,,,,,,,,,,,,,,,,,,,,,,,,,,,,,,,,,
1720515303,24,0,4299.487305,4292.05127,4255.512695,4302.820313,4276.153809,4258.205078,4263.077148,4281.922852,4257.94873,4208.205078,4438.846191,4457.820313,4153.461426,4405.256348,,,,,,,,,,,,,,,,,,,,,,,,,,,,,,,,,,,,,,,,,,,,,,,,,,,,,,,,,,,,,,,,,,,,,,
1720515303,25,0,4312.307617,4302.94873,4258.589844,4310.897461,4280.256348,4262.307617,4269.871582,4283.846191,4265.128418,4227.05127,4457.05127,4482.692383,4176.153809,4422.307617,,,,,,,,,,,,,,,,,,,,,,,,,,,,,,,,,,,,,,,,,,,,,,,,,,,,,,,,,,,,,,,,,,,,,,
1720515303,26,0,4296.282227,4300.384766,4253.077148,4298.846191,4277.436035,4259.743652,4268.333496,4277.436035,4255.641113,4213.846191,4453.205078,4466.282227,4167.820313,4411.666504,,,,,,,,,,,,,,,,,,,,,,,,,,,,,,,,,,,,,,,,,,,,,,,,,,,,,,,,,,,,,,,,,,,,,,
1720515303,27,0,4298.846191,4292.436035,4263.589844,4296.666504,4274.358887,4259.230957,4271.282227,4283.333496,4260,4213.205078,4455.384766,4473.461426,4164.487305,4414.487305,,,,,,,,,,,,,,,,,,,,,,,,,,,,,,,,,,,,,,,,,,,,,,,,,,,,,,,,,,,,,,,,,,,,,,
1720515303,28,0,4312.563965,4295.384766,4264.615234,4305.769043,4279.102539,4262.94873,4275.897461,4289.871582,4270.641113,4224.615234,4463.461426,4492.436035,4176.025879,4426.153809,0.442254,0.149662,0.177869,0.235713,0.197079,0.720174,0.559539,0.50648,0.251223,0.136895,0.118007,0.06932,0.070771,0.104534,0.097785,0.158793,0.122243,0.275254,0.104863,0.063078,0.114905,0.175834,0.124892,0.109227,0.062533,0.092151,0.130988,0.116639,0.062096,0.02535,0.092859,0.159681,0.199296,0.116447,0.066875,0.063368,0.311691,0.153191,0.123269,0.072944,0.143958,0.318812,0.11472,0.120229,0.107855,0.314212,0.45872,0.241771,0.218028,0.262838,0.493037,0.477415,0.402137,0.276704,0.275982,0.533933,0.265749,0.286772,0.390555,0.422585,0.587067,0.845345,0.333066,0.447339,0.347955,0.962063,0.461883,0.234875,0.502273,0.378892
1720515303,29,0,4305.512695,4295.384766,4256.410156,4304.871582,4280.256348,4261.410156,4272.563965,4286.025879,4265.384766,4216.153809,4448.846191,4475.384766,4169.743652,4416.922852,,,,,,,,,,,,,,,,,,,,,,,,,,,,,,,,,,,,,,,,,,,,,,,,,,,,,,,,,,,,,,,,,,,,,,
1720515303,30,0,4297.05127,4291.153809,4256.025879,4300,4273.589844,4260.384766,4270,4286.025879,4261.666504,4215.256348,4437.307617,4462.436035,4158.205078,4410.512695,,,,,,,,,,,,,,,,,,,,,,,,,,,,,,,,,,,,,,,,,,,,,,,,,,,,,,,,,,,,,,,,,,,,,,
1720515303,31,0,4299.230957,4294.102539,4257.94873,4304.230957,4273.205078,4263.461426,4272.563965,4286.794922,4263.846191,4220.384766,4444.743652,4469.743652,4164.358887,4417.820313,,,,,,,,,,,,,,,,,,,,,,,,,,,,,,,,,,,,,,,,,,,,,,,,,,,,,,,,,,,,,,,,,,,,,,
1720515303,32,0,4308.205078,4302.94873,4263.461426,4309.871582,4280.897461,4265.128418,4276.153809,4285.897461,4259.102539,4212.94873,4445.897461,4475.512695,4166.922852,4419.871582,,,,,,,,,,,,,,,,,,,,,,,,,,,,,,,,,,,,,,,,,,,,,,,,,,,,,,,,,,,,,,,,,,,,,,
1720515303,33,0,4312.436035,4308.974121,4265.128418,4312.179688,4289.102539,4267.563965,4277.692383,4287.05127,4253.974121,4211.538574,4440,4469.358887,4159.871582,4414.871582,,,,,,,,,,,,,,,,,,,,,,,,,,,,,,,,,,,,,,,,,,,,,,,,,,,,,,,,,,,,,,,,,,,,,,
1720515304,34,0,4302.179688,4304.230957,4254.871582,4306.922852,4287.05127,4265.897461,4269.102539,4280.256348,4250.384766,4212.179688,4434.102539,4451.922852,4155.641113,4407.307617,,,,,,,,,,,,,,,,,,,,,,,,,,,,,,,,,,,,,,,,,,,,,,,,,,,,,,,,,,,,,,,,,,,,,,
1720515304,35,0,4295.128418,4297.563965,4251.410156,4297.94873,4276.282227,4256.538574,4259.743652,4273.589844,4250.512695,4205.897461,4434.871582,4449.358887,4162.820313,4406.153809,,,,,,,,,,,,,,,,,,,,,,,,,,,,,,,,,,,,,,,,,,,,,,,,,,,,,,,,,,,,,,,,,,,,,,
1720515304,36,0,4301.410156,4294.487305,4260.384766,4296.025879,4274.871582,4255.769043,4264.102539,4282.05127,4259.615234,4217.05127,4450.769043,4477.179688,4176.538574,4418.461426,,,,,,,,,,,,,,,,,,,,,,,,,,,,,,,,,,,,,,,,,,,,,,,,,,,,,,,,,,,,,,,,,,,,,,
1720515304,37,0,4301.025879,4293.077148,4256.410156,4298.974121,4280.384766,4262.820313,4268.717773,4286.025879,4262.692383,4226.410156,4459.487305,4480.128418,4175.128418,4421.410156,,,,,,,,,,,,,,,,,,,,,,,,,,,,,,,,,,,,,,,,,,,,,,,,,,,,,,,,,,,,,,,,,,,,,,
1720515304,38,0,4300.128418,4295.641113,4256.410156,4303.333496,4278.205078,4263.077148,4266.794922,4283.333496,4262.307617,4220.897461,4455.384766,4470.384766,4173.205078,4421.410156,,,,,,,,,,,,,,,,,,,,,,,,,,,,,,,,,,,,,,,,,,,,,,,,,,,,,,,,,,,,,,,,,,,,,,
1720515304,39,0,4305.512695,4297.436035,4262.820313,4302.179688,4272.563965,4261.025879,4263.974121,4282.692383,4261.538574,4222.179688,4455.384766,4478.333496,4178.077148,4424.871582,,,,,,,,,,,,,,,,,,,,,,,,,,,,,,,,,,,,,,,,,,,,,,,,,,,,,,,,,,,,,,,,,,,,,,
1720515304,40,0,4300.641113,4296.538574,4256.153809,4298.205078,4278.333496,4266.282227,4266.410156,4278.589844,4256.025879,4216.025879,4452.179688,4462.563965,4169.487305,4413.846191,,,,,,,,,,,,,,,,,,,,,,,,,,,,,,,,,,,,,,,,,,,,,,,,,,,,,,,,,,,,,,,,,,,,,,
1720515304,41,0,4298.846191,4298.077148,4258.077148,4298.333496,4284.230957,4271.794922,4274.487305,4280.512695,4255.256348,4206.922852,4440.384766,4453.333496,4160.128418,4407.692383,,,,,,,,,,,,,,,,,,,,,,,,,,,,,,,,,,,,,,,,,,,,,,,,,,,,,,,,,,,,,,,,,,,,,,
1720515304,42,0,4301.666504,4296.922852,4261.922852,4297.563965,4278.846191,4273.077148,4276.410156,4282.820313,4256.666504,4206.282227,4432.692383,4463.205078,4159.743652,4408.333496,,,,,,,,,,,,,,,,,,,,,,,,,,,,,,,,,,,,,,,,,,,,,,,,,,,,,,,,,,,,,,,,,,,,,,
1720515304,43,0,4300.128418,4294.230957,4257.94873,4295.897461,4277.94873,4275.384766,4274.230957,4281.666504,4255.256348,4207.94873,4437.94873,4461.666504,4157.820313,4404.487305,,,,,,,,,,,,,,,,,,,,,,,,,,,,,,,,,,,,,,,,,,,,,,,,,,,,,,,,,,,,,,,,,,,,,,
1720515304,44,0,4301.282227,4300,4254.615234,4298.333496,4285.512695,4275.897461,4276.666504,4284.102539,4259.487305,4212.563965,4446.794922,4461.410156,4161.538574,4405.256348,0.398295,0.1819,0.201643,0.254264,0.203844,0.57105,0.591457,0.491098,0.285735,0.142674,0.110686,0.063972,0.101734,0.111148,0.097283,0.161462,0.15994,0.251609,0.111885,0.061962,0.131419,0.1895,0.110074,0.122244,0.064168,0.099931,0.126165,0.128071,0.068918,0.025973,0.072766,0.131242,0.219732,0.125005,0.070456,0.05501,0.22783,0.177204,0.126479,0.080529,0.105167,0.245157,0.118558,0.12119,0.110257,0.271778,0.431848,0.287088,0.230586,0.266859,0.42439,0.433863,0.419863,0.351544,0.274404,0.460509,0.260089,0.368921,0.497605,0.426474,0.431104,0.817037,0.30491,0.468856,0.351855,0.863846,0.592786,0.356197,0.612707,0.378235
1720515304,45,0,4301.153809,4302.307617,4248.717773,4298.589844,4287.563965,4272.179688,4276.410156,4284.102539,4265.128418,4214.230957,4446.410156,4467.05127,4168.461426,4409.487305,,,,,,,,,,,,,,,,,,,,,,,,,,,,,,,,,,,,,,,,,,,,,,,,,,,,,,,,,,,,,,,,,,,,,,
1720515304,46,0,4302.563965,4291.538574,4247.692383,4293.717773,4279.487305,4266.538574,4270,4282.436035,4262.179688,4211.666504,4444.615234,4471.794922,4167.436035,4411.922852,,,,,,,,,,,,,,,,,,,,,,,,,,,,,,,,,,,,,,,,,,,,,,,,,,,,,,,,,,,,,,,,,,,,,,
1720515304,47,0,4306.794922,4286.153809,4254.102539,4291.922852,4273.717773,4265.256348,4265.641113,4283.333496,4259.487305,4215.256348,4451.538574,4474.102539,4171.282227,4410.897461,,,,,,,,,,,,,,,,,,,,,,,,,,,,,,,,,,,,,,,,,,,,,,,,,,,,,,,,,,,,,,,,,,,,,,
1720515304,48,0,4303.205078,4289.871582,4256.153809,4293.589844,4274.358887,4263.846191,4265.897461,4281.282227,4263.974121,4224.871582,4457.307617,4472.563965,4182.436035,4409.743652,,,,,,,,,,,,,,,,,,,,,,,,,,,,,,,,,,,,,,,,,,,,,,,,,,,,,,,,,,,,,,,,,,,,,,
1720515304,49,0,4300.128418,4289.615234,4255.897461,4294.743652,4276.153809,4260.769043,4267.692383,4279.102539,4266.666504,4228.077148,4452.179688,4471.025879,4182.05127,4410.384766,,,,,,,,,,,,,,,,,,,,,,,,,,,,,,,,,,,,,,,,,,,,,,,,,,,,,,,,,,,,,,,,,,,,,,
1720515304,50,0,4305,4290.128418,4254.358887,4295.512695,4277.307617,4261.410156,4268.333496,4281.538574,4262.820313,4220.256348,4443.974121,4470.256348,4174.487305,4409.358887,,,,,,,,,,,,,,,,,,,,,,,,,,,,,,,,,,,,,,,,,,,,,,,,,,,,,,,,,,,,,,,,,,,,,,
1720515304,51,0,4303.717773,4296.666504,4250.128418,4297.436035,4277.05127,4264.743652,4266.922852,4277.436035,4256.794922,4206.538574,4435,4458.589844,4169.230957,4403.974121,,,,,,,,,,,,,,,,,,,,,,,,,,,,,,,,,,,,,,,,,,,,,,,,,,,,,,,,,,,,,,,,,,,,,,
1720515304,52,0,4305.641113,4300.641113,4260.897461,4300.897461,4279.230957,4268.461426,4273.589844,4277.307617,4259.615234,4206.666504,4435.769043,4466.025879,4167.563965,4407.179688,,,,,,,,,,,,,,,,,,,,,,,,,,,,,,,,,,,,,,,,,,,,,,,,,,,,,,,,,,,,,,,,,,,,,,
1720515304,53,0,4306.794922,4296.538574,4262.179688,4300.128418,4285.512695,4272.820313,4280,4284.102539,4263.589844,4217.05127,4438.589844,4475,4165,4409.743652,,,,,,,,,,,,,,,,,,,,,,,,,,,,,,,,,,,,,,,,,,,,,,,,,,,,,,,,,,,,,,,,,,,,,,
1720515304,54,0,4289.615234,4288.846191,4240.384766,4293.589844,4284.102539,4273.205078,4274.102539,4279.871582,4257.94873,4207.05127,4425.641113,4444.102539,4156.666504,4392.94873,,,,,,,,,,,,,,,,,,,,,,,,,,,,,,,,,,,,,,,,,,,,,,,,,,,,,,,,,,,,,,,,,,,,,,
1720515304,55,0,4288.077148,4284.102539,4245.769043,4292.563965,4276.922852,4269.230957,4274.871582,4282.179688,4257.820313,4201.282227,4424.615234,4446.410156,4160.256348,4391.025879,,,,,,,,,,,,,,,,,,,,,,,,,,,,,,,,,,,,,,,,,,,,,,,,,,,,,,,,,,,,,,,,,,,,,,
1720515304,56,0,4304.871582,4288.205078,4263.717773,4295.769043,4280.512695,4271.538574,4282.94873,4289.487305,4263.717773,4212.307617,4441.794922,4477.94873,4174.358887,4407.436035,,,,,,,,,,,,,,,,,,,,,,,,,,,,,,,,,,,,,,,,,,,,,,,,,,,,,,,,,,,,,,,,,,,,,,
1720515304,57,0,4304.615234,4292.820313,4260.256348,4294.102539,4284.743652,4275.512695,4282.692383,4288.461426,4263.846191,4214.358887,4447.179688,4476.794922,4178.846191,4413.589844,,,,,,,,,,,,,,,,,,,,,,,,,,,,,,,,,,,,,,,,,,,,,,,,,,,,,,,,,,,,,,,,,,,,,,
1720515304,58,0,4299.487305,4290.512695,4257.563965,4291.922852,4280.128418,4270.384766,4279.358887,4286.666504,4262.307617,4215.384766,4444.230957,4473.589844,4182.436035,4413.461426,,,,,,,,,,,,,,,,,,,,,,,,,,,,,,,,,,,,,,,,,,,,,,,,,,,,,,,,,,,,,,,,,,,,,,
1720515304,59,0,4303.717773,4290.512695,4258.461426,4293.717773,4279.358887,4266.538574,4277.05127,4286.922852,4262.179688,4220.897461,4450.512695,4477.563965,4186.538574,4417.563965,,,,,,,,,,,,,,,,,,,,,,,,,,,,,,,,,,,,,,,,,,,,,,,,,,,,,,,,,,,,,,,,,,,,,,
1720515304,60,0,4304.358887,4291.794922,4255.641113,4292.307617,4275.769043,4267.820313,4271.794922,4286.666504,4263.717773,4224.230957,4454.615234,4471.538574,4187.307617,4422.94873,0.38861,0.224368,0.243218,0.266991,0.210545,0.479886,0.652155,0.458302,0.301163,0.145241,0.111645,0.061726,0.138016,0.121301,0.104745,0.159008,0.203092,0.242606,0.119426,0.068194,0.151866,0.211385,0.096494,0.128481,0.066936,0.115696,0.134581,0.14516,0.075493,0.029013,0.062082,0.135143,0.236885,0.13341,0.07909,0.06192,0.178563,0.210834,0.129515,0.092186,0.076623,0.206248,0.13638,0.125169,0.119097,0.287758,0.498218,0.376607,0.244994,0.278556,0.393017,0.507153,0.512274,0.446992,0.277361,0.432564,0.356925,0.510606,0.616082,0.44536,0.332443,0.843528,0.313492,0.484182,0.35639,0.784832,0.840864,0.560081,0.711012,0.372503
1720515304,61,0,4296.666504,4286.410156,4254.615234,4287.692383,4270,4268.333496,4268.333496,4285,4263.846191,4221.153809,4445.384766,4467.436035,4181.282227,4416.666504,,,,,,,,,,,,,,,,,,,,,,,,,,,,,,,,,,,,,,,,,,,,,,,,,,,,,,,,,,,,,,,,,,,,,,
1720515304,62,0,4295.128418,4285.128418,4255.769043,4289.615234,4278.589844,4268.589844,4270,4282.94873,4260.256348,4214.487305,4434.615234,4465.512695,4175.128418,4403.589844,,,,,,,,,,,,,,,,,,,,,,,,,,,,,,,,,,,,,,,,,,,,,,,,,,,,,,,,,,,,,,,,,,,,,,
1720515304,63,0,4301.025879,4292.820313,4256.538574,4295.897461,4286.153809,4271.666504,4270.769043,4278.846191,4259.102539,4211.666504,4432.94873,4458.589844,4176.025879,4403.461426,,,,,,,,,,,,,,,,,,,,,,,,,,,,,,,,,,,,,,,,,,,,,,,,,,,,,,,,,,,,,,,,,,,,,,
1720515304,64,0,4298.846191,4295,4257.820313,4296.538574,4279.487305,4271.410156,4268.846191,4277.179688,4260,4207.436035,4435.512695,4456.794922,4177.563965,4410.512695,,,,,,,,,,,,,,,,,,,,,,,,,,,,,,,,,,,,,,,,,,,,,,,,,,,,,,,,,,,,,,,,,,,,,,
1720515304,65,0,4289.743652,4289.102539,4252.307617,4292.692383,4276.410156,4269.102539,4268.205078,4276.282227,4252.563965,4197.05127,4436.666504,4451.922852,4175.641113,4404.615234,,,,,,,,,,,,,,,,,,,,,,,,,,,,,,,,,,,,,,,,,,,,,,,,,,,,,,,,,,,,,,,,,,,,,,
1720515304,66,0,4291.153809,4286.410156,4250,4292.563965,4278.461426,4270,4271.666504,4277.692383,4251.153809,4195.512695,4437.692383,4454.102539,4176.922852,4400.512695,,,,,,,,,,,,,,,,,,,,,,,,,,,,,,,,,,,,,,,,,,,,,,,,,,,,,,,,,,,,,,,,,,,,,,
1720515304,67,0,4303.461426,4293.589844,4259.871582,4296.922852,4280.769043,4270.897461,4278.717773,4285.512695,4260.256348,4212.05127,4440,4480,4187.563965,4414.358887,,,,,,,,,,,,,,,,,,,,,,,,,,,,,,,,,,,,,,,,,,,,,,,,,,,,,,,,,,,,,,,,,,,,,,
1720515304,68,0,4303.974121,4299.487305,4258.589844,4298.461426,4283.974121,4269.230957,4280.128418,4286.025879,4256.922852,4215.256348,4442.692383,4480.128418,4191.922852,4417.05127,,,,,,,,,,,,,,,,,,,,,,,,,,,,,,,,,,,,,,,,,,,,,,,,,,,,,,,,,,,,,,,,,,,,,,
1720515304,69,0,4299.871582,4293.717773,4256.538574,4294.743652,4280,4265.897461,4276.282227,4283.077148,4252.436035,4208.974121,4450.256348,4464.487305,4192.307617,4413.717773,,,,,,,,,,,,,,,,,,,,,,,,,,,,,,,,,,,,,,,,,,,,,,,,,,,,,,,,,,,,,,,,,,,,,,
1720515304,70,0,4303.205078,4290.641113,4259.102539,4293.461426,4273.461426,4266.025879,4274.102539,4280.769043,4256.538574,4213.077148,4449.743652,4465.769043,4192.05127,4416.410156,,,,,,,,,,,,,,,,,,,,,,,,,,,,,,,,,,,,,,,,,,,,,,,,,,,,,,,,,,,,,,,,,,,,,,
1720515304,71,0,4301.153809,4293.205078,4254.230957,4295.897461,4279.871582,4267.307617,4272.692383,4279.230957,4258.077148,4210.256348,4439.487305,4467.05127,4186.538574,4411.922852,,,,,,,,,,,,,,,,,,,,,,,,,,,,,,,,,,,,,,,,,,,,,,,,,,,,,,,,,,,,,,,,,,,,,,
1720515304,72,0,4301.410156,4293.974121,4253.846191,4296.922852,4287.94873,4269.487305,4273.846191,4282.563965,4262.307617,4211.794922,4442.563965,4472.94873,4193.205078,4411.922852,,,,,,,,,,,,,,,,,,,,,,,,,,,,,,,,,,,,,,,,,,,,,,,,,,,,,,,,,,,,,,,,,,,,,,
1720515304,73,0,4305.769043,4294.358887,4256.538574,4296.282227,4283.589844,4272.436035,4275.256348,4283.846191,4261.794922,4216.153809,4449.230957,4473.205078,4198.205078,4415,,,,,,,,,,,,,,,,,,,,,,,,,,,,,,,,,,,,,,,,,,,,,,,,,,,,,,,,,,,,,,,,,,,,,,
1720515304,74,0,4302.820313,4292.692383,4254.871582,4294.358887,4278.717773,4267.563965,4271.153809,4279.743652,4253.205078,4202.94873,4440.384766,4462.692383,4188.846191,4409.102539,,,,,,,,,,,,,,,,,,,,,,,,,,,,,,,,,,,,,,,,,,,,,,,,,,,,,,,,,,,,,,,,,,,,,,
1720515304,75,0,4294.487305,4286.666504,4251.410156,4291.794922,4278.205078,4264.615234,4267.94873,4279.230957,4252.436035,4188.717773,4431.922852,4458.461426,4187.820313,4402.692383,,,,,,,,,,,,,,,,,,,,,,,,,,,,,,,,,,,,,,,,,,,,,,,,,,,,,,,,,,,,,,,,,,,,,,
1720515304,76,0,4292.820313,4285.384766,4251.153809,4286.153809,4273.077148,4266.922852,4270.769043,4281.666504,4257.179688,4190,4434.743652,4464.743652,4196.410156,4406.410156,0.414653,0.265917,0.297009,0.272518,0.21807,0.406213,0.703338,0.421287,0.296007,0.14262,0.119402,0.060695,0.172226,0.134088,0.118569,0.155405,0.240903,0.246014,0.13128,0.082034,0.172437,0.228344,0.087029,0.127763,0.071349,0.134007,0.167798,0.163981,0.080815,0.034031,0.056976,0.189316,0.24357,0.139573,0.090824,0.073746,0.169479,0.243661,0.132237,0.105892,0.064248,0.210881,0.176585,0.134658,0.132069,0.378789,0.640114,0.504293,0.260898,0.292965,0.390771,0.716635,0.700484,0.546265,0.284545,0.444114,0.542141,0.698317,0.726054,0.482171,0.314243,0.948321,0.386418,0.489864,0.362381,0.735038,1.181865,0.823102,0.782589,0.363498
1720515304,77,0,4302.692383,4287.179688,4256.153809,4282.692383,4267.563965,4264.230957,4273.077148,4279.871582,4255.256348,4193.333496,4440.897461,4474.871582,4193.333496,4415.769043,,,,,,,,,,,,,,,,,,,,,,,,,,,,,,,,,,,,,,,,,,,,,,,,,,,,,,,,,,,,,,,,,,,,,,
1720515304,78,0,4310.256348,4288.461426,4257.563965,4288.974121,4272.692383,4259.743652,4273.717773,4279.871582,4254.743652,4195.128418,4446.025879,4477.307617,4192.179688,4422.820313,,,,,,,,,,,,,,,,,,,,,,,,,,,,,,,,,,,,,,,,,,,,,,,,,,,,,,,,,,,,,,,,,,,,,,
1720515304,79,0,4304.230957,4293.974121,4248.589844,4293.846191,4279.615234,4263.974121,4271.794922,4279.230957,4251.922852,4194.871582,4443.717773,4462.820313,4201.410156,4416.410156,,,,,,,,,,,,,,,,,,,,,,,,,,,,,,,,,,,,,,,,,,,,,,,,,,,,,,,,,,,,,,,,,,,,,,
1720515304,80,0,4301.153809,4292.692383,4253.205078,4289.615234,4275.641113,4269.102539,4270.897461,4279.487305,4248.974121,4190.384766,4434.871582,4457.179688,4197.820313,4407.179688,,,,,,,,,,,,,,,,,,,,,,,,,,,,,,,,,,,,,,,,,,,,,,,,,,,,,,,,,,,,,,,,,,,,,,
1720515304,81,0,4307.94873,4287.692383,4268.461426,4290.128418,4274.871582,4271.282227,4276.922852,4288.461426,4258.846191,4202.179688,4439.230957,4476.538574,4199.615234,4415,,,,,,,,,,,,,,,,,,,,,,,,,,,,,,,,,,,,,,,,,,,,,,,,,,,,,,,,,,,,,,,,,,,,,,
1720515304,82,0,4297.179688,4287.563965,4261.666504,4291.794922,4280,4275,4279.743652,4289.358887,4263.717773,4209.487305,4445.769043,4469.615234,4205.512695,4413.333496,,,,,,,,,,,,,,,,,,,,,,,,,,,,,,,,,,,,,,,,,,,,,,,,,,,,,,,,,,,,,,,,,,,,,,
1720515304,83,0,4289.230957,4285.128418,4257.179688,4284.615234,4278.846191,4274.487305,4280,4286.922852,4257.436035,4199.743652,4441.794922,4460.769043,4199.871582,4403.461426,,,,,,,,,,,,,,,,,,,,,,,,,,,,,,,,,,,,,,,,,,,,,,,,,,,,,,,,,,,,,,,,,,,,,,
1720515304,84,0,4298.461426,4284.358887,4261.153809,4280.256348,4276.794922,4270.769043,4278.333496,4287.820313,4254.615234,4203.846191,4440.384766,4474.487305,4200.128418,4407.05127,,,,,,,,,,,,,,,,,,,,,,,,,,,,,,,,,,,,,,,,,,,,,,,,,,,,,,,,,,,,,,,,,,,,,,
1720515304,85,0,4296.666504,4286.025879,4256.282227,4281.282227,4274.102539,4269.487305,4272.563965,4283.974121,4251.153809,4212.820313,4441.538574,4468.077148,4206.410156,4408.461426,,,,,,,,,,,,,,,,,,,,,,,,,,,,,,,,,,,,,,,,,,,,,,,,,,,,,,,,,,,,,,,,,,,,,,
1720515304,86,0,4289.743652,4283.205078,4254.102539,4281.666504,4268.589844,4268.461426,4274.102539,4283.974121,4250.256348,4206.282227,4441.025879,4462.179688,4202.820313,4401.282227,,,,,,,,,,,,,,,,,,,,,,,,,,,,,,,,,,,,,,,,,,,,,,,,,,,,,,,,,,,,,,,,,,,,,,
1720515304,87,0,4288.717773,4279.743652,4252.307617,4280.512695,4268.717773,4263.717773,4276.410156,4281.922852,4251.922852,4192.436035,4433.846191,4461.922852,4187.94873,4395.641113,,,,,,,,,,,,,,,,,,,,,,,,,,,,,,,,,,,,,,,,,,,,,,,,,,,,,,,,,,,,,,,,,,,,,,
1720515304,88,0,4291.410156,4281.538574,4250.256348,4279.102539,4271.666504,4260.641113,4272.179688,4277.179688,4250,4190,4425.384766,4457.820313,4187.94873,4399.102539,,,,,,,,,,,,,,,,,,,,,,,,,,,,,,,,,,,,,,,,,,,,,,,,,,,,,,,,,,,,,,,,,,,,,,
1720515304,89,0,4295.897461,4284.743652,4251.794922,4278.974121,4269.871582,4263.846191,4273.974121,4282.563965,4250.897461,4200.641113,4434.615234,4465.641113,4211.410156,4409.358887,,,,,,,,,,,,,,,,,,,,,,,,,,,,,,,,,,,,,,,,,,,,,,,,,,,,,,,,,,,,,,,,,,,,,,
1720515304,90,0,4296.153809,4286.666504,4251.922852,4283.846191,4272.307617,4272.563965,4280.512695,4288.589844,4257.563965,4209.358887,4447.820313,4477.307617,4222.436035,4415.384766,,,,,,,,,,,,,,,,,,,,,,,,,,,,,,,,,,,,,,,,,,,,,,,,,,,,,,,,,,,,,,,,,,,,,,
1720515304,91,0,4291.666504,4289.871582,4253.461426,4287.94873,4280.897461,4281.153809,4281.153809,4284.230957,4258.974121,4206.794922,4442.820313,4475.769043,4212.563965,4411.538574,,,,,,,,,,,,,,,,,,,,,,,,,,,,,,,,,,,,,,,,,,,,,,,,,,,,,,,,,,,,,,,,,,,,,,
1720515304,92,0,4298.077148,4292.820313,4262.179688,4290,4281.025879,4280.384766,4284.871582,4286.666504,4259.358887,4207.94873,4440.769043,4480.384766,4215.256348,4410.384766,0.456203,0.295766,0.349943,0.271606,0.227809,0.330998,0.715655,0.402566,0.276816,0.134668,0.132201,0.05956,0.198749,0.148067,0.13658,0.155678,0.262281,0.252263,0.149457,0.100887,0.186773,0.231643,0.085647,0.122245,0.078188,0.152875,0.23703,0.181138,0.083524,0.040054,0.055536,0.302922,0.235985,0.141956,0.102592,0.08056,0.194092,0.265472,0.134011,0.118926,0.071253,0.252772,0.239758,0.148968,0.14494,0.524017,0.826245,0.652094,0.275857,0.304302,0.397249,1.058019,0.975269,0.626696,0.293885,0.479667,0.786437,0.907976,0.808859,0.537898,0.288636,1.138891,0.542791,0.481389,0.367709,0.721715,1.558776,1.094656,0.815922,0.352223
1720515304,93,0,4304.487305,4292.307617,4259.743652,4291.538574,4278.846191,4278.717773,4288.974121,4293.717773,4257.692383,4214.743652,4448.205078,4481.666504,4227.307617,4410.512695,,,,,,,,,,,,,,,,,,,,,,,,,,,,,,,,,,,,,,,,,,,,,,,,,,,,,,,,,,,,,,,,,,,,,,
1720515304,94,0,4288.846191,4288.589844,4248.205078,4286.025879,4280.512695,4280.897461,4283.077148,4287.692383,4251.666504,4205.256348,4439.615234,4460.128418,4216.410156,4400,,,,,,,,,,,,,,,,,,,,,,,,,,,,,,,,,,,,,,,,,,,,,,,,,,,,,,,,,,,,,,,,,,,,,,
1720515304,95,0,4282.307617,4286.794922,4250.641113,4281.794922,4278.589844,4275.641113,4276.922852,4282.436035,4252.94873,4193.846191,4428.974121,4459.743652,4206.794922,4395.641113,,,,,,,,,,,,,,,,,,,,,,,,,,,,,,,,,,,,,,,,,,,,,,,,,,,,,,,,,,,,,,,,,,,,,,
1720515304,96,0,4288.846191,4286.025879,4253.205078,4281.025879,4275.128418,4267.307617,4275.256348,4281.025879,4253.461426,4194.358887,4431.538574,4468.333496,4206.794922,4395.641113,,,,,,,,,,,,,,,,,,,,,,,,,,,,,,,,,,,,,,,,,,,,,,,,,,,,,,,,,,,,,,,,,,,,,,
1720515304,97,0,4289.871582,4287.692383,4254.102539,4281.666504,4276.922852,4270.128418,4276.282227,4281.794922,4251.794922,4200.384766,4434.487305,4463.846191,4204.102539,4395.256348,,,,,,,,,,,,,,,,,,,,,,,,,,,,,,,,,,,,,,,,,,,,,,,,,,,,,,,,,,,,,,,,,,,,,,
1720515304,98,0,4291.794922,4293.333496,4254.615234,4284.871582,4278.974121,4272.307617,4276.666504,4284.358887,4254.358887,4211.025879,4439.615234,4466.153809,4214.743652,4403.205078,,,,,,,,,,,,,,,,,,,,,,,,,,,,,,,,,,,,,,,,,,,,,,,,,,,,,,,,,,,,,,,,,,,,,,
1720515304,99,0,4293.077148,4290.897461,4249.615234,4284.230957,4273.846191,4267.05127,4271.282227,4280.897461,4253.589844,4212.94873,4440.769043,4466.410156,4223.717773,4407.436035,,,,,,,,,,,,,,,,,,,,,,,,,,,,,,,,,,,,,,,,,,,,,,,,,,,,,,,,,,,,,,,,,,,,,,
1720515304,100,0,4293.974121,4286.666504,4251.410156,4279.358887,4274.230957,4269.230957,4268.717773,4276.794922,4250.641113,4209.743652,4433.846191,4469.102539,4218.717773,4406.794922,,,,,,,,,,,,,,,,,,,,,,,,,,,,,,,,,,,,,,,,,,,,,,,,,,,,,,,,,,,,,,,,,,,,,,
1720515304,101,0,4296.282227,4292.94873,4255.641113,4277.820313,4282.563965,4273.846191,4272.94873,4279.871582,4250.256348,4215.897461,4434.230957,4473.589844,4221.794922,4413.077148,,,,,,,,,,,,,,,,,,,,,,,,,,,,,,,,,,,,,,,,,,,,,,,,,,,,,,,,,,,,,,,,,,,,,,
1720515304,102,0,4300.897461,4299.487305,4253.589844,4280.641113,4284.487305,4273.717773,4277.563965,4287.692383,4256.025879,4222.94873,4444.358887,4475.256348,4233.589844,4418.974121,,,,,,,,,,,,,,,,,,,,,,,,,,,,,,,,,,,,,,,,,,,,,,,,,,,,,,,,,,,,,,,,,,,,,,
1720515304,103,0,4301.410156,4299.615234,4250.384766,4279.487305,4281.153809,4274.230957,4280.384766,4290.256348,4262.563965,4224.230957,4451.410156,4477.94873,4234.487305,4420.512695,,,,,,,,,,,,,,,,,,,,,,,,,,,,,,,,,,,,,,,,,,,,,,,,,,,,,,,,,,,,,,,,,,,,,,
1720515304,104,0,4297.820313,4299.743652,4252.563965,4279.102539,4281.025879,4275.897461,4281.666504,4288.974121,4259.358887,4223.333496,4446.666504,4475.512695,4226.153809,4417.179688,,,,,,,,,,,,,,,,,,,,,,,,,,,,,,,,,,,,,,,,,,,,,,,,,,,,,,,,,,,,,,,,,,,,,,
1720515304,105,0,4295.769043,4295.384766,4255.128418,4281.538574,4284.871582,4276.410156,4281.153809,4292.820313,4257.307617,4226.538574,4437.179688,4475.256348,4226.282227,4409.743652,,,,,,,,,,,,,,,,,,,,,,,,,,,,,,,,,,,,,,,,,,,,,,,,,,,,,,,,,,,,,,,,,,,,,,
1720515304,106,0,4289.487305,4287.692383,4252.820313,4279.871582,4284.358887,4273.846191,4278.717773,4297.307617,4267.692383,4235,4436.922852,4480.769043,4231.666504,4402.179688,,,,,,,,,,,,,,,,,,,,,,,,,,,,,,,,,,,,,,,,,,,,,,,,,,,,,,,,,,,,,,,,,,,,,,
1720515304,107,0,4282.692383,4285.897461,4245.769043,4275.512695,4279.615234,4270.512695,4275.256348,4290.897461,4267.563965,4239.358887,4438.589844,4468.846191,4227.820313,4395.256348,,,,,,,,,,,,,,,,,,,,,,,,,,,,,,,,,,,,,,,,,,,,,,,,,,,,,,,,,,,,,,,,,,,,,,
1720515304,108,0,4287.436035,4285.384766,4248.461426,4273.846191,4276.666504,4269.615234,4272.436035,4284.230957,4258.846191,4238.205078,4431.153809,4455.897461,4223.846191,4388.846191,0.476029,0.308437,0.388411,0.266404,0.240726,0.271506,0.680502,0.412182,0.254465,0.123806,0.143369,0.059703,0.215455,0.16134,0.156654,0.164877,0.26142,0.25147,0.17214,0.120163,0.187867,0.22134,0.096567,0.115762,0.088301,0.168458,0.340095,0.199656,0.082917,0.04602,0.056588,0.469056,0.215754,0.139694,0.111318,0.084257,0.2416,0.270435,0.133469,0.128256,0.09306,0.317727,0.316763,0.163759,0.153669,0.688165,1.035468,0.794884,0.28523,0.308745,0.390094,1.492312,1.295921,0.667322,0.302769,0.51411,1.051393,1.117981,0.850894,0.608029,0.277301,1.411152,0.772381,0.455565,0.368817,0.712334,1.898279,1.324451,0.803543,0.339457
1720515304,109,0,4290.641113,4284.487305,4252.436035,4277.05127,4276.794922,4270,4269.743652,4287.05127,4264.743652,4238.846191,4425.641113,4464.743652,4225.897461,4386.794922,,,,,,,,,,,,,,,,,,,,,,,,,,,,,,,,,,,,,,,,,,,,,,,,,,,,,,,,,,,,,,,,,,,,,,
1720515304,110,0,4285.769043,4288.717773,4244.743652,4279.102539,4280.897461,4272.436035,4268.974121,4284.230957,4264.358887,4232.179688,4432.307617,4463.205078,4222.05127,4390.512695,,,,,,,,,,,,,,,,,,,,,,,,,,,,,,,,,,,,,,,,,,,,,,,,,,,,,,,,,,,,,,,,,,,,,,
1720515304,111,0,4297.436035,4297.05127,4252.436035,4280.512695,4286.025879,4280.384766,4275.897461,4283.589844,4259.743652,4228.717773,4440.769043,4466.282227,4227.436035,4402.436035,,,,,,,,,,,,,,,,,,,,,,,,,,,,,,,,,,,,,,,,,,,,,,,,,,,,,,,,,,,,,,,,,,,,,,
1720515304,112,0,4305.128418,4297.307617,4257.179688,4280.769043,4287.307617,4281.922852,4280.769043,4287.820313,4264.102539,4239.871582,4433.461426,4476.538574,4238.589844,4404.102539,,,,,,,,,,,,,,,,,,,,,,,,,,,,,,,,,,,,,,,,,,,,,,,,,,,,,,,,,,,,,,,,,,,,,,
1720515304,113,0,4286.025879,4290.128418,4244.102539,4277.820313,4283.589844,4274.230957,4275.256348,4281.794922,4259.102539,4234.615234,4420.641113,4457.820313,4232.563965,4391.025879,,,,,,,,,,,,,,,,,,,,,,,,,,,,,,,,,,,,,,,,,,,,,,,,,,,,,,,,,,,,,,,,,,,,,,
1720515304,114,0,4286.794922,4290.512695,4250.384766,4278.589844,4283.205078,4274.743652,4278.589844,4280.384766,4261.282227,4226.025879,4427.692383,4460.512695,4231.153809,4396.282227,,,,,,,,,,,,,,,,,,,,,,,,,,,,,,,,,,,,,,,,,,,,,,,,,,,,,,,,,,,,,,,,,,,,,,
1720515304,115,0,4304.743652,4297.179688,4259.230957,4282.436035,4289.871582,4281.794922,4287.436035,4288.461426,4280.128418,4233.333496,4441.282227,4484.871582,4241.794922,4409.487305,,,,,,,,,,,,,,,,,,,,,,,,,,,,,,,,,,,,,,,,,,,,,,,,,,,,,,,,,,,,,,,,,,,,,,
1720515304,116,0,4294.615234,4294.615234,4250,4281.282227,4288.205078,4281.025879,4281.282227,4287.94873,4287.307617,4233.717773,4432.307617,4474.871582,4235.512695,4397.563965,,,,,,,,,,,,,,,,,,,,,,,,,,,,,,,,,,,,,,,,,,,,,,,,,,,,,,,,,,,,,,,,,,,,,,
1720515304,117,0,4275.897461,4283.461426,4243.846191,4272.94873,4275.384766,4275.512695,4272.820313,4282.05127,4279.102539,4229.871582,4422.05127,4456.794922,4225.897461,4381.666504,,,,,,,,,,,,,,,,,,,,,,,,,,,,,,,,,,,,,,,,,,,,,,,,,,,,,,,,,,,,,,,,,,,,,,
1720515304,118,0,4282.307617,4283.974121,4244.230957,4265.897461,4272.179688,4273.205078,4274.358887,4282.820313,4277.307617,4233.589844,4432.692383,4458.461426,4235.256348,4385.128418,,,,,,,,,,,,,,,,,,,,,,,,,,,,,,,,,,,,,,,,,,,,,,,,,,,,,,,,,,,,,,,,,,,,,,
1720515304,119,0,4292.436035,4292.307617,4243.589844,4268.205078,4281.922852,4275.384766,4277.179688,4286.153809,4281.025879,4235.256348,4439.487305,4456.922852,4242.05127,4392.692383,,,,,,,,,,,,,,,,,,,,,,,,,,,,,,,,,,,,,,,,,,,,,,,,,,,,,,,,,,,,,,,,,,,,,,
1720515304,120,0,4288.077148,4291.025879,4251.153809,4275,4285.769043,4277.563965,4277.820313,4288.717773,4281.922852,4231.666504,4430.256348,4459.102539,4241.666504,4393.205078,,,,,,,,,,,,,,,,,,,,,,,,,,,,,,,,,,,,,,,,,,,,,,,,,,,,,,,,,,,,,,,,,,,,,,
1720515304,121,0,4287.307617,4288.717773,4254.358887,4278.205078,4282.05127,4276.538574,4279.871582,4288.077148,4277.820313,4227.563965,4419.487305,4466.410156,4240.256348,4390.897461,,,,,,,,,,,,,,,,,,,,,,,,,,,,,,,,,,,,,,,,,,,,,,,,,,,,,,,,,,,,,,,,,,,,,,
1720515304,122,0,4293.974121,4296.666504,4247.692383,4277.820313,4284.871582,4274.487305,4279.743652,4284.358887,4272.563965,4221.410156,4421.922852,4457.563965,4237.179688,4387.820313,,,,,,,,,,,,,,,,,,,,,,,,,,,,,,,,,,,,,,,,,,,,,,,,,,,,,,,,,,,,,,,,,,,,,,
1720515304,123,0,4295.128418,4300,4248.846191,4275.384766,4288.205078,4275.641113,4276.282227,4284.615234,4275,4223.461426,4429.871582,4456.025879,4242.179688,4390.769043,,,,,,,,,,,,,,,,,,,,,,,,,,,,,,,,,,,,,,,,,,,,,,,,,,,,,,,,,,,,,,,,,,,,,,
1720515304,124,0,4285.128418,4290.512695,4247.94873,4273.205078,4283.846191,4276.410156,4275.641113,4283.974121,4271.922852,4226.282227,4426.153809,4456.282227,4245.769043,4389.615234,0.454498,0.307307,0.403476,0.259649,0.256232,0.233012,0.599467,0.43959,0.239004,0.113187,0.14656,0.06464,0.224156,0.17149,0.176621,0.183755,0.241546,0.240037,0.193647,0.134412,0.173032,0.203556,0.122709,0.111685,0.101427,0.178137,0.457436,0.230044,0.07907,0.050973,0.061373,0.660684,0.189679,0.133346,0.114972,0.084129,0.300917,0.258788,0.129246,0.131494,0.119438,0.390224,0.389848,0.172935,0.155395,0.791689,1.253164,0.910276,0.286146,0.306302,0.354242,1.946007,1.589943,0.655877,0.30904,0.523079,1.296955,1.298056,0.846909,0.680207,0.22777,1.732329,1.040765,0.413198,0.363667,0.686612,2.132651,1.467409,0.746696,0.326087
1720515304,125,0,4282.436035,4287.563965,4246.410156,4276.666504,4282.179688,4276.538574,4275.512695,4278.717773,4264.358887,4219.615234,4423.461426,4454.358887,4241.282227,4386.282227,,,,,,,,,,,,,,,,,,,,,,,,,,,,,,,,,,,,,,,,,,,,,,,,,,,,,,,,,,,,,,,,,,,,,,
1720515304,126,0,4292.820313,4295.256348,4251.410156,4280.384766,4283.974121,4274.871582,4275,4278.717773,4267.692383,4219.871582,4427.563965,4465.512695,4241.666504,4389.615234,,,,,,,,,,,,,,,,,,,,,,,,,,,,,,,,,,,,,,,,,,,,,,,,,,,,,,,,,,,,,,,,,,,,,,
1720515304,127,0,4294.615234,4299.871582,4252.820313,4276.922852,4283.846191,4274.230957,4275.256348,4284.230957,4271.410156,4224.743652,4428.205078,4468.205078,4247.307617,4388.333496,,,,,,,,,,,,,,,,,,,,,,,,,,,,,,,,,,,,,,,,,,,,,,,,,,,,,,,,,,,,,,,,,,,,,,
1720515304,0,0,4285.384766,4294.487305,4250,4274.871582,4281.538574,4273.589844,4272.820313,4286.538574,4270.256348,4227.94873,4429.358887,4461.538574,4248.974121,4385.512695,,,,,,,,,,,,,,,,,,,,,,,,,,,,,,,,,,,,,,,,,,,,,,,,,,,,,,,,,,,,,,,,,,,,,,
1720515304,1,0,4283.077148,4289.358887,4246.794922,4275.384766,4283.717773,4274.615234,4272.307617,4285.384766,4274.743652,4233.846191,4433.974121,4460.641113,4252.563965,4394.230957,,,,,,,,,,,,,,,,,,,,,,,,,,,,,,,,,,,,,,,,,,,,,,,,,,,,,,,,,,,,,,,,,,,,,,
1720515304,2,0,4294.358887,4294.487305,4247.307617,4270.128418,4290.641113,4278.974121,4278.974121,4292.179688,4282.692383,4245.897461,4442.692383,4470.384766,4263.077148,4407.05127,,,,,,,,,,,,,,,,,,,,,,,,,,,,,,,,,,,,,,,,,,,,,,,,,,,,,,,,,,,,,,,,,,,,,,
1720515304,3,0,4300.256348,4296.794922,4248.974121,4265.256348,4288.846191,4276.794922,4279.358887,4297.820313,4281.025879,4251.153809,4448.589844,4476.794922,4269.871582,4408.077148,,,,,,,,,,,,,,,,,,,,,,,,,,,,,,,,,,,,,,,,,,,,,,,,,,,,,,,,,,,,,,,,,,,,,,
1720515304,4,0,4293.205078,4289.743652,4247.692383,4264.358887,4278.846191,4268.461426,4268.974121,4290.512695,4271.666504,4239.743652,4445.769043,4471.538574,4268.461426,4403.333496,,,,,,,,,,,,,,,,,,,,,,,,,,,,,,,,,,,,,,,,,,,,,,,,,,,,,,,,,,,,,,,,,,,,,,
1720515304,5,0,4287.820313,4287.820313,4250,4264.358887,4277.307617,4267.563965,4267.05127,4286.153809,4270.384766,4228.589844,4440,4464.487305,4267.179688,4402.05127,,,,,,,,,,,,,,,,,,,,,,,,,,,,,,,,,,,,,,,,,,,,,,,,,,,,,,,,,,,,,,,,,,,,,,
1720515304,6,0,4289.358887,4293.461426,4254.487305,4269.743652,4284.743652,4277.692383,4275.769043,4291.410156,4276.922852,4233.205078,4437.820313,4464.871582,4269.487305,4397.94873,,,,,,,,,,,,,,,,,,,,,,,,,,,,,,,,,,,,,,,,,,,,,,,,,,,,,,,,,,,,,,,,,,,,,,
1720515304,7,0,4287.820313,4295.641113,4251.410156,4276.410156,4286.794922,4281.666504,4277.94873,4288.077148,4273.077148,4237.692383,4435.384766,4462.436035,4268.974121,4390.897461,,,,,,,,,,,,,,,,,,,,,,,,,,,,,,,,,,,,,,,,,,,,,,,,,,,,,,,,,,,,,,,,,,,,,,
1720515304,8,0,4288.846191,4294.102539,4251.282227,4277.692383,4283.589844,4275.641113,4273.077148,4280.769043,4262.820313,4230.256348,4434.487305,4457.94873,4265.641113,4392.692383,,,,,,,,,,,,,,,,,,,,,,,,,,,,,,,,,,,,,,,,,,,,,,,,,,,,,,,,,,,,,,,,,,,,,,
1720515304,9,0,4298.589844,4291.794922,4257.05127,4276.538574,4283.205078,4274.743652,4273.077148,4280.641113,4263.461426,4226.794922,4436.410156,4463.461426,4269.102539,4401.410156,,,,,,,,,,,,,,,,,,,,,,,,,,,,,,,,,,,,,,,,,,,,,,,,,,,,,,,,,,,,,,,,,,,,,,
1720515304,10,0,4294.358887,4295,4251.282227,4277.820313,4286.794922,4277.692383,4275.641113,4279.871582,4263.974121,4225.897461,4430.897461,4454.487305,4270.897461,4398.846191,,,,,,,,,,,,,,,,,,,,,,,,,,,,,,,,,,,,,,,,,,,,,,,,,,,,,,,,,,,,,,,,,,,,,,
1720515304,11,0,4285.897461,4299.487305,4249.615234,4275,4286.025879,4273.333496,4275.128418,4280.512695,4261.538574,4223.846191,4426.153809,4447.307617,4263.846191,4392.820313,,,,,,,,,,,,,,,,,,,,,,,,,,,,,,,,,,,,,,,,,,,,,,,,,,,,,,,,,,,,,,,,,,,,,,
1720515304,12,0,4289.102539,4292.94873,4254.358887,4266.922852,4280.769043,4269.230957,4275,4285.512695,4265,4228.205078,4430.128418,4463.077148,4259.358887,4392.307617,0.404483,0.30485,0.398325,0.251857,0.271365,0.216587,0.488322,0.462068,0.233281,0.104736,0.142898,0.077363,0.228938,0.175669,0.193655,0.215847,0.212922,0.222571,0.207721,0.13924,0.145972,0.187234,0.164066,0.110681,0.115611,0.180988,0.561238,0.283003,0.072714,0.05447,0.072637,0.837671,0.167968,0.124341,0.113056,0.087649,0.360932,0.233205,0.121182,0.127899,0.140711,0.452403,0.432745,0.171868,0.149568,0.829716,1.452186,0.976098,0.279461,0.29932,0.298651,2.303688,1.772227,0.595581,0.311165,0.495535,1.485229,1.413091,0.80163,0.735142,0.203865,2.031736,1.285533,0.359039,0.352882,0.641128,2.234167,1.506475,0.654772,0.311999
1720515304,13,0,4285.128418,4288.589844,4247.563965,4266.666504,4282.692383,4274.487305,4275.512695,4287.179688,4269.487305,4226.922852,4435,4467.307617,4262.05127,4390.512695,,,,,,,,,,,,,,,,,,,,,,,,,,,,,,,,,,,,,,,,,,,,,,,,,,,,,,,,,,,,,,,,,,,,,,
1720515304,14,0,4286.153809,4291.922852,4247.94873,4273.077148,4284.102539,4275.641113,4276.538574,4288.333496,4275.512695,4228.077148,4437.307617,4466.794922,4273.589844,4394.487305,,,,,,,,,,,,,,,,,,,,,,,,,,,,,,,,,,,,,,,,,,,,,,,,,,,,,,,,,,,,,,,,,,,,,,
1720515304,15,0,4297.05127,4288.589844,4251.410156,4270.128418,4276.025879,4272.307617,4275.256348,4292.563965,4282.307617,4237.692383,4438.846191,4468.077148,4283.846191,4398.205078,,,,,,,,,,,,,,,,,,,,,,,,,,,,,,,,,,,,,,,,,,,,,,,,,,,,,,,,,,,,,,,,,,,,,,
1720515304,16,0,4293.717773,4285.512695,4250.512695,4263.205078,4272.436035,4271.410156,4273.077148,4291.282227,4277.820313,4234.871582,4438.717773,4463.461426,4282.179688,4394.615234,,,,,,,,,,,,,,,,,,,,,,,,,,,,,,,,,,,,,,,,,,,,,,,,,,,,,,,,,,,,,,,,,,,,,,
1720515304,17,0,4291.666504,4293.974121,4256.282227,4272.307617,4279.230957,4272.307617,4275,4288.717773,4270.897461,4229.743652,4440.512695,4471.794922,4283.589844,4398.205078,,,,,,,,,,,,,,,,,,,,,,,,,,,,,,,,,,,,,,,,,,,,,,,,,,,,,,,,,,,,,,,,,,,,,,
1720515304,18,0,4299.743652,4304.230957,4258.333496,4283.974121,4282.820313,4276.025879,4276.282227,4289.358887,4271.410156,4234.230957,4444.615234,4478.077148,4285.384766,4406.153809,,,,,,,,,,,,,,,,,,,,,,,,,,,,,,,,,,,,,,,,,,,,,,,,,,,,,,,,,,,,,,,,,,,,,,
1720515304,19,0,4294.487305,4304.743652,4253.461426,4279.358887,4277.820313,4274.615234,4270.897461,4282.179688,4268.846191,4230.128418,4442.436035,4464.743652,4279.230957,4401.153809,,,,,,,,,,,,,,,,,,,,,,,,,,,,,,,,,,,,,,,,,,,,,,,,,,,,,,,,,,,,,,,,,,,,,,
1720515304,20,0,4283.846191,4300.512695,4255.128418,4271.410156,4275,4268.205078,4266.922852,4276.538574,4262.820313,4221.794922,4434.358887,4459.102539,4275.384766,4390.641113,,,,,,,,,,,,,,,,,,,,,,,,,,,,,,,,,,,,,,,,,,,,,,,,,,,,,,,,,,,,,,,,,,,,,,
1720515304,21,0,4290.512695,4299.102539,4256.153809,4274.230957,4279.358887,4268.589844,4270.384766,4279.871582,4263.974121,4227.307617,4435.256348,4467.692383,4280.384766,4392.436035,,,,,,,,,,,,,,,,,,,,,,,,,,,,,,,,,,,,,,,,,,,,,,,,,,,,,,,,,,,,,,,,,,,,,,
1720515304,22,0,4296.282227,4300,4249.487305,4276.410156,4281.025879,4271.666504,4270.256348,4279.615234,4265.256348,4230.641113,4436.538574,4462.436035,4278.461426,4399.743652,,,,,,,,,,,,,,,,,,,,,,,,,,,,,,,,,,,,,,,,,,,,,,,,,,,,,,,,,,,,,,,,,,,,,,
1720515304,23,0,4294.102539,4300.512695,4254.102539,4268.974121,4274.487305,4269.487305,4267.94873,4278.974121,4265.512695,4228.333496,4432.94873,4466.666504,4278.333496,4406.153809,,,,,,,,,,,,,,,,,,,,,,,,,,,,,,,,,,,,,,,,,,,,,,,,,,,,,,,,,,,,,,,,,,,,,,
1720515304,24,0,4298.205078,4297.179688,4258.717773,4264.102539,4271.153809,4273.077148,4272.179688,4285.256348,4272.692383,4233.974121,4436.922852,4476.666504,4285,4406.666504,,,,,,,,,,,,,,,,,,,,,,,,,,,,,,,,,,,,,,,,,,,,,,,,,,,,,,,,,,,,,,,,,,,,,,
1720515304,25,0,4300.384766,4294.871582,4254.102539,4264.487305,4273.205078,4280.256348,4276.666504,4293.717773,4280.384766,4237.94873,4443.589844,4470.769043,4282.820313,4398.333496,,,,,,,,,,,,,,,,,,,,,,,,,,,,,,,,,,,,,,,,,,,,,,,,,,,,,,,,,,,,,,,,,,,,,,
1720515304,26,0,4297.563965,4297.179688,4254.743652,4266.410156,4273.974121,4277.692383,4278.205078,4298.205078,4280,4237.307617,4444.358887,4473.461426,4284.102539,4397.436035,,,,,,,,,,,,,,,,,,,,,,,,,,,,,,,,,,,,,,,,,,,,,,,,,,,,,,,,,,,,,,,,,,,,,,
1720515304,27,0,4294.102539,4300.897461,4256.666504,4270.128418,4276.153809,4272.307617,4278.846191,4296.666504,4275.128418,4233.461426,4448.205078,4479.230957,4289.871582,4408.846191,,,,,,,,,,,,,,,,,,,,,,,,,,,,,,,,,,,,,,,,,,,,,,,,,,,,,,,,,,,,,,,,,,,,,,
1720515304,28,0,4295.384766,4300.897461,4256.153809,4271.666504,4277.563965,4272.307617,4277.05127,4290.897461,4272.94873,4229.743652,4451.153809,4474.743652,4289.487305,4412.179688,0.339412,0.3156,0.388799,0.241853,0.28319,0.219526,0.375064,0.461669,0.23288,0.099383,0.12856,0.098149,0.232464,0.171914,0.204663,0.240084,0.189969,0.204847,0.210938,0.133058,0.117871,0.179174,0.217904,0.111037,0.128398,0.178038,0.625201,0.360042,0.065093,0.056904,0.091471,0.959405,0.158685,0.114403,0.107067,0.094496,0.415228,0.200399,0.110225,0.11874,0.153075,0.498612,0.429954,0.16046,0.139119,0.813545,1.601491,0.990263,0.269964,0.2901,0.237078,2.471832,1.799113,0.505901,0.309831,0.429839,1.596275,1.447047,0.726861,0.754787,0.168731,2.232152,1.464092,0.30298,0.338722,0.579413,2.22269,1.470975,0.546417,0.296722
1720515304,29,0,4297.820313,4301.922852,4252.436035,4267.179688,4275.512695,4270.384766,4270.897461,4286.410156,4268.589844,4227.436035,4444.230957,4465.897461,4286.025879,4397.05127,,,,,,,,,,,,,,,,,,,,,,,,,,,,,,,,,,,,,,,,,,,,,,,,,,,,,,,,,,,,,,,,,,,,,,
1720515304,30,0,4292.820313,4305.512695,4252.307617,4265,4272.94873,4267.179688,4269.743652,4285.769043,4263.846191,4225.897461,4435.769043,4461.794922,4283.846191,4383.974121,,,,,,,,,,,,,,,,,,,,,,,,,,,,,,,,,,,,,,,,,,,,,,,,,,,,,,,,,,,,,,,,,,,,,,
1720515304,31,0,4287.563965,4304.102539,4252.94873,4265.769043,4272.563965,4268.205078,4274.230957,4285.769043,4266.666504,4226.794922,4432.05127,4462.179688,4282.05127,4383.974121,,,,,,,,,,,,,,,,,,,,,,,,,,,,,,,,,,,,,,,,,,,,,,,,,,,,,,,,,,,,,,,,,,,,,,
1720515304,32,0,4290.897461,4303.974121,4252.179688,4265.128418,4277.563965,4273.333496,4275.512695,4288.461426,4268.846191,4226.025879,4433.974121,4461.794922,4283.974121,4389.487305,,,,,,,,,,,,,,,,,,,,,,,,,,,,,,,,,,,,,,,,,,,,,,,,,,,,,,,,,,,,,,,,,,,,,,
1720515304,33,0,4297.563965,4308.333496,4257.307617,4266.153809,4285.384766,4279.743652,4275.512695,4290.384766,4271.282227,4227.820313,4439.743652,4465.256348,4290.769043,4396.922852,,,,,,,,,,,,,,,,,,,,,,,,,,,,,,,,,,,,,,,,,,,,,,,,,,,,,,,,,,,,,,,,,,,,,,
1720515305,34,0,4291.282227,4301.410156,4257.563965,4264.487305,4280.769043,4279.743652,4271.538574,4286.282227,4273.717773,4228.974121,4436.025879,4461.794922,4284.615234,4391.538574,,,,,,,,,,,,,,,,,,,,,,,,,,,,,,,,,,,,,,,,,,,,,,,,,,,,,,,,,,,,,,,,,,,,,,
1720515305,35,0,4280.128418,4292.307617,4246.666504,4259.871582,4271.666504,4277.94873,4267.563965,4283.333496,4270.384766,4224.487305,4425.256348,4452.179688,4276.538574,4377.820313,,,,,,,,,,,,,,,,,,,,,,,,,,,,,,,,,,,,,,,,,,,,,,,,,,,,,,,,,,,,,,,,,,,,,,
1720515305,36,0,4286.282227,4302.820313,4248.974121,4265.512695,4277.692383,4282.94873,4271.922852,4289.743652,4268.589844,4227.179688,4427.05127,4457.307617,4284.230957,4382.436035,,,,,,,,,,,,,,,,,,,,,,,,,,,,,,,,,,,,,,,,,,,,,,,,,,,,,,,,,,,,,,,,,,,,,,
1720515305,37,0,4303.205078,4312.692383,4266.794922,4275.769043,4283.461426,4284.871582,4278.974121,4298.077148,4277.820313,4244.615234,4442.820313,4480.128418,4301.025879,4400,,,,,,,,,,,,,,,,,,,,,,,,,,,,,,,,,,,,,,,,,,,,,,,,,,,,,,,,,,,,,,,,,,,,,,
1720515305,38,0,4300.641113,4304.102539,4258.974121,4274.615234,4276.666504,4277.307617,4274.230957,4293.846191,4279.743652,4254.615234,4452.692383,4476.922852,4310.641113,4402.94873,,,,,,,,,,,,,,,,,,,,,,,,,,,,,,,,,,,,,,,,,,,,,,,,,,,,,,,,,,,,,,,,,,,,,,
1720515305,39,0,4288.717773,4302.179688,4249.487305,4269.102539,4271.794922,4272.563965,4268.333496,4287.820313,4273.589844,4252.179688,4454.871582,4461.282227,4313.717773,4401.922852,,,,,,,,,,,,,,,,,,,,,,,,,,,,,,,,,,,,,,,,,,,,,,,,,,,,,,,,,,,,,,,,,,,,,,
1720515305,40,0,4296.410156,4307.692383,4261.794922,4271.538574,4275.769043,4273.589844,4275,4291.025879,4279.102539,4260.641113,4455.641113,4478.846191,4319.230957,4408.717773,,,,,,,,,,,,,,,,,,,,,,,,,,,,,,,,,,,,,,,,,,,,,,,,,,,,,,,,,,,,,,,,,,,,,,
1720515305,41,0,4297.05127,4305.256348,4256.282227,4275.128418,4280,4273.717773,4275.512695,4289.102539,4280.384766,4266.538574,4454.230957,4480.512695,4317.820313,4401.410156,,,,,,,,,,,,,,,,,,,,,,,,,,,,,,,,,,,,,,,,,,,,,,,,,,,,,,,,,,,,,,,,,,,,,,
1720515305,42,0,4287.179688,4303.205078,4251.025879,4276.538574,4279.230957,4278.846191,4270.641113,4283.717773,4271.410156,4255,4446.282227,4466.282227,4312.692383,4393.589844,,,,,,,,,,,,,,,,,,,,,,,,,,,,,,,,,,,,,,,,,,,,,,,,,,,,,,,,,,,,,,,,,,,,,,
1720515305,43,0,4292.563965,4304.743652,4261.025879,4276.794922,4281.153809,4285.128418,4275,4288.205078,4272.436035,4249.487305,4444.102539,4474.487305,4313.846191,4402.820313,,,,,,,,,,,,,,,,,,,,,,,,,,,,,,,,,,,,,,,,,,,,,,,,,,,,,,,,,,,,,,,,,,,,,,
1720515305,44,0,4296.153809,4301.922852,4260.897461,4274.487305,4282.692383,4282.820313,4279.615234,4292.94873,4278.205078,4253.846191,4449.743652,4475.512695,4313.589844,4406.538574,0.28357,0.346676,0.391737,0.228822,0.290817,0.22877,0.292187,0.435873,0.22902,0.097381,0.112603,0.12476,0.23484,0.160451,0.206958,0.259967,0.192237,0.192718,0.203757,0.118009,0.09555,0.181494,0.277734,0.110384,0.137779,0.171453,0.631565,0.446734,0.058324,0.059464,0.11602,0.997706,0.165462,0.105178,0.099761,0.108944,0.466873,0.172021,0.097921,0.106815,0.160065,0.546995,0.385282,0.142912,0.129228,0.803221,1.677689,0.960059,0.264144,0.279592,0.197464,2.424713,1.676877,0.410155,0.306814,0.34662,1.632703,1.400615,0.634725,0.73026,0.143205,2.284559,1.548636,0.252947,0.322424,0.526629,2.143097,1.407041,0.44108,0.279355
1720515305,45,0,4290.769043,4298.846191,4255.897461,4273.974121,4280,4281.153809,4279.230957,4290.641113,4274.743652,4256.025879,4447.563965,4463.717773,4313.589844,4398.846191,,,,,,,,,,,,,,,,,,,,,,,,,,,,,,,,,,,,,,,,,,,,,,,,,,,,,,,,,,,,,,,,,,,,,,
1720515305,46,0,4288.846191,4300,4255.641113,4276.282227,4277.94873,4282.820313,4277.563965,4287.179688,4266.794922,4251.538574,4440.128418,4458.205078,4312.820313,4394.615234,,,,,,,,,,,,,,,,,,,,,,,,,,,,,,,,,,,,,,,,,,,,,,,,,,,,,,,,,,,,,,,,,,,,,,
1720515305,47,0,4289.743652,4299.102539,4255.256348,4275.256348,4277.307617,4280,4276.666504,4287.179688,4267.307617,4247.563965,4438.077148,4462.94873,4310.769043,4396.025879,,,,,,,,,,,,,,,,,,,,,,,,,,,,,,,,,,,,,,,,,,,,,,,,,,,,,,,,,,,,,,,,,,,,,,
1720515305,48,0,4290.897461,4296.153809,4256.282227,4272.307617,4272.94873,4275.897461,4278.077148,4291.025879,4274.743652,4253.461426,4442.692383,4473.461426,4312.179688,4398.846191,,,,,,,,,,,,,,,,,,,,,,,,,,,,,,,,,,,,,,,,,,,,,,,,,,,,,,,,,,,,,,,,,,,,,,
1720515305,49,0,4296.666504,4298.333496,4258.461426,4274.871582,4273.974121,4277.692383,4280,4293.717773,4279.743652,4260.384766,4453.205078,4480.641113,4321.282227,4404.487305,,,,,,,,,,,,,,,,,,,,,,,,,,,,,,,,,,,,,,,,,,,,,,,,,,,,,,,,,,,,,,,,,,,,,,
1720515305,50,0,4298.077148,4305.384766,4257.563965,4278.205078,4285.641113,4282.436035,4279.102539,4292.563965,4277.05127,4257.179688,4462.179688,4471.794922,4328.589844,4405,,,,,,,,,,,,,,,,,,,,,,,,,,,,,,,,,,,,,,,,,,,,,,,,,,,,,,,,,,,,,,,,,,,,,,
1720515305,51,0,4295.384766,4305.128418,4259.743652,4273.589844,4285.128418,4281.282227,4277.436035,4288.077148,4269.487305,4254.230957,4451.153809,4469.102539,4325.256348,4401.410156,,,,,,,,,,,,,,,,,,,,,,,,,,,,,,,,,,,,,,,,,,,,,,,,,,,,,,,,,,,,,,,,,,,,,,
1720515305,52,0,4290.769043,4290.897461,4253.589844,4261.538574,4269.487305,4275.128418,4270.641113,4279.743652,4261.922852,4246.282227,4432.179688,4467.179688,4312.436035,4396.538574,,,,,,,,,,,,,,,,,,,,,,,,,,,,,,,,,,,,,,,,,,,,,,,,,,,,,,,,,,,,,,,,,,,,,,
1720515305,53,0,4286.922852,4288.717773,4250.128418,4261.153809,4265.128418,4275.769043,4268.461426,4278.589844,4263.333496,4236.538574,4440.512695,4460.512695,4312.94873,4397.436035,,,,,,,,,,,,,,,,,,,,,,,,,,,,,,,,,,,,,,,,,,,,,,,,,,,,,,,,,,,,,,,,,,,,,,
1720515305,54,0,4293.205078,4301.666504,4260.384766,4275.128418,4273.717773,4283.333496,4279.230957,4290.769043,4271.538574,4250.512695,4458.717773,4476.282227,4331.666504,4411.922852,,,,,,,,,,,,,,,,,,,,,,,,,,,,,,,,,,,,,,,,,,,,,,,,,,,,,,,,,,,,,,,,,,,,,,
1720515305,55,0,4294.615234,4297.94873,4256.922852,4274.230957,4274.230957,4286.153809,4281.666504,4292.436035,4270,4256.538574,4449.615234,4475.384766,4327.307617,4411.282227,,,,,,,,,,,,,,,,,,,,,,,,,,,,,,,,,,,,,,,,,,,,,,,,,,,,,,,,,,,,,,,,,,,,,,
1720515305,56,0,4292.563965,4288.589844,4248.974121,4262.05127,4268.333496,4286.666504,4275.897461,4281.922852,4261.282227,4236.282227,4433.205078,4455.897461,4307.307617,4396.410156,,,,,,,,,,,,,,,,,,,,,,,,,,,,,,,,,,,,,,,,,,,,,,,,,,,,,,,,,,,,,,,,,,,,,,
1720515305,57,0,4305.512695,4296.153809,4257.179688,4268.333496,4273.717773,4288.077148,4279.230957,4283.717773,4262.692383,4235.384766,4438.846191,4463.077148,4315,4398.589844,,,,,,,,,,,,,,,,,,,,,,,,,,,,,,,,,,,,,,,,,,,,,,,,,,,,,,,,,,,,,,,,,,,,,,
1720515305,58,0,4317.307617,4303.846191,4262.05127,4278.205078,4280.128418,4286.922852,4281.538574,4290.641113,4266.922852,4251.025879,4446.538574,4475,4327.179688,4406.666504,,,,,,,,,,,,,,,,,,,,,,,,,,,,,,,,,,,,,,,,,,,,,,,,,,,,,,,,,,,,,,,,,,,,,,
1720515305,59,0,4311.410156,4298.333496,4254.871582,4270.384766,4273.077148,4285.384766,4276.410156,4286.153809,4263.205078,4250.256348,4440.384766,4468.974121,4321.153809,4401.922852,,,,,,,,,,,,,,,,,,,,,,,,,,,,,,,,,,,,,,,,,,,,,,,,,,,,,,,,,,,,,,,,,,,,,,
1720515305,60,0,4302.436035,4294.358887,4249.358887,4267.436035,4270,4282.820313,4275.128418,4282.436035,4261.794922,4246.666504,4435.641113,4459.743652,4315.384766,4394.230957,0.24095,0.391748,0.414467,0.215493,0.295832,0.243886,0.261412,0.398269,0.214964,0.098949,0.092616,0.151274,0.232834,0.14398,0.19964,0.254537,0.231951,0.193803,0.189499,0.099769,0.08414,0.190392,0.333394,0.107222,0.143103,0.161743,0.578508,0.520458,0.054464,0.063322,0.14197,0.946731,0.186022,0.097851,0.093577,0.126506,0.524761,0.159657,0.086421,0.095257,0.165428,0.624963,0.320274,0.125031,0.123658,0.852237,1.675355,0.897104,0.26581,0.266631,0.195525,2.202868,1.445085,0.329267,0.30258,0.275676,1.610915,1.283543,0.538504,0.667348,0.147928,2.184376,1.530857,0.215355,0.303774,0.50121,2.034791,1.346115,0.357149,0.261706
1720515305,61,0,4302.692383,4297.94873,4251.794922,4276.153809,4275.256348,4282.94873,4276.794922,4287.563965,4266.282227,4253.974121,4438.846191,4460.641113,4317.820313,4392.436035,,,,,,,,,,,,,,,,,,,,,,,,,,,,,,,,,,,,,,,,,,,,,,,,,,,,,,,,,,,,,,,,,,,,,,
1720515305,62,0,4308.589844,4300.256348,4257.307617,4275.641113,4275.512695,4286.666504,4275,4289.230957,4268.077148,4257.307617,4441.666504,4464.615234,4320.641113,4391.282227,,,,,,,,,,,,,,,,,,,,,,,,,,,,,,,,,,,,,,,,,,,,,,,,,,,,,,,,,,,,,,,,,,,,,,
1720515305,63,0,4311.666504,4297.94873,4258.205078,4273.717773,4273.205078,4286.538574,4272.820313,4284.871582,4265.128418,4252.05127,4440,4461.666504,4321.666504,4393.974121,,,,,,,,,,,,,,,,,,,,,,,,,,,,,,,,,,,,,,,,,,,,,,,,,,,,,,,,,,,,,,,,,,,,,,
1720515305,64,0,4310.897461,4298.077148,4253.461426,4278.974121,4280.384766,4281.922852,4274.358887,4282.692383,4262.05127,4244.487305,4441.794922,4453.333496,4322.94873,4399.102539,,,,,,,,,,,,,,,,,,,,,,,,,,,,,,,,,,,,,,,,,,,,,,,,,,,,,,,,,,,,,,,,,,,,,,
1720515305,65,0,4320.897461,4305.384766,4261.025879,4280.897461,4285.512695,4282.94873,4279.487305,4287.436035,4265.769043,4252.05127,4447.94873,4468.846191,4333.077148,4408.974121,,,,,,,,,,,,,,,,,,,,,,,,,,,,,,,,,,,,,,,,,,,,,,,,,,,,,,,,,,,,,,,,,,,,,,
1720515305,66,0,4318.974121,4303.974121,4262.307617,4276.922852,4278.205078,4287.179688,4278.717773,4285.897461,4265.641113,4261.666504,4442.436035,4473.205078,4335.897461,4404.358887,,,,,,,,,,,,,,,,,,,,,,,,,,,,,,,,,,,,,,,,,,,,,,,,,,,,,,,,,,,,,,,,,,,,,,
1720515305,67,0,4301.666504,4297.179688,4251.282227,4275.897461,4275.897461,4287.94873,4275.128418,4279.487305,4259.487305,4246.282227,4431.538574,4445.512695,4322.179688,4384.871582,,,,,,,,,,,,,,,,,,,,,,,,,,,,,,,,,,,,,,,,,,,,,,,,,,,,,,,,,,,,,,,,,,,,,,
1720515305,68,0,4310.769043,4300.256348,4256.410156,4278.974121,4280.512695,4287.307617,4279.487305,4285.384766,4261.922852,4240.384766,4436.410156,4454.871582,4321.025879,4388.846191,,,,,,,,,,,,,,,,,,,,,,,,,,,,,,,,,,,,,,,,,,,,,,,,,,,,,,,,,,,,,,,,,,,,,,
1720515305,69,0,4321.922852,4304.871582,4261.666504,4279.615234,4282.563965,4288.077148,4284.230957,4292.94873,4267.94873,4255,4446.538574,4475.769043,4332.179688,4401.410156,,,,,,,,,,,,,,,,,,,,,,,,,,,,,,,,,,,,,,,,,,,,,,,,,,,,,,,,,,,,,,,,,,,,,,
1720515305,70,0,4308.589844,4302.563965,4257.563965,4278.205078,4281.153809,4291.025879,4282.307617,4291.410156,4266.922852,4262.692383,4448.077148,4463.717773,4333.333496,4393.974121,,,,,,,,,,,,,,,,,,,,,,,,,,,,,,,,,,,,,,,,,,,,,,,,,,,,,,,,,,,,,,,,,,,,,,
1720515305,71,0,4301.666504,4299.358887,4257.179688,4279.102539,4279.743652,4291.282227,4282.307617,4292.436035,4264.487305,4264.743652,4446.666504,4456.153809,4332.307617,4385.384766,,,,,,,,,,,,,,,,,,,,,,,,,,,,,,,,,,,,,,,,,,,,,,,,,,,,,,,,,,,,,,,,,,,,,,
1720515305,72,0,4307.692383,4299.615234,4257.94873,4279.487305,4281.025879,4288.333496,4280.384766,4295.512695,4265.897461,4265.128418,4445.128418,4462.307617,4336.538574,4388.974121,,,,,,,,,,,,,,,,,,,,,,,,,,,,,,,,,,,,,,,,,,,,,,,,,,,,,,,,,,,,,,,,,,,,,,
1720515305,73,0,4313.205078,4302.307617,4258.846191,4278.589844,4279.358887,4287.436035,4271.282227,4291.025879,4265.128418,4263.077148,4444.615234,4466.410156,4338.846191,4395.256348,,,,,,,,,,,,,,,,,,,,,,,,,,,,,,,,,,,,,,,,,,,,,,,,,,,,,,,,,,,,,,,,,,,,,,
1720515305,74,0,4317.692383,4303.846191,4258.846191,4279.487305,4278.974121,4286.666504,4263.846191,4285.769043,4260.512695,4258.205078,4445.641113,4465,4337.307617,4399.615234,,,,,,,,,,,,,,,,,,,,,,,,,,,,,,,,,,,,,,,,,,,,,,,,,,,,,,,,,,,,,,,,,,,,,,
1720515305,75,0,4318.333496,4301.538574,4256.282227,4281.025879,4279.743652,4285.384766,4264.358887,4285.128418,4259.358887,4256.794922,4446.153809,4460.641113,4338.205078,4402.692383,,,,,,,,,,,,,,,,,,,,,,,,,,,,,,,,,,,,,,,,,,,,,,,,,,,,,,,,,,,,,,,,,,,,,,
1720515305,76,0,4317.307617,4301.282227,4257.179688,4275.769043,4278.077148,4287.94873,4270.512695,4287.307617,4263.077148,4262.94873,4447.05127,4459.871582,4343.589844,4403.461426,0.21553,0.43539,0.449812,0.206138,0.300767,0.252359,0.280144,0.367508,0.190249,0.104605,0.076217,0.169861,0.222214,0.126884,0.185139,0.244057,0.304598,0.214555,0.173229,0.085353,0.083073,0.198853,0.372736,0.10209,0.145242,0.149049,0.4829,0.562433,0.054773,0.068821,0.163109,0.823773,0.214764,0.093262,0.089718,0.143293,0.596588,0.169381,0.078419,0.086776,0.171693,0.748475,0.26186,0.112548,0.123368,0.995425,1.606352,0.80647,0.272712,0.249608,0.241216,1.902684,1.153601,0.276906,0.296187,0.244801,1.553239,1.108517,0.450225,0.584545,0.168133,1.979996,1.410647,0.194936,0.282904,0.527425,1.915279,1.279673,0.308776,0.248153
1720515305,77,0,4317.692383,4302.05127,4260.512695,4268.077148,4275.512695,4290.512695,4272.436035,4287.307617,4265.641113,4267.307617,4453.077148,4469.487305,4348.205078,4403.205078,,,,,,,,,,,,,,,,,,,,,,,,,,,,,,,,,,,,,,,,,,,,,,,,,,,,,,,,,,,,,,,,,,,,,,
1720515305,78,0,4308.846191,4295.641113,4255.769043,4268.461426,4273.846191,4286.282227,4267.307617,4280,4259.230957,4256.025879,4453.333496,4465.769043,4339.230957,4396.025879,,,,,,,,,,,,,,,,,,,,,,,,,,,,,,,,,,,,,,,,,,,,,,,,,,,,,,,,,,,,,,,,,,,,,,
1720515305,79,0,4305.128418,4290.897461,4257.692383,4274.358887,4274.230957,4288.333496,4272.692383,4282.05127,4258.461426,4253.205078,4445.897461,4461.410156,4330.641113,4394.358887,,,,,,,,,,,,,,,,,,,,,,,,,,,,,,,,,,,,,,,,,,,,,,,,,,,,,,,,,,,,,,,,,,,,,,
1720515305,80,0,4314.743652,4296.282227,4263.589844,4276.538574,4277.436035,4299.358887,4285.512695,4295.641113,4267.94873,4267.692383,4448.589844,4472.563965,4339.487305,4401.410156,,,,,,,,,,,,,,,,,,,,,,,,,,,,,,,,,,,,,,,,,,,,,,,,,,,,,,,,,,,,,,,,,,,,,,
1720515305,81,0,4310.769043,4297.692383,4256.538574,4275,4280.897461,4303.589844,4284.487305,4297.563965,4268.205078,4262.436035,4452.179688,4468.974121,4342.05127,4396.410156,,,,,,,,,,,,,,,,,,,,,,,,,,,,,,,,,,,,,,,,,,,,,,,,,,,,,,,,,,,,,,,,,,,,,,
1720515305,82,0,4300.128418,4291.794922,4254.743652,4274.102539,4281.666504,4299.358887,4278.333496,4291.153809,4261.666504,4250.128418,4440.641113,4462.94873,4331.922852,4387.563965,,,,,,,,,,,,,,,,,,,,,,,,,,,,,,,,,,,,,,,,,,,,,,,,,,,,,,,,,,,,,,,,,,,,,,
1720515305,83,0,4303.333496,4294.487305,4260.384766,4273.974121,4283.846191,4298.205078,4280.897461,4291.794922,4261.666504,4252.307617,4431.410156,4465.512695,4332.436035,4387.820313,,,,,,,,,,,,,,,,,,,,,,,,,,,,,,,,,,,,,,,,,,,,,,,,,,,,,,,,,,,,,,,,,,,,,,
1720515305,84,0,4314.871582,4301.410156,4261.538574,4274.230957,4284.358887,4299.230957,4280.256348,4292.94873,4265.256348,4254.743652,4439.871582,4466.922852,4337.05127,4391.410156,,,,,,,,,,,,,,,,,,,,,,,,,,,,,,,,,,,,,,,,,,,,,,,,,,,,,,,,,,,,,,,,,,,,,,
1720515305,85,0,4318.717773,4302.179688,4259.615234,4275.128418,4281.153809,4295.256348,4275,4287.820313,4265.128418,4255.897461,4447.563965,4468.077148,4334.487305,4394.615234,,,,,,,,,,,,,,,,,,,,,,,,,,,,,,,,,,,,,,,,,,,,,,,,,,,,,,,,,,,,,,,,,,,,,,
1720515305,86,0,4314.487305,4302.179688,4257.94873,4276.666504,4281.025879,4290.641113,4277.307617,4286.538574,4264.487305,4258.846191,4446.025879,4468.205078,4339.358887,4393.717773,,,,,,,,,,,,,,,,,,,,,,,,,,,,,,,,,,,,,,,,,,,,,,,,,,,,,,,,,,,,,,,,,,,,,,
1720515305,87,0,4310.897461,4302.563965,4261.666504,4278.077148,4283.333496,4292.436035,4280.256348,4291.282227,4266.282227,4258.974121,4450.769043,4470,4349.487305,4391.538574,,,,,,,,,,,,,,,,,,,,,,,,,,,,,,,,,,,,,,,,,,,,,,,,,,,,,,,,,,,,,,,,,,,,,,
1720515305,88,0,4308.717773,4298.974121,4263.461426,4276.025879,4285.384766,4297.05127,4277.179688,4288.717773,4267.179688,4254.487305,4450.128418,4469.230957,4345.897461,4392.179688,,,,,,,,,,,,,,,,,,,,,,,,,,,,,,,,,,,,,,,,,,,,,,,,,,,,,,,,,,,,,,,,,,,,,,
1720515305,89,0,4306.538574,4297.692383,4259.102539,4274.102539,4285.256348,4295.256348,4277.307617,4282.820313,4264.743652,4249.743652,4439.871582,4463.589844,4339.487305,4390.641113,,,,,,,,,,,,,,,,,,,,,,,,,,,,,,,,,,,,,,,,,,,,,,,,,,,,,,,,,,,,,,,,,,,,,,
1720515305,90,0,4307.436035,4297.307617,4258.077148,4276.153809,4283.717773,4291.794922,4279.743652,4286.666504,4262.436035,4250.641113,4443.077148,4465.384766,4341.538574,4391.282227,,,,,,,,,,,,,,,,,,,,,,,,,,,,,,,,,,,,,,,,,,,,,,,,,,,,,,,,,,,,,,,,,,,,,,
1720515305,91,0,4306.282227,4296.410156,4261.282227,4278.974121,4283.461426,4296.538574,4279.743652,4292.05127,4263.974121,4258.974121,4454.615234,4471.666504,4342.563965,4396.025879,,,,,,,,,,,,,,,,,,,,,,,,,,,,,,,,,,,,,,,,,,,,,,,,,,,,,,,,,,,,,,,,,,,,,,
1720515305,92,0,4300.897461,4298.461426,4258.846191,4279.871582,4284.743652,4298.974121,4279.102539,4288.846191,4265.769043,4258.333496,4450.897461,4461.153809,4344.230957,4391.282227,0.201266,0.454884,0.480779,0.204567,0.307025,0.251067,0.32289,0.351894,0.159937,0.115456,0.062681,0.173729,0.200945,0.11285,0.168556,0.242056,0.387257,0.252905,0.159169,0.080986,0.090885,0.199382,0.384425,0.098074,0.146608,0.133929,0.375302,0.566071,0.059003,0.075118,0.174188,0.662498,0.241681,0.091305,0.088404,0.15136,0.681248,0.197272,0.076814,0.083266,0.179504,0.904078,0.226734,0.109573,0.126815,1.245001,1.500813,0.688593,0.279789,0.229828,0.325614,1.631655,0.856749,0.259861,0.288082,0.267405,1.475487,0.900349,0.37974,0.506233,0.270777,1.747215,1.210346,0.19476,0.262024,0.605875,1.774542,1.185057,0.303566,0.2439
1720515305,93,0,4307.820313,4297.307617,4262.307617,4279.102539,4281.025879,4294.230957,4279.358887,4287.436035,4266.666504,4250.641113,4439.871582,4458.717773,4345,4384.102539,,,,,,,,,,,,,,,,,,,,,,,,,,,,,,,,,,,,,,,,,,,,,,,,,,,,,,,,,,,,,,,,,,,,,,
1720515305,94,0,4313.461426,4296.410156,4266.666504,4278.717773,4281.153809,4295.512695,4280.769043,4290.769043,4268.461426,4251.922852,4442.05127,4471.282227,4341.794922,4387.179688,,,,,,,,,,,,,,,,,,,,,,,,,,,,,,,,,,,,,,,,,,,,,,,,,,,,,,,,,,,,,,,,,,,,,,
1720515305,95,0,4297.820313,4298.717773,4255.897461,4277.94873,4285.897461,4297.05127,4277.05127,4288.717773,4264.102539,4249.230957,4444.615234,4458.717773,4338.205078,4385,,,,,,,,,,,,,,,,,,,,,,,,,,,,,,,,,,,,,,,,,,,,,,,,,,,,,,,,,,,,,,,,,,,,,,
1720515305,96,0,4298.205078,4297.179688,4258.974121,4277.179688,4280.512695,4291.794922,4274.358887,4289.358887,4264.102539,4250.384766,4444.102539,4457.692383,4344.102539,4388.205078,,,,,,,,,,,,,,,,,,,,,,,,,,,,,,,,,,,,,,,,,,,,,,,,,,,,,,,,,,,,,,,,,,,,,,
1720515305,97,0,4317.692383,4296.922852,4269.615234,4280.256348,4276.794922,4291.666504,4280.384766,4294.358887,4274.615234,4262.179688,4452.05127,4480.384766,4356.282227,4404.230957,,,,,,,,,,,,,,,,,,,,,,,,,,,,,,,,,,,,,,,,,,,,,,,,,,,,,,,,,,,,,,,,,,,,,,
1720515305,98,0,4319.487305,4304.615234,4269.230957,4282.307617,4285.256348,4297.436035,4284.615234,4293.205078,4278.205078,4262.820313,4459.487305,4482.436035,4361.153809,4414.743652,,,,,,,,,,,,,,,,,,,,,,,,,,,,,,,,,,,,,,,,,,,,,,,,,,,,,,,,,,,,,,,,,,,,,,
1720515305,99,0,4313.974121,4306.153809,4269.615234,4281.410156,4290.128418,4300.897461,4282.820313,4292.820313,4277.179688,4258.461426,4461.410156,4478.333496,4366.025879,4414.230957,,,,,,,,,,,,,,,,,,,,,,,,,,,,,,,,,,,,,,,,,,,,,,,,,,,,,,,,,,,,,,,,,,,,,,
1720515305,100,0,4312.436035,4299.871582,4267.179688,4280.769043,4283.974121,4299.358887,4280.641113,4290.769043,4277.692383,4258.974121,4456.410156,4475.897461,4365.641113,4406.282227,,,,,,,,,,,,,,,,,,,,,,,,,,,,,,,,,,,,,,,,,,,,,,,,,,,,,,,,,,,,,,,,,,,,,,
1720515305,101,0,4312.307617,4300.128418,4267.94873,4280.256348,4283.846191,4300,4282.307617,4286.282227,4275.769043,4255.512695,4454.358887,4475.384766,4361.282227,4408.205078,,,,,,,,,,,,,,,,,,,,,,,,,,,,,,,,,,,,,,,,,,,,,,,,,,,,,,,,,,,,,,,,,,,,,,
1720515305,102,0,4315.897461,4302.563965,4271.666504,4279.615234,4290.256348,4303.974121,4284.230957,4288.589844,4278.205078,4254.230957,4460.769043,4482.436035,4365.384766,4418.205078,,,,,,,,,,,,,,,,,,,,,,,,,,,,,,,,,,,,,,,,,,,,,,,,,,,,,,,,,,,,,,,,,,,,,,
1720515305,103,0,4314.487305,4300.128418,4270.384766,4279.743652,4288.974121,4303.846191,4285.641113,4291.666504,4276.922852,4258.205078,4458.974121,4480.128418,4364.358887,4411.794922,,,,,,,,,,,,,,,,,,,,,,,,,,,,,,,,,,,,,,,,,,,,,,,,,,,,,,,,,,,,,,,,,,,,,,
1720515305,104,0,4303.077148,4297.307617,4270,4278.461426,4286.153809,4301.410156,4289.871582,4288.205078,4269.230957,4256.153809,4448.205078,4472.94873,4355.769043,4399.102539,,,,,,,,,,,,,,,,,,,,,,,,,,,,,,,,,,,,,,,,,,,,,,,,,,,,,,,,,,,,,,,,,,,,,,
1720515305,105,0,4297.563965,4296.282227,4268.974121,4275.256348,4287.307617,4301.025879,4290.128418,4286.666504,4273.333496,4249.487305,4450.256348,4477.179688,4357.563965,4401.794922,,,,,,,,,,,,,,,,,,,,,,,,,,,,,,,,,,,,,,,,,,,,,,,,,,,,,,,,,,,,,,,,,,,,,,
1720515305,106,0,4299.230957,4297.179688,4258.333496,4273.333496,4286.794922,4299.102539,4284.230957,4289.743652,4277.820313,4246.538574,4453.589844,4470.128418,4360.641113,4398.461426,,,,,,,,,,,,,,,,,,,,,,,,,,,,,,,,,,,,,,,,,,,,,,,,,,,,,,,,,,,,,,,,,,,,,,
1720515305,107,0,4299.871582,4299.487305,4257.692383,4272.436035,4282.307617,4294.358887,4278.205078,4286.794922,4267.692383,4246.922852,4439.358887,4456.922852,4353.333496,4388.077148,,,,,,,,,,,,,,,,,,,,,,,,,,,,,,,,,,,,,,,,,,,,,,,,,,,,,,,,,,,,,,,,,,,,,,
1720515305,108,0,4304.615234,4301.922852,4267.820313,4273.846191,4283.717773,4296.922852,4278.717773,4285,4270,4252.179688,4437.179688,4466.025879,4354.871582,4391.538574,0.195931,0.435307,0.49251,0.212461,0.313902,0.236682,0.356818,0.346357,0.130763,0.131299,0.054243,0.160803,0.171337,0.103423,0.15551,0.270538,0.44824,0.297109,0.148229,0.089111,0.108163,0.187628,0.364298,0.099124,0.149415,0.11655,0.286695,0.536341,0.065988,0.080555,0.17504,0.505335,0.257008,0.091831,0.089057,0.149092,0.764236,0.231537,0.083397,0.084977,0.187313,1.048251,0.215911,0.116749,0.131055,1.559598,1.390747,0.551177,0.284666,0.21277,0.430249,1.454934,0.600674,0.276363,0.280095,0.332633,1.382377,0.692332,0.331851,0.453709,0.420618,1.550211,0.969416,0.212882,0.244101,0.7222,1.598603,1.048859,0.339139,0.251159
1720515305,109,0,4305,4301.410156,4264.615234,4276.794922,4287.179688,4302.692383,4280.128418,4288.205078,4282.179688,4253.205078,4454.230957,4468.205078,4362.692383,4392.692383,,,,,,,,,,,,,,,,,,,,,,,,,,,,,,,,,,,,,,,,,,,,,,,,,,,,,,,,,,,,,,,,,,,,,,
1720515305,110,0,4301.666504,4297.94873,4263.077148,4275.128418,4283.717773,4298.846191,4279.102539,4287.563965,4279.743652,4250.256348,4456.153809,4463.077148,4361.410156,4392.563965,,,,,,,,,,,,,,,,,,,,,,,,,,,,,,,,,,,,,,,,,,,,,,,,,,,,,,,,,,,,,,,,,,,,,,
1720515305,111,0,4302.820313,4298.589844,4265.512695,4272.692383,4283.333496,4294.487305,4279.102539,4286.025879,4275.897461,4253.846191,4446.153809,4465.512695,4360.897461,4397.820313,,,,,,,,,,,,,,,,,,,,,,,,,,,,,,,,,,,,,,,,,,,,,,,,,,,,,,,,,,,,,,,,,,,,,,
1720515305,112,0,4302.94873,4302.307617,4265.256348,4274.871582,4287.820313,4299.230957,4281.153809,4287.179688,4280.256348,4255.897461,4445.128418,4463.077148,4362.692383,4394.230957,,,,,,,,,,,,,,,,,,,,,,,,,,,,,,,,,,,,,,,,,,,,,,,,,,,,,,,,,,,,,,,,,,,,,,
1720515305,113,0,4302.05127,4301.282227,4265.128418,4277.94873,4287.563965,4304.615234,4283.205078,4288.461426,4276.410156,4247.179688,4446.538574,4461.153809,4364.358887,4388.974121,,,,,,,,,,,,,,,,,,,,,,,,,,,,,,,,,,,,,,,,,,,,,,,,,,,,,,,,,,,,,,,,,,,,,,
1720515305,114,0,4306.282227,4298.333496,4263.205078,4278.333496,4284.615234,4303.205078,4281.410156,4286.025879,4267.05127,4241.666504,4441.794922,4463.461426,4365.128418,4394.615234,,,,,,,,,,,,,,,,,,,,,,,,,,,,,,,,,,,,,,,,,,,,,,,,,,,,,,,,,,,,,,,,,,,,,,
1720515305,115,0,4313.461426,4299.871582,4266.025879,4278.461426,4287.179688,4303.717773,4282.820313,4286.794922,4269.102539,4245.897461,4444.358887,4466.538574,4364.743652,4401.922852,,,,,,,,,,,,,,,,,,,,,,,,,,,,,,,,,,,,,,,,,,,,,,,,,,,,,,,,,,,,,,,,,,,,,,
1720515305,116,0,4313.205078,4302.436035,4269.615234,4278.461426,4291.282227,4305.384766,4285.769043,4291.025879,4273.717773,4248.205078,4453.717773,4471.282227,4369.230957,4404.102539,,,,,,,,,,,,,,,,,,,,,,,,,,,,,,,,,,,,,,,,,,,,,,,,,,,,,,,,,,,,,,,,,,,,,,
1720515305,117,0,4311.538574,4301.538574,4267.179688,4277.05127,4287.94873,4302.307617,4282.436035,4289.230957,4270.897461,4245.897461,4457.179688,4477.692383,4375.256348,4408.461426,,,,,,,,,,,,,,,,,,,,,,,,,,,,,,,,,,,,,,,,,,,,,,,,,,,,,,,,,,,,,,,,,,,,,,
1720515305,118,0,4311.794922,4300.641113,4267.05127,4275.384766,4282.94873,4300.897461,4278.077148,4287.563965,4272.94873,4249.230957,4457.820313,4480.897461,4376.025879,4410,,,,,,,,,,,,,,,,,,,,,,,,,,,,,,,,,,,,,,,,,,,,,,,,,,,,,,,,,,,,,,,,,,,,,,
1720515305,119,0,4309.102539,4295.512695,4267.94873,4270.769043,4284.487305,4300.256348,4277.05127,4289.743652,4279.871582,4251.666504,4454.743652,4476.538574,4373.589844,4402.307617,,,,,,,,,,,,,,,,,,,,,,,,,,,,,,,,,,,,,,,,,,,,,,,,,,,,,,,,,,,,,,,,,,,,,,
1720515305,120,0,4299.871582,4288.974121,4258.461426,4264.102539,4285.769043,4299.358887,4272.692383,4288.589844,4276.666504,4242.05127,4446.282227,4461.922852,4368.077148,4389.487305,,,,,,,,,,,,,,,,,,,,,,,,,,,,,,,,,,,,,,,,,,,,,,,,,,,,,,,,,,,,,,,,,,,,,,
1720515305,121,0,4294.615234,4289.487305,4258.333496,4267.436035,4282.05127,4303.205078,4270.769043,4288.333496,4275.641113,4238.077148,4446.410156,4461.922852,4366.666504,4385.641113,,,,,,,,,,,,,,,,,,,,,,,,,,,,,,,,,,,,,,,,,,,,,,,,,,,,,,,,,,,,,,,,,,,,,,
1720515305,122,0,4300.384766,4291.922852,4266.282227,4273.717773,4281.794922,4304.743652,4274.487305,4290.769043,4282.563965,4251.025879,4451.282227,4471.538574,4369.615234,4389.487305,,,,,,,,,,,,,,,,,,,,,,,,,,,,,,,,,,,,,,,,,,,,,,,,,,,,,,,,,,,,,,,,,,,,,,
1720515305,123,0,4296.025879,4289.871582,4257.307617,4269.871582,4285.128418,4300.512695,4271.538574,4285.384766,4277.563965,4249.487305,4447.692383,4453.846191,4362.05127,4385.128418,,,,,,,,,,,,,,,,,,,,,,,,,,,,,,,,,,,,,,,,,,,,,,,,,,,,,,,,,,,,,,,,,,,,,,
1720515305,124,0,4290.512695,4286.922852,4258.205078,4268.077148,4283.077148,4304.487305,4271.410156,4285.256348,4274.102539,4239.487305,4448.589844,4454.871582,4359.487305,4383.461426,0.20015,0.382233,0.483209,0.226966,0.318541,0.218246,0.36191,0.337185,0.107049,0.149285,0.051718,0.13466,0.138349,0.097468,0.149454,0.333555,0.462955,0.330528,0.138442,0.106525,0.139086,0.164607,0.317878,0.106871,0.153774,0.102109,0.237513,0.486167,0.073744,0.083606,0.16987,0.39155,0.258179,0.094881,0.091152,0.135452,0.821934,0.260309,0.097215,0.090526,0.190851,1.126385,0.219954,0.130278,0.13339,1.85781,1.290292,0.416218,0.288615,0.205328,0.533936,1.366983,0.413031,0.316435,0.274357,0.413435,1.266432,0.516269,0.304353,0.434405,0.63112,1.408893,0.729324,0.241255,0.231091,0.841184,1.391653,0.874547,0.400133,0.266056
1720515305,125,0,4298.205078,4290.128418,4269.871582,4273.333496,4283.205078,4314.358887,4281.282227,4295.769043,4280.769043,4246.922852,4460,4479.615234,4375.128418,4391.538574,,,,,,,,,,,,,,,,,,,,,,,,,,,,,,,,,,,,,,,,,,,,,,,,,,,,,,,,,,,,,,,,,,,,,,
1720515305,126,0,4302.563965,4292.307617,4265.641113,4273.461426,4287.179688,4311.794922,4281.282227,4293.333496,4280,4250.512695,4459.102539,4470.256348,4377.820313,4391.794922,,,,,,,,,,,,,,,,,,,,,,,,,,,,,,,,,,,,,,,,,,,,,,,,,,,,,,,,,,,,,,,,,,,,,,
1720515305,127,0,4299.358887,4290.512695,4261.922852,4271.153809,4285.897461,4302.436035,4273.333496,4285.256348,4275.769043,4244.230957,4446.922852,4456.025879,4366.153809,4389.230957,,,,,,,,,,,,,,,,,,,,,,,,,,,,,,,,,,,,,,,,,,,,,,,,,,,,,,,,,,,,,,,,,,,,,,
1720515305,0,0,4300,4295.641113,4265.512695,4275.128418,4285,4302.05127,4272.436035,4285.256348,4276.666504,4250,4449.230957,4466.410156,4368.589844,4394.743652,,,,,,,,,,,,,,,,,,,,,,,,,,,,,,,,,,,,,,,,,,,,,,,,,,,,,,,,,,,,,,,,,,,,,,
1720515305,1,0,4306.025879,4301.025879,4266.025879,4276.666504,4283.461426,4302.820313,4270,4282.94873,4277.563965,4257.307617,4457.820313,4471.025879,4376.282227,4402.179688,,,,,,,,,,,,,,,,,,,,,,,,,,,,,,,,,,,,,,,,,,,,,,,,,,,,,,,,,,,,,,,,,,,,,,
1720515305,2,0,4308.461426,4298.461426,4265.384766,4274.230957,4278.589844,4296.153809,4264.487305,4277.820313,4275.512695,4253.205078,4453.205078,4462.692383,4372.820313,4399.487305,,,,,,,,,,,,,,,,,,,,,,,,,,,,,,,,,,,,,,,,,,,,,,,,,,,,,,,,,,,,,,,,,,,,,,
1720515305,3,0,4303.717773,4300,4267.179688,4277.563965,4283.077148,4295,4267.692383,4279.230957,4274.743652,4248.333496,4450.384766,4459.871582,4371.153809,4393.205078,,,,,,,,,,,,,,,,,,,,,,,,,,,,,,,,,,,,,,,,,,,,,,,,,,,,,,,,,,,,,,,,,,,,,,
1720515305,4,0,4295.512695,4299.615234,4268.717773,4278.461426,4286.538574,4301.666504,4270.641113,4281.922852,4276.282227,4247.692383,4456.666504,4465.512695,4370.897461,4392.05127,,,,,,,,,,,,,,,,,,,,,,,,,,,,,,,,,,,,,,,,,,,,,,,,,,,,,,,,,,,,,,,,,,,,,,
1720515305,5,0,4295.512695,4287.436035,4270.641113,4273.974121,4277.05127,4301.794922,4270.128418,4283.717773,4277.692383,4248.974121,4454.358887,4475.384766,4368.589844,4394.358887,,,,,,,,,,,,,,,,,,,,,,,,,,,,,,,,,,,,,,,,,,,,,,,,,,,,,,,,,,,,,,,,,,,,,,
1720515305,6,0,4299.615234,4287.307617,4263.846191,4274.358887,4273.205078,4296.794922,4272.05127,4286.153809,4278.077148,4250.641113,4451.153809,4472.179688,4374.230957,4398.205078,,,,,,,,,,,,,,,,,,,,,,,,,,,,,,,,,,,,,,,,,,,,,,,,,,,,,,,,,,,,,,,,,,,,,,
1720515305,7,0,4297.820313,4297.436035,4257.436035,4279.230957,4280.256348,4298.077148,4271.025879,4284.102539,4279.487305,4246.153809,4455,4459.230957,4376.410156,4395.512695,,,,,,,,,,,,,,,,,,,,,,,,,,,,,,,,,,,,,,,,,,,,,,,,,,,,,,,,,,,,,,,,,,,,,,
1720515305,8,0,4295.769043,4290.256348,4264.230957,4279.230957,4282.563965,4301.025879,4267.307617,4282.179688,4278.333496,4243.077148,4448.589844,4461.153809,4366.538574,4389.230957,,,,,,,,,,,,,,,,,,,,,,,,,,,,,,,,,,,,,,,,,,,,,,,,,,,,,,,,,,,,,,,,,,,,,,
1720515305,9,0,4291.410156,4282.563965,4264.487305,4277.307617,4280.384766,4301.282227,4267.307617,4279.358887,4268.717773,4243.974121,4438.846191,4459.230957,4363.461426,4383.333496,,,,,,,,,,,,,,,,,,,,,,,,,,,,,,,,,,,,,,,,,,,,,,,,,,,,,,,,,,,,,,,,,,,,,,
1720515305,10,0,4287.179688,4286.794922,4258.846191,4276.666504,4280.641113,4301.794922,4268.846191,4275.512695,4266.025879,4244.102539,4442.94873,4452.820313,4365.769043,4378.205078,,,,,,,,,,,,,,,,,,,,,,,,,,,,,,,,,,,,,,,,,,,,,,,,,,,,,,,,,,,,,,,,,,,,,,
1720515305,11,0,4288.205078,4288.717773,4258.077148,4275.641113,4281.922852,4303.077148,4267.307617,4274.487305,4270.384766,4246.666504,4445.384766,4453.846191,4361.153809,4379.487305,,,,,,,,,,,,,,,,,,,,,,,,,,,,,,,,,,,,,,,,,,,,,,,,,,,,,,,,,,,,,,,,,,,,,,
1720515305,12,0,4291.282227,4286.666504,4259.102539,4276.666504,4283.077148,4299.487305,4261.794922,4275.128418,4268.205078,4248.077148,4440.769043,4451.666504,4363.589844,4385,0.218016,0.319297,0.461122,0.24198,0.318424,0.200999,0.336455,0.311772,0.089269,0.164191,0.056467,0.1047,0.105985,0.092289,0.150077,0.41953,0.425528,0.339715,0.127147,0.125595,0.181916,0.135292,0.257276,0.118213,0.157254,0.093306,0.232126,0.427715,0.079863,0.08357,0.166686,0.343931,0.245675,0.099308,0.09351,0.115496,0.834043,0.272602,0.114039,0.09753,0.190373,1.099975,0.226402,0.14381,0.132683,2.062839,1.19255,0.309851,0.295912,0.210339,0.614877,1.312348,0.301046,0.368472,0.272416,0.485666,1.126533,0.386141,0.290442,0.440283,0.856763,1.311075,0.521177,0.269281,0.223657,0.9406,1.184974,0.685204,0.462228,0.280509
1720515305,13,0,4295.128418,4288.333496,4261.410156,4278.205078,4282.820313,4293.717773,4261.538574,4277.94873,4269.102539,4251.666504,4443.717773,4454.615234,4374.102539,4386.922852,,,,,,,,,,,,,,,,,,,,,,,,,,,,,,,,,,,,,,,,,,,,,,,,,,,,,,,,,,,,,,,,,,,,,,
1720515305,14,0,4297.436035,4293.205078,4264.615234,4279.615234,4283.461426,4295.769043,4268.461426,4282.563965,4273.205078,4255.128418,4453.205078,4460,4376.153809,4385.256348,,,,,,,,,,,,,,,,,,,,,,,,,,,,,,,,,,,,,,,,,,,,,,,,,,,,,,,,,,,,,,,,,,,,,,
1720515305,15,0,4297.05127,4294.358887,4267.05127,4282.94873,4283.974121,4300.897461,4270.256348,4284.487305,4272.05127,4253.077148,4456.538574,4463.077148,4376.538574,4389.102539,,,,,,,,,,,,,,,,,,,,,,,,,,,,,,,,,,,,,,,,,,,,,,,,,,,,,,,,,,,,,,,,,,,,,,
1720515305,16,0,4297.94873,4290.897461,4264.102539,4283.717773,4281.153809,4301.025879,4268.846191,4284.743652,4272.307617,4253.461426,4456.282227,4467.307617,4383.077148,4397.05127,,,,,,,,,,,,,,,,,,,,,,,,,,,,,,,,,,,,,,,,,,,,,,,,,,,,,,,,,,,,,,,,,,,,,,
1720515305,17,0,4299.230957,4287.820313,4263.717773,4282.05127,4280.512695,4298.717773,4273.717773,4288.205078,4277.563965,4255,4457.179688,4467.05127,4380.897461,4398.974121,,,,,,,,,,,,,,,,,,,,,,,,,,,,,,,,,,,,,,,,,,,,,,,,,,,,,,,,,,,,,,,,,,,,,,
1720515305,18,0,4291.153809,4284.487305,4266.410156,4280.769043,4279.230957,4295.641113,4273.461426,4286.282227,4277.436035,4251.538574,4451.538574,4459.102539,4369.230957,4389.743652,,,,,,,,,,,,,,,,,,,,,,,,,,,,,,,,,,,,,,,,,,,,,,,,,,,,,,,,,,,,,,,,,,,,,,
1720515305,19,0,4284.615234,4277.563965,4265.256348,4278.205078,4275.128418,4294.102539,4268.077148,4282.436035,4268.589844,4247.563965,4438.717773,4456.666504,4362.179688,4381.538574,,,,,,,,,,,,,,,,,,,,,,,,,,,,,,,,,,,,,,,,,,,,,,,,,,,,,,,,,,,,,,,,,,,,,,
1720515305,20,0,4291.153809,4277.436035,4260.256348,4279.358887,4277.05127,4295.256348,4271.538574,4284.358887,4267.820313,4253.461426,4439.487305,4460.128418,4364.743652,4387.307617,,,,,,,,,,,,,,,,,,,,,,,,,,,,,,,,,,,,,,,,,,,,,,,,,,,,,,,,,,,,,,,,,,,,,,
1720515305,21,0,4296.922852,4286.538574,4262.820313,4287.436035,4282.307617,4297.692383,4274.743652,4283.589844,4272.692383,4257.563965,4454.487305,4462.94873,4378.461426,4397.307617,,,,,,,,,,,,,,,,,,,,,,,,,,,,,,,,,,,,,,,,,,,,,,,,,,,,,,,,,,,,,,,,,,,,,,
1720515305,22,0,4295.256348,4290.256348,4267.94873,4291.282227,4281.025879,4297.05127,4271.025879,4282.820313,4273.205078,4253.333496,4457.05127,4466.794922,4387.692383,4399.743652,,,,,,,,,,,,,,,,,,,,,,,,,,,,,,,,,,,,,,,,,,,,,,,,,,,,,,,,,,,,,,,,,,,,,,
1720515305,23,0,4287.820313,4288.846191,4258.717773,4289.871582,4279.102539,4294.487305,4271.025879,4286.153809,4269.871582,4249.871582,4450.256348,4459.358887,4379.358887,4393.717773,,,,,,,,,,,,,,,,,,,,,,,,,,,,,,,,,,,,,,,,,,,,,,,,,,,,,,,,,,,,,,,,,,,,,,
1720515305,24,0,4287.563965,4286.538574,4257.692383,4292.179688,4277.820313,4292.307617,4268.717773,4282.307617,4265.641113,4243.461426,4445.641113,4453.717773,4369.358887,4387.05127,,,,,,,,,,,,,,,,,,,,,,,,,,,,,,,,,,,,,,,,,,,,,,,,,,,,,,,,,,,,,,,,,,,,,,
1720515305,25,0,4291.153809,4286.025879,4266.025879,4293.461426,4277.820313,4295.384766,4265.256348,4273.461426,4263.333496,4236.410156,4441.794922,4459.871582,4370.256348,4385.897461,,,,,,,,,,,,,,,,,,,,,,,,,,,,,,,,,,,,,,,,,,,,,,,,,,,,,,,,,,,,,,,,,,,,,,
1720515305,26,0,4286.794922,4291.282227,4262.05127,4293.589844,4282.94873,4301.538574,4269.743652,4277.563965,4265.384766,4235.128418,4444.230957,4456.538574,4375.384766,4388.717773,,,,,,,,,,,,,,,,,,,,,,,,,,,,,,,,,,,,,,,,,,,,,,,,,,,,,,,,,,,,,,,,,,,,,,
1720515305,27,0,4285.384766,4289.871582,4257.179688,4291.538574,4280,4299.871582,4271.410156,4285.641113,4269.102539,4244.615234,4449.102539,4454.871582,4379.230957,4391.282227,,,,,,,,,,,,,,,,,,,,,,,,,,,,,,,,,,,,,,,,,,,,,,,,,,,,,,,,,,,,,,,,,,,,,,
1720515305,28,0,4286.666504,4279.615234,4255.384766,4286.922852,4271.538574,4296.282227,4267.436035,4283.333496,4268.974121,4252.692383,4448.333496,4458.589844,4381.282227,4392.307617,0.253522,0.284146,0.441693,0.252277,0.312415,0.186667,0.297042,0.26929,0.076344,0.170879,0.069252,0.084094,0.077068,0.086664,0.153898,0.502189,0.351047,0.319651,0.114042,0.137914,0.225775,0.107325,0.196564,0.127558,0.1564,0.095485,0.259735,0.367441,0.082286,0.080967,0.172617,0.364543,0.223024,0.103469,0.094614,0.094809,0.79191,0.264352,0.128133,0.103932,0.188606,0.96891,0.227043,0.151506,0.129587,2.100784,1.072146,0.246741,0.308399,0.22442,0.663031,1.236329,0.253658,0.419683,0.274565,0.540575,0.982687,0.299113,0.282881,0.456141,1.01429,1.230427,0.37124,0.288324,0.22141,1.023559,1.043007,0.519845,0.503034,0.286817
1720515305,29,0,4285.256348,4279.871582,4255.897461,4287.692383,4272.563965,4298.461426,4269.102539,4277.94873,4268.974121,4248.333496,4445.641113,4454.230957,4376.153809,4391.153809,,,,,,,,,,,,,,,,,,,,,,,,,,,,,,,,,,,,,,,,,,,,,,,,,,,,,,,,,,,,,,,,,,,,,,
