Timestamp,EEG.Counter,EEG.Interpolated,EEG.AF3,EEG.F7,EEG.F3,EEG.FC5,EEG.T7,EEG.P7,EEG.O1,EEG.O2,EEG.P8,EEG.T8,EEG.FC6,EEG.F4,EEG.F8,EEG.AF4,POW.AF3.Theta,POW.AF3.Alpha,POW.AF3.BetaL,POW.AF3.BetaH,POW.AF3.Gamma,POW.F7.Theta,POW.F7.Alpha,POW.F7.BetaL,POW.F7.BetaH,POW.F7.Gamma,POW.F3.Theta,POW.F3.Alpha,POW.F3.BetaL,POW.F3.BetaH,POW.F3.Gamma,POW.FC5.Theta,POW.FC5.Alpha,POW.FC5.BetaL,POW.FC5.BetaH,POW.FC5.Gamma,POW.T7.Theta,POW.T7.Alpha,POW.T7.BetaL,POW.T7.BetaH,POW.T7.Gamma,POW.P7.Theta,POW.P7.Alpha,POW.P7.BetaL,POW.P7.BetaH,POW.P7.Gamma,POW.O1.Theta,POW.O1.Alpha,POW.O1.BetaL,POW.O1.BetaH,POW.O1.Gamma,POW.O2.Theta,POW.O2.Alpha,POW.O2.BetaL,POW.O2.BetaH,POW.O2.Gamma,POW.P8.Theta,POW.P8.Alpha,POW.P8.BetaL,POW.P8.BetaH,POW.P8.Gamma,POW.T8.Theta,POW.T8.Alpha,POW.T8.BetaL,POW.T8.BetaH,POW.T8.Gamma,POW.FC6.Theta,POW.FC6.Alpha,POW.FC6.BetaL,POW.FC6.BetaH,POW.FC6.Gamma,POW.F4.Theta,POW.F4.Alpha,POW.F4.BetaL,POW.F4.BetaH,POW.F4.Gamma,POW.F8.Theta,POW.F8.Alpha,POW.F8.BetaL,POW.F8.BetaH,POW.F8.Gamma,POW.AF4.Theta,POW.AF4.Alpha,POW.AF4.BetaL,POW.AF4.BetaH,POW.AF4.Gamma
1720079246,120,0,4398.461426,4395.769043,4333.589844,4374.358887,4400.641113,4396.666504,4392.94873,4388.974121,4383.846191,4340.641113,4309.230957,4466.282227,4333.974121,4321.922852,,,,,,,,,,,,,,,,,,,,,,,,,,,,,,,,,,,,,,,,,,,,,,,,,,,,,,,,,,,,,,,,,,,,,,
1720079246,121,0,4407.307617,4401.410156,4336.410156,4374.615234,4400.384766,4396.410156,4393.461426,4386.025879,4385.256348,4343.717773,4310.384766,4472.563965,4345.641113,4321.794922,,,,,,,,,,,,,,,,,,,,,,,,,,,,,,,,,,,,,,,,,,,,,,,,,,,,,,,,,,,,,,,,,,,,,,
1720079246,122,0,4406.410156,4398.589844,4341.153809,4366.025879,4396.922852,4396.666504,4390.641113,4392.05127,4386.666504,4353.589844,4309.615234,4480.641113,4346.922852,4329.102539,,,,,,,,,,,,,,,,,,,,,,,,,,,,,,,,,,,,,,,,,,,,,,,,,,,,,,,,,,,,,,,,,,,,,,
1720079246,123,0,4405.769043,4392.692383,4341.794922,4371.153809,4395.641113,4396.922852,4393.717773,4396.282227,4391.410156,4357.05127,4309.487305,4478.205078,4345.256348,4327.563965,,,,,,,,,,,,,,,,,,,,,,,,,,,,,,,,,,,,,,,,,,,,,,,,,,,,,,,,,,,,,,,,,,,,,,
1720079246,124,0,4406.282227,4396.410156,4341.538574,4379.871582,4396.410156,4402.179688,4400.769043,4398.461426,4399.358887,4356.666504,4314.871582,4478.717773,4348.077148,4325.384766,,,,,,,,,,,,,,,,,,,,,,,,,,,,,,,,,,,,,,,,,,,,,,,,,,,,,,,,,,,,,,,,,,,,,,
1720079246,125,0,4402.563965,4399.358887,4344.743652,4376.282227,4399.102539,4410.897461,4402.692383,4401.410156,4409.230957,4361.794922,4321.666504,4484.102539,4347.179688,4327.179688,,,,,,,,,,,,,,,,,,,,,,,,,,,,,,,,,,,,,,,,,,,,,,,,,,,,,,,,,,,,,,,,,,,,,,
1720079246,126,0,4397.94873,4396.794922,4340.769043,4367.05127,4404.743652,4415.512695,4403.974121,4399.230957,4413.077148,4365,4318.077148,4478.717773,4342.692383,4324.615234,,,,,,,,,,,,,,,,,,,,,,,,,,,,,,,,,,,,,,,,,,,,,,,,,,,,,,,,,,,,,,,,,,,,,,
1720079246,127,0,4392.179688,4394.358887,4329.871582,4365,4402.820313,4411.666504,4404.743652,4398.846191,4406.025879,4356.538574,4307.94873,4472.94873,4337.05127,4325.256348,,,,,,,,,,,,,,,,,,,,,,,,,,,,,,,,,,,,,,,,,,,,,,,,,,,,,,,,,,,,,,,,,,,,,,
1720079246,0,0,4388.205078,4388.717773,4322.692383,4370.897461,4399.230957,4406.666504,4400.769043,4400.897461,4398.205078,4350.897461,4305.641113,4472.692383,4330.641113,4323.205078,4.954021,0.607429,0.235465,1.220145,0.219707,1.231656,1.230907,0.519869,1.483923,0.33084,1.764857,0.911071,0.53798,0.889184,0.267043,0.66541,1.139488,0.309283,3.189958,0.811833,0.525397,0.884573,0.189594,0.28614,0.081348,0.914339,0.6731,0.263174,0.123767,0.100879,1.169452,0.698566,0.41623,0.205094,0.114929,0.395964,1.015709,0.181232,0.138852,0.17332,2.011151,1.403045,0.321564,0.528113,0.236349,9.845251,7.254147,1.43051,1.722809,0.39066,0.951977,1.336349,0.45341,0.400255,0.162091,1.079667,1.055862,0.375181,0.521011,0.198744,1.579036,1.489709,0.494848,0.892313,0.279615,1.424994,0.54263,0.183513,0.475231,0.2003
1720079246,1,0,4393.205078,4389.230957,4324.615234,4377.692383,4409.487305,4409.358887,4399.230957,4388.846191,4402.05127,4356.282227,4311.025879,4467.436035,4334.102539,4320.128418,,,,,,,,,,,,,,,,,,,,,,,,,,,,,,,,,,,,,,,,,,,,,,,,,,,,,,,,,,,,,,,,,,,,,,
1720079246,2,0,4402.05127,4396.538574,4331.666504,4379.358887,4412.94873,4409.358887,4405.384766,4383.333496,4397.307617,4358.974121,4310.769043,4469.871582,4342.820313,4331.922852,,,,,,,,,,,,,,,,,,,,,,,,,,,,,,,,,,,,,,,,,,,,,,,,,,,,,,,,,,,,,,,,,,,,,,
1720079246,3,0,4405.128418,4395.512695,4338.205078,4381.538574,4403.077148,4406.410156,4408.205078,4390.769043,4385.897461,4355,4302.436035,4476.410156,4338.205078,4340,,,,,,,,,,,,,,,,,,,,,,,,,,,,,,,,,,,,,,,,,,,,,,,,,,,,,,,,,,,,,,,,,,,,,,
1720079246,4,0,4405.256348,4396.282227,4341.410156,4387.692383,4406.025879,4406.410156,4403.333496,4385.384766,4391.025879,4357.05127,4298.205078,4472.05127,4329.358887,4331.666504,,,,,,,,,,,,,,,,,,,,,,,,,,,,,,,,,,,,,,,,,,,,,,,,,,,,,,,,,,,,,,,,,,,,,,
1720079246,5,0,4398.461426,4396.666504,4335.641113,4377.307617,4409.487305,4401.410156,4397.179688,4379.487305,4393.717773,4358.589844,4300.128418,4466.922852,4326.538574,4324.487305,,,,,,,,,,,,,,,,,,,,,,,,,,,,,,,,,,,,,,,,,,,,,,,,,,,,,,,,,,,,,,,,,,,,,,
1720079246,6,0,4389.230957,4389.487305,4327.820313,4359.871582,4399.615234,4399.615234,4394.358887,4380.769043,4385.641113,4353.589844,4296.922852,4465.641113,4325.897461,4320.384766,,,,,,,,,,,,,,,,,,,,,,,,,,,,,,,,,,,,,,,,,,,,,,,,,,,,,,,,,,,,,,,,,,,,,,
1720079246,7,0,4395.512695,4392.179688,4337.307617,4368.846191,4398.846191,4407.820313,4402.820313,4384.743652,4393.846191,4362.692383,4298.333496,4471.282227,4332.179688,4324.358887,,,,,,,,,,,,,,,,,,,,,,,,,,,,,,,,,,,,,,,,,,,,,,,,,,,,,,,,,,,,,,,,,,,,,,
1720079246,8,0,4403.077148,4400.128418,4344.358887,4381.794922,4405.641113,4409.358887,4410.128418,4389.102539,4408.717773,4380.769043,4309.230957,4477.179688,4342.179688,4331.666504,,,,,,,,,,,,,,,,,,,,,,,,,,,,,,,,,,,,,,,,,,,,,,,,,,,,,,,,,,,,,,,,,,,,,,
1720079246,9,0,4394.230957,4394.871582,4330.897461,4373.974121,4405.128418,4404.487305,4404.358887,4387.307617,4403.461426,4378.846191,4311.794922,4471.666504,4341.922852,4324.230957,,,,,,,,,,,,,,,,,,,,,,,,,,,,,,,,,,,,,,,,,,,,,,,,,,,,,,,,,,,,,,,,,,,,,,
1720079246,10,0,4391.666504,4391.666504,4327.179688,4369.358887,4406.282227,4412.05127,4405.512695,4387.563965,4399.615234,4369.487305,4305.897461,4468.077148,4337.94873,4318.077148,,,,,,,,,,,,,,,,,,,,,,,,,,,,,,,,,,,,,,,,,,,,,,,,,,,,,,,,,,,,,,,,,,,,,,
1720079246,11,0,4402.05127,4397.436035,4342.179688,4382.307617,4409.743652,4417.94873,4416.794922,4395,4411.538574,4376.666504,4305,4475.256348,4334.743652,4330.256348,,,,,,,,,,,,,,,,,,,,,,,,,,,,,,,,,,,,,,,,,,,,,,,,,,,,,,,,,,,,,,,,,,,,,,
1720079246,12,0,4404.615234,4399.743652,4344.743652,4393.461426,4410.512695,4412.436035,4414.358887,4394.743652,4411.538574,4383.205078,4305.897461,4472.563965,4328.461426,4331.025879,,,,,,,,,,,,,,,,,,,,,,,,,,,,,,,,,,,,,,,,,,,,,,,,,,,,,,,,,,,,,,,,,,,,,,
1720079246,13,0,4404.230957,4401.922852,4340.641113,4391.282227,4414.871582,4411.666504,4406.153809,4385.897461,4400.769043,4377.692383,4302.307617,4467.692383,4333.589844,4318.077148,,,,,,,,,,,,,,,,,,,,,,,,,,,,,,,,,,,,,,,,,,,,,,,,,,,,,,,,,,,,,,,,,,,,,,
1720079246,14,0,4406.153809,4401.922852,4342.307617,4385,4415.128418,4413.205078,4407.692383,4386.410156,4393.333496,4368.461426,4296.794922,4475.384766,4341.282227,4323.846191,,,,,,,,,,,,,,,,,,,,,,,,,,,,,,,,,,,,,,,,,,,,,,,,,,,,,,,,,,,,,,,,,,,,,,
1720079246,15,0,4403.461426,4400.384766,4342.307617,4385.384766,4411.410156,4408.846191,4408.205078,4380.897461,4391.666504,4365.512695,4290.128418,4470,4333.333496,4324.743652,,,,,,,,,,,,,,,,,,,,,,,,,,,,,,,,,,,,,,,,,,,,,,,,,,,,,,,,,,,,,,,,,,,,,,
1720079246,16,0,4401.410156,4400.384766,4338.974121,4385.256348,4411.922852,4404.358887,4405.641113,4377.05127,4392.563965,4372.563965,4292.820313,4463.205078,4328.846191,4316.922852,4.702495,0.605562,0.197896,1.22792,0.2265,1.329252,1.291048,0.486121,1.464817,0.342237,1.769964,1.009059,0.472154,0.881051,0.286832,0.777259,1.261454,0.294238,3.120801,0.753913,0.553527,0.927933,0.200739,0.307402,0.083901,0.878036,0.714066,0.233878,0.144681,0.101336,1.14029,0.849668,0.372983,0.219445,0.110042,0.414009,1.231909,0.162973,0.148444,0.140989,2.128802,1.721582,0.33846,0.570557,0.217058,12.017648,8.80695,1.546898,1.804823,0.360058,1.019219,1.383741,0.527387,0.448246,0.151075,0.991769,1.226169,0.329066,0.531604,0.175537,1.58239,1.674921,0.467259,0.916203,0.274301,1.346829,0.592311,0.150342,0.453795,0.181425
1720079246,17,0,4401.153809,4397.179688,4334.230957,4375,4407.436035,4402.94873,4402.820313,4385,4389.615234,4374.615234,4304.743652,4471.666504,4335.769043,4320.769043,,,,,,,,,,,,,,,,,,,,,,,,,,,,,,,,,,,,,,,,,,,,,,,,,,,,,,,,,,,,,,,,,,,,,,
1720079246,18,0,4401.666504,4402.179688,4336.153809,4377.436035,4405.641113,4401.538574,4401.410156,4385.256348,4390.256348,4373.077148,4307.436035,4472.692383,4340.256348,4322.820313,,,,,,,,,,,,,,,,,,,,,,,,,,,,,,,,,,,,,,,,,,,,,,,,,,,,,,,,,,,,,,,,,,,,,,
1720079246,19,0,4408.717773,4412.94873,4342.94873,4388.974121,4408.846191,4401.153809,4402.05127,4386.538574,4397.94873,4383.717773,4301.282227,4468.461426,4339.102539,4322.179688,,,,,,,,,,,,,,,,,,,,,,,,,,,,,,,,,,,,,,,,,,,,,,,,,,,,,,,,,,,,,,,,,,,,,,
1720079246,20,0,4417.179688,4412.94873,4348.333496,4392.94873,4405,4406.922852,4407.692383,4394.487305,4405.641113,4395.256348,4305.128418,4475.512695,4340.769043,4330.128418,,,,,,,,,,,,,,,,,,,,,,,,,,,,,,,,,,,,,,,,,,,,,,,,,,,,,,,,,,,,,,,,,,,,,,
1720079246,21,0,4423.589844,4408.974121,4359.358887,4401.153809,4403.461426,4411.922852,4414.615234,4396.282227,4410.512695,4401.410156,4316.538574,4488.461426,4345.512695,4342.179688,,,,,,,,,,,,,,,,,,,,,,,,,,,,,,,,,,,,,,,,,,,,,,,,,,,,,,,,,,,,,,,,,,,,,,
1720079246,22,0,4428.974121,4410.769043,4367.563965,4400.128418,4414.615234,4414.358887,4413.717773,4384.358887,4412.05127,4406.282227,4311.282227,4483.589844,4350,4333.461426,,,,,,,,,,,,,,,,,,,,,,,,,,,,,,,,,,,,,,,,,,,,,,,,,,,,,,,,,,,,,,,,,,,,,,
1720079246,23,0,4427.692383,4408.077148,4360.897461,4381.410156,4414.871582,4414.102539,4412.820313,4390.897461,4410,4402.692383,4313.846191,4486.538574,4346.410156,4340.384766,,,,,,,,,,,,,,,,,,,,,,,,,,,,,,,,,,,,,,,,,,,,,,,,,,,,,,,,,,,,,,,,,,,,,,
1720079246,24,0,4424.102539,4399.358887,4352.179688,4373.846191,4403.846191,4406.666504,4413.077148,4401.025879,4403.077148,4393.333496,4325.128418,4491.666504,4338.077148,4353.589844,,,,,,,,,,,,,,,,,,,,,,,,,,,,,,,,,,,,,,,,,,,,,,,,,,,,,,,,,,,,,,,,,,,,,,
1720079246,25,0,4424.871582,4401.410156,4353.717773,4388.077148,4407.820313,4402.94873,4407.94873,4384.487305,4401.025879,4396.282227,4311.025879,4477.307617,4343.077148,4334.743652,,,,,,,,,,,,,,,,,,,,,,,,,,,,,,,,,,,,,,,,,,,,,,,,,,,,,,,,,,,,,,,,,,,,,,
1720079246,26,0,4428.974121,4411.153809,4355.384766,4398.974121,4415.128418,4412.179688,4404.871582,4383.077148,4399.615234,4396.538574,4301.410156,4476.153809,4352.563965,4332.563965,,,,,,,,,,,,,,,,,,,,,,,,,,,,,,,,,,,,,,,,,,,,,,,,,,,,,,,,,,,,,,,,,,,,,,
1720079246,27,0,4435.769043,4418.589844,4356.025879,4402.692383,4412.563965,4414.102539,4408.974121,4386.666504,4390.897461,4382.94873,4301.538574,4476.025879,4345.641113,4337.820313,,,,,,,,,,,,,,,,,,,,,,,,,,,,,,,,,,,,,,,,,,,,,,,,,,,,,,,,,,,,,,,,,,,,,,
1720079246,28,0,4438.461426,4415.256348,4355.384766,4400.641113,4410.384766,4401.410156,4406.538574,4385.897461,4382.820313,4370.897461,4300,4472.692383,4332.05127,4336.153809,,,,,,,,,,,,,,,,,,,,,,,,,,,,,,,,,,,,,,,,,,,,,,,,,,,,,,,,,,,,,,,,,,,,,,
1720079246,29,0,4435.256348,4412.563965,4351.538574,4393.717773,4411.538574,4399.615234,4396.410156,4381.410156,4382.179688,4367.820313,4296.153809,4466.410156,4327.563965,4334.102539,,,,,,,,,,,,,,,,,,,,,,,,,,,,,,,,,,,,,,,,,,,,,,,,,,,,,,,,,,,,,,,,,,,,,,
1720079246,30,0,4440,4420.641113,4353.333496,4399.487305,4411.410156,4411.025879,4403.717773,4377.692383,4387.94873,4374.615234,4291.922852,4460.128418,4331.025879,4332.179688,,,,,,,,,,,,,,,,,,,,,,,,,,,,,,,,,,,,,,,,,,,,,,,,,,,,,,,,,,,,,,,,,,,,,,
1720079246,31,0,4452.436035,4428.077148,4359.358887,4411.025879,4410.769043,4413.205078,4416.538574,4393.461426,4396.794922,4384.615234,4307.563965,4473.974121,4340.769043,4347.179688,,,,,,,,,,,,,,,,,,,,,,,,,,,,,,,,,,,,,,,,,,,,,,,,,,,,,,,,,,,,,,,,,,,,,,
1720079246,32,0,4461.666504,4436.794922,4367.563965,4412.179688,4411.025879,4408.589844,4413.717773,4390.256348,4403.205078,4387.436035,4318.077148,4478.461426,4348.077148,4352.692383,4.024957,0.682114,0.212603,1.158196,0.23927,1.411616,1.343583,0.436347,1.351551,0.358639,1.639039,1.168727,0.4043,0.856011,0.304183,0.944252,1.32765,0.277288,2.787481,0.705625,0.596551,0.938957,0.210439,0.320691,0.096646,0.797044,0.743299,0.20484,0.168749,0.101831,1.097521,0.951156,0.331096,0.240174,0.106313,0.467205,1.368355,0.179318,0.165138,0.140273,2.014503,1.98978,0.435285,0.596517,0.20149,13.907518,9.651985,1.568273,1.745105,0.32124,1.058897,1.325139,0.607921,0.498168,0.15626,0.967637,1.365506,0.286981,0.518659,0.180838,1.604526,1.820451,0.545975,0.928607,0.289033,1.168398,0.608324,0.150146,0.429412,0.175858
1720079246,33,0,4468.077148,4441.922852,4375.512695,4409.230957,4411.282227,4409.743652,4410.384766,4383.205078,4405,4387.692383,4307.179688,4474.743652,4342.692383,4346.666504,,,,,,,,,,,,,,,,,,,,,,,,,,,,,,,,,,,,,,,,,,,,,,,,,,,,,,,,,,,,,,,,,,,,,,
1720079246,34,0,4474.743652,4444.743652,4378.974121,4418.589844,4417.179688,4412.436035,4413.717773,4393.717773,4407.179688,4394.487305,4302.563965,4480.512695,4338.846191,4349.615234,,,,,,,,,,,,,,,,,,,,,,,,,,,,,,,,,,,,,,,,,,,,,,,,,,,,,,,,,,,,,,,,,,,,,,
1720079246,35,0,4475.897461,4446.794922,4377.94873,4423.077148,4421.538574,4411.666504,4413.589844,4393.717773,4405.384766,4393.205078,4310.769043,4483.077148,4341.410156,4353.461426,,,,,,,,,,,,,,,,,,,,,,,,,,,,,,,,,,,,,,,,,,,,,,,,,,,,,,,,,,,,,,,,,,,,,,
1720079246,36,0,4466.025879,4436.282227,4371.794922,4406.794922,4416.025879,4410.128418,4408.974121,4384.102539,4394.102539,4373.205078,4309.871582,4476.794922,4332.820313,4343.846191,,,,,,,,,,,,,,,,,,,,,,,,,,,,,,,,,,,,,,,,,,,,,,,,,,,,,,,,,,,,,,,,,,,,,,
1720079246,37,0,4466.025879,4434.487305,4370.512695,4402.563965,4410.256348,4410.384766,4407.692383,4383.717773,4391.666504,4371.538574,4305.897461,4477.307617,4327.179688,4340.384766,,,,,,,,,,,,,,,,,,,,,,,,,,,,,,,,,,,,,,,,,,,,,,,,,,,,,,,,,,,,,,,,,,,,,,
1720079246,38,0,4482.692383,4454.102539,4378.589844,4419.230957,4412.692383,4413.717773,4410.512695,4389.871582,4405.512695,4394.358887,4314.487305,4483.461426,4338.077148,4350.128418,,,,,,,,,,,,,,,,,,,,,,,,,,,,,,,,,,,,,,,,,,,,,,,,,,,,,,,,,,,,,,,,,,,,,,
1720079246,39,0,4489.230957,4466.922852,4386.025879,4430.641113,4415.256348,4414.615234,4415.256348,4396.282227,4412.94873,4402.436035,4317.692383,4488.333496,4344.615234,4352.692383,,,,,,,,,,,,,,,,,,,,,,,,,,,,,,,,,,,,,,,,,,,,,,,,,,,,,,,,,,,,,,,,,,,,,,
1720079246,40,0,4480.512695,4459.102539,4380.769043,4432.692383,4413.461426,4413.589844,4413.846191,4395.256348,4402.05127,4393.717773,4306.538574,4484.358887,4338.077148,4346.794922,,,,,,,,,,,,,,,,,,,,,,,,,,,,,,,,,,,,,,,,,,,,,,,,,,,,,,,,,,,,,,,,,,,,,,
1720079246,41,0,4477.692383,4456.282227,4374.102539,4432.94873,4413.333496,4412.179688,4406.666504,4382.179688,4395.384766,4396.538574,4299.102539,4470.769043,4336.666504,4340.897461,,,,,,,,,,,,,,,,,,,,,,,,,,,,,,,,,,,,,,,,,,,,,,,,,,,,,,,,,,,,,,,,,,,,,,
1720079246,42,0,4479.230957,4453.077148,4371.153809,4419.615234,4415.256348,4408.974121,4400.512695,4386.666504,4398.717773,4397.05127,4304.487305,4472.692383,4333.589844,4343.717773,,,,,,,,,,,,,,,,,,,,,,,,,,,,,,,,,,,,,,,,,,,,,,,,,,,,,,,,,,,,,,,,,,,,,,
1720079246,43,0,4463.461426,4432.179688,4353.974121,4392.563965,4407.820313,4402.05127,4390.897461,4394.358887,4385.512695,4378.077148,4298.077148,4474.871582,4308.205078,4338.205078,,,,,,,,,,,,,,,,,,,,,,,,,,,,,,,,,,,,,,,,,,,,,,,,,,,,,,,,,,,,,,,,,,,,,,
1720079246,44,0,4448.589844,4416.794922,4340,4380,4395,4396.922852,4384.743652,4383.205078,4365.384766,4363.974121,4284.615234,4461.666504,4287.94873,4324.871582,,,,,,,,,,,,,,,,,,,,,,,,,,,,,,,,,,,,,,,,,,,,,,,,,,,,,,,,,,,,,,,,,,,,,,
1720079246,45,0,4463.974121,4428.461426,4354.615234,4395.641113,4398.333496,4402.94873,4395.384766,4381.025879,4377.05127,4377.05127,4288.333496,4463.333496,4306.922852,4325.256348,,,,,,,,,,,,,,,,,,,,,,,,,,,,,,,,,,,,,,,,,,,,,,,,,,,,,,,,,,,,,,,,,,,,,,
1720079246,46,0,4488.077148,4451.794922,4377.94873,4419.358887,4413.205078,4414.102539,4412.94873,4400.641113,4399.871582,4398.333496,4308.974121,4494.871582,4340.384766,4345.512695,,,,,,,,,,,,,,,,,,,,,,,,,,,,,,,,,,,,,,,,,,,,,,,,,,,,,,,,,,,,,,,,,,,,,,
1720079246,47,0,4490.128418,4461.794922,4383.205078,4425.769043,4418.589844,4415.641113,4413.077148,4402.820313,4396.666504,4404.743652,4311.794922,4504.358887,4341.153809,4349.871582,,,,,,,,,,,,,,,,,,,,,,,,,,,,,,,,,,,,,,,,,,,,,,,,,,,,,,,,,,,,,,,,,,,,,,
1720079246,48,0,4482.307617,4462.563965,4379.487305,4430.897461,4415.512695,4411.025879,4404.230957,4390.128418,4394.230957,4406.282227,4298.461426,4483.205078,4328.846191,4334.358887,3.208871,0.826267,0.286096,1.038312,0.255271,1.450412,1.350291,0.380451,1.179857,0.376901,1.399278,1.394441,0.351249,0.819232,0.317662,1.136458,1.322707,0.266854,2.293399,0.676463,0.657085,0.895473,0.217782,0.322434,0.117587,0.697186,0.754685,0.184641,0.192468,0.10245,1.042175,0.97487,0.30242,0.26592,0.106197,0.516084,1.395672,0.22294,0.180553,0.157094,1.716923,2.2055,0.603772,0.605023,0.192113,15.209088,9.573142,1.508706,1.553958,0.27762,1.071336,1.203765,0.685699,0.541668,0.171125,0.98776,1.475809,0.260328,0.489477,0.201902,1.651068,1.931558,0.691013,0.927456,0.315407,0.964332,0.596024,0.175134,0.406396,0.173092
1720079246,49,0,4480,4457.05127,4376.153809,4437.307617,4413.333496,4411.922852,4408.205078,4405.128418,4408.589844,4415.256348,4309.871582,4487.05127,4342.692383,4343.974121,,,,,,,,,,,,,,,,,,,,,,,,,,,,,,,,,,,,,,,,,,,,,,,,,,,,,,,,,,,,,,,,,,,,,,
1720079246,50,0,4480.769043,4449.615234,4374.358887,4422.820313,4415.384766,4414.871582,4414.871582,4412.563965,4412.563965,4419.615234,4320.256348,4492.05127,4349.487305,4352.179688,,,,,,,,,,,,,,,,,,,,,,,,,,,,,,,,,,,,,,,,,,,,,,,,,,,,,,,,,,,,,,,,,,,,,,
1720079246,51,0,4477.820313,4448.846191,4376.025879,4406.025879,4417.307617,4411.794922,4415,4393.846191,4402.692383,4414.358887,4306.794922,4476.025879,4333.333496,4336.025879,,,,,,,,,,,,,,,,,,,,,,,,,,,,,,,,,,,,,,,,,,,,,,,,,,,,,,,,,,,,,,,,,,,,,,
1720079246,52,0,4475.769043,4446.410156,4375.128418,4408.461426,4419.230957,4414.102539,4413.846191,4394.102539,4394.743652,4412.05127,4307.94873,4478.717773,4328.205078,4338.077148,,,,,,,,,,,,,,,,,,,,,,,,,,,,,,,,,,,,,,,,,,,,,,,,,,,,,,,,,,,,,,,,,,,,,,
1720079246,53,0,4478.846191,4447.436035,4373.717773,4417.436035,4421.922852,4424.102539,4414.615234,4407.820313,4391.153809,4413.333496,4317.563965,4491.025879,4331.922852,4348.205078,,,,,,,,,,,,,,,,,,,,,,,,,,,,,,,,,,,,,,,,,,,,,,,,,,,,,,,,,,,,,,,,,,,,,,
1720079246,54,0,4483.974121,4456.153809,4378.717773,4422.179688,4422.179688,4428.333496,4413.461426,4395.641113,4386.794922,4410,4303.333496,4475.384766,4327.179688,4331.794922,,,,,,,,,,,,,,,,,,,,,,,,,,,,,,,,,,,,,,,,,,,,,,,,,,,,,,,,,,,,,,,,,,,,,,
1720079246,55,0,4492.820313,4463.974121,4392.05127,4433.077148,4423.205078,4421.794922,4414.230957,4395.769043,4387.563965,4413.846191,4307.563965,4483.589844,4340.256348,4346.282227,,,,,,,,,,,,,,,,,,,,,,,,,,,,,,,,,,,,,,,,,,,,,,,,,,,,,,,,,,,,,,,,,,,,,,
1720079246,56,0,4499.230957,4461.282227,4400.128418,4433.205078,4423.974121,4414.871582,4416.153809,4418.205078,4399.871582,4423.333496,4329.358887,4510.512695,4358.333496,4372.94873,,,,,,,,,,,,,,,,,,,,,,,,,,,,,,,,,,,,,,,,,,,,,,,,,,,,,,,,,,,,,,,,,,,,,,
1720079246,57,0,4490.384766,4448.846191,4387.436035,4411.794922,4417.307617,4412.692383,4409.615234,4405,4409.102539,4420.769043,4312.436035,4491.666504,4342.94873,4346.025879,,,,,,,,,,,,,,,,,,,,,,,,,,,,,,,,,,,,,,,,,,,,,,,,,,,,,,,,,,,,,,,,,,,,,,
1720079246,58,0,4481.410156,4442.436035,4376.025879,4406.282227,4409.230957,4412.94873,4410,4396.794922,4403.846191,4408.461426,4302.94873,4484.102539,4330.641113,4336.153809,,,,,,,,,,,,,,,,,,,,,,,,,,,,,,,,,,,,,,,,,,,,,,,,,,,,,,,,,,,,,,,,,,,,,,
1720079246,59,0,4490.256348,4455.512695,4386.538574,4425.128418,4414.615234,4415.897461,4422.436035,4414.487305,4404.230957,4410,4316.153809,4502.820313,4341.794922,4352.563965,,,,,,,,,,,,,,,,,,,,,,,,,,,,,,,,,,,,,,,,,,,,,,,,,,,,,,,,,,,,,,,,,,,,,,
1720079246,60,0,4492.436035,4463.717773,4393.205078,4431.410156,4419.743652,4418.461426,4424.615234,4414.743652,4412.179688,4416.153809,4316.153809,4500.769043,4339.871582,4350.128418,,,,,,,,,,,,,,,,,,,,,,,,,,,,,,,,,,,,,,,,,,,,,,,,,,,,,,,,,,,,,,,,,,,,,,
1720079246,61,0,4477.820313,4447.307617,4379.487305,4411.922852,4410.641113,4417.307617,4415.769043,4406.666504,4399.615234,4402.692383,4307.94873,4488.717773,4323.077148,4343.846191,,,,,,,,,,,,,,,,,,,,,,,,,,,,,,,,,,,,,,,,,,,,,,,,,,,,,,,,,,,,,,,,,,,,,,
1720079246,62,0,4478.205078,4441.282227,4372.692383,4404.358887,4408.717773,4416.153809,4411.666504,4403.461426,4385.256348,4388.846191,4300.641113,4484.615234,4320.641113,4345,,,,,,,,,,,,,,,,,,,,,,,,,,,,,,,,,,,,,,,,,,,,,,,,,,,,,,,,,,,,,,,,,,,,,,
1720079246,63,0,4488.589844,4448.589844,4382.307617,4414.358887,4414.102539,4414.487305,4415,4404.487305,4395.384766,4396.794922,4304.487305,4492.307617,4331.922852,4350.128418,,,,,,,,,,,,,,,,,,,,,,,,,,,,,,,,,,,,,,,,,,,,,,,,,,,,,,,,,,,,,,,,,,,,,,
1720079246,64,0,4482.94873,4443.205078,4384.487305,4415.641113,4407.307617,4412.563965,4414.102539,4410.641113,4400.128418,4402.05127,4312.94873,4500.384766,4335.641113,4355.384766,2.54207,1.010501,0.417776,0.905151,0.269006,1.507607,1.300834,0.333871,0.998868,0.38965,1.130707,1.667934,0.33344,0.776386,0.324001,1.348952,1.250539,0.282945,1.776351,0.662297,0.732401,0.804062,0.220197,0.310652,0.14193,0.607124,0.75076,0.177556,0.209998,0.103518,0.962001,0.923701,0.294021,0.292096,0.110813,0.551007,1.321503,0.283891,0.188982,0.179994,1.33398,2.38012,0.802601,0.595513,0.188841,15.330311,8.63996,1.38983,1.280007,0.236826,1.069142,1.094043,0.751228,0.571198,0.189673,1.014992,1.572217,0.253362,0.453056,0.226111,1.710713,2.014861,0.846224,0.919083,0.340408,0.819035,0.571162,0.218431,0.38637,0.171022
1720079246,65,0,4475,4444.102539,4374.487305,4412.05127,4404.487305,4411.922852,4404.743652,4397.179688,4390.641113,4391.282227,4301.153809,4485.384766,4328.974121,4344.487305,,,,,,,,,,,,,,,,,,,,,,,,,,,,,,,,,,,,,,,,,,,,,,,,,,,,,,,,,,,,,,,,,,,,,,
1720079246,66,0,4476.794922,4454.102539,4366.666504,4411.538574,4414.230957,4412.94873,4400.897461,4386.282227,4394.102539,4389.358887,4290.128418,4478.589844,4322.94873,4339.102539,,,,,,,,,,,,,,,,,,,,,,,,,,,,,,,,,,,,,,,,,,,,,,,,,,,,,,,,,,,,,,,,,,,,,,
1720079246,67,0,4474.487305,4449.615234,4364.358887,4411.538574,4411.922852,4413.974121,4408.205078,4406.410156,4397.820313,4391.410156,4300,4494.871582,4322.563965,4352.179688,,,,,,,,,,,,,,,,,,,,,,,,,,,,,,,,,,,,,,,,,,,,,,,,,,,,,,,,,,,,,,,,,,,,,,
1720079246,68,0,4467.307617,4440.641113,4365.512695,4412.820313,4407.179688,4413.974121,4414.102539,4405.256348,4390.641113,4381.410156,4293.205078,4484.743652,4323.589844,4339.358887,,,,,,,,,,,,,,,,,,,,,,,,,,,,,,,,,,,,,,,,,,,,,,,,,,,,,,,,,,,,,,,,,,,,,,
1720079246,69,0,4466.538574,4444.102539,4367.05127,4410.256348,4412.05127,4413.974121,4414.615234,4396.282227,4391.282227,4377.179688,4293.589844,4482.436035,4326.282227,4335.256348,,,,,,,,,,,,,,,,,,,,,,,,,,,,,,,,,,,,,,,,,,,,,,,,,,,,,,,,,,,,,,,,,,,,,,
1720079246,70,0,4471.153809,4445.384766,4367.307617,4398.717773,4409.230957,4413.461426,4415,4410.512695,4397.05127,4381.153809,4310.512695,4501.794922,4328.589844,4348.846191,,,,,,,,,,,,,,,,,,,,,,,,,,,,,,,,,,,,,,,,,,,,,,,,,,,,,,,,,,,,,,,,,,,,,,
1720079246,71,0,4476.922852,4441.282227,4367.820313,4398.846191,4405.512695,4411.410156,4413.077148,4404.487305,4396.410156,4380.256348,4305.384766,4495.384766,4328.846191,4341.025879,,,,,,,,,,,,,,,,,,,,,,,,,,,,,,,,,,,,,,,,,,,,,,,,,,,,,,,,,,,,,,,,,,,,,,
1720079246,72,0,4478.077148,4443.461426,4371.666504,4407.94873,4410.769043,4410.897461,4413.333496,4393.333496,4394.487305,4376.410156,4301.666504,4489.615234,4328.589844,4339.871582,,,,,,,,,,,,,,,,,,,,,,,,,,,,,,,,,,,,,,,,,,,,,,,,,,,,,,,,,,,,,,,,,,,,,,
1720079246,73,0,4478.077148,4445.256348,4373.974121,4407.307617,4411.538574,4412.436035,4413.974121,4396.538574,4392.307617,4376.153809,4299.743652,4493.974121,4322.05127,4343.717773,,,,,,,,,,,,,,,,,,,,,,,,,,,,,,,,,,,,,,,,,,,,,,,,,,,,,,,,,,,,,,,,,,,,,,
1720079246,74,0,4482.05127,4444.230957,4373.077148,4408.333496,4404.487305,4411.666504,4410.897461,4397.179688,4385.897461,4373.846191,4292.94873,4491.410156,4319.358887,4340.897461,,,,,,,,,,,,,,,,,,,,,,,,,,,,,,,,,,,,,,,,,,,,,,,,,,,,,,,,,,,,,,,,,,,,,,
1720079246,75,0,4488.717773,4446.282227,4376.922852,4414.487305,4403.846191,4409.358887,4418.974121,4397.94873,4382.692383,4372.436035,4296.282227,4493.974121,4329.102539,4340.512695,,,,,,,,,,,,,,,,,,,,,,,,,,,,,,,,,,,,,,,,,,,,,,,,,,,,,,,,,,,,,,,,,,,,,,
1720079246,76,0,4489.871582,4446.794922,4382.436035,4412.179688,4409.743652,4411.666504,4431.538574,4401.282227,4386.025879,4376.922852,4306.153809,4499.487305,4335.769043,4343.461426,,,,,,,,,,,,,,,,,,,,,,,,,,,,,,,,,,,,,,,,,,,,,,,,,,,,,,,,,,,,,,,,,,,,,,
1720079246,77,0,4489.230957,4444.358887,4385.641113,4409.487305,4409.615234,4415.641113,4430.897461,4405.256348,4393.846191,4380.256348,4309.743652,4497.563965,4333.974121,4347.436035,,,,,,,,,,,,,,,,,,,,,,,,,,,,,,,,,,,,,,,,,,,,,,,,,,,,,,,,,,,,,,,,,,,,,,
1720079246,78,0,4493.461426,4444.743652,4386.282227,4416.282227,4405.897461,4413.589844,4429.230957,4408.717773,4401.666504,4382.563965,4307.563965,4498.205078,4335,4350.256348,,,,,,,,,,,,,,,,,,,,,,,,,,,,,,,,,,,,,,,,,,,,,,,,,,,,,,,,,,,,,,,,,,,,,,
1720079246,79,0,4484.487305,4444.230957,4378.589844,4412.307617,4405.512695,4411.538574,4428.333496,4407.436035,4398.846191,4379.102539,4301.538574,4498.333496,4329.102539,4344.871582,,,,,,,,,,,,,,,,,,,,,,,,,,,,,,,,,,,,,,,,,,,,,,,,,,,,,,,,,,,,,,,,,,,,,,
1720079246,80,0,4469.615234,4441.538574,4368.461426,4398.589844,4408.205078,4414.102539,4420.897461,4397.436035,4393.461426,4371.282227,4294.743652,4487.307617,4320.897461,4334.871582,2.092026,1.193811,0.599632,0.793464,0.276111,1.540798,1.20119,0.327003,0.859771,0.389316,0.890027,1.94198,0.375288,0.737353,0.321007,1.515852,1.125294,0.361489,1.365649,0.651291,0.801266,0.688435,0.21716,0.287967,0.163503,0.53882,0.738928,0.184605,0.217104,0.10563,0.856091,0.831161,0.303754,0.31245,0.119974,0.557978,1.1854,0.344977,0.188231,0.204426,0.976202,2.521097,0.983588,0.567631,0.191513,14.179854,7.176056,1.255079,0.997799,0.209513,1.063854,1.06131,0.791782,0.580674,0.21031,1.006595,1.676205,0.268165,0.417511,0.24817,1.75998,2.07199,0.980521,0.91969,0.355766,0.763677,0.556471,0.279651,0.369522,0.176535
1720079246,81,0,4474.102539,4443.717773,4371.538574,4400.384766,4407.179688,4414.743652,4417.05127,4399.102539,4397.05127,4373.589844,4300.512695,4489.230957,4327.94873,4341.922852,,,,,,,,,,,,,,,,,,,,,,,,,,,,,,,,,,,,,,,,,,,,,,,,,,,,,,,,,,,,,,,,,,,,,,
1720079246,82,0,4474.230957,4441.025879,4373.717773,4403.846191,4405.641113,4412.436035,4415,4402.307617,4396.666504,4381.666504,4295.384766,4491.666504,4326.153809,4338.333496,,,,,,,,,,,,,,,,,,,,,,,,,,,,,,,,,,,,,,,,,,,,,,,,,,,,,,,,,,,,,,,,,,,,,,
1720079246,83,0,4459.230957,4433.205078,4363.333496,4393.846191,4406.666504,4410.128418,4409.358887,4386.538574,4389.487305,4382.179688,4280.897461,4480.256348,4310.128418,4323.077148,,,,,,,,,,,,,,,,,,,,,,,,,,,,,,,,,,,,,,,,,,,,,,,,,,,,,,,,,,,,,,,,,,,,,,
1720079246,84,0,4461.922852,4434.358887,4365.769043,4393.974121,4409.102539,4411.794922,4416.282227,4396.025879,4392.05127,4384.743652,4297.179688,4494.230957,4317.563965,4340,,,,,,,,,,,,,,,,,,,,,,,,,,,,,,,,,,,,,,,,,,,,,,,,,,,,,,,,,,,,,,,,,,,,,,
1720079246,85,0,4476.794922,4443.846191,4381.153809,4413.974121,4413.974121,4415.641113,4428.205078,4414.615234,4402.692383,4396.410156,4316.666504,4510.897461,4340.641113,4352.94873,,,,,,,,,,,,,,,,,,,,,,,,,,,,,,,,,,,,,,,,,,,,,,,,,,,,,,,,,,,,,,,,,,,,,,
1720079246,86,0,4473.717773,4443.717773,4379.230957,4419.615234,4412.94873,4415.897461,4427.563965,4405.641113,4403.077148,4399.102539,4308.717773,4499.230957,4337.307617,4338.846191,,,,,,,,,,,,,,,,,,,,,,,,,,,,,,,,,,,,,,,,,,,,,,,,,,,,,,,,,,,,,,,,,,,,,,
1720079246,87,0,4466.538574,4434.102539,4367.692383,4407.05127,4407.179688,4412.307617,4424.102539,4400,4393.589844,4392.94873,4301.025879,4491.794922,4324.615234,4335.769043,,,,,,,,,,,,,,,,,,,,,,,,,,,,,,,,,,,,,,,,,,,,,,,,,,,,,,,,,,,,,,,,,,,,,,
1720079246,88,0,4467.307617,4432.307617,4370.641113,4403.717773,4408.077148,4412.436035,4425,4404.102539,4390.256348,4394.358887,4310.641113,4497.436035,4337.436035,4347.436035,,,,,,,,,,,,,,,,,,,,,,,,,,,,,,,,,,,,,,,,,,,,,,,,,,,,,,,,,,,,,,,,,,,,,,
1720079246,89,0,4470.256348,4437.563965,4377.179688,4402.94873,4412.436035,4416.282227,4427.820313,4407.307617,4401.538574,4404.615234,4316.282227,4501.666504,4352.307617,4352.436035,,,,,,,,,,,,,,,,,,,,,,,,,,,,,,,,,,,,,,,,,,,,,,,,,,,,,,,,,,,,,,,,,,,,,,
1720079246,90,0,4470.897461,4438.077148,4375,4399.615234,4412.692383,4415.512695,4428.077148,4407.05127,4414.615234,4420.384766,4306.025879,4500.384766,4345.512695,4347.307617,,,,,,,,,,,,,,,,,,,,,,,,,,,,,,,,,,,,,,,,,,,,,,,,,,,,,,,,,,,,,,,,,,,,,,
1720079246,91,0,4465.384766,4429.358887,4368.205078,4396.153809,4409.743652,4411.538574,4423.974121,4404.102539,4411.410156,4428.589844,4299.615234,4500.769043,4334.615234,4346.282227,,,,,,,,,,,,,,,,,,,,,,,,,,,,,,,,,,,,,,,,,,,,,,,,,,,,,,,,,,,,,,,,,,,,,,
1720079246,92,0,4457.179688,4427.436035,4363.974121,4390.384766,4413.333496,4410,4422.307617,4402.94873,4402.05127,4425.384766,4302.307617,4498.589844,4343.077148,4343.461426,,,,,,,,,,,,,,,,,,,,,,,,,,,,,,,,,,,,,,,,,,,,,,,,,,,,,,,,,,,,,,,,,,,,,,
1720079246,93,0,4458.333496,4439.102539,4370,4405.512695,4415.384766,4413.461426,4426.922852,4408.589844,4403.333496,4426.794922,4303.077148,4498.205078,4346.538574,4342.820313,,,,,,,,,,,,,,,,,,,,,,,,,,,,,,,,,,,,,,,,,,,,,,,,,,,,,,,,,,,,,,,,,,,,,,
1720079246,94,0,4463.333496,4447.94873,4377.820313,4432.94873,4413.205078,4417.563965,4429.871582,4413.589844,4407.692383,4428.205078,4302.563965,4500.256348,4330.641113,4346.025879,,,,,,,,,,,,,,,,,,,,,,,,,,,,,,,,,,,,,,,,,,,,,,,,,,,,,,,,,,,,,,,,,,,,,,
1720079246,95,0,4461.666504,4445.384766,4373.205078,4422.307617,4420.128418,4417.94873,4427.05127,4404.487305,4402.820313,4416.538574,4301.282227,4495.384766,4324.743652,4340.384766,,,,,,,,,,,,,,,,,,,,,,,,,,,,,,,,,,,,,,,,,,,,,,,,,,,,,,,,,,,,,,,,,,,,,,
1720079246,96,0,4458.333496,4440.512695,4363.846191,4392.820313,4428.589844,4420.256348,4422.94873,4399.487305,4391.025879,4401.922852,4304.230957,4493.077148,4332.307617,4338.205078,1.90806,1.322275,0.810206,0.719975,0.276126,1.600274,1.066313,0.386478,0.794812,0.373252,0.762886,2.149009,0.488968,0.709166,0.31077,1.619748,0.970747,0.5417,1.138711,0.633904,0.846674,0.576092,0.207026,0.260737,0.176933,0.491061,0.724197,0.201278,0.215366,0.108992,0.745272,0.741264,0.324381,0.323276,0.13261,0.53389,1.033937,0.388163,0.178442,0.230775,0.723586,2.625197,1.123965,0.524005,0.201035,11.901085,5.61018,1.161884,0.776364,0.204318,1.06687,1.125443,0.789821,0.566342,0.235644,0.96002,1.789645,0.306536,0.386295,0.271062,1.782341,2.08838,1.087188,0.941799,0.364443,0.804108,0.564268,0.356299,0.353869,0.199111
1720079246,97,0,4459.358887,4438.974121,4364.487305,4397.94873,4427.179688,4421.282227,4422.692383,4395.897461,4381.538574,4398.461426,4303.461426,4488.461426,4331.282227,4334.230957,,,,,,,,,,,,,,,,,,,,,,,,,,,,,,,,,,,,,,,,,,,,,,,,,,,,,,,,,,,,,,,,,,,,,,
1720079246,98,0,4457.436035,4433.333496,4369.358887,4403.589844,4418.333496,4419.102539,4427.179688,4398.205078,4383.461426,4398.974121,4300.769043,4493.589844,4328.077148,4334.230957,,,,,,,,,,,,,,,,,,,,,,,,,,,,,,,,,,,,,,,,,,,,,,,,,,,,,,,,,,,,,,,,,,,,,,
1720079246,99,0,4450.641113,4425.384766,4368.077148,4388.974121,4411.794922,4416.282227,4427.05127,4407.692383,4390.512695,4394.487305,4306.410156,4504.487305,4331.922852,4342.307617,,,,,,,,,,,,,,,,,,,,,,,,,,,,,,,,,,,,,,,,,,,,,,,,,,,,,,,,,,,,,,,,,,,,,,
1720079246,100,0,4451.922852,4425.256348,4367.05127,4393.974121,4412.436035,4414.615234,4424.230957,4404.487305,4398.974121,4399.615234,4308.846191,4499.615234,4331.794922,4339.102539,,,,,,,,,,,,,,,,,,,,,,,,,,,,,,,,,,,,,,,,,,,,,,,,,,,,,,,,,,,,,,,,,,,,,,
1720079246,101,0,4462.307617,4432.692383,4373.077148,4407.436035,4415.512695,4413.717773,4426.282227,4405.512695,4409.871582,4412.692383,4309.871582,4506.025879,4338.589844,4342.563965,,,,,,,,,,,,,,,,,,,,,,,,,,,,,,,,,,,,,,,,,,,,,,,,,,,,,,,,,,,,,,,,,,,,,,
1720079246,102,0,4464.615234,4442.94873,4377.179688,4413.077148,4413.717773,4413.077148,4421.666504,4406.025879,4408.333496,4412.05127,4309.871582,4511.410156,4351.794922,4346.282227,,,,,,,,,,,,,,,,,,,,,,,,,,,,,,,,,,,,,,,,,,,,,,,,,,,,,,,,,,,,,,,,,,,,,,
1720079246,103,0,4462.307617,4447.05127,4372.820313,4425,4410.769043,4412.307617,4414.487305,4398.461426,4395.256348,4398.589844,4305.769043,4498.717773,4341.794922,4342.307617,,,,,,,,,,,,,,,,,,,,,,,,,,,,,,,,,,,,,,,,,,,,,,,,,,,,,,,,,,,,,,,,,,,,,,
1720079246,104,0,4460.384766,4438.974121,4364.102539,4418.846191,4413.077148,4410.641113,4415.897461,4396.282227,4389.358887,4387.820313,4304.487305,4493.461426,4326.538574,4343.205078,,,,,,,,,,,,,,,,,,,,,,,,,,,,,,,,,,,,,,,,,,,,,,,,,,,,,,,,,,,,,,,,,,,,,,
1720079246,105,0,4457.563965,4430.769043,4360.256348,4393.333496,4415.512695,4411.666504,4420.384766,4394.743652,4389.615234,4386.025879,4301.282227,4495.769043,4335.769043,4336.410156,,,,,,,,,,,,,,,,,,,,,,,,,,,,,,,,,,,,,,,,,,,,,,,,,,,,,,,,,,,,,,,,,,,,,,
1720079246,106,0,4454.615234,4431.410156,4363.205078,4388.205078,4416.410156,4412.307617,4424.743652,4396.922852,4385.897461,4386.922852,4300.384766,4497.179688,4343.461426,4335.769043,,,,,,,,,,,,,,,,,,,,,,,,,,,,,,,,,,,,,,,,,,,,,,,,,,,,,,,,,,,,,,,,,,,,,,
1720079246,107,0,4449.615234,4431.538574,4366.410156,4397.307617,4417.05127,4412.820313,4428.205078,4400.128418,4386.410156,4380.641113,4300.641113,4492.436035,4328.205078,4339.230957,,,,,,,,,,,,,,,,,,,,,,,,,,,,,,,,,,,,,,,,,,,,,,,,,,,,,,,,,,,,,,,,,,,,,,
1720079246,108,0,4444.487305,4428.589844,4362.179688,4400.512695,4413.717773,4415.384766,4425,4395.769043,4391.666504,4371.025879,4291.153809,4480.769043,4321.922852,4327.436035,,,,,,,,,,,,,,,,,,,,,,,,,,,,,,,,,,,,,,,,,,,,,,,,,,,,,,,,,,,,,,,,,,,,,,
1720079246,109,0,4446.282227,4427.94873,4359.358887,4404.487305,4411.794922,4413.333496,4421.666504,4400.512695,4391.282227,4373.717773,4292.05127,4488.846191,4337.94873,4335.769043,,,,,,,,,,,,,,,,,,,,,,,,,,,,,,,,,,,,,,,,,,,,,,,,,,,,,,,,,,,,,,,,,,,,,,
1720079247,110,0,4448.077148,4430,4362.692383,4404.102539,4414.102539,4411.794922,4421.282227,4408.205078,4389.487305,4382.436035,4304.743652,4502.692383,4347.05127,4349.743652,,,,,,,,,,,,,,,,,,,,,,,,,,,,,,,,,,,,,,,,,,,,,,,,,,,,,,,,,,,,,,,,,,,,,,
1720079247,111,0,4442.692383,4428.461426,4361.153809,4397.563965,4410.256348,4412.05127,4413.589844,4394.871582,4389.487305,4380.512695,4302.94873,4493.846191,4339.230957,4338.589844,,,,,,,,,,,,,,,,,,,,,,,,,,,,,,,,,,,,,,,,,,,,,,,,,,,,,,,,,,,,,,,,,,,,,,
1720079247,112,0,4441.538574,4424.871582,4360.769043,4406.922852,4402.94873,4409.102539,4412.179688,4393.589844,4389.871582,4381.282227,4298.461426,4495.512695,4333.333496,4340.897461,1.820712,1.357059,1.009869,0.677764,0.272495,1.605603,0.912354,0.516412,0.801952,0.34536,0.789794,2.224514,0.657479,0.690347,0.298812,1.6087,0.811198,0.832063,1.099115,0.608574,0.850576,0.484564,0.188541,0.23471,0.180048,0.452966,0.704012,0.219494,0.210321,0.112617,0.664911,0.684657,0.356102,0.325622,0.146956,0.483367,0.898266,0.402261,0.162472,0.263959,0.596505,2.673063,1.229468,0.469281,0.218741,9.129546,4.267511,1.134415,0.643955,0.222746,1.080596,1.246895,0.734141,0.53033,0.270761,0.876155,1.881003,0.364341,0.359552,0.303646,1.774422,2.033079,1.170084,0.978243,0.377084,0.884938,0.586612,0.435121,0.335565,0.245689
1720079247,113,0,4453.205078,4432.436035,4370.512695,4426.538574,4412.820313,4415.384766,4423.461426,4407.179688,4397.05127,4394.871582,4306.666504,4508.717773,4346.666504,4353.333496,,,,,,,,,,,,,,,,,,,,,,,,,,,,,,,,,,,,,,,,,,,,,,,,,,,,,,,,,,,,,,,,,,,,,,
1720079247,114,0,4460.769043,4439.102539,4375.384766,4416.922852,4428.333496,4427.563965,4425.512695,4405.641113,4400.256348,4396.794922,4313.205078,4504.487305,4358.589844,4350,,,,,,,,,,,,,,,,,,,,,,,,,,,,,,,,,,,,,,,,,,,,,,,,,,,,,,,,,,,,,,,,,,,,,,
1720079247,115,0,4457.05127,4432.563965,4368.077148,4390.769043,4427.692383,4427.307617,4418.205078,4403.333496,4389.871582,4381.410156,4304.102539,4493.974121,4347.307617,4341.666504,,,,,,,,,,,,,,,,,,,,,,,,,,,,,,,,,,,,,,,,,,,,,,,,,,,,,,,,,,,,,,,,,,,,,,
1720079247,116,0,4455.256348,4433.974121,4373.333496,4398.717773,4426.282227,4425.128418,4420.128418,4406.153809,4390.128418,4379.230957,4298.205078,4496.410156,4337.179688,4341.025879,,,,,,,,,,,,,,,,,,,,,,,,,,,,,,,,,,,,,,,,,,,,,,,,,,,,,,,,,,,,,,,,,,,,,,
1720079247,117,0,4462.563965,4447.05127,4386.666504,4425.512695,4428.333496,4428.846191,4428.333496,4410.512695,4404.487305,4387.436035,4308.205078,4508.846191,4344.102539,4348.077148,,,,,,,,,,,,,,,,,,,,,,,,,,,,,,,,,,,,,,,,,,,,,,,,,,,,,,,,,,,,,,,,,,,,,,
1720079247,118,0,4464.358887,4448.077148,4382.307617,4421.794922,4423.846191,4423.333496,4424.487305,4410.128418,4403.205078,4379.871582,4310.641113,4508.205078,4354.743652,4346.922852,,,,,,,,,,,,,,,,,,,,,,,,,,,,,,,,,,,,,,,,,,,,,,,,,,,,,,,,,,,,,,,,,,,,,,
1720079247,119,0,4460.769043,4449.230957,4378.077148,4412.436035,4422.179688,4413.846191,4414.487305,4405,4398.846191,4371.922852,4312.436035,4504.230957,4363.974121,4346.282227,,,,,,,,,,,,,,,,,,,,,,,,,,,,,,,,,,,,,,,,,,,,,,,,,,,,,,,,,,,,,,,,,,,,,,
1720079247,120,0,4461.922852,4457.05127,4384.230957,4428.974121,4423.589844,4413.717773,4412.05127,4400.641113,4404.358887,4374.615234,4321.538574,4508.333496,4366.794922,4350.769043,,,,,,,,,,,,,,,,,,,,,,,,,,,,,,,,,,,,,,,,,,,,,,,,,,,,,,,,,,,,,,,,,,,,,,
1720079247,121,0,4459.871582,4450,4378.846191,4432.179688,4418.717773,4414.615234,4412.436035,4400,4398.846191,4368.846191,4317.563965,4503.077148,4351.794922,4348.077148,,,,,,,,,,,,,,,,,,,,,,,,,,,,,,,,,,,,,,,,,,,,,,,,,,,,,,,,,,,,,,,,,,,,,,
1720079247,122,0,4441.153809,4429.487305,4355.769043,4400.897461,4407.692383,4408.974121,4403.077148,4394.615234,4381.666504,4355,4298.461426,4482.820313,4323.461426,4333.846191,,,,,,,,,,,,,,,,,,,,,,,,,,,,,,,,,,,,,,,,,,,,,,,,,,,,,,,,,,,,,,,,,,,,,,
1720079247,123,0,4408.333496,4402.436035,4330.512695,4370.641113,4395,4403.333496,4393.077148,4378.846191,4367.94873,4338.077148,4281.025879,4461.666504,4293.077148,4311.282227,,,,,,,,,,,,,,,,,,,,,,,,,,,,,,,,,,,,,,,,,,,,,,,,,,,,,,,,,,,,,,,,,,,,,,
1720079247,124,0,4401.666504,4390.897461,4329.871582,4374.358887,4395.128418,4405.641113,4398.333496,4384.102539,4365.897461,4330.897461,4287.05127,4469.102539,4291.922852,4317.94873,,,,,,,,,,,,,,,,,,,,,,,,,,,,,,,,,,,,,,,,,,,,,,,,,,,,,,,,,,,,,,,,,,,,,,
1720079247,125,0,4431.922852,4422.307617,4356.153809,4402.820313,4416.922852,4416.025879,4410.512695,4399.615234,4382.307617,4349.487305,4306.153809,4491.922852,4328.717773,4341.153809,,,,,,,,,,,,,,,,,,,,,,,,,,,,,,,,,,,,,,,,,,,,,,,,,,,,,,,,,,,,,,,,,,,,,,
1720079247,126,0,4452.05127,4451.410156,4374.871582,4416.794922,4431.410156,4422.563965,4419.102539,4402.94873,4400.512695,4366.538574,4313.205078,4504.871582,4352.436035,4345.641113,,,,,,,,,,,,,,,,,,,,,,,,,,,,,,,,,,,,,,,,,,,,,,,,,,,,,,,,,,,,,,,,,,,,,,
1720079247,127,0,4443.077148,4440,4371.410156,4409.487305,4419.102539,4417.692383,4419.230957,4405,4399.358887,4363.974121,4311.410156,4506.794922,4350.256348,4343.846191,,,,,,,,,,,,,,,,,,,,,,,,,,,,,,,,,,,,,,,,,,,,,,,,,,,,,,,,,,,,,,,,,,,,,,
1720079247,0,0,4430.512695,4428.077148,4363.846191,4411.282227,4402.94873,4409.230957,4412.563965,4396.922852,4390.641113,4363.205078,4305.641113,4493.974121,4342.563965,4334.871582,1.789564,1.297336,1.154501,0.647667,0.270031,1.570933,0.755977,0.695796,0.853513,0.313475,0.977639,2.135214,0.833513,0.674098,0.290595,1.498934,0.662727,1.19445,1.194177,0.580876,0.810654,0.418104,0.161072,0.213488,0.174554,0.416219,0.672345,0.231582,0.205948,0.114208,0.639823,0.665062,0.40107,0.323181,0.160368,0.432709,0.785933,0.390822,0.146855,0.307456,0.568741,2.638921,1.322858,0.414468,0.243465,6.395384,3.326131,1.168186,0.585419,0.256506,1.099498,1.354093,0.636692,0.481055,0.318158,0.774238,1.907664,0.428683,0.338502,0.351794,1.747281,1.890605,1.23906,1.008484,0.404976,0.967204,0.607474,0.495351,0.31276,0.31437
1720079247,1,0,4428.717773,4431.538574,4357.94873,4413.205078,4402.179688,4406.538574,4402.692383,4388.589844,4388.205078,4366.410156,4300.256348,4487.692383,4334.358887,4331.153809,,,,,,,,,,,,,,,,,,,,,,,,,,,,,,,,,,,,,,,,,,,,,,,,,,,,,,,,,,,,,,,,,,,,,,
1720079247,2,0,4428.077148,4428.205078,4352.820313,4394.871582,4410.128418,4407.692383,4396.666504,4389.102539,4388.589844,4367.307617,4303.333496,4492.436035,4338.589844,4336.282227,,,,,,,,,,,,,,,,,,,,,,,,,,,,,,,,,,,,,,,,,,,,,,,,,,,,,,,,,,,,,,,,,,,,,,
1720079247,3,0,4427.94873,4427.820313,4355.512695,4393.846191,4414.102539,4410,4404.230957,4392.05127,4397.94873,4377.05127,4308.974121,4492.307617,4351.410156,4335.384766,,,,,,,,,,,,,,,,,,,,,,,,,,,,,,,,,,,,,,,,,,,,,,,,,,,,,,,,,,,,,,,,,,,,,,
1720079247,4,0,4432.820313,4434.615234,4360.512695,4413.077148,4413.333496,4416.153809,4412.563965,4397.563965,4410.769043,4386.282227,4309.615234,4494.615234,4348.077148,4336.153809,,,,,,,,,,,,,,,,,,,,,,,,,,,,,,,,,,,,,,,,,,,,,,,,,,,,,,,,,,,,,,,,,,,,,,
1720079247,5,0,4427.563965,4431.282227,4356.794922,4407.05127,4412.94873,4417.820313,4408.974121,4396.794922,4409.358887,4376.666504,4304.871582,4494.230957,4335.384766,4332.820313,,,,,,,,,,,,,,,,,,,,,,,,,,,,,,,,,,,,,,,,,,,,,,,,,,,,,,,,,,,,,,,,,,,,,,
1720079247,6,0,4416.794922,4426.282227,4353.846191,4392.307617,4415.384766,4414.102539,4407.179688,4392.436035,4401.025879,4365.641113,4306.153809,4491.794922,4336.538574,4330,,,,,,,,,,,,,,,,,,,,,,,,,,,,,,,,,,,,,,,,,,,,,,,,,,,,,,,,,,,,,,,,,,,,,,
1720079247,7,0,4418.333496,4427.94873,4355.769043,4397.179688,4416.538574,4416.922852,4412.307617,4397.307617,4401.922852,4372.820313,4311.794922,4496.666504,4340.769043,4334.615234,,,,,,,,,,,,,,,,,,,,,,,,,,,,,,,,,,,,,,,,,,,,,,,,,,,,,,,,,,,,,,,,,,,,,,
1720079247,8,0,4424.871582,4428.205078,4355.897461,4402.94873,4415.384766,4420.897461,4414.102539,4397.820313,4408.717773,4384.615234,4305.256348,4495.769043,4336.922852,4330.256348,,,,,,,,,,,,,,,,,,,,,,,,,,,,,,,,,,,,,,,,,,,,,,,,,,,,,,,,,,,,,,,,,,,,,,
1720079247,9,0,4426.538574,4426.922852,4357.820313,4402.179688,4411.282227,4417.179688,4415.641113,4395.384766,4406.794922,4381.282227,4302.05127,4499.615234,4337.820313,4330.512695,,,,,,,,,,,,,,,,,,,,,,,,,,,,,,,,,,,,,,,,,,,,,,,,,,,,,,,,,,,,,,,,,,,,,,
1720079247,10,0,4420.384766,4423.717773,4356.153809,4395.769043,4408.461426,4413.589844,4416.666504,4401.153809,4398.333496,4371.410156,4305.897461,4507.05127,4343.461426,4334.487305,,,,,,,,,,,,,,,,,,,,,,,,,,,,,,,,,,,,,,,,,,,,,,,,,,,,,,,,,,,,,,,,,,,,,,
1720079247,11,0,4418.333496,4423.717773,4350.384766,4389.358887,4409.615234,4412.563965,4411.410156,4397.307617,4400.384766,4372.820313,4302.692383,4502.436035,4343.077148,4325.512695,,,,,,,,,,,,,,,,,,,,,,,,,,,,,,,,,,,,,,,,,,,,,,,,,,,,,,,,,,,,,,,,,,,,,,
1720079247,12,0,4425,4426.666504,4353.077148,4388.333496,4410.256348,4417.05127,4410.256348,4395.128418,4409.615234,4377.179688,4307.692383,4507.05127,4335.897461,4328.846191,,,,,,,,,,,,,,,,,,,,,,,,,,,,,,,,,,,,,,,,,,,,,,,,,,,,,,,,,,,,,,,,,,,,,,
1720079247,13,0,4428.717773,4426.794922,4356.794922,4387.692383,4410.897461,4427.94873,4413.077148,4400.128418,4410.897461,4373.461426,4313.077148,4511.794922,4335,4333.589844,,,,,,,,,,,,,,,,,,,,,,,,,,,,,,,,,,,,,,,,,,,,,,,,,,,,,,,,,,,,,,,,,,,,,,
1720079247,14,0,4427.692383,4429.358887,4356.153809,4390.897461,4414.358887,4431.410156,4413.461426,4398.205078,4409.615234,4371.410156,4307.692383,4504.615234,4341.538574,4329.615234,,,,,,,,,,,,,,,,,,,,,,,,,,,,,,,,,,,,,,,,,,,,,,,,,,,,,,,,,,,,,,,,,,,,,,
1720079247,15,0,4427.179688,4429.102539,4355.256348,4397.820313,4417.179688,4428.461426,4415.128418,4397.820313,4409.615234,4368.974121,4304.743652,4504.615234,4338.974121,4328.717773,,,,,,,,,,,,,,,,,,,,,,,,,,,,,,,,,,,,,,,,,,,,,,,,,,,,,,,,,,,,,,,,,,,,,,
1720079247,16,0,4425.128418,4421.666504,4353.205078,4394.871582,4416.410156,4429.871582,4415.256348,4397.436035,4403.077148,4361.538574,4304.358887,4507.563965,4330.897461,4325.512695,1.754971,1.188901,1.218739,0.61759,0.272018,1.47269,0.623193,0.890402,0.917679,0.286058,1.270281,1.905088,0.971464,0.657732,0.289409,1.312669,0.545024,1.597149,1.346109,0.562593,0.747843,0.374162,0.134708,0.198982,0.164685,0.384083,0.620016,0.234765,0.203131,0.111304,0.670352,0.662587,0.460787,0.320282,0.170039,0.391055,0.68746,0.372585,0.140035,0.357914,0.595959,2.512302,1.425961,0.376747,0.270458,4.333974,2.75423,1.244052,0.563182,0.291667,1.108402,1.391668,0.536252,0.432497,0.373371,0.665512,1.843643,0.494092,0.328599,0.412469,1.711633,1.690885,1.312791,1.019684,0.454564,1.009144,0.618121,0.524453,0.289916,0.392907
1720079247,17,0,4422.307617,4419.487305,4352.307617,4387.820313,4413.589844,4430.769043,4414.102539,4399.230957,4403.077148,4360.641113,4306.538574,4507.692383,4337.820313,4331.666504,,,,,,,,,,,,,,,,,,,,,,,,,,,,,,,,,,,,,,,,,,,,,,,,,,,,,,,,,,,,,,,,,,,,,,
1720079247,18,0,4425.897461,4427.692383,4357.436035,4388.077148,4412.94873,4427.94873,4415.641113,4402.307617,4416.410156,4364.102539,4310.641113,4509.487305,4348.333496,4337.436035,,,,,,,,,,,,,,,,,,,,,,,,,,,,,,,,,,,,,,,,,,,,,,,,,,,,,,,,,,,,,,,,,,,,,,
1720079247,19,0,4426.922852,4430.256348,4359.230957,4383.717773,4416.794922,4426.922852,4413.974121,4399.102539,4421.282227,4360.641113,4311.794922,4514.358887,4346.153809,4331.153809,,,,,,,,,,,,,,,,,,,,,,,,,,,,,,,,,,,,,,,,,,,,,,,,,,,,,,,,,,,,,,,,,,,,,,
1720079247,20,0,4424.871582,4421.282227,4355.769043,4382.436035,4418.077148,4425.512695,4411.410156,4399.358887,4415.128418,4357.307617,4313.974121,4515.384766,4347.436035,4332.436035,,,,,,,,,,,,,,,,,,,,,,,,,,,,,,,,,,,,,,,,,,,,,,,,,,,,,,,,,,,,,,,,,,,,,,
1720079247,21,0,4427.692383,4420.641113,4357.307617,4391.666504,4413.333496,4421.025879,4414.871582,4403.846191,4414.358887,4356.282227,4315.384766,4512.436035,4350.256348,4338.717773,,,,,,,,,,,,,,,,,,,,,,,,,,,,,,,,,,,,,,,,,,,,,,,,,,,,,,,,,,,,,,,,,,,,,,
1720079247,22,0,4428.846191,4432.436035,4361.538574,4399.487305,4417.692383,4421.922852,4421.282227,4402.307617,4417.94873,4351.794922,4312.94873,4512.820313,4346.922852,4340.128418,,,,,,,,,,,,,,,,,,,,,,,,,,,,,,,,,,,,,,,,,,,,,,,,,,,,,,,,,,,,,,,,,,,,,,
1720079247,23,0,4427.820313,4438.717773,4365.256348,4401.282227,4429.102539,4428.077148,4424.102539,4396.922852,4416.922852,4348.077148,4310,4509.615234,4346.538574,4335.384766,,,,,,,,,,,,,,,,,,,,,,,,,,,,,,,,,,,,,,,,,,,,,,,,,,,,,,,,,,,,,,,,,,,,,,
1720079247,24,0,4428.461426,4438.461426,4366.282227,4398.205078,4430.256348,4428.846191,4423.205078,4404.743652,4414.102539,4342.05127,4312.692383,4508.589844,4348.077148,4336.922852,,,,,,,,,,,,,,,,,,,,,,,,,,,,,,,,,,,,,,,,,,,,,,,,,,,,,,,,,,,,,,,,,,,,,,
1720079247,25,0,4432.179688,4437.307617,4364.743652,4397.307617,4426.666504,4426.538574,4421.282227,4406.794922,4418.846191,4334.358887,4312.94873,4508.846191,4344.358887,4337.820313,,,,,,,,,,,,,,,,,,,,,,,,,,,,,,,,,,,,,,,,,,,,,,,,,,,,,,,,,,,,,,,,,,,,,,
1720079247,26,0,4429.743652,4428.974121,4360.769043,4392.307617,4429.871582,4427.94873,4419.102539,4396.153809,4427.436035,4336.153809,4304.743652,4503.333496,4337.05127,4329.743652,,,,,,,,,,,,,,,,,,,,,,,,,,,,,,,,,,,,,,,,,,,,,,,,,,,,,,,,,,,,,,,,,,,,,,
1720079247,27,0,4420.384766,4418.717773,4351.538574,4383.333496,4426.666504,4427.179688,4418.333496,4398.461426,4428.333496,4338.846191,4304.743652,4502.94873,4334.743652,4329.871582,,,,,,,,,,,,,,,,,,,,,,,,,,,,,,,,,,,,,,,,,,,,,,,,,,,,,,,,,,,,,,,,,,,,,,
1720079247,28,0,4421.410156,4424.871582,4351.666504,4388.461426,4417.05127,4424.615234,4421.025879,4400.384766,4428.205078,4339.358887,4311.538574,4503.077148,4340.384766,4329.358887,,,,,,,,,,,,,,,,,,,,,,,,,,,,,,,,,,,,,,,,,,,,,,,,,,,,,,,,,,,,,,,,,,,,,,
1720079247,29,0,4428.717773,4434.487305,4359.615234,4402.307617,4412.05127,4428.461426,4424.487305,4400,4432.307617,4347.563965,4312.436035,4502.436035,4342.820313,4328.717773,,,,,,,,,,,,,,,,,,,,,,,,,,,,,,,,,,,,,,,,,,,,,,,,,,,,,,,,,,,,,,,,,,,,,,
1720079247,30,0,4431.666504,4424.615234,4360.256348,4400.512695,4409.487305,4428.077148,4419.358887,4405.256348,4432.820313,4354.487305,4308.717773,4502.179688,4339.487305,4331.282227,,,,,,,,,,,,,,,,,,,,,,,,,,,,,,,,,,,,,,,,,,,,,,,,,,,,,,,,,,,,,,,,,,,,,,
1720079247,31,0,4429.358887,4411.025879,4359.871582,4389.871582,4410.897461,4421.794922,4412.436035,4403.846191,4424.871582,4350.512695,4302.94873,4497.436035,4338.461426,4325.512695,,,,,,,,,,,,,,,,,,,,,,,,,,,,,,,,,,,,,,,,,,,,,,,,,,,,,,,,,,,,,,,,,,,,,,
1720079247,32,0,4419.358887,4416.153809,4363.846191,4393.333496,4413.974121,4423.461426,4418.333496,4402.436035,4417.05127,4347.307617,4303.717773,4500.897461,4334.615234,4327.94873,1.731079,1.113524,1.202957,0.597995,0.279634,1.343699,0.552007,1.062567,0.980312,0.270305,1.58078,1.618689,1.050256,0.650766,0.295531,1.108742,0.478589,2.019482,1.49309,0.569016,0.697491,0.349894,0.133441,0.19722,0.155643,0.371945,0.541956,0.238048,0.200962,0.103246,0.730004,0.64705,0.538745,0.320721,0.174362,0.377875,0.591129,0.369853,0.149496,0.404315,0.646556,2.307623,1.52669,0.374983,0.293436,3.142669,2.415678,1.326522,0.549935,0.317496,1.102281,1.345078,0.470571,0.4027,0.424635,0.566279,1.699616,0.55711,0.341878,0.473431,1.698119,1.511973,1.404579,1.026511,0.520828,0.998488,0.617936,0.521339,0.279896,0.462609
1720079247,33,0,4412.307617,4433.974121,4362.05127,4404.743652,4414.743652,4430.769043,4423.846191,4403.717773,4414.102539,4352.820313,4306.922852,4503.589844,4329.102539,4329.743652,,,,,,,,,,,,,,,,,,,,,,,,,,,,,,,,,,,,,,,,,,,,,,,,,,,,,,,,,,,,,,,,,,,,,,
1720079247,34,0,4412.563965,4430.641113,4351.282227,4397.307617,4413.589844,4429.230957,4417.563965,4399.102539,4406.794922,4355,4305.384766,4494.743652,4329.358887,4320.128418,,,,,,,,,,,,,,,,,,,,,,,,,,,,,,,,,,,,,,,,,,,,,,,,,,,,,,,,,,,,,,,,,,,,,,
1720079247,35,0,4403.589844,4412.05127,4340.641113,4379.615234,4413.589844,4418.589844,4410.256348,4394.615234,4394.487305,4345.512695,4301.153809,4487.820313,4322.692383,4318.205078,,,,,,,,,,,,,,,,,,,,,,,,,,,,,,,,,,,,,,,,,,,,,,,,,,,,,,,,,,,,,,,,,,,,,,
1720079247,36,0,4385.641113,4411.794922,4335.769043,4384.487305,4412.05127,4417.820313,4409.743652,4392.307617,4396.410156,4343.846191,4289.615234,4476.025879,4304.102539,4305.256348,,,,,,,,,,,,,,,,,,,,,,,,,,,,,,,,,,,,,,,,,,,,,,,,,,,,,,,,,,,,,,,,,,,,,,
1720079247,37,0,4379.615234,4414.743652,4334.487305,4395.256348,4410,4423.846191,4409.743652,4396.025879,4412.179688,4353.717773,4286.794922,4471.410156,4302.05127,4293.461426,,,,,,,,,,,,,,,,,,,,,,,,,,,,,,,,,,,,,,,,,,,,,,,,,,,,,,,,,,,,,,,,,,,,,,
1720079247,38,0,4374.871582,4404.358887,4327.05127,4381.410156,4411.538574,4422.05127,4401.410156,4406.666504,4414.230957,4352.820313,4294.743652,4481.282227,4311.538574,4306.794922,,,,,,,,,,,,,,,,,,,,,,,,,,,,,,,,,,,,,,,,,,,,,,,,,,,,,,,,,,,,,,,,,,,,,,
1720079247,39,0,4360.384766,4393.974121,4318.589844,4364.871582,4411.410156,4422.307617,4393.846191,4399.230957,4404.487305,4349.487305,4287.692383,4474.743652,4302.94873,4304.358887,,,,,,,,,,,,,,,,,,,,,,,,,,,,,,,,,,,,,,,,,,,,,,,,,,,,,,,,,,,,,,,,,,,,,,
1720079247,40,0,4355.256348,4392.94873,4317.436035,4365.897461,4409.102539,4423.077148,4400.641113,4391.538574,4398.461426,4357.94873,4284.230957,4468.846191,4296.282227,4292.94873,,,,,,,,,,,,,,,,,,,,,,,,,,,,,,,,,,,,,,,,,,,,,,,,,,,,,,,,,,,,,,,,,,,,,,
1720079247,41,0,4355.769043,4397.563965,4313.461426,4374.102539,4409.102539,4416.025879,4406.794922,4399.358887,4391.282227,4357.307617,4289.487305,4476.410156,4303.589844,4294.743652,,,,,,,,,,,,,,,,,,,,,,,,,,,,,,,,,,,,,,,,,,,,,,,,,,,,,,,,,,,,,,,,,,,,,,
1720079247,42,0,4350.512695,4401.666504,4313.333496,4381.153809,4413.974121,4413.077148,4403.589844,4398.077148,4389.230957,4355.897461,4285.256348,4477.563965,4305.512695,4295.256348,,,,,,,,,,,,,,,,,,,,,,,,,,,,,,,,,,,,,,,,,,,,,,,,,,,,,,,,,,,,,,,,,,,,,,
1720079247,43,0,4341.794922,4394.358887,4313.974121,4374.102539,4414.743652,4417.563965,4404.615234,4396.538574,4393.846191,4365.512695,4284.358887,4473.461426,4294.743652,4290.128418,,,,,,,,,,,,,,,,,,,,,,,,,,,,,,,,,,,,,,,,,,,,,,,,,,,,,,,,,,,,,,,,,,,,,,
1720079247,44,0,4328.333496,4383.717773,4302.692383,4359.487305,4408.077148,4419.871582,4406.410156,4396.794922,4394.102539,4365.769043,4289.871582,4464.358887,4287.692383,4281.410156,,,,,,,,,,,,,,,,,,,,,,,,,,,,,,,,,,,,,,,,,,,,,,,,,,,,,,,,,,,,,,,,,,,,,,
1720079247,45,0,4316.410156,4382.05127,4293.333496,4357.94873,4406.282227,4424.358887,4403.205078,4392.563965,4395.384766,4359.871582,4284.871582,4457.179688,4284.102539,4274.743652,,,,,,,,,,,,,,,,,,,,,,,,,,,,,,,,,,,,,,,,,,,,,,,,,,,,,,,,,,,,,,,,,,,,,,
1720079247,46,0,4309.230957,4375,4289.743652,4353.205078,4411.153809,4431.153809,4402.307617,4390.256348,4400.128418,4362.563965,4270.769043,4453.205078,4273.333496,4262.94873,,,,,,,,,,,,,,,,,,,,,,,,,,,,,,,,,,,,,,,,,,,,,,,,,,,,,,,,,,,,,,,,,,,,,,
1720079247,47,0,4302.820313,4366.538574,4282.307617,4341.922852,4413.974121,4429.871582,4402.436035,4390.128418,4400.897461,4367.179688,4271.666504,4445.384766,4270.769043,4254.358887,,,,,,,,,,,,,,,,,,,,,,,,,,,,,,,,,,,,,,,,,,,,,,,,,,,,,,,,,,,,,,,,,,,,,,
1720079247,48,0,4293.717773,4365.769043,4277.307617,4341.153809,4409.102539,4425.512695,4399.102539,4387.820313,4396.922852,4365.641113,4278.589844,4439.871582,4277.563965,4256.538574,1.688411,1.14715,1.133495,0.610632,0.291022,1.186785,0.582969,1.192335,1.043278,0.269575,1.829554,1.382259,1.08622,0.665031,0.305344,0.92525,0.474066,2.437511,1.600611,0.608963,0.690966,0.345794,0.178564,0.214889,0.15164,0.398874,0.450405,0.256478,0.197227,0.091685,0.784406,0.601083,0.637447,0.325032,0.173108,0.398622,0.491711,0.396401,0.177531,0.431479,0.716247,2.047668,1.589879,0.421168,0.30687,2.899834,2.195362,1.388736,0.540747,0.33057,1.070427,1.233416,0.459827,0.407238,0.456862,0.512052,1.519718,0.624,0.38877,0.516761,1.741469,1.440554,1.533843,1.067827,0.58742,0.936089,0.614638,0.499527,0.295071,0.504747
1720079247,49,0,4290,4369.102539,4280.769043,4341.410156,4407.436035,4421.153809,4397.820313,4387.692383,4392.563965,4362.692383,4272.94873,4444.743652,4275.512695,4257.563965,,,,,,,,,,,,,,,,,,,,,,,,,,,,,,,,,,,,,,,,,,,,,,,,,,,,,,,,,,,,,,,,,,,,,,
1720079247,50,0,4293.717773,4375.256348,4280.512695,4342.307617,4409.102539,4415.256348,4401.794922,4391.025879,4391.153809,4364.615234,4268.461426,4450.384766,4268.461426,4256.025879,,,,,,,,,,,,,,,,,,,,,,,,,,,,,,,,,,,,,,,,,,,,,,,,,,,,,,,,,,,,,,,,,,,,,,
1720079247,51,0,4290.384766,4377.563965,4277.436035,4355.897461,4405.897461,4414.743652,4403.333496,4384.871582,4393.974121,4367.94873,4267.563965,4443.589844,4268.077148,4248.974121,,,,,,,,,,,,,,,,,,,,,,,,,,,,,,,,,,,,,,,,,,,,,,,,,,,,,,,,,,,,,,,,,,,,,,
1720079247,52,0,4286.410156,4368.333496,4278.974121,4357.692383,4404.871582,4413.974121,4402.307617,4384.743652,4394.102539,4364.743652,4267.820313,4444.743652,4267.436035,4253.589844,,,,,,,,,,,,,,,,,,,,,,,,,,,,,,,,,,,,,,,,,,,,,,,,,,,,,,,,,,,,,,,,,,,,,,
1720079247,53,0,4288.333496,4361.538574,4278.589844,4340.641113,4408.333496,4410.897461,4402.692383,4389.871582,4393.974121,4365.769043,4265.128418,4449.487305,4261.666504,4261.153809,,,,,,,,,,,,,,,,,,,,,,,,,,,,,,,,,,,,,,,,,,,,,,,,,,,,,,,,,,,,,,,,,,,,,,
1720079247,54,0,4283.717773,4368.717773,4278.333496,4337.94873,4408.205078,4418.589844,4407.05127,4385.128418,4395.769043,4375.384766,4262.05127,4441.410156,4258.974121,4248.974121,,,,,,,,,,,,,,,,,,,,,,,,,,,,,,,,,,,,,,,,,,,,,,,,,,,,,,,,,,,,,,,,,,,,,,
1720079247,55,0,4276.025879,4366.282227,4278.333496,4348.974121,4404.487305,4425.128418,4404.230957,4385.384766,4389.102539,4374.230957,4267.94873,4442.05127,4261.922852,4247.436035,,,,,,,,,,,,,,,,,,,,,,,,,,,,,,,,,,,,,,,,,,,,,,,,,,,,,,,,,,,,,,,,,,,,,,
1720079247,56,0,4284.743652,4358.461426,4279.487305,4355.256348,4408.717773,4422.94873,4402.692383,4390.384766,4390.512695,4379.615234,4275.256348,4454.487305,4278.077148,4261.922852,,,,,,,,,,,,,,,,,,,,,,,,,,,,,,,,,,,,,,,,,,,,,,,,,,,,,,,,,,,,,,,,,,,,,,
1720079247,57,0,4298.077148,4362.179688,4283.589844,4351.410156,4413.077148,4424.358887,4412.820313,4393.077148,4407.94873,4402.563965,4276.922852,4461.538574,4296.410156,4265.641113,,,,,,,,,,,,,,,,,,,,,,,,,,,,,,,,,,,,,,,,,,,,,,,,,,,,,,,,,,,,,,,,,,,,,,
1720079247,58,0,4288.589844,4364.358887,4283.974121,4340,4410.256348,4422.692383,4412.05127,4392.05127,4413.974121,4407.820313,4279.230957,4455.256348,4289.487305,4262.05127,,,,,,,,,,,,,,,,,,,,,,,,,,,,,,,,,,,,,,,,,,,,,,,,,,,,,,,,,,,,,,,,,,,,,,
1720079247,59,0,4276.922852,4359.871582,4276.538574,4342.307617,4409.743652,4416.410156,4405.769043,4388.717773,4407.179688,4399.358887,4280.256348,4443.717773,4274.358887,4257.307617,,,,,,,,,,,,,,,,,,,,,,,,,,,,,,,,,,,,,,,,,,,,,,,,,,,,,,,,,,,,,,,,,,,,,,
1720079247,60,0,4278.974121,4356.794922,4267.94873,4354.487305,4411.794922,4422.179688,4411.538574,4393.205078,4411.538574,4408.974121,4279.102539,4448.461426,4277.94873,4257.692383,,,,,,,,,,,,,,,,,,,,,,,,,,,,,,,,,,,,,,,,,,,,,,,,,,,,,,,,,,,,,,,,,,,,,,
1720079247,61,0,4280,4355.769043,4264.871582,4346.538574,4412.05127,4432.05127,4417.436035,4395.769043,4421.666504,4420.128418,4277.820313,4455.384766,4283.333496,4262.563965,,,,,,,,,,,,,,,,,,,,,,,,,,,,,,,,,,,,,,,,,,,,,,,,,,,,,,,,,,,,,,,,,,,,,,
1720079247,62,0,4277.820313,4356.153809,4266.025879,4334.102539,4410.897461,4429.487305,4412.94873,4386.922852,4412.307617,4411.794922,4272.563965,4445.128418,4276.153809,4257.307617,,,,,,,,,,,,,,,,,,,,,,,,,,,,,,,,,,,,,,,,,,,,,,,,,,,,,,,,,,,,,,,,,,,,,,
1720079247,63,0,4279.358887,4359.358887,4267.820313,4338.846191,4411.282227,4425,4410.769043,4388.461426,4402.307617,4407.692383,4272.94873,4443.846191,4270.384766,4254.871582,,,,,,,,,,,,,,,,,,,,,,,,,,,,,,,,,,,,,,,,,,,,,,,,,,,,,,,,,,,,,,,,,,,,,,
1720079247,64,0,4278.589844,4360.769043,4266.794922,4342.05127,4413.717773,4425.641113,4414.743652,4389.615234,4411.922852,4414.615234,4272.563965,4443.717773,4273.589844,4252.05127,1.611984,1.310841,1.050854,0.66378,0.301727,1.041249,0.731665,1.277137,1.102425,0.282887,1.948391,1.26512,1.114645,0.698586,0.312279,0.797183,0.528274,2.804905,1.646793,0.676978,0.741205,0.36284,0.272349,0.252221,0.153955,0.455983,0.369228,0.303458,0.191094,0.080033,0.800409,0.529155,0.747283,0.329544,0.166929,0.437433,0.395535,0.447704,0.217387,0.426822,0.812198,1.767037,1.586496,0.507983,0.308024,3.122654,2.041392,1.397134,0.528864,0.332107,1.002193,1.08991,0.492849,0.448012,0.458418,0.499293,1.35485,0.70234,0.464674,0.526236,1.811742,1.511785,1.701306,1.168477,0.632958,0.860849,0.613284,0.477578,0.33549,0.507686
1720079247,65,0,4271.410156,4352.307617,4261.794922,4333.077148,4411.538574,4421.153809,4411.538574,4374.871582,4412.436035,4412.94873,4262.307617,4431.282227,4277.179688,4243.333496,,,,,,,,,,,,,,,,,,,,,,,,,,,,,,,,,,,,,,,,,,,,,,,,,,,,,,,,,,,,,,,,,,,,,,
1720079247,66,0,4272.436035,4350.384766,4259.487305,4334.871582,4403.461426,4413.205078,4408.333496,4378.205078,4397.436035,4407.94873,4265.128418,4436.410156,4277.179688,4251.153809,,,,,,,,,,,,,,,,,,,,,,,,,,,,,,,,,,,,,,,,,,,,,,,,,,,,,,,,,,,,,,,,,,,,,,
1720079247,67,0,4281.666504,4362.820313,4266.153809,4348.589844,4405.128418,4415,4409.743652,4384.743652,4397.563965,4412.436035,4270.256348,4438.974121,4274.358887,4253.205078,,,,,,,,,,,,,,,,,,,,,,,,,,,,,,,,,,,,,,,,,,,,,,,,,,,,,,,,,,,,,,,,,,,,,,
1720079247,68,0,4287.436035,4371.794922,4277.563965,4351.666504,4416.922852,4425.769043,4413.077148,4377.436035,4406.282227,4418.974121,4265.641113,4431.025879,4279.871582,4248.974121,,,,,,,,,,,,,,,,,,,,,,,,,,,,,,,,,,,,,,,,,,,,,,,,,,,,,,,,,,,,,,,,,,,,,,
1720079247,69,0,4285.384766,4362.563965,4278.589844,4343.205078,4416.282227,4427.94873,4414.102539,4379.615234,4397.820313,4416.538574,4266.794922,4432.820313,4290,4252.307617,,,,,,,,,,,,,,,,,,,,,,,,,,,,,,,,,,,,,,,,,,,,,,,,,,,,,,,,,,,,,,,,,,,,,,
1720079247,70,0,4277.563965,4349.230957,4266.153809,4332.94873,4404.358887,4418.461426,4406.922852,4377.436035,4389.358887,4408.589844,4268.461426,4428.717773,4278.589844,4244.871582,,,,,,,,,,,,,,,,,,,,,,,,,,,,,,,,,,,,,,,,,,,,,,,,,,,,,,,,,,,,,,,,,,,,,,
1720079247,71,0,4262.820313,4338.846191,4252.692383,4318.205078,4394.487305,4412.307617,4398.589844,4367.179688,4383.205078,4396.538574,4258.717773,4418.205078,4251.282227,4233.974121,,,,,,,,,,,,,,,,,,,,,,,,,,,,,,,,,,,,,,,,,,,,,,,,,,,,,,,,,,,,,,,,,,,,,,
1720079247,72,0,4246.410156,4324.102539,4240.512695,4301.025879,4388.717773,4413.846191,4393.333496,4361.153809,4372.436035,4388.077148,4240.641113,4411.153809,4236.025879,4224.743652,,,,,,,,,,,,,,,,,,,,,,,,,,,,,,,,,,,,,,,,,,,,,,,,,,,,,,,,,,,,,,,,,,,,,,
1720079247,73,0,4250.512695,4325.384766,4239.871582,4307.179688,4388.974121,4414.487305,4391.666504,4363.333496,4377.692383,4388.077148,4239.615234,4414.615234,4242.94873,4226.922852,,,,,,,,,,,,,,,,,,,,,,,,,,,,,,,,,,,,,,,,,,,,,,,,,,,,,,,,,,,,,,,,,,,,,,
1720079247,74,0,4270.384766,4347.692383,4256.153809,4338.846191,4393.333496,4418.205078,4399.615234,4375,4395.897461,4395.769043,4260.641113,4430,4263.974121,4241.410156,,,,,,,,,,,,,,,,,,,,,,,,,,,,,,,,,,,,,,,,,,,,,,,,,,,,,,,,,,,,,,,,,,,,,,
1720079247,75,0,4286.922852,4360.897461,4269.615234,4357.05127,4401.153809,4425,4410.769043,4380.641113,4403.461426,4408.974121,4272.692383,4442.179688,4282.05127,4250,,,,,,,,,,,,,,,,,,,,,,,,,,,,,,,,,,,,,,,,,,,,,,,,,,,,,,,,,,,,,,,,,,,,,,
1720079247,76,0,4291.666504,4357.436035,4270.384766,4343.846191,4408.974121,4423.077148,4406.410156,4375.256348,4396.410156,4409.871582,4270.256348,4441.153809,4282.820313,4247.179688,,,,,,,,,,,,,,,,,,,,,,,,,,,,,,,,,,,,,,,,,,,,,,,,,,,,,,,,,,,,,,,,,,,,,,
1720079247,77,0,4287.692383,4356.538574,4270.384766,4328.461426,4408.205078,4420.897461,4400.897461,4375.128418,4389.230957,4395.512695,4263.077148,4436.922852,4273.333496,4241.538574,,,,,,,,,,,,,,,,,,,,,,,,,,,,,,,,,,,,,,,,,,,,,,,,,,,,,,,,,,,,,,,,,,,,,,
1720079247,78,0,4288.461426,4363.846191,4277.307617,4335.897461,4402.94873,4425.897461,4411.282227,4384.615234,4393.717773,4395.512695,4264.743652,4448.077148,4276.025879,4248.077148,,,,,,,,,,,,,,,,,,,,,,,,,,,,,,,,,,,,,,,,,,,,,,,,,,,,,,,,,,,,,,,,,,,,,,
1720079247,79,0,4295.256348,4367.94873,4281.794922,4347.820313,4402.307617,4423.461426,4412.563965,4379.743652,4400.384766,4410.897461,4276.922852,4456.794922,4286.794922,4251.410156,,,,,,,,,,,,,,,,,,,,,,,,,,,,,,,,,,,,,,,,,,,,,,,,,,,,,,,,,,,,,,,,,,,,,,
1720079247,80,0,4299.871582,4369.358887,4283.461426,4352.820313,4407.179688,4417.05127,4404.358887,4373.461426,4393.077148,4411.410156,4286.666504,4453.589844,4295.256348,4249.615234,1.501229,1.552835,0.987975,0.741906,0.306538,0.933002,0.963339,1.328907,1.14422,0.307112,1.90285,1.269216,1.166033,0.73478,0.309699,0.73934,0.614866,3.058535,1.622108,0.752925,0.827645,0.395371,0.396948,0.300251,0.160166,0.526086,0.319505,0.380097,0.183368,0.071937,0.762508,0.448415,0.843552,0.327512,0.157451,0.47465,0.316586,0.502451,0.255775,0.387382,0.938506,1.502518,1.508608,0.611041,0.298188,3.492635,1.950166,1.325823,0.506445,0.325521,0.885759,0.944123,0.532243,0.509591,0.427278,0.509557,1.234194,0.791549,0.548134,0.495647,1.836041,1.689179,1.880868,1.313178,0.641517,0.792972,0.610441,0.471666,0.385811,0.472017
1720079247,81,0,4302.307617,4373.461426,4286.025879,4356.922852,4409.871582,4419.102539,4403.589844,4381.410156,4387.436035,4407.563965,4287.05127,4454.358887,4299.230957,4258.205078,,,,,,,,,,,,,,,,,,,,,,,,,,,,,,,,,,,,,,,,,,,,,,,,,,,,,,,,,,,,,,,,,,,,,,
1720079247,82,0,4301.282227,4375.641113,4286.538574,4362.179688,4406.410156,4421.794922,4405.256348,4380.641113,4395.897461,4416.410156,4281.538574,4452.436035,4293.717773,4256.666504,,,,,,,,,,,,,,,,,,,,,,,,,,,,,,,,,,,,,,,,,,,,,,,,,,,,,,,,,,,,,,,,,,,,,,
1720079247,83,0,4298.589844,4365.128418,4286.922852,4359.615234,4400.128418,4423.077148,4406.666504,4375.897461,4398.333496,4417.436035,4287.05127,4449.358887,4290.128418,4252.05127,,,,,,,,,,,,,,,,,,,,,,,,,,,,,,,,,,,,,,,,,,,,,,,,,,,,,,,,,,,,,,,,,,,,,,
1720079247,84,0,4306.153809,4356.794922,4290.128418,4348.333496,4402.692383,4428.846191,4408.077148,4376.538574,4394.743652,4416.794922,4296.410156,4450.897461,4296.794922,4258.461426,,,,,,,,,,,,,,,,,,,,,,,,,,,,,,,,,,,,,,,,,,,,,,,,,,,,,,,,,,,,,,,,,,,,,,
1720079247,85,0,4316.410156,4370.128418,4296.794922,4345.897461,4408.846191,4429.358887,4405.384766,4377.307617,4394.871582,4426.282227,4295.384766,4454.615234,4301.282227,4260.384766,,,,,,,,,,,,,,,,,,,,,,,,,,,,,,,,,,,,,,,,,,,,,,,,,,,,,,,,,,,,,,,,,,,,,,
1720079247,86,0,4313.333496,4379.615234,4298.077148,4350,4403.461426,4426.538574,4398.846191,4380,4390.512695,4430.897461,4292.05127,4461.410156,4296.794922,4258.589844,,,,,,,,,,,,,,,,,,,,,,,,,,,,,,,,,,,,,,,,,,,,,,,,,,,,,,,,,,,,,,,,,,,,,,
1720079247,87,0,4307.307617,4370.641113,4292.436035,4343.461426,4401.538574,4425.897461,4397.05127,4378.974121,4382.436035,4426.666504,4283.333496,4458.589844,4292.94873,4255.641113,,,,,,,,,,,,,,,,,,,,,,,,,,,,,,,,,,,,,,,,,,,,,,,,,,,,,,,,,,,,,,,,,,,,,,
1720079247,88,0,4312.05127,4371.410156,4295.769043,4345.256348,4409.615234,4427.179688,4401.666504,4381.025879,4386.153809,4428.717773,4279.230957,4453.589844,4295.384766,4258.077148,,,,,,,,,,,,,,,,,,,,,,,,,,,,,,,,,,,,,,,,,,,,,,,,,,,,,,,,,,,,,,,,,,,,,,
1720079247,89,0,4318.077148,4382.05127,4305.641113,4368.205078,4408.846191,4429.358887,4403.461426,4389.487305,4395.897461,4431.922852,4288.974121,4459.487305,4300.384766,4268.589844,,,,,,,,,,,,,,,,,,,,,,,,,,,,,,,,,,,,,,,,,,,,,,,,,,,,,,,,,,,,,,,,,,,,,,
1720079247,90,0,4314.358887,4376.794922,4301.538574,4373.461426,4402.436035,4427.820313,4398.589844,4383.461426,4395.128418,4427.563965,4289.102539,4457.94873,4299.358887,4263.846191,,,,,,,,,,,,,,,,,,,,,,,,,,,,,,,,,,,,,,,,,,,,,,,,,,,,,,,,,,,,,,,,,,,,,,
1720079247,91,0,4313.589844,4370.128418,4295.897461,4354.358887,4406.666504,4424.615234,4398.589844,4378.846191,4389.743652,4431.794922,4285.769043,4456.666504,4292.692383,4263.461426,,,,,,,,,,,,,,,,,,,,,,,,,,,,,,,,,,,,,,,,,,,,,,,,,,,,,,,,,,,,,,,,,,,,,,
1720079247,92,0,4320.256348,4376.153809,4303.333496,4349.871582,4411.794922,4422.692383,4403.205078,4387.05127,4392.563965,4441.153809,4293.974121,4462.05127,4296.153809,4273.717773,,,,,,,,,,,,,,,,,,,,,,,,,,,,,,,,,,,,,,,,,,,,,,,,,,,,,,,,,,,,,,,,,,,,,,
1720079247,93,0,4319.871582,4379.743652,4303.974121,4353.589844,4405.897461,4421.794922,4399.358887,4379.743652,4397.94873,4435.769043,4293.333496,4457.05127,4307.692383,4268.589844,,,,,,,,,,,,,,,,,,,,,,,,,,,,,,,,,,,,,,,,,,,,,,,,,,,,,,,,,,,,,,,,,,,,,,
1720079247,94,0,4310,4369.871582,4294.871582,4344.615234,4399.615234,4417.94873,4397.820313,4377.05127,4391.282227,4418.589844,4286.922852,4455.384766,4296.538574,4264.102539,,,,,,,,,,,,,,,,,,,,,,,,,,,,,,,,,,,,,,,,,,,,,,,,,,,,,,,,,,,,,,,,,,,,,,
1720079247,95,0,4306.025879,4366.794922,4293.846191,4342.820313,4404.743652,4418.205078,4405.512695,4382.307617,4380.769043,4413.205078,4284.102539,4457.307617,4280,4262.05127,,,,,,,,,,,,,,,,,,,,,,,,,,,,,,,,,,,,,,,,,,,,,,,,,,,,,,,,,,,,,,,,,,,,,,
1720079247,96,0,4315.769043,4375.256348,4300.128418,4355.256348,4408.846191,4424.743652,4411.153809,4376.538574,4384.487305,4422.563965,4282.692383,4455.897461,4299.230957,4263.461426,1.428886,1.778005,0.947275,0.817415,0.302053,0.86211,1.211765,1.351239,1.1531,0.337451,1.772331,1.347669,1.23538,0.756497,0.293654,0.757635,0.706549,3.122752,1.534149,0.810061,0.911831,0.429407,0.521066,0.344825,0.165881,0.576075,0.309011,0.473077,0.178584,0.069839,0.685697,0.378926,0.896491,0.314144,0.146985,0.497316,0.263512,0.535055,0.280768,0.322701,1.102331,1.278897,1.378629,0.703049,0.282554,3.808376,1.918114,1.182107,0.472918,0.315765,0.759606,0.811591,0.541831,0.567028,0.37278,0.557293,1.156072,0.876477,0.613015,0.433091,1.82451,1.881869,2.026845,1.451875,0.611187,0.771025,0.599749,0.484792,0.424971,0.410613
1720079247,97,0,4325.512695,4377.05127,4303.717773,4359.102539,4401.794922,4424.743652,4413.461426,4379.102539,4395.128418,4426.410156,4289.102539,4458.205078,4323.717773,4274.102539,,,,,,,,,,,,,,,,,,,,,,,,,,,,,,,,,,,,,,,,,,,,,,,,,,,,,,,,,,,,,,,,,,,,,,
1720079247,98,0,4321.538574,4370.769043,4300.897461,4355.384766,4400.384766,4418.846191,4414.358887,4382.179688,4392.436035,4421.922852,4291.410156,4453.717773,4317.94873,4270.384766,,,,,,,,,,,,,,,,,,,,,,,,,,,,,,,,,,,,,,,,,,,,,,,,,,,,,,,,,,,,,,,,,,,,,,
1720079247,99,0,4313.077148,4363.077148,4293.205078,4348.974121,4404.358887,4413.333496,4409.487305,4374.487305,4380.641113,4410.384766,4288.205078,4449.615234,4308.205078,4267.436035,,,,,,,,,,,,,,,,,,,,,,,,,,,,,,,,,,,,,,,,,,,,,,,,,,,,,,,,,,,,,,,,,,,,,,
1720079247,100,0,4316.410156,4358.205078,4297.307617,4340.897461,4403.846191,4413.589844,4403.589844,4372.94873,4382.692383,4401.410156,4290.128418,4455,4307.692383,4272.436035,,,,,,,,,,,,,,,,,,,,,,,,,,,,,,,,,,,,,,,,,,,,,,,,,,,,,,,,,,,,,,,,,,,,,,
1720079247,101,0,4327.179688,4367.307617,4307.94873,4344.743652,4404.102539,4418.589844,4406.410156,4376.410156,4387.05127,4396.025879,4291.666504,4455.128418,4304.487305,4274.487305,,,,,,,,,,,,,,,,,,,,,,,,,,,,,,,,,,,,,,,,,,,,,,,,,,,,,,,,,,,,,,,,,,,,,,
1720079247,102,0,4332.94873,4379.615234,4309.743652,4359.743652,4406.922852,4422.436035,4411.025879,4372.179688,4384.358887,4389.871582,4291.282227,4449.743652,4308.717773,4274.871582,,,,,,,,,,,,,,,,,,,,,,,,,,,,,,,,,,,,,,,,,,,,,,,,,,,,,,,,,,,,,,,,,,,,,,
1720079247,103,0,4332.820313,4376.666504,4311.025879,4364.230957,4406.922852,4422.436035,4412.94873,4374.358887,4387.05127,4386.410156,4296.282227,4452.05127,4315.897461,4275.384766,,,,,,,,,,,,,,,,,,,,,,,,,,,,,,,,,,,,,,,,,,,,,,,,,,,,,,,,,,,,,,,,,,,,,,
1720079247,104,0,4333.846191,4373.974121,4313.077148,4361.666504,4410.897461,4424.743652,4417.05127,4385,4398.846191,4382.436035,4302.05127,4464.487305,4316.282227,4281.666504,,,,,,,,,,,,,,,,,,,,,,,,,,,,,,,,,,,,,,,,,,,,,,,,,,,,,,,,,,,,,,,,,,,,,,
1720079247,105,0,4338.333496,4384.230957,4312.820313,4373.205078,4416.794922,4431.025879,4421.282227,4383.589844,4412.05127,4378.589844,4300.641113,4466.794922,4320.769043,4284.743652,,,,,,,,,,,,,,,,,,,,,,,,,,,,,,,,,,,,,,,,,,,,,,,,,,,,,,,,,,,,,,,,,,,,,,
1720079247,106,0,4340,4382.692383,4312.692383,4377.820313,4410.256348,4427.563965,4415.256348,4381.153809,4412.179688,4370.128418,4299.102539,4461.538574,4318.461426,4281.025879,,,,,,,,,,,,,,,,,,,,,,,,,,,,,,,,,,,,,,,,,,,,,,,,,,,,,,,,,,,,,,,,,,,,,,
1720079247,107,0,4338.846191,4376.282227,4311.922852,4362.179688,4408.333496,4424.102539,4409.743652,4384.102539,4407.820313,4359.102539,4302.820313,4463.333496,4312.307617,4280.256348,,,,,,,,,,,,,,,,,,,,,,,,,,,,,,,,,,,,,,,,,,,,,,,,,,,,,,,,,,,,,,,,,,,,,,
1720079247,108,0,4335.897461,4382.179688,4312.05127,4358.589844,4418.333496,4434.102539,4421.666504,4384.871582,4419.615234,4356.794922,4303.077148,4467.179688,4317.179688,4281.794922,,,,,,,,,,,,,,,,,,,,,,,,,,,,,,,,,,,,,,,,,,,,,,,,,,,,,,,,,,,,,,,,,,,,,,
1720079247,109,0,4334.487305,4388.717773,4317.05127,4371.922852,4421.666504,4440,4426.666504,4387.436035,4430.256348,4358.205078,4303.589844,4470.512695,4328.205078,4284.615234,,,,,,,,,,,,,,,,,,,,,,,,,,,,,,,,,,,,,,,,,,,,,,,,,,,,,,,,,,,,,,,,,,,,,,
1720079248,110,0,4340.128418,4390.641113,4319.230957,4372.563965,4423.205078,4432.436035,4414.487305,4386.410156,4419.743652,4350.641113,4306.025879,4465.769043,4332.307617,4282.692383,,,,,,,,,,,,,,,,,,,,,,,,,,,,,,,,,,,,,,,,,,,,,,,,,,,,,,,,,,,,,,,,,,,,,,
1720079248,111,0,4345.256348,4387.436035,4313.333496,4366.922852,4423.205078,4425.641113,4408.461426,4380.897461,4408.589844,4341.025879,4301.153809,4459.871582,4321.025879,4277.563965,,,,,,,,,,,,,,,,,,,,,,,,,,,,,,,,,,,,,,,,,,,,,,,,,,,,,,,,,,,,,,,,,,,,,,
1720079248,112,0,4342.179688,4384.358887,4310,4376.282227,4416.282227,4427.820313,4411.153809,4379.743652,4417.179688,4342.307617,4293.461426,4463.333496,4312.436035,4278.974121,1.491627,1.895926,0.915717,0.869619,0.287832,0.842289,1.413741,1.345632,1.126338,0.367206,1.669396,1.436656,1.284443,0.755525,0.264756,0.879041,0.786948,2.950225,1.413155,0.828269,0.964102,0.446353,0.611229,0.374433,0.167048,0.592101,0.327907,0.554225,0.184718,0.073692,0.605317,0.334196,0.883534,0.290011,0.138026,0.511395,0.231321,0.527517,0.28509,0.250716,1.329601,1.103092,1.231875,0.764011,0.268056,4.035567,1.882125,1.004284,0.436334,0.305762,0.708475,0.695826,0.506247,0.60023,0.311447,0.693762,1.096367,0.930821,0.639539,0.356906,1.828421,1.987134,2.109585,1.532617,0.554065,0.858631,0.575145,0.507323,0.439162,0.342054
1720079248,113,0,4343.589844,4391.282227,4312.05127,4378.461426,4418.717773,4428.461426,4412.94873,4381.153809,4428.589844,4344.487305,4294.102539,4466.410156,4320,4280.769043,,,,,,,,,,,,,,,,,,,,,,,,,,,,,,,,,,,,,,,,,,,,,,,,,,,,,,,,,,,,,,,,,,,,,,
1720079248,114,0,4350.769043,4396.410156,4313.846191,4367.563965,4425.897461,4426.538574,4414.102539,4382.436035,4424.230957,4337.563965,4304.743652,4467.05127,4324.871582,4280,,,,,,,,,,,,,,,,,,,,,,,,,,,,,,,,,,,,,,,,,,,,,,,,,,,,,,,,,,,,,,,,,,,,,,
1720079248,115,0,4347.692383,4388.717773,4311.666504,4366.410156,4418.717773,4428.974121,4414.358887,4382.179688,4413.333496,4322.436035,4303.205078,4462.692383,4312.307617,4273.974121,,,,,,,,,,,,,,,,,,,,,,,,,,,,,,,,,,,,,,,,,,,,,,,,,,,,,,,,,,,,,,,,,,,,,,
1720079248,116,0,4342.179688,4387.307617,4314.871582,4375.769043,4415,4430.128418,4416.282227,4380.897461,4412.307617,4315.128418,4292.179688,4460.641113,4308.717773,4270.897461,,,,,,,,,,,,,,,,,,,,,,,,,,,,,,,,,,,,,,,,,,,,,,,,,,,,,,,,,,,,,,,,,,,,,,
1720079248,117,0,4351.282227,4396.922852,4325.512695,4388.077148,4427.05127,4429.102539,4419.358887,4387.692383,4420.128418,4320.641113,4298.974121,4473.589844,4323.333496,4286.025879,,,,,,,,,,,,,,,,,,,,,,,,,,,,,,,,,,,,,,,,,,,,,,,,,,,,,,,,,,,,,,,,,,,,,,
1720079248,118,0,4358.077148,4398.717773,4328.461426,4389.743652,4431.666504,4434.615234,4415.512695,4385.512695,4423.589844,4319.615234,4300.128418,4476.282227,4323.077148,4286.794922,,,,,,,,,,,,,,,,,,,,,,,,,,,,,,,,,,,,,,,,,,,,,,,,,,,,,,,,,,,,,,,,,,,,,,
1720079248,119,0,4353.205078,4396.410156,4328.461426,4385.384766,4425.641113,4442.436035,4417.307617,4385.128418,4426.025879,4313.846191,4296.025879,4472.179688,4316.025879,4283.589844,,,,,,,,,,,,,,,,,,,,,,,,,,,,,,,,,,,,,,,,,,,,,,,,,,,,,,,,,,,,,,,,,,,,,,
1720079248,120,0,4353.077148,4396.666504,4330.256348,4390.384766,4420.512695,4442.307617,4422.307617,4400.897461,4428.717773,4316.538574,4308.717773,4482.179688,4325.128418,4295.512695,,,,,,,,,,,,,,,,,,,,,,,,,,,,,,,,,,,,,,,,,,,,,,,,,,,,,,,,,,,,,,,,,,,,,,
1720079248,121,0,4351.153809,4388.846191,4320,4384.743652,4413.974121,4435.769043,4412.179688,4388.717773,4421.794922,4318.333496,4306.025879,4472.307617,4328.461426,4286.153809,,,,,,,,,,,,,,,,,,,,,,,,,,,,,,,,,,,,,,,,,,,,,,,,,,,,,,,,,,,,,,,,,,,,,,
1720079248,122,0,4341.922852,4375.641113,4306.666504,4356.153809,4410.512695,4429.615234,4404.743652,4373.077148,4412.436035,4311.922852,4292.436035,4459.102539,4318.846191,4277.820313,,,,,,,,,,,,,,,,,,,,,,,,,,,,,,,,,,,,,,,,,,,,,,,,,,,,,,,,,,,,,,,,,,,,,,
1720079248,123,0,4341.922852,4381.282227,4308.974121,4353.717773,4412.563965,4429.102539,4408.461426,4386.922852,4410.128418,4308.077148,4299.615234,4469.102539,4319.230957,4285.128418,,,,,,,,,,,,,,,,,,,,,,,,,,,,,,,,,,,,,,,,,,,,,,,,,,,,,,,,,,,,,,,,,,,,,,
1720079248,124,0,4350,4393.461426,4314.871582,4382.179688,4413.461426,4432.05127,4408.974121,4388.333496,4411.666504,4310.256348,4302.563965,4470.897461,4322.563965,4281.922852,,,,,,,,,,,,,,,,,,,,,,,,,,,,,,,,,,,,,,,,,,,,,,,,,,,,,,,,,,,,,,,,,,,,,,
1720079248,125,0,4345.897461,4379.615234,4309.230957,4374.102539,4411.153809,4430.256348,4409.358887,4381.153809,4410.897461,4308.589844,4287.307617,4461.922852,4308.461426,4277.307617,,,,,,,,,,,,,,,,,,,,,,,,,,,,,,,,,,,,,,,,,,,,,,,,,,,,,,,,,,,,,,,,,,,,,,
1720079248,126,0,4340.512695,4367.05127,4305.256348,4350.384766,4417.179688,4431.666504,4411.794922,4382.179688,4410.512695,4307.05127,4282.179688,4457.692383,4303.974121,4275.641113,,,,,,,,,,,,,,,,,,,,,,,,,,,,,,,,,,,,,,,,,,,,,,,,,,,,,,,,,,,,,,,,,,,,,,
1720079248,127,0,4351.922852,4382.820313,4316.282227,4370.512695,4422.05127,4435,4410.256348,4384.487305,4410.769043,4312.179688,4297.436035,4465.384766,4319.487305,4279.102539,,,,,,,,,,,,,,,,,,,,,,,,,,,,,,,,,,,,,,,,,,,,,,,,,,,,,,,,,,,,,,,,,,,,,,
1720079248,0,0,4360,4395.769043,4323.846191,4391.282227,4418.205078,4432.692383,4410.641113,4386.410156,4410.128418,4320.512695,4305,4473.974121,4329.230957,4284.871582,1.80797,1.864927,0.884503,0.888218,0.265662,0.898089,1.530323,1.31552,1.06696,0.388104,1.714116,1.487303,1.276287,0.732016,0.227267,1.117979,0.853647,2.569303,1.308965,0.802865,0.96998,0.438102,0.647421,0.382306,0.161789,0.566397,0.356812,0.597421,0.206359,0.08103,0.552717,0.316429,0.804851,0.259746,0.132153,0.536119,0.210787,0.478783,0.269507,0.189527,1.613328,0.959632,1.086329,0.781596,0.260374,4.260384,1.770006,0.831263,0.405156,0.295137,0.825985,0.594602,0.442416,0.601588,0.25956,0.986623,1.037053,0.931992,0.619515,0.286366,1.950602,1.952422,2.119203,1.525764,0.489028,1.08979,0.537984,0.525615,0.426299,0.281814
1720079248,1,0,4356.282227,4388.333496,4321.410156,4373.974121,4417.94873,4436.282227,4414.230957,4392.05127,4415.384766,4325.641113,4300,4476.153809,4332.436035,4285.128418,,,,,,,,,,,,,,,,,,,,,,,,,,,,,,,,,,,,,,,,,,,,,,,,,,,,,,,,,,,,,,,,,,,,,,
1720079248,2,0,4351.025879,4381.666504,4317.436035,4362.307617,4417.692383,4439.871582,4412.436035,4395,4418.589844,4325.256348,4300,4472.307617,4328.589844,4283.205078,,,,,,,,,,,,,,,,,,,,,,,,,,,,,,,,,,,,,,,,,,,,,,,,,,,,,,,,,,,,,,,,,,,,,,
1720079248,3,0,4345,4383.589844,4313.974121,4374.871582,4416.410156,4434.743652,4410.641113,4391.922852,4412.179688,4324.102539,4297.05127,4464.230957,4312.563965,4277.05127,,,,,,,,,,,,,,,,,,,,,,,,,,,,,,,,,,,,,,,,,,,,,,,,,,,,,,,,,,,,,,,,,,,,,,
1720079248,4,0,4342.307617,4385.897461,4317.692383,4381.538574,4420.128418,4437.307617,4411.538574,4388.846191,4408.333496,4323.589844,4291.025879,4463.974121,4308.333496,4276.922852,,,,,,,,,,,,,,,,,,,,,,,,,,,,,,,,,,,,,,,,,,,,,,,,,,,,,,,,,,,,,,,,,,,,,,
1720079248,5,0,4343.974121,4383.333496,4320.897461,4370.769043,4418.717773,4447.436035,4412.692383,4388.717773,4411.410156,4324.487305,4290.641113,4464.871582,4313.974121,4277.692383,,,,,,,,,,,,,,,,,,,,,,,,,,,,,,,,,,,,,,,,,,,,,,,,,,,,,,,,,,,,,,,,,,,,,,
1720079248,6,0,4347.563965,4380.128418,4315.512695,4365.897461,4409.615234,4445.769043,4414.230957,4397.94873,4414.487305,4332.692383,4289.102539,4462.436035,4306.538574,4273.461426,,,,,,,,,,,,,,,,,,,,,,,,,,,,,,,,,,,,,,,,,,,,,,,,,,,,,,,,,,,,,,,,,,,,,,
1720079248,7,0,4347.436035,4379.358887,4310.769043,4374.102539,4410.256348,4438.846191,4412.436035,4397.05127,4411.025879,4340.128418,4285.256348,4459.615234,4298.717773,4271.538574,,,,,,,,,,,,,,,,,,,,,,,,,,,,,,,,,,,,,,,,,,,,,,,,,,,,,,,,,,,,,,,,,,,,,,
1720079248,8,0,4346.153809,4376.666504,4313.974121,4378.333496,4417.692383,4442.820313,4411.538574,4390.641113,4406.410156,4341.538574,4285.512695,4460.384766,4303.205078,4273.589844,,,,,,,,,,,,,,,,,,,,,,,,,,,,,,,,,,,,,,,,,,,,,,,,,,,,,,,,,,,,,,,,,,,,,,
1720079248,9,0,4351.410156,4382.563965,4318.974121,4376.410156,4418.077148,4442.05127,4412.05127,4396.666504,4406.282227,4346.666504,4287.692383,4464.615234,4307.820313,4279.102539,,,,,,,,,,,,,,,,,,,,,,,,,,,,,,,,,,,,,,,,,,,,,,,,,,,,,,,,,,,,,,,,,,,,,,
1720079248,10,0,4358.333496,4394.230957,4321.538574,4380.769043,4416.666504,4431.666504,4407.94873,4397.05127,4406.538574,4357.179688,4288.589844,4466.922852,4310.641113,4281.282227,,,,,,,,,,,,,,,,,,,,,,,,,,,,,,,,,,,,,,,,,,,,,,,,,,,,,,,,,,,,,,,,,,,,,,
1720079248,11,0,4359.102539,4391.282227,4325.128418,4387.05127,4413.589844,4429.871582,4405.641113,4395.512695,4403.846191,4365,4293.205078,4474.358887,4315.256348,4282.94873,,,,,,,,,,,,,,,,,,,,,,,,,,,,,,,,,,,,,,,,,,,,,,,,,,,,,,,,,,,,,,,,,,,,,,
1720079248,12,0,4358.205078,4380.384766,4322.820313,4379.871582,4414.102539,4434.871582,4409.487305,4401.025879,4402.820313,4369.358887,4295.769043,4481.025879,4319.358887,4286.794922,,,,,,,,,,,,,,,,,,,,,,,,,,,,,,,,,,,,,,,,,,,,,,,,,,,,,,,,,,,,,,,,,,,,,,
1720079248,13,0,4355.384766,4377.563965,4316.794922,4370.641113,4413.846191,4437.692383,4413.846191,4401.922852,4406.282227,4368.077148,4291.666504,4474.615234,4321.922852,4283.974121,,,,,,,,,,,,,,,,,,,,,,,,,,,,,,,,,,,,,,,,,,,,,,,,,,,,,,,,,,,,,,,,,,,,,,
1720079248,14,0,4348.846191,4373.461426,4309.358887,4375.128418,4408.974121,4435.641113,4409.358887,4394.615234,4398.717773,4366.538574,4290.769043,4466.282227,4317.563965,4277.94873,,,,,,,,,,,,,,,,,,,,,,,,,,,,,,,,,,,,,,,,,,,,,,,,,,,,,,,,,,,,,,,,,,,,,,
1720079248,15,0,4351.538574,4372.436035,4308.846191,4377.94873,4411.282227,4431.666504,4403.077148,4390,4382.307617,4380.128418,4297.179688,4463.205078,4306.922852,4275.769043,,,,,,,,,,,,,,,,,,,,,,,,,,,,,,,,,,,,,,,,,,,,,,,,,,,,,,,,,,,,,,,,,,,,,,
1720079248,16,0,4361.922852,4383.333496,4318.846191,4379.358887,4416.153809,4434.102539,4407.05127,4396.025879,4382.692383,4401.666504,4303.589844,4462.820313,4309.358887,4279.487305,2.304995,1.709282,0.867369,0.869993,0.239118,1.03407,1.564137,1.262559,0.977472,0.393241,1.910179,1.487411,1.212702,0.687815,0.187856,1.449501,0.919631,2.074089,1.262834,0.745425,0.946665,0.412103,0.630417,0.366814,0.150879,0.527574,0.378047,0.590545,0.239833,0.088359,0.54794,0.314556,0.683061,0.229779,0.129675,0.580195,0.200562,0.401763,0.240289,0.149387,1.948998,0.849659,0.93962,0.752351,0.26285,4.460933,1.54428,0.681538,0.385817,0.282097,1.137878,0.508792,0.376937,0.573575,0.226573,1.444126,0.977178,0.877982,0.556714,0.233354,2.210588,1.791483,2.059709,1.436022,0.433764,1.422376,0.497822,0.529369,0.392623,0.237244
1720079248,17,0,4369.487305,4388.846191,4324.358887,4387.436035,4413.589844,4438.461426,4414.230957,4409.230957,4393.974121,4417.820313,4308.717773,4474.487305,4325.256348,4293.589844,,,,,,,,,,,,,,,,,,,,,,,,,,,,,,,,,,,,,,,,,,,,,,,,,,,,,,,,,,,,,,,,,,,,,,
1720079248,18,0,4373.846191,4387.692383,4327.436035,4394.743652,4412.436035,4437.563965,4414.487305,4411.025879,4393.589844,4435,4311.025879,4480.769043,4333.589844,4297.692383,,,,,,,,,,,,,,,,,,,,,,,,,,,,,,,,,,,,,,,,,,,,,,,,,,,,,,,,,,,,,,,,,,,,,,
1720079248,19,0,4372.307617,4390.897461,4332.307617,4390.769043,4415.897461,4434.487305,4413.461426,4402.94873,4382.307617,4446.282227,4311.153809,4475.384766,4328.461426,4286.794922,,,,,,,,,,,,,,,,,,,,,,,,,,,,,,,,,,,,,,,,,,,,,,,,,,,,,,,,,,,,,,,,,,,,,,
1720079248,20,0,4359.871582,4382.820313,4322.179688,4375.128418,4408.333496,4431.025879,4412.563965,4404.358887,4371.025879,4440,4305.128418,4469.230957,4315,4278.589844,,,,,,,,,,,,,,,,,,,,,,,,,,,,,,,,,,,,,,,,,,,,,,,,,,,,,,,,,,,,,,,,,,,,,,
1720079248,21,0,4338.461426,4358.077148,4295.256348,4357.436035,4392.820313,4420.512695,4401.282227,4395,4357.436035,4432.563965,4281.025879,4444.871582,4289.615234,4260.512695,,,,,,,,,,,,,,,,,,,,,,,,,,,,,,,,,,,,,,,,,,,,,,,,,,,,,,,,,,,,,,,,,,,,,,
1720079248,22,0,4332.179688,4352.179688,4287.307617,4354.615234,4389.358887,4412.692383,4392.563965,4389.230957,4345.641113,4436.538574,4270,4435.641113,4271.794922,4255.128418,,,,,,,,,,,,,,,,,,,,,,,,,,,,,,,,,,,,,,,,,,,,,,,,,,,,,,,,,,,,,,,,,,,,,,
1720079248,23,0,4348.077148,4372.820313,4305.128418,4368.846191,4398.974121,4418.846191,4402.307617,4408.461426,4348.461426,4453.333496,4288.846191,4463.205078,4292.436035,4275.128418,,,,,,,,,,,,,,,,,,,,,,,,,,,,,,,,,,,,,,,,,,,,,,,,,,,,,,,,,,,,,,,,,,,,,,
1720079248,24,0,4352.436035,4378.333496,4314.230957,4374.487305,4410,4428.846191,4412.692383,4417.692383,4362.563965,4472.179688,4302.820313,4472.563965,4316.282227,4279.615234,,,,,,,,,,,,,,,,,,,,,,,,,,,,,,,,,,,,,,,,,,,,,,,,,,,,,,,,,,,,,,,,,,,,,,
1720079248,25,0,4351.025879,4376.538574,4314.358887,4378.461426,4412.563965,4432.436035,4413.974121,4416.666504,4369.102539,4478.333496,4302.563965,4462.307617,4309.487305,4280.512695,,,,,,,,,,,,,,,,,,,,,,,,,,,,,,,,,,,,,,,,,,,,,,,,,,,,,,,,,,,,,,,,,,,,,,
1720079248,26,0,4369.743652,4398.717773,4323.846191,4394.487305,4414.358887,4427.94873,4413.077148,4417.05127,4360,4478.333496,4299.487305,4465.641113,4306.025879,4290,,,,,,,,,,,,,,,,,,,,,,,,,,,,,,,,,,,,,,,,,,,,,,,,,,,,,,,,,,,,,,,,,,,,,,
1720079248,27,0,4383.974121,4415,4333.974121,4396.153809,4418.077148,4426.922852,4415.512695,4413.461426,4353.846191,4478.974121,4298.333496,4474.871582,4315.897461,4292.692383,,,,,,,,,,,,,,,,,,,,,,,,,,,,,,,,,,,,,,,,,,,,,,,,,,,,,,,,,,,,,,,,,,,,,,
1720079248,28,0,4385.256348,4405.256348,4333.974121,4383.974121,4416.410156,4430.641113,4415.641113,4415.897461,4361.153809,4473.205078,4302.563965,4477.05127,4311.025879,4291.666504,,,,,,,,,,,,,,,,,,,,,,,,,,,,,,,,,,,,,,,,,,,,,,,,,,,,,,,,,,,,,,,,,,,,,,
1720079248,29,0,4396.666504,4409.358887,4338.205078,4392.05127,4418.974121,4429.615234,4415.641113,4420,4366.666504,4469.230957,4307.307617,4478.077148,4301.282227,4292.179688,,,,,,,,,,,,,,,,,,,,,,,,,,,,,,,,,,,,,,,,,,,,,,,,,,,,,,,,,,,,,,,,,,,,,,
1720079248,30,0,4407.94873,4428.205078,4349.102539,4415,4423.717773,4429.743652,4418.205078,4417.94873,4366.410156,4473.205078,4307.563965,4482.563965,4307.563965,4294.230957,,,,,,,,,,,,,,,,,,,,,,,,,,,,,,,,,,,,,,,,,,,,,,,,,,,,,,,,,,,,,,,,,,,,,,
1720079248,31,0,4405,4423.205078,4348.589844,4412.05127,4417.820313,4429.102539,4414.615234,4417.179688,4364.102539,4467.436035,4305.128418,4487.563965,4314.615234,4295.769043,,,,,,,,,,,,,,,,,,,,,,,,,,,,,,,,,,,,,,,,,,,,,,,,,,,,,,,,,,,,,,,,,,,,,,
1720079248,32,0,4404.230957,4412.563965,4341.666504,4392.94873,4413.333496,4425.256348,4408.846191,4417.307617,4362.563965,4458.974121,4306.153809,4486.666504,4315.641113,4294.743652,2.845697,1.478603,0.858883,0.820544,0.212564,1.232711,1.527557,1.175653,0.866845,0.381387,2.187301,1.433562,1.108154,0.624879,0.15371,1.805912,0.986476,1.562512,1.287275,0.679948,0.910165,0.380081,0.574912,0.332815,0.138068,0.486536,0.389356,0.538455,0.274806,0.093356,0.57788,0.312577,0.549229,0.205725,0.129914,0.641338,0.204772,0.317399,0.206336,0.131274,2.291709,0.785576,0.787196,0.687197,0.275364,4.565675,1.228999,0.558603,0.382213,0.265433,1.58778,0.439048,0.32901,0.526311,0.213232,2.000326,0.915329,0.783306,0.466073,0.200626,2.563457,1.551465,1.942375,1.298281,0.399263,1.76671,0.459653,0.511767,0.349245,0.207569
1720079248,33,0,4404.487305,4417.692383,4340,4396.025879,4417.307617,4424.743652,4409.743652,4409.358887,4364.615234,4459.743652,4306.153809,4478.205078,4313.205078,4287.436035,,,,,,,,,,,,,,,,,,,,,,,,,,,,,,,,,,,,,,,,,,,,,,,,,,,,,,,,,,,,,,,,,,,,,,
1720079248,34,0,4400.512695,4414.358887,4337.179688,4403.333496,4414.358887,4426.282227,4414.102539,4410.512695,4367.820313,4455.384766,4302.820313,4475,4303.589844,4288.077148,,,,,,,,,,,,,,,,,,,,,,,,,,,,,,,,,,,,,,,,,,,,,,,,,,,,,,,,,,,,,,,,,,,,,,
1720079248,35,0,4395,4398.077148,4329.230957,4385,4408.589844,4423.589844,4412.307617,4413.077148,4364.102539,4443.846191,4298.333496,4472.563965,4295.897461,4295.897461,,,,,,,,,,,,,,,,,,,,,,,,,,,,,,,,,,,,,,,,,,,,,,,,,,,,,,,,,,,,,,,,,,,,,,
1720079248,36,0,4388.333496,4396.153809,4325.897461,4368.974121,4411.666504,4423.974121,4410.512695,4406.282227,4355.384766,4433.461426,4296.153809,4465.256348,4300.128418,4293.461426,,,,,,,,,,,,,,,,,,,,,,,,,,,,,,,,,,,,,,,,,,,,,,,,,,,,,,,,,,,,,,,,,,,,,,
1720079248,37,0,4390.384766,4409.615234,4328.717773,4386.538574,4413.333496,4428.461426,4417.820313,4411.666504,4363.974121,4428.333496,4301.153809,4468.077148,4302.94873,4294.102539,,,,,,,,,,,,,,,,,,,,,,,,,,,,,,,,,,,,,,,,,,,,,,,,,,,,,,,,,,,,,,,,,,,,,,
1720079248,38,0,4391.410156,4409.102539,4326.153809,4398.077148,4414.230957,4427.94873,4421.282227,4417.563965,4381.153809,4427.179688,4301.538574,4470.128418,4294.615234,4295.256348,,,,,,,,,,,,,,,,,,,,,,,,,,,,,,,,,,,,,,,,,,,,,,,,,,,,,,,,,,,,,,,,,,,,,,
1720079248,39,0,4380.128418,4402.692383,4317.05127,4383.717773,4416.025879,4426.025879,4416.282227,4413.077148,4378.589844,4418.974121,4291.282227,4460.897461,4289.871582,4283.974121,,,,,,,,,,,,,,,,,,,,,,,,,,,,,,,,,,,,,,,,,,,,,,,,,,,,,,,,,,,,,,,,,,,,,,
1720079248,40,0,4371.153809,4403.333496,4308.717773,4378.589844,4408.333496,4420.897461,4405.769043,4405.512695,4363.974121,4401.922852,4285.256348,4452.307617,4293.461426,4275,,,,,,,,,,,,,,,,,,,,,,,,,,,,,,,,,,,,,,,,,,,,,,,,,,,,,,,,,,,,,,,,,,,,,,
1720079248,41,0,4375,4401.538574,4309.358887,4387.94873,4403.717773,4419.230957,4405.512695,4403.461426,4368.974121,4396.922852,4288.589844,4457.05127,4295.384766,4275.512695,,,,,,,,,,,,,,,,,,,,,,,,,,,,,,,,,,,,,,,,,,,,,,,,,,,,,,,,,,,,,,,,,,,,,,
1720079248,42,0,4380,4396.794922,4315.897461,4384.615234,4409.358887,4423.717773,4411.410156,4409.358887,4385.128418,4402.563965,4293.077148,4466.410156,4293.974121,4280.897461,,,,,,,,,,,,,,,,,,,,,,,,,,,,,,,,,,,,,,,,,,,,,,,,,,,,,,,,,,,,,,,,,,,,,,
1720079248,43,0,4381.282227,4398.717773,4321.666504,4372.436035,4411.794922,4419.230957,4403.461426,4408.205078,4380.512695,4396.410156,4293.974121,4467.436035,4295.256348,4288.974121,,,,,,,,,,,,,,,,,,,,,,,,,,,,,,,,,,,,,,,,,,,,,,,,,,,,,,,,,,,,,,,,,,,,,,
1720079248,44,0,4388.974121,4405.641113,4326.538574,4374.230957,4410.897461,4415.641113,4396.794922,4399.358887,4369.871582,4385.512695,4292.179688,4464.871582,4299.615234,4292.05127,,,,,,,,,,,,,,,,,,,,,,,,,,,,,,,,,,,,,,,,,,,,,,,,,,,,,,,,,,,,,,,,,,,,,,
1720079248,45,0,4395.641113,4410.512695,4331.153809,4384.358887,4410.641113,4423.974121,4406.025879,4403.461426,4378.333496,4381.922852,4295.256348,4470.897461,4306.794922,4296.794922,,,,,,,,,,,,,,,,,,,,,,,,,,,,,,,,,,,,,,,,,,,,,,,,,,,,,,,,,,,,,,,,,,,,,,
1720079248,46,0,4395.384766,4414.230957,4334.358887,4391.410156,4410.384766,4428.589844,4415.384766,4408.205078,4389.743652,4381.153809,4299.487305,4476.025879,4313.717773,4301.153809,,,,,,,,,,,,,,,,,,,,,,,,,,,,,,,,,,,,,,,,,,,,,,,,,,,,,,,,,,,,,,,,,,,,,,
1720079248,47,0,4393.589844,4412.307617,4331.666504,4393.077148,4409.743652,4422.307617,4411.153809,4395.641113,4382.94873,4368.077148,4295,4472.563965,4312.307617,4297.563965,,,,,,,,,,,,,,,,,,,,,,,,,,,,,,,,,,,,,,,,,,,,,,,,,,,,,,,,,,,,,,,,,,,,,,
1720079248,48,0,4396.922852,4408.846191,4329.743652,4394.615234,4407.692383,4418.846191,4409.230957,4399.102539,4375,4347.94873,4294.102539,4479.230957,4309.102539,4302.307617,3.192351,1.234992,0.848226,0.753064,0.190663,1.432532,1.437163,1.056459,0.753767,0.35987,2.379638,1.332183,0.989179,0.552758,0.13069,2.091905,1.046404,1.130139,1.362486,0.632607,0.871299,0.353488,0.503715,0.29009,0.128182,0.471733,0.399376,0.458633,0.298956,0.095902,0.610422,0.302105,0.429565,0.191772,0.131173,0.708801,0.227181,0.244867,0.178748,0.129468,2.565396,0.779752,0.632896,0.609691,0.292944,4.585423,0.890568,0.472365,0.401401,0.245956,2.038591,0.398315,0.305005,0.477217,0.214665,2.498611,0.856887,0.672925,0.375763,0.18465,2.863485,1.30618,1.788693,1.169142,0.388444,1.998521,0.427938,0.476912,0.310491,0.187178
1720079248,49,0,4402.436035,4413.333496,4335,4400.128418,4407.436035,4422.692383,4411.794922,4405.897461,4386.282227,4342.94873,4294.487305,4478.589844,4309.871582,4301.025879,,,,,,,,,,,,,,,,,,,,,,,,,,,,,,,,,,,,,,,,,,,,,,,,,,,,,,,,,,,,,,,,,,,,,,
1720079248,50,0,4403.974121,4415.512695,4339.230957,4397.94873,4411.153809,4426.282227,4414.487305,4398.077148,4395.897461,4342.563965,4293.461426,4472.179688,4315.769043,4296.922852,,,,,,,,,,,,,,,,,,,,,,,,,,,,,,,,,,,,,,,,,,,,,,,,,,,,,,,,,,,,,,,,,,,,,,
1720079248,51,0,4405.769043,4408.846191,4336.538574,4386.538574,4412.179688,4425,4411.922852,4400.897461,4392.563965,4332.692383,4297.05127,4484.358887,4319.358887,4306.153809,,,,,,,,,,,,,,,,,,,,,,,,,,,,,,,,,,,,,,,,,,,,,,,,,,,,,,,,,,,,,,,,,,,,,,
1720079248,52,0,4416.025879,4411.025879,4337.820313,4384.871582,4412.692383,4421.410156,4403.974121,4402.307617,4392.692383,4325,4294.487305,4491.538574,4318.077148,4307.563965,,,,,,,,,,,,,,,,,,,,,,,,,,,,,,,,,,,,,,,,,,,,,,,,,,,,,,,,,,,,,,,,,,,,,,
1720079248,53,0,4429.615234,4421.538574,4351.922852,4395,4415.641113,4424.743652,4407.307617,4401.794922,4396.025879,4321.666504,4296.410156,4491.282227,4321.282227,4311.922852,,,,,,,,,,,,,,,,,,,,,,,,,,,,,,,,,,,,,,,,,,,,,,,,,,,,,,,,,,,,,,,,,,,,,,
1720079248,54,0,4439.871582,4422.820313,4361.666504,4401.025879,4414.871582,4426.666504,4412.436035,4403.333496,4392.05127,4311.410156,4303.846191,4491.410156,4326.410156,4323.717773,,,,,,,,,,,,,,,,,,,,,,,,,,,,,,,,,,,,,,,,,,,,,,,,,,,,,,,,,,,,,,,,,,,,,,
1720079248,55,0,4457.307617,4427.563965,4369.487305,4406.153809,4413.717773,4425.256348,4412.820313,4403.205078,4397.563965,4311.025879,4305.641113,4496.282227,4336.922852,4332.436035,,,,,,,,,,,,,,,,,,,,,,,,,,,,,,,,,,,,,,,,,,,,,,,,,,,,,,,,,,,,,,,,,,,,,,
1720079248,56,0,4482.179688,4449.102539,4389.871582,4420.641113,4417.307617,4429.102539,4422.563965,4411.794922,4415.897461,4323.717773,4315.128418,4513.205078,4354.871582,4347.820313,,,,,,,,,,,,,,,,,,,,,,,,,,,,,,,,,,,,,,,,,,,,,,,,,,,,,,,,,,,,,,,,,,,,,,
1720079248,57,0,4499.743652,4467.179688,4406.410156,4441.410156,4421.922852,4430.512695,4431.153809,4419.358887,4422.307617,4323.077148,4330.384766,4523.333496,4365.256348,4360.769043,,,,,,,,,,,,,,,,,,,,,,,,,,,,,,,,,,,,,,,,,,,,,,,,,,,,,,,,,,,,,,,,,,,,,,
1720079248,58,0,4506.282227,4464.615234,4404.102539,4448.846191,4420.256348,4428.077148,4425.897461,4412.436035,4415.256348,4311.666504,4332.05127,4519.230957,4361.538574,4358.077148,,,,,,,,,,,,,,,,,,,,,,,,,,,,,,,,,,,,,,,,,,,,,,,,,,,,,,,,,,,,,,,,,,,,,,
1720079248,59,0,4504.615234,4455,4399.487305,4431.282227,4419.358887,4427.563965,4425.897461,4410.256348,4410.384766,4303.205078,4326.538574,4515.512695,4356.922852,4354.743652,,,,,,,,,,,,,,,,,,,,,,,,,,,,,,,,,,,,,,,,,,,,,,,,,,,,,,,,,,,,,,,,,,,,,,
1720079248,60,0,4504.743652,4450.128418,4399.102539,4414.487305,4423.974121,4427.179688,4431.282227,4418.846191,4413.846191,4301.538574,4328.077148,4517.563965,4358.333496,4360.897461,,,,,,,,,,,,,,,,,,,,,,,,,,,,,,,,,,,,,,,,,,,,,,,,,,,,,,,,,,,,,,,,,,,,,,
1720079248,61,0,4502.307617,4445.769043,4387.436035,4412.563965,4423.974121,4425.128418,4419.743652,4412.436035,4415.384766,4300.128418,4325,4510.641113,4353.717773,4357.05127,,,,,,,,,,,,,,,,,,,,,,,,,,,,,,,,,,,,,,,,,,,,,,,,,,,,,,,,,,,,,,,,,,,,,,
1720079248,62,0,4495,4445.512695,4380.897461,4417.307617,4419.743652,4429.615234,4413.589844,4406.666504,4413.461426,4290.256348,4317.820313,4505.641113,4343.846191,4348.846191,,,,,,,,,,,,,,,,,,,,,,,,,,,,,,,,,,,,,,,,,,,,,,,,,,,,,,,,,,,,,,,,,,,,,,
1720079248,63,0,4502.563965,4455.641113,4397.436035,4424.358887,4424.743652,4434.743652,4423.974121,4414.358887,4419.487305,4286.410156,4319.358887,4515.512695,4344.358887,4358.205078,,,,,,,,,,,,,,,,,,,,,,,,,,,,,,,,,,,,,,,,,,,,,,,,,,,,,,,,,,,,,,,,,,,,,,
1720079248,64,0,4518.077148,4467.436035,4410.512695,4430.769043,4434.102539,4435.641113,4429.230957,4415.384766,4428.205078,4294.358887,4324.615234,4523.077148,4357.179688,4368.589844,3.305958,1.064692,0.860373,0.684462,0.17671,1.640086,1.343154,0.953612,0.661194,0.341577,2.440548,1.226199,0.918127,0.491232,0.122035,2.257598,1.106614,0.861317,1.444991,0.619547,0.841329,0.345618,0.445318,0.251102,0.124698,0.479047,0.419343,0.376597,0.305947,0.096825,0.615307,0.286455,0.345656,0.191411,0.131524,0.751176,0.266848,0.198887,0.169106,0.136287,2.740633,0.827438,0.495032,0.548815,0.308633,4.607111,0.593343,0.453197,0.449594,0.225118,2.347216,0.409847,0.312171,0.444502,0.223997,2.820985,0.825124,0.586651,0.319077,0.180858,2.993381,1.143051,1.652884,1.100409,0.396201,2.042744,0.415264,0.454894,0.290804,0.170851
1720079248,65,0,4517.563965,4467.820313,4406.922852,4436.538574,4431.922852,4438.205078,4428.717773,4414.871582,4428.717773,4295,4328.077148,4527.436035,4365.897461,4365,,,,,,,,,,,,,,,,,,,,,,,,,,,,,,,,,,,,,,,,,,,,,,,,,,,,,,,,,,,,,,,,,,,,,,
1720079248,66,0,4508.589844,4462.692383,4402.94873,4437.94873,4426.153809,4433.846191,4425.512695,4415.769043,4422.436035,4283.205078,4328.974121,4528.717773,4364.102539,4360.769043,,,,,,,,,,,,,,,,,,,,,,,,,,,,,,,,,,,,,,,,,,,,,,,,,,,,,,,,,,,,,,,,,,,,,,
1720079248,67,0,4512.179688,4460.384766,4407.820313,4432.820313,4424.615234,4428.077148,4421.922852,4416.410156,4418.461426,4280.641113,4328.717773,4525.897461,4359.615234,4365.384766,,,,,,,,,,,,,,,,,,,,,,,,,,,,,,,,,,,,,,,,,,,,,,,,,,,,,,,,,,,,,,,,,,,,,,
1720079248,68,0,4518.461426,4458.846191,4410.384766,4427.820313,4426.153809,4432.307617,4422.563965,4418.717773,4422.94873,4285.128418,4331.282227,4530.897461,4364.871582,4370.128418,,,,,,,,,,,,,,,,,,,,,,,,,,,,,,,,,,,,,,,,,,,,,,,,,,,,,,,,,,,,,,,,,,,,,,
1720079248,69,0,4520.128418,4459.487305,4411.282227,4432.436035,4430.384766,4435.128418,4423.461426,4419.871582,4431.666504,4286.153809,4341.153809,4537.692383,4384.230957,4370.128418,,,,,,,,,,,,,,,,,,,,,,,,,,,,,,,,,,,,,,,,,,,,,,,,,,,,,,,,,,,,,,,,,,,,,,
1720079248,70,0,4523.461426,4461.153809,4414.871582,4434.871582,4431.153809,4428.846191,4420.512695,4416.410156,4431.153809,4284.743652,4348.333496,4534.487305,4392.05127,4371.153809,,,,,,,,,,,,,,,,,,,,,,,,,,,,,,,,,,,,,,,,,,,,,,,,,,,,,,,,,,,,,,,,,,,,,,
1720079248,71,0,4521.794922,4455,4413.717773,4430.256348,4427.05127,4428.717773,4417.179688,4414.615234,4424.743652,4280.769043,4343.846191,4529.743652,4378.717773,4376.282227,,,,,,,,,,,,,,,,,,,,,,,,,,,,,,,,,,,,,,,,,,,,,,,,,,,,,,,,,,,,,,,,,,,,,,
1720079248,72,0,4514.230957,4450.769043,4407.436035,4428.333496,4423.974121,4432.179688,4419.230957,4416.153809,4428.205078,4276.282227,4332.179688,4528.846191,4368.205078,4374.743652,,,,,,,,,,,,,,,,,,,,,,,,,,,,,,,,,,,,,,,,,,,,,,,,,,,,,,,,,,,,,,,,,,,,,,
1720079248,73,0,4508.205078,4452.563965,4402.692383,4424.871582,4427.179688,4428.205078,4423.717773,4415.897461,4431.282227,4276.025879,4327.179688,4528.333496,4366.922852,4374.743652,,,,,,,,,,,,,,,,,,,,,,,,,,,,,,,,,,,,,,,,,,,,,,,,,,,,,,,,,,,,,,,,,,,,,,
1720079248,74,0,4511.794922,4452.307617,4401.153809,4425,4429.358887,4428.717773,4421.153809,4408.974121,4422.820313,4275.769043,4328.589844,4526.666504,4363.333496,4375.128418,,,,,,,,,,,,,,,,,,,,,,,,,,,,,,,,,,,,,,,,,,,,,,,,,,,,,,,,,,,,,,,,,,,,,,
1720079248,75,0,4512.692383,4452.05127,4397.94873,4428.205078,4427.307617,4431.410156,4418.461426,4404.102539,4418.974121,4276.538574,4326.922852,4523.974121,4361.922852,4364.615234,,,,,,,,,,,,,,,,,,,,,,,,,,,,,,,,,,,,,,,,,,,,,,,,,,,,,,,,,,,,,,,,,,,,,,
1720079248,76,0,4507.307617,4455.897461,4398.461426,4426.410156,4424.102539,4430.128418,4426.538574,4420.128418,4427.179688,4282.307617,4337.05127,4533.077148,4372.179688,4370.128418,,,,,,,,,,,,,,,,,,,,,,,,,,,,,,,,,,,,,,,,,,,,,,,,,,,,,,,,,,,,,,,,,,,,,,
1720079248,77,0,4504.102539,4450.769043,4398.846191,4421.410156,4422.436035,4430,4428.333496,4423.077148,4431.794922,4283.205078,4344.615234,4537.436035,4376.922852,4373.717773,,,,,,,,,,,,,,,,,,,,,,,,,,,,,,,,,,,,,,,,,,,,,,,,,,,,,,,,,,,,,,,,,,,,,,
1720079248,78,0,4497.563965,4439.487305,4390.512695,4411.153809,4420.512695,4430.769043,4422.05127,4410.512695,4426.025879,4279.102539,4335.256348,4528.846191,4370,4361.922852,,,,,,,,,,,,,,,,,,,,,,,,,,,,,,,,,,,,,,,,,,,,,,,,,,,,,,,,,,,,,,,,,,,,,,
1720079248,79,0,4498.077148,4441.666504,4389.871582,4408.461426,4416.538574,4429.487305,4424.487305,4420.384766,4419.358887,4284.487305,4334.102539,4532.692383,4373.461426,4369.230957,,,,,,,,,,,,,,,,,,,,,,,,,,,,,,,,,,,,,,,,,,,,,,,,,,,,,,,,,,,,,,,,,,,,,,
1720079248,80,0,4504.487305,4447.820313,4398.589844,4422.436035,4421.025879,4434.487305,4424.230957,4422.05127,4418.589844,4293.589844,4337.179688,4531.025879,4382.692383,4372.820313,3.390389,1.056011,0.914926,0.624433,0.170982,1.881385,1.302269,0.912681,0.603413,0.337003,2.447628,1.179035,0.928602,0.457315,0.127337,2.310811,1.178496,0.782972,1.487681,0.640392,0.827005,0.364234,0.413417,0.222996,0.127549,0.500112,0.453463,0.311632,0.295482,0.097062,0.585236,0.274117,0.307395,0.202394,0.130292,0.746945,0.314382,0.181636,0.183105,0.145375,2.814176,0.893987,0.389526,0.522075,0.318128,4.598734,0.37852,0.516638,0.520897,0.20469,2.413152,0.48535,0.349861,0.437348,0.234543,2.90918,0.836113,0.546034,0.317567,0.186318,2.90764,1.111068,1.569229,1.110121,0.411174,1.956534,0.439195,0.483047,0.298678,0.156332
1720079248,81,0,4503.205078,4446.153809,4396.153809,4426.666504,4428.461426,4438.846191,4421.794922,4413.717773,4420.128418,4288.846191,4337.05127,4524.487305,4378.333496,4367.307617,,,,,,,,,,,,,,,,,,,,,,,,,,,,,,,,,,,,,,,,,,,,,,,,,,,,,,,,,,,,,,,,,,,,,,
1720079248,82,0,4493.589844,4443.333496,4384.358887,4411.410156,4427.05127,4434.102539,4425.641113,4418.333496,4419.743652,4280.641113,4337.820313,4524.743652,4370.384766,4368.589844,,,,,,,,,,,,,,,,,,,,,,,,,,,,,,,,,,,,,,,,,,,,,,,,,,,,,,,,,,,,,,,,,,,,,,
1720079248,83,0,4491.666504,4443.205078,4385.641113,4412.436035,4423.205078,4432.179688,4426.794922,4417.05127,4423.077148,4286.794922,4337.436035,4521.538574,4373.846191,4367.307617,,,,,,,,,,,,,,,,,,,,,,,,,,,,,,,,,,,,,,,,,,,,,,,,,,,,,,,,,,,,,,,,,,,,,,
1720079248,84,0,4495.897461,4442.692383,4392.563965,4423.333496,4421.538574,4432.820313,4424.743652,4416.282227,4422.307617,4292.563965,4335.897461,4525,4373.974121,4370.641113,,,,,,,,,,,,,,,,,,,,,,,,,,,,,,,,,,,,,,,,,,,,,,,,,,,,,,,,,,,,,,,,,,,,,,
1720079248,85,0,4495.641113,4446.025879,4392.820313,4415.769043,4422.179688,4428.461426,4423.333496,4422.692383,4419.230957,4290,4333.461426,4530.512695,4364.871582,4372.307617,,,,,,,,,,,,,,,,,,,,,,,,,,,,,,,,,,,,,,,,,,,,,,,,,,,,,,,,,,,,,,,,,,,,,,
1720079248,86,0,4497.820313,4450.512695,4393.205078,4407.820313,4424.871582,4426.282227,4421.794922,4412.563965,4422.692383,4288.974121,4327.820313,4520.641113,4361.153809,4358.461426,,,,,,,,,,,,,,,,,,,,,,,,,,,,,,,,,,,,,,,,,,,,,,,,,,,,,,,,,,,,,,,,,,,,,,
1720079248,87,0,4499.230957,4447.436035,4392.820313,4411.153809,4426.153809,4426.538574,4425.769043,4409.871582,4425.384766,4294.743652,4330.641113,4520.641113,4367.307617,4360.384766,,,,,,,,,,,,,,,,,,,,,,,,,,,,,,,,,,,,,,,,,,,,,,,,,,,,,,,,,,,,,,,,,,,,,,
1720079248,88,0,4499.871582,4449.230957,4393.205078,4411.410156,4427.179688,4425,4430.128418,4423.077148,4423.974121,4303.846191,4337.94873,4532.307617,4374.230957,4373.589844,,,,,,,,,,,,,,,,,,,,,,,,,,,,,,,,,,,,,,,,,,,,,,,,,,,,,,,,,,,,,,,,,,,,,,
1720079248,89,0,4501.538574,4453.846191,4397.94873,4414.230957,4431.922852,4427.94873,4428.077148,4414.487305,4422.820313,4308.205078,4333.846191,4526.794922,4375.897461,4366.538574,,,,,,,,,,,,,,,,,,,,,,,,,,,,,,,,,,,,,,,,,,,,,,,,,,,,,,,,,,,,,,,,,,,,,,
1720079248,90,0,4496.794922,4446.666504,4396.410156,4419.615234,4431.025879,4431.666504,4426.666504,4413.205078,4413.974121,4298.589844,4334.358887,4526.538574,4375.384766,4366.282227,,,,,,,,,,,,,,,,,,,,,,,,,,,,,,,,,,,,,,,,,,,,,,,,,,,,,,,,,,,,,,,,,,,,,,
1720079248,91,0,4492.692383,4449.743652,4392.179688,4421.025879,4428.205078,4429.102539,4426.538574,4418.205078,4405.641113,4290.512695,4337.307617,4528.589844,4376.794922,4364.743652,,,,,,,,,,,,,,,,,,,,,,,,,,,,,,,,,,,,,,,,,,,,,,,,,,,,,,,,,,,,,,,,,,,,,,
1720079248,92,0,4497.436035,4462.05127,4399.487305,4430.256348,4431.794922,4429.102539,4430.256348,4417.820313,4420.641113,4301.922852,4338.846191,4533.717773,4379.230957,4367.307617,,,,,,,,,,,,,,,,,,,,,,,,,,,,,,,,,,,,,,,,,,,,,,,,,,,,,,,,,,,,,,,,,,,,,,
1720079248,93,0,4498.333496,4453.205078,4402.307617,4434.615234,4434.871582,4437.436035,4433.205078,4428.077148,4431.025879,4310.256348,4340.512695,4542.179688,4377.436035,4378.077148,,,,,,,,,,,,,,,,,,,,,,,,,,,,,,,,,,,,,,,,,,,,,,,,,,,,,,,,,,,,,,,,,,,,,,
1720079248,94,0,4495.512695,4449.358887,4400.641113,4421.153809,4435.897461,4441.410156,4429.230957,4416.794922,4425.256348,4313.077148,4325.897461,4526.282227,4376.153809,4357.563965,,,,,,,,,,,,,,,,,,,,,,,,,,,,,,,,,,,,,,,,,,,,,,,,,,,,,,,,,,,,,,,,,,,,,,
1720079248,95,0,4494.358887,4461.282227,4404.358887,4411.922852,4431.666504,4433.333496,4430.384766,4424.743652,4424.871582,4320.256348,4338.717773,4542.307617,4380.128418,4377.820313,,,,,,,,,,,,,,,,,,,,,,,,,,,,,,,,,,,,,,,,,,,,,,,,,,,,,,,,,,,,,,,,,,,,,,
1720079248,96,0,4483.077148,4450,4390.897461,4411.666504,4425.641113,4425.256348,4425,4425,4416.794922,4319.615234,4337.05127,4537.563965,4362.820313,4376.410156,3.728291,1.267046,1.012394,0.57155,0.17048,2.208484,1.343383,0.955397,0.575897,0.34803,2.533472,1.248718,1.011082,0.454272,0.142127,2.292408,1.263487,0.88354,1.454081,0.678492,0.820413,0.402908,0.403245,0.205019,0.133126,0.506541,0.490984,0.272074,0.271872,0.097142,0.537636,0.270837,0.317206,0.217155,0.128346,0.693124,0.353126,0.184775,0.216725,0.15272,2.773766,0.931516,0.320482,0.528742,0.321119,4.53664,0.260615,0.644688,0.596652,0.186574,2.208672,0.622822,0.41366,0.450946,0.240595,2.783013,0.886081,0.543181,0.368594,0.197941,2.610222,1.214861,1.52168,1.170231,0.420052,1.807943,0.517393,0.581681,0.329103,0.143218
1720079248,97,0,4462.05127,4425.256348,4363.974121,4395.897461,4422.307617,4425.641113,4415.897461,4380.512695,4396.153809,4308.461426,4283.333496,4479.871582,4326.410156,4301.282227,,,,,,,,,,,,,,,,,,,,,,,,,,,,,,,,,,,,,,,,,,,,,,,,,,,,,,,,,,,,,,,,,,,,,,
1720079248,98,0,4450.128418,4415.256348,4358.974121,4380,4412.05127,4424.487305,4419.230957,4408.717773,4384.358887,4298.974121,4296.666504,4505.256348,4317.94873,4330.897461,,,,,,,,,,,,,,,,,,,,,,,,,,,,,,,,,,,,,,,,,,,,,,,,,,,,,,,,,,,,,,,,,,,,,,
1720079248,99,0,4464.487305,4428.717773,4381.153809,4407.05127,4416.922852,4424.743652,4428.846191,4436.538574,4397.94873,4318.974121,4331.025879,4537.820313,4340.897461,4372.179688,,,,,,,,,,,,,,,,,,,,,,,,,,,,,,,,,,,,,,,,,,,,,,,,,,,,,,,,,,,,,,,,,,,,,,
1720079248,100,0,4487.820313,4447.692383,4399.358887,4432.179688,4439.871582,4435.128418,4438.846191,4411.410156,4415.256348,4356.538574,4322.179688,4526.282227,4365.641113,4348.333496,,,,,,,,,,,,,,,,,,,,,,,,,,,,,,,,,,,,,,,,,,,,,,,,,,,,,,,,,,,,,,,,,,,,,,
1720079248,101,0,4490.384766,4451.666504,4398.461426,4415.641113,4446.538574,4440.256348,4442.692383,4429.871582,4415.512695,4372.820313,4336.153809,4549.615234,4380.769043,4372.94873,,,,,,,,,,,,,,,,,,,,,,,,,,,,,,,,,,,,,,,,,,,,,,,,,,,,,,,,,,,,,,,,,,,,,,
1720079248,102,0,4485.897461,4450.641113,4396.922852,4407.05127,4442.436035,4433.717773,4434.102539,4436.153809,4413.461426,4376.153809,4340.769043,4548.077148,4382.05127,4378.333496,,,,,,,,,,,,,,,,,,,,,,,,,,,,,,,,,,,,,,,,,,,,,,,,,,,,,,,,,,,,,,,,,,,,,,
1720079248,103,0,4483.461426,4447.179688,4397.563965,4416.025879,4437.307617,4426.922852,4424.487305,4418.974121,4415.897461,4386.538574,4329.615234,4530.384766,4374.871582,4360.512695,,,,,,,,,,,,,,,,,,,,,,,,,,,,,,,,,,,,,,,,,,,,,,,,,,,,,,,,,,,,,,,,,,,,,,
1720079248,104,0,4471.410156,4437.05127,4385.256348,4406.410156,4428.333496,4428.589844,4425.256348,4421.922852,4410.384766,4393.717773,4329.871582,4531.153809,4368.846191,4363.461426,,,,,,,,,,,,,,,,,,,,,,,,,,,,,,,,,,,,,,,,,,,,,,,,,,,,,,,,,,,,,,,,,,,,,,
1720079248,105,0,4460.128418,4435.256348,4374.487305,4401.666504,4424.615234,4431.410156,4428.461426,4422.563965,4400.256348,4392.436035,4328.205078,4525.256348,4364.487305,4363.589844,,,,,,,,,,,,,,,,,,,,,,,,,,,,,,,,,,,,,,,,,,,,,,,,,,,,,,,,,,,,,,,,,,,,,,
1720079248,106,0,4467.179688,4445.384766,4384.487305,4425.641113,4427.179688,4429.487305,4427.307617,4421.410156,4394.230957,4396.282227,4327.436035,4524.615234,4363.077148,4366.538574,,,,,,,,,,,,,,,,,,,,,,,,,,,,,,,,,,,,,,,,,,,,,,,,,,,,,,,,,,,,,,,,,,,,,,
1720079248,107,0,4475.897461,4443.205078,4395.512695,4428.205078,4426.538574,4430.256348,4429.615234,4428.717773,4393.589844,4406.282227,4329.102539,4526.666504,4364.358887,4370.897461,,,,,,,,,,,,,,,,,,,,,,,,,,,,,,,,,,,,,,,,,,,,,,,,,,,,,,,,,,,,,,,,,,,,,,
1720079248,108,0,4476.538574,4439.615234,4397.179688,4405.897461,4426.410156,4430.769043,4437.436035,4438.077148,4403.846191,4418.333496,4334.102539,4531.922852,4368.077148,4376.538574,,,,,,,,,,,,,,,,,,,,,,,,,,,,,,,,,,,,,,,,,,,,,,,,,,,,,,,,,,,,,,,,,,,,,,
1720079248,109,0,4480.769043,4450.897461,4402.179688,4407.436035,4431.922852,4426.538574,4441.025879,4435,4409.615234,4427.05127,4328.974121,4535.641113,4371.922852,4373.846191,,,,,,,,,,,,,,,,,,,,,,,,,,,,,,,,,,,,,,,,,,,,,,,,,,,,,,,,,,,,,,,,,,,,,,
1720079249,110,0,4486.025879,4453.974121,4407.692383,4421.025879,4432.307617,4422.436035,4434.358887,4434.102539,4404.102539,4435.769043,4322.94873,4536.538574,4375.512695,4371.025879,,,,,,,,,,,,,,,,,,,,,,,,,,,,,,,,,,,,,,,,,,,,,,,,,,,,,,,,,,,,,,,,,,,,,,
1720079249,111,0,4483.974121,4443.846191,4404.102539,4411.922852,4427.820313,4417.820313,4427.05127,4434.871582,4402.05127,4446.794922,4329.871582,4536.794922,4378.333496,4372.05127,,,,,,,,,,,,,,,,,,,,,,,,,,,,,,,,,,,,,,,,,,,,,,,,,,,,,,,,,,,,,,,,,,,,,,
1720079249,112,0,4479.230957,4442.820313,4396.538574,4408.461426,4427.179688,4416.282227,4426.538574,4420.641113,4398.461426,4442.05127,4333.589844,4530,4373.333496,4364.743652,4.57333,1.693007,1.131376,0.52146,0.170591,2.656465,1.452482,1.074483,0.565153,0.365593,2.816643,1.452068,1.123366,0.473743,0.159861,2.265637,1.354149,1.136845,1.339431,0.709817,0.816609,0.442911,0.401302,0.192697,0.136104,0.486617,0.512767,0.254016,0.241038,0.096861,0.495901,0.273316,0.367407,0.226463,0.127315,0.615876,0.369555,0.193615,0.257227,0.156849,2.614766,0.907162,0.277033,0.554295,0.320152,4.342107,0.232712,0.789783,0.653458,0.172958,1.826802,0.815008,0.492892,0.470621,0.238657,2.556751,0.964276,0.54908,0.446394,0.211582,2.192213,1.434313,1.460345,1.224745,0.415016,1.695823,0.659729,0.734329,0.366249,0.13264
1720079249,113,0,4476.538574,4450.512695,4396.410156,4428.974121,4428.461426,4423.333496,4430,4422.94873,4387.563965,4429.871582,4332.05127,4531.794922,4367.692383,4365.512695,,,,,,,,,,,,,,,,,,,,,,,,,,,,,,,,,,,,,,,,,,,,,,,,,,,,,,,,,,,,,,,,,,,,,,
1720079249,114,0,4472.179688,4451.153809,4396.666504,4433.461426,4430,4426.025879,4429.102539,4433.205078,4381.538574,4427.94873,4326.025879,4532.05127,4363.589844,4364.615234,,,,,,,,,,,,,,,,,,,,,,,,,,,,,,,,,,,,,,,,,,,,,,,,,,,,,,,,,,,,,,,,,,,,,,
1720079249,115,0,4465.512695,4445.256348,4387.692383,4417.05127,4430.384766,4421.794922,4428.974121,4422.179688,4380.769043,4428.077148,4317.436035,4522.307617,4352.179688,4351.922852,,,,,,,,,,,,,,,,,,,,,,,,,,,,,,,,,,,,,,,,,,,,,,,,,,,,,,,,,,,,,,,,,,,,,,
1720079249,116,0,4463.077148,4441.153809,4385.256348,4409.358887,4426.538574,4426.153809,4437.94873,4427.436035,4385.128418,4432.692383,4326.153809,4529.615234,4351.282227,4357.94873,,,,,,,,,,,,,,,,,,,,,,,,,,,,,,,,,,,,,,,,,,,,,,,,,,,,,,,,,,,,,,,,,,,,,,
1720079249,117,0,4466.666504,4443.717773,4393.077148,4414.358887,4432.436035,4434.487305,4445.641113,4443.205078,4394.615234,4445,4332.820313,4538.077148,4365.256348,4366.794922,,,,,,,,,,,,,,,,,,,,,,,,,,,,,,,,,,,,,,,,,,,,,,,,,,,,,,,,,,,,,,,,,,,,,,
1720079249,118,0,4469.487305,4450.512695,4396.922852,4418.461426,4443.205078,4432.563965,4445.384766,4440.256348,4393.205078,4448.974121,4325.256348,4535,4369.871582,4363.077148,,,,,,,,,,,,,,,,,,,,,,,,,,,,,,,,,,,,,,,,,,,,,,,,,,,,,,,,,,,,,,,,,,,,,,
1720079249,119,0,4464.743652,4448.333496,4394.102539,4419.743652,4435.512695,4426.922852,4441.538574,4432.179688,4385,4443.846191,4324.871582,4530.641113,4360.641113,4362.692383,,,,,,,,,,,,,,,,,,,,,,,,,,,,,,,,,,,,,,,,,,,,,,,,,,,,,,,,,,,,,,,,,,,,,,
1720079249,120,0,4465.384766,4444.615234,4395.384766,4420.769043,4423.461426,4421.794922,4434.230957,4426.794922,4381.538574,4443.974121,4328.077148,4524.615234,4359.102539,4361.794922,,,,,,,,,,,,,,,,,,,,,,,,,,,,,,,,,,,,,,,,,,,,,,,,,,,,,,,,,,,,,,,,,,,,,,
1720079249,121,0,4472.436035,4444.102539,4396.282227,4411.666504,4426.538574,4412.692383,4427.307617,4425.769043,4374.871582,4446.922852,4323.846191,4521.025879,4363.461426,4360,,,,,,,,,,,,,,,,,,,,,,,,,,,,,,,,,,,,,,,,,,,,,,,,,,,,,,,,,,,,,,,,,,,,,,
1720079249,122,0,4466.666504,4440,4386.538574,4396.922852,4428.077148,4411.538574,4427.563965,4418.205078,4365.256348,4440.641113,4309.102539,4513.846191,4351.410156,4358.974121,,,,,,,,,,,,,,,,,,,,,,,,,,,,,,,,,,,,,,,,,,,,,,,,,,,,,,,,,,,,,,,,,,,,,,
1720079249,123,0,4451.025879,4430.769043,4377.307617,4393.717773,4421.538574,4419.743652,4430,4409.743652,4362.436035,4429.871582,4296.794922,4505,4332.563965,4352.820313,,,,,,,,,,,,,,,,,,,,,,,,,,,,,,,,,,,,,,,,,,,,,,,,,,,,,,,,,,,,,,,,,,,,,,
1720079249,124,0,4450.512695,4426.282227,4379.615234,4404.743652,4423.333496,4424.743652,4429.102539,4419.358887,4371.282227,4431.282227,4306.666504,4510.128418,4332.692383,4352.820313,,,,,,,,,,,,,,,,,,,,,,,,,,,,,,,,,,,,,,,,,,,,,,,,,,,,,,,,,,,,,,,,,,,,,,
1720079249,125,0,4462.563965,4436.025879,4387.563965,4411.794922,4428.717773,4426.794922,4433.077148,4429.615234,4382.820313,4445.256348,4321.282227,4522.307617,4348.846191,4363.205078,,,,,,,,,,,,,,,,,,,,,,,,,,,,,,,,,,,,,,,,,,,,,,,,,,,,,,,,,,,,,,,,,,,,,,
1720079249,126,0,4466.025879,4445.897461,4390.256348,4408.205078,4426.922852,4427.820313,4442.436035,4428.846191,4386.666504,4450.256348,4323.461426,4528.205078,4360.512695,4365.384766,,,,,,,,,,,,,,,,,,,,,,,,,,,,,,,,,,,,,,,,,,,,,,,,,,,,,,,,,,,,,,,,,,,,,,
1720079249,127,0,4465.384766,4445.512695,4395.128418,4414.615234,4427.563965,4428.846191,4445.128418,4440.256348,4392.179688,4447.563965,4332.05127,4541.282227,4366.025879,4369.743652,,,,,,,,,,,,,,,,,,,,,,,,,,,,,,,,,,,,,,,,,,,,,,,,,,,,,,,,,,,,,,,,,,,,,,
1720079249,0,0,4468.974121,4445.384766,4396.794922,4423.717773,4438.717773,4430,4437.820313,4441.538574,4393.717773,4445.128418,4334.871582,4541.794922,4369.358887,4369.615234,5.938561,2.25793,1.237727,0.481023,0.168216,3.193223,1.592066,1.235771,0.563529,0.375873,3.300926,1.758736,1.220489,0.508689,0.175523,2.273694,1.446683,1.499745,1.174254,0.716359,0.806125,0.465626,0.397739,0.185429,0.133006,0.439271,0.506251,0.24757,0.209851,0.095705,0.476149,0.273894,0.444042,0.225249,0.128321,0.537632,0.363338,0.199673,0.290173,0.160498,2.355735,0.821188,0.252773,0.584076,0.318167,3.844888,0.278423,0.895419,0.677739,0.166998,1.395658,1.046547,0.57377,0.483528,0.230913,2.313413,1.059203,0.549613,0.521155,0.225927,1.780679,1.752765,1.362304,1.233415,0.39694,1.685614,0.862546,0.901609,0.399537,0.132275
1720079249,1,0,4464.102539,4447.05127,4383.461426,4416.025879,4444.487305,4429.743652,4432.820313,4424.743652,4381.282227,4435.641113,4318.205078,4523.717773,4362.820313,4355.128418,,,,,,,,,,,,,,,,,,,,,,,,,,,,,,,,,,,,,,,,,,,,,,,,,,,,,,,,,,,,,,,,,,,,,,
1720079249,2,0,4455.769043,4443.589844,4373.974121,4406.666504,4435.384766,4427.179688,4430.769043,4429.102539,4374.871582,4426.282227,4317.05127,4524.743652,4352.307617,4352.692383,,,,,,,,,,,,,,,,,,,,,,,,,,,,,,,,,,,,,,,,,,,,,,,,,,,,,,,,,,,,,,,,,,,,,,
1720079249,3,0,4456.538574,4444.743652,4379.487305,4410.256348,4434.743652,4428.461426,4427.94873,4428.589844,4379.743652,4420.512695,4319.102539,4520.512695,4349.871582,4346.153809,,,,,,,,,,,,,,,,,,,,,,,,,,,,,,,,,,,,,,,,,,,,,,,,,,,,,,,,,,,,,,,,,,,,,,
1720079249,4,0,4462.820313,4455.641113,4385.769043,4421.794922,4443.974121,4434.358887,4434.230957,4424.358887,4381.025879,4416.410156,4315.256348,4519.743652,4359.487305,4347.820313,,,,,,,,,,,,,,,,,,,,,,,,,,,,,,,,,,,,,,,,,,,,,,,,,,,,,,,,,,,,,,,,,,,,,,
1720079249,5,0,4469.615234,4460.384766,4390,4431.666504,4446.025879,4440.128418,4445.128418,4440.256348,4388.461426,4422.307617,4323.717773,4538.461426,4367.94873,4367.307617,,,,,,,,,,,,,,,,,,,,,,,,,,,,,,,,,,,,,,,,,,,,,,,,,,,,,,,,,,,,,,,,,,,,,,
1720079249,6,0,4473.461426,4460,4397.692383,4431.666504,4442.436035,4440,4442.94873,4439.743652,4402.820313,4429.230957,4328.846191,4539.102539,4367.563965,4366.025879,,,,,,,,,,,,,,,,,,,,,,,,,,,,,,,,,,,,,,,,,,,,,,,,,,,,,,,,,,,,,,,,,,,,,,
1720079249,7,0,4471.922852,4458.461426,4401.153809,4425.512695,4441.794922,4434.102539,4432.692383,4436.025879,4401.922852,4428.077148,4328.077148,4537.436035,4370,4361.153809,,,,,,,,,,,,,,,,,,,,,,,,,,,,,,,,,,,,,,,,,,,,,,,,,,,,,,,,,,,,,,,,,,,,,,
1720079249,8,0,4470.512695,4453.589844,4396.922852,4424.871582,4444.230957,4430.769043,4428.333496,4438.717773,4398.717773,4426.666504,4322.820313,4541.538574,4373.333496,4361.538574,,,,,,,,,,,,,,,,,,,,,,,,,,,,,,,,,,,,,,,,,,,,,,,,,,,,,,,,,,,,,,,,,,,,,,
1720079249,9,0,4466.666504,4445.512695,4387.563965,4416.282227,4440.769043,4430.384766,4428.717773,4429.743652,4397.436035,4420.512695,4313.846191,4528.974121,4366.666504,4353.205078,,,,,,,,,,,,,,,,,,,,,,,,,,,,,,,,,,,,,,,,,,,,,,,,,,,,,,,,,,,,,,,,,,,,,,
1720079249,10,0,4458.974121,4440.256348,4378.846191,4396.410156,4434.230957,4427.820313,4427.307617,4425.641113,4385.769043,4403.589844,4316.666504,4515.769043,4359.102539,4349.487305,,,,,,,,,,,,,,,,,,,,,,,,,,,,,,,,,,,,,,,,,,,,,,,,,,,,,,,,,,,,,,,,,,,,,,
1720079249,11,0,4461.922852,4452.436035,4385.384766,4411.025879,4438.333496,4428.333496,4430.512695,4427.307617,4385.128418,4401.025879,4322.94873,4519.102539,4360.512695,4353.205078,,,,,,,,,,,,,,,,,,,,,,,,,,,,,,,,,,,,,,,,,,,,,,,,,,,,,,,,,,,,,,,,,,,,,,
1720079249,12,0,4470.384766,4466.794922,4397.179688,4443.717773,4446.922852,4431.794922,4441.153809,4427.820313,4397.820313,4410,4324.230957,4527.436035,4362.692383,4356.922852,,,,,,,,,,,,,,,,,,,,,,,,,,,,,,,,,,,,,,,,,,,,,,,,,,,,,,,,,,,,,,,,,,,,,,
1720079249,13,0,4465.769043,4459.743652,4391.666504,4437.307617,4444.615234,4436.025879,4445,4431.282227,4398.846191,4401.922852,4323.205078,4526.282227,4362.692383,4354.743652,,,,,,,,,,,,,,,,,,,,,,,,,,,,,,,,,,,,,,,,,,,,,,,,,,,,,,,,,,,,,,,,,,,,,,
1720079249,14,0,4463.846191,4447.94873,4389.358887,4420.384766,4442.692383,4438.205078,4440.769043,4433.333496,4399.102539,4396.025879,4320.897461,4523.205078,4363.589844,4352.94873,,,,,,,,,,,,,,,,,,,,,,,,,,,,,,,,,,,,,,,,,,,,,,,,,,,,,,,,,,,,,,,,,,,,,,
1720079249,15,0,4468.717773,4446.282227,4395,4423.205078,4443.461426,4436.410156,4443.461426,4431.794922,4412.05127,4406.666504,4320.384766,4526.282227,4363.974121,4355.769043,,,,,,,,,,,,,,,,,,,,,,,,,,,,,,,,,,,,,,,,,,,,,,,,,,,,,,,,,,,,,,,,,,,,,,
1720079249,16,0,4459.871582,4442.94873,4384.615234,4416.922852,4432.179688,4432.820313,4444.487305,4438.205078,4416.282227,4402.436035,4321.282227,4533.589844,4359.743652,4357.179688,7.548076,2.820869,1.316434,0.4729,0.16361,3.72005,1.712384,1.39641,0.576579,0.370205,3.882565,2.088022,1.289411,0.562083,0.187653,2.316013,1.532727,1.88761,1.010491,0.694704,0.784338,0.466836,0.394675,0.189409,0.12387,0.37828,0.47514,0.245866,0.18468,0.093309,0.481753,0.266951,0.535723,0.21639,0.130962,0.481665,0.342995,0.21379,0.308298,0.172285,2.021291,0.700312,0.264954,0.616396,0.315832,3.223392,0.381923,0.939339,0.680184,0.17128,1.050392,1.2924,0.652158,0.490626,0.226416,2.116386,1.157657,0.567455,0.579496,0.244815,1.5038,2.156776,1.291348,1.208516,0.371833,1.780748,1.096509,1.045902,0.435426,0.158368
1720079249,17,0,4453.461426,4441.153809,4378.333496,4407.692383,4428.974121,4431.282227,4435.512695,4441.153809,4414.102539,4383.717773,4318.077148,4532.563965,4356.922852,4354.871582,,,,,,,,,,,,,,,,,,,,,,,,,,,,,,,,,,,,,,,,,,,,,,,,,,,,,,,,,,,,,,,,,,,,,,
1720079249,18,0,4461.538574,4446.666504,4390.512695,4416.666504,4436.922852,4429.487305,4428.589844,4430,4412.05127,4374.230957,4314.102539,4523.974121,4357.307617,4355.897461,,,,,,,,,,,,,,,,,,,,,,,,,,,,,,,,,,,,,,,,,,,,,,,,,,,,,,,,,,,,,,,,,,,,,,
1720079249,19,0,4458.717773,4446.794922,4388.333496,4422.179688,4430.512695,4426.282227,4424.743652,4420.256348,4390.256348,4360.256348,4310.769043,4519.743652,4348.333496,4353.205078,,,,,,,,,,,,,,,,,,,,,,,,,,,,,,,,,,,,,,,,,,,,,,,,,,,,,,,,,,,,,,,,,,,,,,
1720079249,20,0,4448.974121,4443.717773,4376.410156,4418.077148,4428.846191,4427.436035,4425.897461,4416.922852,4376.538574,4347.820313,4309.230957,4518.846191,4342.436035,4344.230957,,,,,,,,,,,,,,,,,,,,,,,,,,,,,,,,,,,,,,,,,,,,,,,,,,,,,,,,,,,,,,,,,,,,,,
1720079249,21,0,4454.871582,4444.871582,4384.102539,4415,4442.94873,4435.512695,4437.94873,4426.410156,4396.538574,4358.589844,4316.538574,4526.410156,4356.666504,4348.461426,,,,,,,,,,,,,,,,,,,,,,,,,,,,,,,,,,,,,,,,,,,,,,,,,,,,,,,,,,,,,,,,,,,,,,
1720079249,22,0,4460.512695,4446.025879,4391.282227,4410.897461,4448.077148,4440,4447.307617,4438.077148,4415.256348,4371.025879,4330.384766,4535.384766,4366.922852,4356.666504,,,,,,,,,,,,,,,,,,,,,,,,,,,,,,,,,,,,,,,,,,,,,,,,,,,,,,,,,,,,,,,,,,,,,,
1720079249,23,0,4453.589844,4446.538574,4384.358887,4417.436035,4440.512695,4436.922852,4446.282227,4437.692383,4416.538574,4366.153809,4329.358887,4530.641113,4356.794922,4350.641113,,,,,,,,,,,,,,,,,,,,,,,,,,,,,,,,,,,,,,,,,,,,,,,,,,,,,,,,,,,,,,,,,,,,,,
