Timestamp,EEG.Counter,EEG.Interpolated,EEG.AF3,EEG.F7,EEG.F3,EEG.FC5,EEG.T7,EEG.P7,EEG.O1,EEG.O2,EEG.P8,EEG.T8,EEG.FC6,EEG.F4,EEG.F8,EEG.AF4,POW.AF3.Theta,POW.AF3.Alpha,POW.AF3.BetaL,POW.AF3.BetaH,POW.AF3.Gamma,POW.F7.Theta,POW.F7.Alpha,POW.F7.BetaL,POW.F7.BetaH,POW.F7.Gamma,POW.F3.Theta,POW.F3.Alpha,POW.F3.BetaL,POW.F3.BetaH,POW.F3.Gamma,POW.FC5.Theta,POW.FC5.Alpha,POW.FC5.BetaL,POW.FC5.BetaH,POW.FC5.Gamma,POW.T7.Theta,POW.T7.Alpha,POW.T7.BetaL,POW.T7.BetaH,POW.T7.Gamma,POW.P7.Theta,POW.P7.Alpha,POW.P7.BetaL,POW.P7.BetaH,POW.P7.Gamma,POW.O1.Theta,POW.O1.Alpha,POW.O1.BetaL,POW.O1.BetaH,POW.O1.Gamma,POW.O2.Theta,POW.O2.Alpha,POW.O2.BetaL,POW.O2.BetaH,POW.O2.Gamma,POW.P8.Theta,POW.P8.Alpha,POW.P8.BetaL,POW.P8.BetaH,POW.P8.Gamma,POW.T8.Theta,POW.T8.Alpha,POW.T8.BetaL,POW.T8.BetaH,POW.T8.Gamma,POW.FC6.Theta,POW.FC6.Alpha,POW.FC6.BetaL,POW.FC6.BetaH,POW.FC6.Gamma,POW.F4.Theta,POW.F4.Alpha,POW.F4.BetaL,POW.F4.BetaH,POW.F4.Gamma,POW.F8.Theta,POW.F8.Alpha,POW.F8.BetaL,POW.F8.BetaH,POW.F8.Gamma,POW.AF4.Theta,POW.AF4.Alpha,POW.AF4.BetaL,POW.AF4.BetaH,POW.AF4.Gamma
1720416429,43,0,4357.820313,4295.256348,4313.717773,4335.769043,4290.641113,4321.282227,4307.692383,4281.922852,4287.563965,4263.205078,4445.897461,4405.512695,4351.538574,4381.538574,,,,,,,,,,,,,,,,,,,,,,,,,,,,,,,,,,,,,,,,,,,,,,,,,,,,,,,,,,,,,,,,,,,,,,
1720416429,44,0,4353.589844,4296.282227,4308.846191,4337.05127,4284.230957,4316.794922,4298.589844,4280.641113,4281.922852,4266.538574,4443.717773,4403.205078,4348.333496,4379.358887,,,,,,,,,,,,,,,,,,,,,,,,,,,,,,,,,,,,,,,,,,,,,,,,,,,,,,,,,,,,,,,,,,,,,,
1720416429,45,0,4353.077148,4296.794922,4303.974121,4331.666504,4279.230957,4318.461426,4297.179688,4273.077148,4276.282227,4259.230957,4435.128418,4396.538574,4347.436035,4380.512695,,,,,,,,,,,,,,,,,,,,,,,,,,,,,,,,,,,,,,,,,,,,,,,,,,,,,,,,,,,,,,,,,,,,,,
1720416429,46,0,4347.436035,4291.282227,4298.717773,4320.641113,4280.769043,4322.820313,4302.820313,4272.436035,4276.410156,4254.487305,4432.563965,4392.563965,4348.077148,4374.487305,,,,,,,,,,,,,,,,,,,,,,,,,,,,,,,,,,,,,,,,,,,,,,,,,,,,,,,,,,,,,,,,,,,,,,
1720416429,47,0,4343.461426,4292.94873,4302.692383,4324.871582,4283.077148,4325.641113,4308.333496,4282.692383,4282.94873,4258.846191,4437.179688,4399.871582,4349.615234,4371.666504,,,,,,,,,,,,,,,,,,,,,,,,,,,,,,,,,,,,,,,,,,,,,,,,,,,,,,,,,,,,,,,,,,,,,,
1720416429,48,0,4348.589844,4305.897461,4312.94873,4336.666504,4283.717773,4328.077148,4310,4285.641113,4284.743652,4264.743652,4434.358887,4407.307617,4352.307617,4374.358887,,,,,,,,,,,,,,,,,,,,,,,,,,,,,,,,,,,,,,,,,,,,,,,,,,,,,,,,,,,,,,,,,,,,,,
1720416429,49,0,4353.589844,4311.794922,4311.410156,4336.282227,4286.538574,4327.05127,4302.692383,4280.512695,4282.05127,4263.974121,4431.282227,4414.358887,4355.897461,4376.538574,,,,,,,,,,,,,,,,,,,,,,,,,,,,,,,,,,,,,,,,,,,,,,,,,,,,,,,,,,,,,,,,,,,,,,
1720416429,50,0,4350.256348,4307.179688,4303.333496,4329.230957,4290.512695,4322.820313,4295.128418,4277.05127,4277.05127,4260.256348,4434.102539,4406.666504,4354.615234,4372.307617,,,,,,,,,,,,,,,,,,,,,,,,,,,,,,,,,,,,,,,,,,,,,,,,,,,,,,,,,,,,,,,,,,,,,,
1720416429,51,0,4349.615234,4307.05127,4308.205078,4328.077148,4289.615234,4323.846191,4295.128418,4271.794922,4268.717773,4263.077148,4433.461426,4398.717773,4354.102539,4372.692383,,,,,,,,,,,,,,,,,,,,,,,,,,,,,,,,,,,,,,,,,,,,,,,,,,,,,,,,,,,,,,,,,,,,,,
1720416429,52,0,4354.358887,4310.769043,4318.205078,4334.230957,4286.282227,4325.384766,4297.307617,4269.615234,4267.563965,4270.256348,4434.230957,4423.846191,4362.05127,4389.230957,,,,,,,,,,,,,,,,,,,,,,,,,,,,,,,,,,,,,,,,,,,,,,,,,,,,,,,,,,,,,,,,,,,,,,
1720416429,53,0,4346.153809,4311.794922,4317.05127,4341.282227,4288.461426,4317.94873,4294.230957,4272.692383,4269.871582,4270.512695,4435.769043,4422.05127,4360.512695,4396.538574,,,,,,,,,,,,,,,,,,,,,,,,,,,,,,,,,,,,,,,,,,,,,,,,,,,,,,,,,,,,,,,,,,,,,,
1720416429,54,0,4337.94873,4309.615234,4312.692383,4337.563965,4290,4321.410156,4295.128418,4274.358887,4270.384766,4268.589844,4432.436035,4409.102539,4351.153809,4389.487305,2.980581,1.930075,1.121855,0.490296,0.141304,0.817288,0.880359,1.30608,0.362056,0.234429,1.890588,2.416512,1.057071,0.497747,0.138761,0.883333,1.424796,1.455586,0.404071,0.23691,0.22892,0.711201,0.524071,0.317463,0.142199,0.213607,0.466817,0.34591,0.158298,0.236402,0.963531,2.222656,0.915441,0.540566,0.16868,1.304753,1.882048,0.761161,0.606152,0.211549,0.596827,1.137227,0.346955,0.600756,0.2746,4.280075,1.839386,0.823241,0.67495,0.156202,1.438874,1.579767,1.130976,0.573321,0.211342,2.003127,2.136645,0.724706,0.545126,0.511162,0.894659,0.941866,0.57043,0.301078,0.101981,4.129379,5.179814,2.591574,0.97591,0.22619
1720416429,55,0,4351.666504,4306.794922,4312.563965,4328.461426,4292.307617,4333.846191,4306.794922,4278.333496,4276.538574,4275,4430.512695,4423.589844,4348.974121,4389.358887,,,,,,,,,,,,,,,,,,,,,,,,,,,,,,,,,,,,,,,,,,,,,,,,,,,,,,,,,,,,,,,,,,,,,,
1720416429,56,0,4359.358887,4299.871582,4305.256348,4325.512695,4292.692383,4327.692383,4309.102539,4281.410156,4281.153809,4272.179688,4426.922852,4414.743652,4337.94873,4384.743652,,,,,,,,,,,,,,,,,,,,,,,,,,,,,,,,,,,,,,,,,,,,,,,,,,,,,,,,,,,,,,,,,,,,,,
1720416429,57,0,4353.333496,4290.256348,4300.256348,4325.128418,4285,4315.897461,4301.153809,4279.358887,4277.94873,4262.436035,4420.384766,4406.410156,4320.769043,4371.538574,,,,,,,,,,,,,,,,,,,,,,,,,,,,,,,,,,,,,,,,,,,,,,,,,,,,,,,,,,,,,,,,,,,,,,
1720416429,58,0,4359.871582,4296.025879,4309.871582,4327.563965,4280.897461,4317.436035,4302.307617,4279.102539,4280.128418,4270.256348,4422.820313,4420.897461,4320,4364.743652,,,,,,,,,,,,,,,,,,,,,,,,,,,,,,,,,,,,,,,,,,,,,,,,,,,,,,,,,,,,,,,,,,,,,,
1720416429,59,0,4375.128418,4306.922852,4314.743652,4327.692383,4285.897461,4324.358887,4308.974121,4283.846191,4285.769043,4279.487305,4432.05127,4426.025879,4329.102539,4368.461426,,,,,,,,,,,,,,,,,,,,,,,,,,,,,,,,,,,,,,,,,,,,,,,,,,,,,,,,,,,,,,,,,,,,,,
1720416429,60,0,4378.974121,4303.717773,4313.589844,4326.794922,4292.94873,4325,4309.487305,4286.666504,4286.025879,4277.307617,4437.692383,4430.769043,4332.307617,4376.282227,,,,,,,,,,,,,,,,,,,,,,,,,,,,,,,,,,,,,,,,,,,,,,,,,,,,,,,,,,,,,,,,,,,,,,
1720416429,61,0,4373.846191,4293.846191,4316.282227,4328.974121,4291.153809,4322.05127,4303.717773,4283.333496,4282.436035,4277.436035,4432.179688,4431.410156,4327.563965,4373.461426,,,,,,,,,,,,,,,,,,,,,,,,,,,,,,,,,,,,,,,,,,,,,,,,,,,,,,,,,,,,,,,,,,,,,,
1720416429,62,0,4373.974121,4296.922852,4315.897461,4331.922852,4284.871582,4317.820313,4295.512695,4277.436035,4275.897461,4277.94873,4427.436035,4412.05127,4324.102539,4366.922852,,,,,,,,,,,,,,,,,,,,,,,,,,,,,,,,,,,,,,,,,,,,,,,,,,,,,,,,,,,,,,,,,,,,,,
1720416429,63,0,4382.05127,4307.05127,4313.589844,4329.615234,4281.538574,4316.794922,4292.563965,4271.538574,4271.025879,4276.282227,4435.128418,4420.512695,4331.282227,4373.333496,,,,,,,,,,,,,,,,,,,,,,,,,,,,,,,,,,,,,,,,,,,,,,,,,,,,,,,,,,,,,,,,,,,,,,
1720416429,64,0,4383.846191,4304.358887,4313.333496,4323.846191,4281.025879,4316.666504,4295.128418,4265.769043,4266.282227,4277.307617,4438.974121,4436.282227,4336.666504,4379.102539,,,,,,,,,,,,,,,,,,,,,,,,,,,,,,,,,,,,,,,,,,,,,,,,,,,,,,,,,,,,,,,,,,,,,,
1720416429,65,0,4382.05127,4299.871582,4312.563965,4327.179688,4283.974121,4318.717773,4297.436035,4269.102539,4268.717773,4281.794922,4432.179688,4420.641113,4332.820313,4381.538574,,,,,,,,,,,,,,,,,,,,,,,,,,,,,,,,,,,,,,,,,,,,,,,,,,,,,,,,,,,,,,,,,,,,,,
1720416429,66,0,4393.974121,4306.025879,4317.563965,4336.282227,4291.025879,4329.230957,4306.922852,4282.307617,4281.025879,4285.384766,4434.487305,4429.358887,4334.615234,4397.436035,,,,,,,,,,,,,,,,,,,,,,,,,,,,,,,,,,,,,,,,,,,,,,,,,,,,,,,,,,,,,,,,,,,,,,
1720416429,67,0,4405.769043,4312.436035,4325.641113,4337.307617,4295.897461,4330.128418,4314.615234,4287.179688,4284.615234,4288.974121,4444.102539,4443.974121,4341.538574,4412.436035,,,,,,,,,,,,,,,,,,,,,,,,,,,,,,,,,,,,,,,,,,,,,,,,,,,,,,,,,,,,,,,,,,,,,,
1720416429,68,0,4397.820313,4307.05127,4321.794922,4328.333496,4289.615234,4323.205078,4307.307617,4280.512695,4278.205078,4286.922852,4441.538574,4432.692383,4339.615234,4410,,,,,,,,,,,,,,,,,,,,,,,,,,,,,,,,,,,,,,,,,,,,,,,,,,,,,,,,,,,,,,,,,,,,,,
1720416429,69,0,4385.641113,4304.871582,4313.589844,4326.922852,4290,4326.153809,4304.487305,4278.205078,4278.589844,4284.102539,4435.512695,4427.307617,4333.974121,4402.436035,,,,,,,,,,,,,,,,,,,,,,,,,,,,,,,,,,,,,,,,,,,,,,,,,,,,,,,,,,,,,,,,,,,,,,
1720416429,70,0,4384.230957,4311.794922,4314.230957,4336.153809,4293.333496,4327.436035,4307.692383,4281.538574,4282.307617,4290,4440.256348,4429.230957,4337.692383,4397.179688,2.791876,1.785592,1.168407,0.517548,0.146585,0.744074,1.008103,1.36949,0.343035,0.21668,1.694299,2.455131,1.074415,0.465551,0.131594,0.889261,1.499924,1.45358,0.425087,0.22613,0.258608,0.731686,0.441692,0.32291,0.138951,0.239167,0.491077,0.27851,0.15167,0.233998,0.901316,2.426981,0.842569,0.527071,0.166387,1.066915,2.142843,0.745774,0.562613,0.198126,0.651547,1.3652,0.457942,0.516482,0.268723,4.745723,2.01131,1.023411,0.625316,0.165661,1.193411,1.713563,1.345328,0.505543,0.212511,2.3507,2.140588,0.838727,0.462669,0.452902,0.838453,0.966162,0.574209,0.300229,0.097289,4.344923,4.381762,2.855722,0.8096,0.238812
1720416429,71,0,4382.436035,4307.05127,4315.512695,4335.897461,4283.205078,4319.871582,4301.794922,4280.256348,4280.512695,4291.282227,4441.538574,4427.820313,4342.692383,4390.512695,,,,,,,,,,,,,,,,,,,,,,,,,,,,,,,,,,,,,,,,,,,,,,,,,,,,,,,,,,,,,,,,,,,,,,
1720416429,72,0,4375.384766,4294.102539,4308.846191,4322.820313,4276.410156,4317.179688,4292.436035,4269.230957,4274.487305,4280.384766,4433.205078,4421.538574,4336.410156,4380,,,,,,,,,,,,,,,,,,,,,,,,,,,,,,,,,,,,,,,,,,,,,,,,,,,,,,,,,,,,,,,,,,,,,,
1720416429,73,0,4374.230957,4291.153809,4301.410156,4314.358887,4279.102539,4317.820313,4288.717773,4258.589844,4270,4273.846191,4431.025879,4423.846191,4331.666504,4371.666504,,,,,,,,,,,,,,,,,,,,,,,,,,,,,,,,,,,,,,,,,,,,,,,,,,,,,,,,,,,,,,,,,,,,,,
1720416429,74,0,4371.922852,4292.563965,4298.461426,4317.820313,4278.717773,4315,4288.333496,4260.769043,4275.128418,4280.897461,4431.794922,4428.846191,4335.512695,4368.589844,,,,,,,,,,,,,,,,,,,,,,,,,,,,,,,,,,,,,,,,,,,,,,,,,,,,,,,,,,,,,,,,,,,,,,
1720416429,75,0,4367.692383,4287.436035,4299.615234,4321.922852,4278.333496,4317.563965,4290.384766,4270.897461,4284.230957,4289.743652,4431.666504,4427.94873,4337.820313,4370.384766,,,,,,,,,,,,,,,,,,,,,,,,,,,,,,,,,,,,,,,,,,,,,,,,,,,,,,,,,,,,,,,,,,,,,,
1720416429,76,0,4372.692383,4287.436035,4306.025879,4321.153809,4282.307617,4320.897461,4295.128418,4275.897461,4284.487305,4292.05127,4437.307617,4430.512695,4335,4372.820313,,,,,,,,,,,,,,,,,,,,,,,,,,,,,,,,,,,,,,,,,,,,,,,,,,,,,,,,,,,,,,,,,,,,,,
1720416429,77,0,4378.205078,4293.589844,4309.102539,4320.641113,4282.692383,4316.282227,4296.025879,4274.487305,4282.820313,4289.615234,4439.358887,4438.461426,4333.974121,4372.436035,,,,,,,,,,,,,,,,,,,,,,,,,,,,,,,,,,,,,,,,,,,,,,,,,,,,,,,,,,,,,,,,,,,,,,
1720416429,78,0,4373.461426,4296.025879,4307.05127,4324.230957,4280.897461,4311.666504,4292.436035,4272.05127,4278.461426,4282.179688,4431.666504,4431.282227,4333.717773,4372.436035,,,,,,,,,,,,,,,,,,,,,,,,,,,,,,,,,,,,,,,,,,,,,,,,,,,,,,,,,,,,,,,,,,,,,,
1720416429,79,0,4370.256348,4295.897461,4310.128418,4327.436035,4281.666504,4314.487305,4294.358887,4273.846191,4271.025879,4278.717773,4430,4423.717773,4332.436035,4376.666504,,,,,,,,,,,,,,,,,,,,,,,,,,,,,,,,,,,,,,,,,,,,,,,,,,,,,,,,,,,,,,,,,,,,,,
1720416429,80,0,4379.358887,4295.128418,4317.692383,4323.205078,4281.025879,4318.205078,4302.307617,4282.436035,4275.256348,4284.102539,4440.384766,4455.384766,4337.692383,4384.615234,,,,,,,,,,,,,,,,,,,,,,,,,,,,,,,,,,,,,,,,,,,,,,,,,,,,,,,,,,,,,,,,,,,,,,
1720416429,81,0,4386.153809,4296.410156,4319.102539,4322.94873,4282.179688,4315.512695,4307.436035,4288.077148,4283.846191,4292.820313,4448.333496,4463.333496,4343.717773,4391.282227,,,,,,,,,,,,,,,,,,,,,,,,,,,,,,,,,,,,,,,,,,,,,,,,,,,,,,,,,,,,,,,,,,,,,,
1720416429,82,0,4382.94873,4298.589844,4317.692383,4331.282227,4289.615234,4317.179688,4305.128418,4284.615234,4284.615234,4296.666504,4453.461426,4441.922852,4348.205078,4397.563965,,,,,,,,,,,,,,,,,,,,,,,,,,,,,,,,,,,,,,,,,,,,,,,,,,,,,,,,,,,,,,,,,,,,,,
1720416429,83,0,4377.94873,4298.077148,4319.871582,4333.333496,4293.717773,4323.077148,4299.102539,4278.205078,4276.794922,4296.794922,4453.461426,4455.128418,4350.769043,4399.487305,,,,,,,,,,,,,,,,,,,,,,,,,,,,,,,,,,,,,,,,,,,,,,,,,,,,,,,,,,,,,,,,,,,,,,
1720416429,84,0,4373.077148,4294.615234,4313.205078,4323.974121,4285.384766,4318.846191,4293.589844,4273.846191,4267.94873,4292.692383,4440.256348,4454.743652,4343.205078,4387.692383,,,,,,,,,,,,,,,,,,,,,,,,,,,,,,,,,,,,,,,,,,,,,,,,,,,,,,,,,,,,,,,,,,,,,,
1720416429,85,0,4371.922852,4294.487305,4303.974121,4319.871582,4278.205078,4313.974121,4292.563965,4273.461426,4274.871582,4290.384766,4432.307617,4442.05127,4338.077148,4376.410156,,,,,,,,,,,,,,,,,,,,,,,,,,,,,,,,,,,,,,,,,,,,,,,,,,,,,,,,,,,,,,,,,,,,,,
1720416429,86,0,4371.153809,4295.384766,4306.025879,4320.641113,4280.512695,4318.333496,4295.384766,4278.717773,4289.871582,4293.974121,4439.615234,4452.820313,4342.179688,4379.102539,2.470122,1.764014,1.173631,0.562478,0.15584,0.712676,1.209364,1.373133,0.329838,0.212395,1.495694,2.429899,1.098462,0.465824,0.126763,0.854022,1.629337,1.41956,0.462852,0.219914,0.282974,0.770791,0.387769,0.316235,0.138578,0.248755,0.482597,0.231558,0.150943,0.236582,0.78618,2.412592,0.789035,0.519363,0.17008,0.813782,2.200023,0.756181,0.521156,0.19422,0.653413,1.525622,0.635215,0.437091,0.257394,4.808763,2.092927,1.271473,0.56012,0.179599,0.987429,1.854127,1.549551,0.458355,0.218027,2.68325,2.032818,0.921125,0.397491,0.417647,0.808946,1.018432,0.570606,0.299248,0.101266,4.61445,3.611149,2.945204,0.668839,0.271861
1720416429,87,0,4359.743652,4286.025879,4302.436035,4313.461426,4280.256348,4316.282227,4293.589844,4280.769043,4288.461426,4293.077148,4438.077148,4445.897461,4337.05127,4378.205078,,,,,,,,,,,,,,,,,,,,,,,,,,,,,,,,,,,,,,,,,,,,,,,,,,,,,,,,,,,,,,,,,,,,,,
1720416429,88,0,4350.769043,4278.077148,4290.512695,4304.358887,4276.410156,4317.307617,4292.436035,4278.461426,4285,4288.717773,4425.512695,4432.692383,4325.641113,4365.641113,,,,,,,,,,,,,,,,,,,,,,,,,,,,,,,,,,,,,,,,,,,,,,,,,,,,,,,,,,,,,,,,,,,,,,
1720416429,89,0,4362.307617,4289.871582,4295.384766,4309.743652,4281.666504,4330.512695,4299.102539,4285,4296.153809,4290.512695,4428.077148,4449.871582,4332.820313,4361.025879,,,,,,,,,,,,,,,,,,,,,,,,,,,,,,,,,,,,,,,,,,,,,,,,,,,,,,,,,,,,,,,,,,,,,,
1720416429,90,0,4367.307617,4296.922852,4304.743652,4316.410156,4280.384766,4323.333496,4294.487305,4283.974121,4289.102539,4289.102539,4432.436035,4442.436035,4343.333496,4359.871582,,,,,,,,,,,,,,,,,,,,,,,,,,,,,,,,,,,,,,,,,,,,,,,,,,,,,,,,,,,,,,,,,,,,,,
1720416429,91,0,4352.05127,4280.256348,4293.461426,4303.717773,4267.820313,4301.025879,4273.846191,4262.307617,4261.666504,4272.436035,4419.743652,4414.487305,4333.077148,4346.025879,,,,,,,,,,,,,,,,,,,,,,,,,,,,,,,,,,,,,,,,,,,,,,,,,,,,,,,,,,,,,,,,,,,,,,
1720416429,92,0,4347.820313,4276.282227,4288.717773,4297.692383,4268.974121,4302.05127,4271.922852,4256.794922,4260.512695,4265.256348,4416.794922,4422.179688,4327.692383,4337.563965,,,,,,,,,,,,,,,,,,,,,,,,,,,,,,,,,,,,,,,,,,,,,,,,,,,,,,,,,,,,,,,,,,,,,,
1720416429,93,0,4363.461426,4296.410156,4304.487305,4313.461426,4279.871582,4313.205078,4291.666504,4274.615234,4275.769043,4281.922852,4434.871582,4436.282227,4343.205078,4353.589844,,,,,,,,,,,,,,,,,,,,,,,,,,,,,,,,,,,,,,,,,,,,,,,,,,,,,,,,,,,,,,,,,,,,,,
1720416429,94,0,4376.410156,4309.615234,4316.153809,4326.410156,4284.871582,4313.846191,4293.717773,4275.769043,4268.461426,4291.153809,4445.256348,4440.641113,4353.846191,4372.436035,,,,,,,,,,,,,,,,,,,,,,,,,,,,,,,,,,,,,,,,,,,,,,,,,,,,,,,,,,,,,,,,,,,,,,
1720416429,95,0,4382.307617,4310.897461,4318.717773,4330.769043,4288.077148,4312.307617,4281.922852,4263.077148,4260.897461,4285.384766,4442.179688,4438.589844,4348.333496,4372.563965,,,,,,,,,,,,,,,,,,,,,,,,,,,,,,,,,,,,,,,,,,,,,,,,,,,,,,,,,,,,,,,,,,,,,,
1720416429,96,0,4380.897461,4309.615234,4316.153809,4330.128418,4285.769043,4312.179688,4280.512695,4264.230957,4271.282227,4284.615234,4436.410156,4433.974121,4341.666504,4365.128418,,,,,,,,,,,,,,,,,,,,,,,,,,,,,,,,,,,,,,,,,,,,,,,,,,,,,,,,,,,,,,,,,,,,,,
1720416429,97,0,4362.436035,4294.871582,4299.871582,4315.384766,4274.102539,4306.153809,4277.820313,4265.512695,4270.769043,4279.358887,4421.794922,4428.333496,4330.256348,4354.743652,,,,,,,,,,,,,,,,,,,,,,,,,,,,,,,,,,,,,,,,,,,,,,,,,,,,,,,,,,,,,,,,,,,,,,
1720416429,98,0,4347.820313,4279.871582,4288.589844,4302.94873,4274.743652,4310,4280.897461,4266.538574,4266.025879,4266.025879,4411.153809,4422.820313,4321.025879,4349.871582,,,,,,,,,,,,,,,,,,,,,,,,,,,,,,,,,,,,,,,,,,,,,,,,,,,,,,,,,,,,,,,,,,,,,,
1720416429,99,0,4362.563965,4288.077148,4301.282227,4313.461426,4286.282227,4325.512695,4301.282227,4286.666504,4282.307617,4276.410156,4427.05127,4438.333496,4334.615234,4366.794922,,,,,,,,,,,,,,,,,,,,,,,,,,,,,,,,,,,,,,,,,,,,,,,,,,,,,,,,,,,,,,,,,,,,,,
1720416429,100,0,4372.307617,4298.974121,4308.846191,4319.743652,4283.205078,4324.102539,4307.563965,4294.230957,4289.871582,4289.615234,4439.102539,4447.94873,4343.461426,4378.205078,,,,,,,,,,,,,,,,,,,,,,,,,,,,,,,,,,,,,,,,,,,,,,,,,,,,,,,,,,,,,,,,,,,,,,
1720416429,101,0,4355,4292.05127,4296.538574,4309.358887,4275.769043,4314.230957,4293.333496,4279.615234,4278.461426,4275.384766,4427.436035,4436.666504,4333.077148,4363.846191,,,,,,,,,,,,,,,,,,,,,,,,,,,,,,,,,,,,,,,,,,,,,,,,,,,,,,,,,,,,,,,,,,,,,,
1720416429,102,0,4347.05127,4287.307617,4293.333496,4305.384766,4278.717773,4315.128418,4290,4277.05127,4276.538574,4270.641113,4422.179688,4432.05127,4330.641113,4355,2.128191,1.944095,1.176458,0.604874,0.165039,0.69078,1.493583,1.319078,0.325161,0.220192,1.255806,2.429761,1.108376,0.492359,0.122146,0.774593,1.839182,1.34918,0.50129,0.215224,0.290619,0.844702,0.360407,0.298892,0.137459,0.244846,0.441756,0.18872,0.1563,0.239065,0.640216,2.211807,0.721087,0.516893,0.176712,0.587931,2.061577,0.761789,0.491169,0.198289,0.604342,1.603979,0.830017,0.386814,0.242206,4.342749,2.045974,1.454315,0.492865,0.192737,0.842595,2.027931,1.67517,0.436813,0.226835,2.913531,1.885178,0.941989,0.367836,0.409899,0.816181,1.156386,0.561956,0.298459,0.112814,4.713002,3.259041,2.825116,0.58157,0.312083
1720416429,103,0,4358.846191,4295,4305.897461,4312.563965,4282.436035,4314.102539,4295.897461,4283.717773,4281.922852,4282.05127,4431.410156,4442.436035,4335.384766,4361.666504,,,,,,,,,,,,,,,,,,,,,,,,,,,,,,,,,,,,,,,,,,,,,,,,,,,,,,,,,,,,,,,,,,,,,,
1720416429,104,0,4361.282227,4296.666504,4309.102539,4316.153809,4278.974121,4310.128418,4293.333496,4281.282227,4283.846191,4279.871582,4435.641113,4443.333496,4333.205078,4361.410156,,,,,,,,,,,,,,,,,,,,,,,,,,,,,,,,,,,,,,,,,,,,,,,,,,,,,,,,,,,,,,,,,,,,,,
1720416429,105,0,4358.333496,4295.641113,4303.589844,4313.077148,4281.025879,4313.461426,4287.179688,4279.102539,4282.436035,4278.077148,4432.94873,4439.743652,4333.717773,4355.897461,,,,,,,,,,,,,,,,,,,,,,,,,,,,,,,,,,,,,,,,,,,,,,,,,,,,,,,,,,,,,,,,,,,,,,
1720416429,106,0,4357.307617,4303.333496,4307.692383,4313.077148,4289.743652,4311.025879,4280.641113,4275.769043,4275.769043,4287.307617,4431.922852,4439.615234,4339.358887,4358.974121,,,,,,,,,,,,,,,,,,,,,,,,,,,,,,,,,,,,,,,,,,,,,,,,,,,,,,,,,,,,,,,,,,,,,,
1720416429,107,0,4352.563965,4309.871582,4312.307617,4319.615234,4293.333496,4306.538574,4274.743652,4266.922852,4271.922852,4285.128418,4430.769043,4427.563965,4337.307617,4366.153809,,,,,,,,,,,,,,,,,,,,,,,,,,,,,,,,,,,,,,,,,,,,,,,,,,,,,,,,,,,,,,,,,,,,,,
1720416429,108,0,4365.128418,4308.974121,4313.077148,4326.922852,4290.128418,4319.358887,4282.436035,4273.205078,4281.922852,4282.05127,4436.282227,4444.871582,4340.512695,4378.205078,,,,,,,,,,,,,,,,,,,,,,,,,,,,,,,,,,,,,,,,,,,,,,,,,,,,,,,,,,,,,,,,,,,,,,
1720416429,109,0,4353.077148,4301.025879,4311.410156,4320.897461,4283.461426,4322.820313,4291.538574,4283.333496,4285.256348,4287.179688,4441.410156,4457.820313,4342.436035,4378.077148,,,,,,,,,,,,,,,,,,,,,,,,,,,,,,,,,,,,,,,,,,,,,,,,,,,,,,,,,,,,,,,,,,,,,,
1720416429,110,0,4276.282227,4292.436035,4303.461426,4307.94873,4278.461426,4312.820313,4291.666504,4279.102539,4276.282227,4281.666504,4433.846191,4429.358887,4331.922852,4360.769043,,,,,,,,,,,,,,,,,,,,,,,,,,,,,,,,,,,,,,,,,,,,,,,,,,,,,,,,,,,,,,,,,,,,,,
1720416429,111,0,4222.820313,4291.922852,4299.487305,4307.307617,4278.205078,4314.871582,4297.307617,4284.230957,4280,4277.436035,4431.153809,4436.410156,4331.410156,4362.179688,,,,,,,,,,,,,,,,,,,,,,,,,,,,,,,,,,,,,,,,,,,,,,,,,,,,,,,,,,,,,,,,,,,,,,
1720416429,112,0,4233.589844,4297.307617,4304.102539,4313.205078,4279.487305,4316.666504,4303.974121,4294.743652,4287.563965,4280.128418,4432.436035,4449.487305,4334.871582,4371.538574,,,,,,,,,,,,,,,,,,,,,,,,,,,,,,,,,,,,,,,,,,,,,,,,,,,,,,,,,,,,,,,,,,,,,,
1720416429,113,0,4240.641113,4297.820313,4304.102539,4312.436035,4279.743652,4312.820313,4300.897461,4287.820313,4280.256348,4274.102539,4424.871582,4428.205078,4328.846191,4363.717773,,,,,,,,,,,,,,,,,,,,,,,,,,,,,,,,,,,,,,,,,,,,,,,,,,,,,,,,,,,,,,,,,,,,,,
1720416429,114,0,4233.974121,4296.666504,4298.717773,4310.384766,4279.743652,4316.410156,4296.282227,4280.384766,4268.589844,4264.487305,4418.589844,4440.641113,4328.205078,4355.641113,,,,,,,,,,,,,,,,,,,,,,,,,,,,,,,,,,,,,,,,,,,,,,,,,,,,,,,,,,,,,,,,,,,,,,
1720416429,115,0,4239.487305,4298.333496,4299.487305,4311.410156,4277.179688,4312.05127,4291.538574,4282.563965,4266.538574,4267.94873,4419.487305,4446.410156,4329.102539,4352.436035,,,,,,,,,,,,,,,,,,,,,,,,,,,,,,,,,,,,,,,,,,,,,,,,,,,,,,,,,,,,,,,,,,,,,,
1720416429,116,0,4240.641113,4298.333496,4302.94873,4312.692383,4275,4303.077148,4286.922852,4279.230957,4271.794922,4276.666504,4421.282227,4413.974121,4325,4353.461426,,,,,,,,,,,,,,,,,,,,,,,,,,,,,,,,,,,,,,,,,,,,,,,,,,,,,,,,,,,,,,,,,,,,,,
1720416429,117,0,4239.230957,4295.256348,4301.153809,4307.563965,4279.615234,4312.820313,4287.820313,4277.692383,4278.974121,4279.615234,4423.589844,4439.487305,4331.538574,4361.922852,,,,,,,,,,,,,,,,,,,,,,,,,,,,,,,,,,,,,,,,,,,,,,,,,,,,,,,,,,,,,,,,,,,,,,
1720416429,118,0,4240,4292.820313,4292.179688,4299.743652,4284.615234,4318.205078,4285.256348,4278.461426,4277.307617,4276.153809,4418.333496,4447.94873,4334.615234,4352.436035,2.003996,2.301719,1.195555,0.620285,0.174625,0.664108,1.837898,1.222337,0.326603,0.237212,0.98413,2.514909,1.091911,0.523863,0.119336,0.654151,2.109102,1.240714,0.522896,0.211057,0.282806,0.949713,0.355311,0.277377,0.13434,0.238537,0.381961,0.148975,0.167647,0.237687,0.507979,1.912714,0.640965,0.513283,0.184332,0.424833,1.794226,0.756356,0.473662,0.207033,0.517267,1.607027,0.990952,0.375123,0.226347,3.432011,1.856312,1.484107,0.436351,0.200724,0.755135,2.225175,1.670833,0.43196,0.236501,2.986235,1.757476,0.892241,0.375927,0.426266,0.876274,1.400533,0.551212,0.295721,0.129394,4.606989,3.540298,2.507746,0.550936,0.342839
1720416429,119,0,4236.666504,4293.717773,4286.410156,4298.717773,4282.307617,4310.256348,4280.128418,4274.102539,4274.102539,4276.410156,4408.461426,4413.205078,4327.436035,4342.692383,,,,,,,,,,,,,,,,,,,,,,,,,,,,,,,,,,,,,,,,,,,,,,,,,,,,,,,,,,,,,,,,,,,,,,
1720416429,120,0,4238.717773,4295.769043,4293.717773,4299.358887,4280.128418,4310.769043,4282.94873,4275.384766,4278.205078,4281.153809,4409.871582,4432.05127,4328.717773,4356.153809,,,,,,,,,,,,,,,,,,,,,,,,,,,,,,,,,,,,,,,,,,,,,,,,,,,,,,,,,,,,,,,,,,,,,,
1720416429,121,0,4237.820313,4291.538574,4294.871582,4297.436035,4280.384766,4311.666504,4280.128418,4276.922852,4274.358887,4275.897461,4409.871582,4440.256348,4325.641113,4354.358887,,,,,,,,,,,,,,,,,,,,,,,,,,,,,,,,,,,,,,,,,,,,,,,,,,,,,,,,,,,,,,,,,,,,,,
1720416429,122,0,4235.512695,4280.897461,4289.615234,4293.846191,4276.922852,4306.538574,4277.436035,4276.666504,4271.538574,4271.538574,4407.692383,4429.230957,4320.256348,4348.077148,,,,,,,,,,,,,,,,,,,,,,,,,,,,,,,,,,,,,,,,,,,,,,,,,,,,,,,,,,,,,,,,,,,,,,
1720416429,123,0,4240.641113,4278.461426,4294.871582,4294.487305,4275.512695,4309.871582,4291.538574,4286.922852,4278.846191,4277.179688,4411.025879,4436.666504,4322.05127,4360.128418,,,,,,,,,,,,,,,,,,,,,,,,,,,,,,,,,,,,,,,,,,,,,,,,,,,,,,,,,,,,,,,,,,,,,,
1720416429,124,0,4247.820313,4285.128418,4303.846191,4299.358887,4276.922852,4318.461426,4305.128418,4296.153809,4281.282227,4277.05127,4414.615234,4447.179688,4325.384766,4366.025879,,,,,,,,,,,,,,,,,,,,,,,,,,,,,,,,,,,,,,,,,,,,,,,,,,,,,,,,,,,,,,,,,,,,,,
1720416429,125,0,4262.179688,4291.153809,4311.282227,4307.692383,4278.333496,4315.512695,4304.230957,4296.922852,4280.641113,4277.307617,4422.692383,4455.897461,4334.615234,4369.102539,,,,,,,,,,,,,,,,,,,,,,,,,,,,,,,,,,,,,,,,,,,,,,,,,,,,,,,,,,,,,,,,,,,,,,
1720416429,126,0,4280.641113,4299.102539,4317.436035,4316.794922,4286.282227,4310.512695,4298.717773,4294.743652,4279.743652,4280.641113,4428.974121,4448.717773,4340.897461,4379.230957,,,,,,,,,,,,,,,,,,,,,,,,,,,,,,,,,,,,,,,,,,,,,,,,,,,,,,,,,,,,,,,,,,,,,,
1720416429,127,0,4285.512695,4306.538574,4314.871582,4319.358887,4290,4315.128418,4295.256348,4288.077148,4276.538574,4280.512695,4423.077148,4440.769043,4336.794922,4379.230957,,,,,,,,,,,,,,,,,,,,,,,,,,,,,,,,,,,,,,,,,,,,,,,,,,,,,,,,,,,,,,,,,,,,,,
1720416429,0,0,4281.410156,4305.897461,4303.589844,4316.922852,4287.179688,4316.025879,4291.025879,4279.615234,4276.282227,4279.615234,4414.615234,4434.230957,4331.025879,4365.128418,,,,,,,,,,,,,,,,,,,,,,,,,,,,,,,,,,,,,,,,,,,,,,,,,,,,,,,,,,,,,,,,,,,,,,
1720416429,1,0,4281.410156,4296.922852,4299.102539,4308.974121,4288.333496,4309.743652,4283.589844,4276.282227,4276.794922,4280.384766,4414.615234,4424.487305,4330.512695,4357.94873,,,,,,,,,,,,,,,,,,,,,,,,,,,,,,,,,,,,,,,,,,,,,,,,,,,,,,,,,,,,,,,,,,,,,,
1720416429,2,0,4279.615234,4286.025879,4295.897461,4298.717773,4282.307617,4306.282227,4275.128418,4272.307617,4268.333496,4278.205078,4407.820313,4415.641113,4327.820313,4352.179688,,,,,,,,,,,,,,,,,,,,,,,,,,,,,,,,,,,,,,,,,,,,,,,,,,,,,,,,,,,,,,,,,,,,,,
1720416429,3,0,4277.692383,4284.358887,4288.846191,4296.410156,4272.692383,4307.563965,4276.538574,4271.282227,4263.205078,4277.692383,4402.563965,4414.871582,4323.589844,4344.358887,,,,,,,,,,,,,,,,,,,,,,,,,,,,,,,,,,,,,,,,,,,,,,,,,,,,,,,,,,,,,,,,,,,,,,
1720416429,4,0,4280.769043,4292.563965,4292.05127,4303.974121,4278.461426,4310.128418,4289.230957,4285.769043,4272.307617,4281.794922,4415.897461,4423.461426,4329.358887,4348.461426,,,,,,,,,,,,,,,,,,,,,,,,,,,,,,,,,,,,,,,,,,,,,,,,,,,,,,,,,,,,,,,,,,,,,,
1720416429,5,0,4288.589844,4297.05127,4301.025879,4312.436035,4284.102539,4313.461426,4295.512695,4298.846191,4281.794922,4285.256348,4427.94873,4437.179688,4337.820313,4360.512695,,,,,,,,,,,,,,,,,,,,,,,,,,,,,,,,,,,,,,,,,,,,,,,,,,,,,,,,,,,,,,,,,,,,,,
1720416429,6,0,4295.256348,4294.487305,4301.282227,4311.025879,4276.794922,4312.436035,4293.846191,4297.563965,4283.077148,4281.666504,4425.256348,4441.282227,4339.487305,4365.512695,2.27086,2.780926,1.207865,0.597906,0.192017,0.630465,2.188504,1.097795,0.330504,0.258927,0.739435,2.686845,1.041957,0.535865,0.122379,0.513901,2.382715,1.095406,0.516974,0.20909,0.265487,1.06027,0.363359,0.260643,0.12979,0.240809,0.325337,0.122341,0.185568,0.232479,0.426729,1.627248,0.573558,0.504367,0.192509,0.352954,1.500131,0.750017,0.465143,0.217798,0.420799,1.558548,1.081262,0.396488,0.214636,2.333399,1.554945,1.338622,0.399551,0.202301,0.717134,2.399355,1.524601,0.433299,0.245564,2.888922,1.675442,0.78326,0.409171,0.459852,0.983697,1.711155,0.535621,0.290004,0.148672,4.206099,4.375951,2.046474,0.562512,0.353432
1720416429,7,0,4268.333496,4291.025879,4292.179688,4302.179688,4276.538574,4309.487305,4290.641113,4291.922852,4275.769043,4270.256348,4421.153809,4420.128418,4332.307617,4356.666504,,,,,,,,,,,,,,,,,,,,,,,,,,,,,,,,,,,,,,,,,,,,,,,,,,,,,,,,,,,,,,,,,,,,,,
1720416429,8,0,4222.94873,4291.538574,4295.128418,4302.820313,4282.179688,4313.846191,4290.769043,4293.461426,4273.077148,4261.538574,4431.282227,4429.358887,4334.230957,4358.461426,,,,,,,,,,,,,,,,,,,,,,,,,,,,,,,,,,,,,,,,,,,,,,,,,,,,,,,,,,,,,,,,,,,,,,
1720416429,9,0,4214.358887,4296.282227,4313.717773,4315.897461,4279.230957,4311.153809,4289.871582,4292.692383,4275.128418,4263.205078,4441.794922,4452.179688,4344.487305,4370.384766,,,,,,,,,,,,,,,,,,,,,,,,,,,,,,,,,,,,,,,,,,,,,,,,,,,,,,,,,,,,,,,,,,,,,,
1720416429,10,0,4222.05127,4299.230957,4318.717773,4318.461426,4278.846191,4301.794922,4282.692383,4282.436035,4271.666504,4263.461426,4436.666504,4429.871582,4340.128418,4363.846191,,,,,,,,,,,,,,,,,,,,,,,,,,,,,,,,,,,,,,,,,,,,,,,,,,,,,,,,,,,,,,,,,,,,,,
1720416429,11,0,4203.205078,4294.230957,4306.538574,4309.102539,4282.307617,4306.794922,4277.820313,4278.717773,4269.615234,4259.230957,4427.307617,4423.461426,4335.384766,4356.025879,,,,,,,,,,,,,,,,,,,,,,,,,,,,,,,,,,,,,,,,,,,,,,,,,,,,,,,,,,,,,,,,,,,,,,
1720416429,12,0,4180.897461,4287.436035,4295.512695,4305.256348,4284.358887,4311.666504,4276.794922,4276.410156,4267.179688,4260.897461,4424.487305,4429.871582,4338.077148,4357.436035,,,,,,,,,,,,,,,,,,,,,,,,,,,,,,,,,,,,,,,,,,,,,,,,,,,,,,,,,,,,,,,,,,,,,,
1720416429,13,0,4177.179688,4283.589844,4292.563965,4301.282227,4279.487305,4302.307617,4275.128418,4270.256348,4263.205078,4263.974121,4421.922852,4413.589844,4330.641113,4351.666504,,,,,,,,,,,,,,,,,,,,,,,,,,,,,,,,,,,,,,,,,,,,,,,,,,,,,,,,,,,,,,,,,,,,,,
1720416429,14,0,4173.205078,4277.179688,4290.128418,4292.179688,4268.205078,4302.563965,4276.410156,4273.205078,4265.128418,4263.589844,4417.307617,4415.256348,4325.384766,4350.384766,,,,,,,,,,,,,,,,,,,,,,,,,,,,,,,,,,,,,,,,,,,,,,,,,,,,,,,,,,,,,,,,,,,,,,
1720416429,15,0,4168.974121,4271.025879,4285.384766,4289.102539,4265.769043,4311.922852,4281.282227,4281.794922,4271.282227,4265.641113,4423.077148,4426.410156,4334.102539,4359.230957,,,,,,,,,,,,,,,,,,,,,,,,,,,,,,,,,,,,,,,,,,,,,,,,,,,,,,,,,,,,,,,,,,,,,,
1720416430,16,0,4176.025879,4274.358887,4286.282227,4292.820313,4275.897461,4308.846191,4281.410156,4285.128418,4272.563965,4267.179688,4430,4415.256348,4336.025879,4356.282227,,,,,,,,,,,,,,,,,,,,,,,,,,,,,,,,,,,,,,,,,,,,,,,,,,,,,,,,,,,,,,,,,,,,,,
1720416430,17,0,4188.974121,4282.436035,4290.641113,4299.102539,4279.230957,4306.410156,4282.820313,4289.615234,4272.179688,4266.794922,4430.128418,4425.256348,4332.820313,4346.410156,,,,,,,,,,,,,,,,,,,,,,,,,,,,,,,,,,,,,,,,,,,,,,,,,,,,,,,,,,,,,,,,,,,,,,
1720416430,18,0,4193.077148,4283.846191,4288.461426,4304.487305,4272.820313,4312.179688,4288.461426,4293.461426,4270.769043,4266.153809,4433.589844,4443.589844,4334.102539,4340.769043,,,,,,,,,,,,,,,,,,,,,,,,,,,,,,,,,,,,,,,,,,,,,,,,,,,,,,,,,,,,,,,,,,,,,,
1720416430,19,0,4194.743652,4284.358887,4289.871582,4307.05127,4273.717773,4310.512695,4289.358887,4293.333496,4266.538574,4262.94873,4438.717773,4433.333496,4333.461426,4340.769043,,,,,,,,,,,,,,,,,,,,,,,,,,,,,,,,,,,,,,,,,,,,,,,,,,,,,,,,,,,,,,,,,,,,,,
1720416430,20,0,4205.128418,4293.333496,4303.717773,4310.256348,4278.589844,4308.205078,4287.05127,4292.692383,4266.794922,4259.487305,4437.436035,4438.589844,4335.897461,4347.94873,,,,,,,,,,,,,,,,,,,,,,,,,,,,,,,,,,,,,,,,,,,,,,,,,,,,,,,,,,,,,,,,,,,,,,
1720416430,21,0,4210.769043,4298.717773,4307.820313,4315.512695,4281.025879,4313.974121,4286.153809,4287.820313,4266.538574,4262.563965,4439.358887,4450,4343.077148,4348.461426,,,,,,,,,,,,,,,,,,,,,,,,,,,,,,,,,,,,,,,,,,,,,,,,,,,,,,,,,,,,,,,,,,,,,,
1720416430,22,0,4202.307617,4290.641113,4295.641113,4311.922852,4282.94873,4310.256348,4278.077148,4279.230957,4263.974121,4262.436035,4441.666504,4441.025879,4338.974121,4333.461426,3.35632,3.305748,1.233132,0.566427,0.233759,0.583041,2.476512,0.961513,0.339523,0.278949,0.578481,2.898093,0.961954,0.517197,0.134934,0.392875,2.590002,0.928706,0.488027,0.211895,0.247173,1.139453,0.36984,0.255963,0.125421,0.25449,0.287745,0.112495,0.208329,0.227496,0.415125,1.454657,0.535663,0.492782,0.202314,0.371654,1.277551,0.748371,0.463003,0.22989,0.352263,1.481447,1.082443,0.435034,0.212299,1.381477,1.209666,1.064826,0.387277,0.199819,0.716156,2.494117,1.277352,0.436796,0.254686,2.663837,1.625824,0.647811,0.448695,0.508131,1.117286,2.003532,0.521108,0.284261,0.168982,3.759224,5.456327,1.542381,0.596912,0.345249
1720416430,23,0,4187.436035,4277.05127,4282.179688,4296.153809,4276.922852,4295.512695,4263.205078,4269.358887,4261.794922,4253.846191,4424.871582,4423.077148,4322.05127,4310.769043,,,,,,,,,,,,,,,,,,,,,,,,,,,,,,,,,,,,,,,,,,,,,,,,,,,,,,,,,,,,,,,,,,,,,,
1720416430,24,0,4186.025879,4271.538574,4277.563965,4287.05127,4273.461426,4295.256348,4263.717773,4269.743652,4266.666504,4254.230957,4416.794922,4417.563965,4316.794922,4305,,,,,,,,,,,,,,,,,,,,,,,,,,,,,,,,,,,,,,,,,,,,,,,,,,,,,,,,,,,,,,,,,,,,,,
1720416430,25,0,4201.538574,4277.820313,4286.794922,4295.384766,4280,4309.743652,4281.794922,4285.641113,4277.307617,4262.94873,4437.94873,4431.922852,4330.256348,4322.820313,,,,,,,,,,,,,,,,,,,,,,,,,,,,,,,,,,,,,,,,,,,,,,,,,,,,,,,,,,,,,,,,,,,,,,
1720416430,26,0,4215.128418,4285.384766,4299.102539,4307.307617,4282.307617,4313.846191,4295.641113,4298.846191,4283.461426,4269.230957,4455.512695,4437.94873,4340,4337.820313,,,,,,,,,,,,,,,,,,,,,,,,,,,,,,,,,,,,,,,,,,,,,,,,,,,,,,,,,,,,,,,,,,,,,,
1720416430,27,0,4222.563965,4288.077148,4299.487305,4310.897461,4280.512695,4309.871582,4299.743652,4300.384766,4288.077148,4273.717773,4453.205078,4443.205078,4338.461426,4341.922852,,,,,,,,,,,,,,,,,,,,,,,,,,,,,,,,,,,,,,,,,,,,,,,,,,,,,,,,,,,,,,,,,,,,,,
1720416430,28,0,4225.897461,4289.487305,4287.692383,4311.666504,4285,4312.692383,4302.179688,4301.410156,4288.333496,4272.307617,4449.871582,4450.512695,4334.358887,4342.05127,,,,,,,,,,,,,,,,,,,,,,,,,,,,,,,,,,,,,,,,,,,,,,,,,,,,,,,,,,,,,,,,,,,,,,
1720416430,29,0,4224.358887,4290.384766,4280.769043,4313.846191,4284.358887,4309.615234,4294.743652,4296.025879,4279.102539,4263.717773,4456.410156,4444.487305,4328.589844,4338.205078,,,,,,,,,,,,,,,,,,,,,,,,,,,,,,,,,,,,,,,,,,,,,,,,,,,,,,,,,,,,,,,,,,,,,,
1720416430,30,0,4230.256348,4295.897461,4290.128418,4323.589844,4278.589844,4298.333496,4283.333496,4285.256348,4271.282227,4262.436035,4446.922852,4444.615234,4332.436035,4344.871582,,,,,,,,,,,,,,,,,,,,,,,,,,,,,,,,,,,,,,,,,,,,,,,,,,,,,,,,,,,,,,,,,,,,,,
1720416430,31,0,4239.615234,4301.538574,4296.666504,4332.307617,4281.538574,4299.102539,4281.410156,4283.333496,4268.974121,4268.077148,4406.538574,4452.94873,4338.205078,4358.717773,,,,,,,,,,,,,,,,,,,,,,,,,,,,,,,,,,,,,,,,,,,,,,,,,,,,,,,,,,,,,,,,,,,,,,
1720416430,32,0,4220,4287.94873,4278.205078,4314.615234,4280.641113,4303.077148,4272.692383,4274.743652,4261.025879,4262.307617,4364.487305,4436.282227,4323.205078,4343.974121,,,,,,,,,,,,,,,,,,,,,,,,,,,,,,,,,,,,,,,,,,,,,,,,,,,,,,,,,,,,,,,,,,,,,,
1720416430,33,0,4191.282227,4270.256348,4262.563965,4292.692383,4278.461426,4298.461426,4265.384766,4267.307617,4260.128418,4257.820313,4358.974121,4420.641113,4310.641113,4321.666504,,,,,,,,,,,,,,,,,,,,,,,,,,,,,,,,,,,,,,,,,,,,,,,,,,,,,,,,,,,,,,,,,,,,,,
1720416430,34,0,4193.974121,4273.333496,4270.897461,4301.153809,4284.487305,4300.769043,4273.333496,4275.256348,4272.436035,4263.974121,4373.205078,4441.282227,4321.025879,4325.769043,,,,,,,,,,,,,,,,,,,,,,,,,,,,,,,,,,,,,,,,,,,,,,,,,,,,,,,,,,,,,,,,,,,,,,
1720416430,35,0,4201.153809,4282.179688,4278.461426,4312.692383,4288.974121,4310.256348,4282.307617,4280.384766,4277.820313,4265.769043,4372.692383,4443.205078,4323.717773,4327.436035,,,,,,,,,,,,,,,,,,,,,,,,,,,,,,,,,,,,,,,,,,,,,,,,,,,,,,,,,,,,,,,,,,,,,,
1720416430,36,0,4195.128418,4280.512695,4275.897461,4301.282227,4285.769043,4309.358887,4286.153809,4282.94873,4280.512695,4263.461426,4368.461426,4433.205078,4314.743652,4323.205078,,,,,,,,,,,,,,,,,,,,,,,,,,,,,,,,,,,,,,,,,,,,,,,,,,,,,,,,,,,,,,,,,,,,,,
1720416430,37,0,4195.256348,4278.461426,4274.230957,4291.410156,4283.589844,4301.794922,4288.461426,4289.102539,4281.410156,4262.692383,4373.717773,4445.769043,4317.820313,4326.538574,,,,,,,,,,,,,,,,,,,,,,,,,,,,,,,,,,,,,,,,,,,,,,,,,,,,,,,,,,,,,,,,,,,,,,
1720416430,38,0,4202.436035,4283.589844,4276.538574,4298.333496,4286.922852,4296.282227,4283.974121,4286.153809,4271.410156,4261.153809,4380.128418,4438.846191,4321.538574,4327.436035,6.136877,3.8634,1.372689,0.578208,0.315444,0.534016,2.637769,0.84154,0.359747,0.290868,0.518474,3.069549,0.871746,0.474604,0.157211,0.334902,2.674166,0.780239,0.450362,0.219888,0.238706,1.151817,0.367297,0.264862,0.122638,0.273637,0.274488,0.117638,0.230818,0.226896,0.459448,1.452735,0.529433,0.483756,0.214099,0.443207,1.197929,0.748597,0.464656,0.242211,0.337444,1.390759,1.001178,0.472278,0.22156,0.749246,0.891313,0.750543,0.398397,0.196811,0.744235,2.471727,1.022478,0.447254,0.263806,2.374345,1.579681,0.532235,0.480912,0.570545,1.211078,2.177273,0.522427,0.282907,0.188147,3.246722,6.365748,1.106098,0.640094,0.329129
1720416430,39,0,4212.05127,4291.666504,4281.794922,4306.282227,4288.589844,4293.846191,4276.282227,4276.153809,4265.512695,4259.743652,4381.153809,4438.846191,4320.384766,4335.256348,,,,,,,,,,,,,,,,,,,,,,,,,,,,,,,,,,,,,,,,,,,,,,,,,,,,,,,,,,,,,,,,,,,,,,
1720416430,40,0,4218.717773,4296.922852,4287.820313,4310.384766,4289.615234,4297.307617,4277.692383,4278.333496,4267.94873,4262.307617,4386.922852,4455.641113,4325.641113,4350.512695,,,,,,,,,,,,,,,,,,,,,,,,,,,,,,,,,,,,,,,,,,,,,,,,,,,,,,,,,,,,,,,,,,,,,,
1720416430,41,0,4214.615234,4295.128418,4286.922852,4311.794922,4290.769043,4301.922852,4280.256348,4282.179688,4270,4262.94873,4393.589844,4445.128418,4324.487305,4350.128418,,,,,,,,,,,,,,,,,,,,,,,,,,,,,,,,,,,,,,,,,,,,,,,,,,,,,,,,,,,,,,,,,,,,,,
1720416430,42,0,4213.717773,4290.769043,4281.410156,4309.358887,4287.692383,4300.512695,4277.563965,4281.282227,4271.794922,4261.922852,4387.307617,4441.922852,4315.128418,4343.717773,,,,,,,,,,,,,,,,,,,,,,,,,,,,,,,,,,,,,,,,,,,,,,,,,,,,,,,,,,,,,,,,,,,,,,
1720416430,43,0,4223.846191,4291.410156,4282.179688,4310.128418,4287.05127,4297.179688,4276.025879,4280.897461,4273.205078,4263.589844,4382.179688,4459.615234,4315.641113,4346.922852,,,,,,,,,,,,,,,,,,,,,,,,,,,,,,,,,,,,,,,,,,,,,,,,,,,,,,,,,,,,,,,,,,,,,,
1720416430,44,0,4226.410156,4297.307617,4287.94873,4316.794922,4291.153809,4297.436035,4273.974121,4271.922852,4262.94873,4262.692383,4387.563965,4446.153809,4319.871582,4345.897461,,,,,,,,,,,,,,,,,,,,,,,,,,,,,,,,,,,,,,,,,,,,,,,,,,,,,,,,,,,,,,,,,,,,,,
1720416430,45,0,4223.077148,4299.615234,4289.743652,4317.820313,4295.256348,4297.94873,4272.692383,4266.666504,4256.025879,4259.102539,4393.717773,4440.256348,4317.820313,4340.769043,,,,,,,,,,,,,,,,,,,,,,,,,,,,,,,,,,,,,,,,,,,,,,,,,,,,,,,,,,,,,,,,,,,,,,
1720416430,46,0,4230,4299.743652,4288.846191,4313.461426,4295.384766,4297.820313,4276.922852,4278.205078,4268.333496,4263.589844,4396.794922,4463.974121,4318.077148,4336.794922,,,,,,,,,,,,,,,,,,,,,,,,,,,,,,,,,,,,,,,,,,,,,,,,,,,,,,,,,,,,,,,,,,,,,,
1720416430,47,0,4238.974121,4303.974121,4290.641113,4314.358887,4296.153809,4305,4288.077148,4294.358887,4283.205078,4278.461426,4407.05127,4461.410156,4324.871582,4338.333496,,,,,,,,,,,,,,,,,,,,,,,,,,,,,,,,,,,,,,,,,,,,,,,,,,,,,,,,,,,,,,,,,,,,,,
1720416430,48,0,4235.384766,4303.077148,4287.94873,4315,4296.025879,4311.153809,4291.025879,4295.128418,4286.794922,4282.05127,4412.563965,4450.897461,4325.256348,4342.563965,,,,,,,,,,,,,,,,,,,,,,,,,,,,,,,,,,,,,,,,,,,,,,,,,,,,,,,,,,,,,,,,,,,,,,
1720416430,49,0,4226.153809,4294.230957,4278.589844,4309.358887,4292.563965,4301.922852,4277.05127,4281.282227,4274.743652,4267.05127,4399.102539,4446.794922,4315.128418,4333.717773,,,,,,,,,,,,,,,,,,,,,,,,,,,,,,,,,,,,,,,,,,,,,,,,,,,,,,,,,,,,,,,,,,,,,,
1720416430,50,0,4231.153809,4293.077148,4279.743652,4308.333496,4292.307617,4296.153809,4272.436035,4278.974121,4265.384766,4261.666504,4389.230957,4444.871582,4312.436035,4328.333496,,,,,,,,,,,,,,,,,,,,,,,,,,,,,,,,,,,,,,,,,,,,,,,,,,,,,,,,,,,,,,,,,,,,,,
1720416430,51,0,4235.897461,4291.666504,4282.820313,4306.922852,4289.102539,4300.128418,4277.179688,4280.641113,4265.128418,4265.128418,4389.615234,4446.794922,4311.922852,4325.128418,,,,,,,,,,,,,,,,,,,,,,,,,,,,,,,,,,,,,,,,,,,,,,,,,,,,,,,,,,,,,,,,,,,,,,
1720416430,52,0,4228.077148,4279.743652,4274.743652,4297.820313,4283.846191,4298.461426,4270.512695,4270.128418,4259.102539,4255.512695,4383.077148,4435.897461,4301.538574,4313.846191,,,,,,,,,,,,,,,,,,,,,,,,,,,,,,,,,,,,,,,,,,,,,,,,,,,,,,,,,,,,,,,,,,,,,,
1720416430,53,0,4226.025879,4271.410156,4268.974121,4288.205078,4284.230957,4295.512695,4267.05127,4266.153809,4254.743652,4245.641113,4374.230957,4429.230957,4291.410156,4311.922852,,,,,,,,,,,,,,,,,,,,,,,,,,,,,,,,,,,,,,,,,,,,,,,,,,,,,,,,,,,,,,,,,,,,,,
1720416430,54,0,4239.358887,4273.077148,4274.487305,4288.846191,4289.487305,4297.436035,4276.282227,4274.743652,4258.461426,4247.179688,4377.820313,4433.846191,4292.692383,4321.153809,11.345324,4.490032,1.738508,0.681016,0.441086,0.494918,2.630529,0.78258,0.395695,0.290833,0.52983,3.129645,0.80696,0.428993,0.186259,0.357634,2.61825,0.707484,0.420396,0.231352,0.241986,1.079574,0.356337,0.281568,0.121907,0.285235,0.280534,0.134791,0.247249,0.231682,0.520883,1.627214,0.567669,0.483174,0.226162,0.554009,1.298824,0.773627,0.468959,0.251759,0.381702,1.30031,0.878217,0.493612,0.239175,0.477142,0.654459,0.478447,0.423392,0.195191,0.779679,2.343979,0.889495,0.472539,0.27238,2.069453,1.533287,0.482839,0.500146,0.64415,1.216204,2.157851,0.554291,0.288965,0.204019,2.829335,6.768513,0.827009,0.687908,0.318008
1720416430,55,0,4256.538574,4283.846191,4285.384766,4304.487305,4294.358887,4298.846191,4279.871582,4275.769043,4262.307617,4249.358887,4390.769043,4443.589844,4302.179688,4332.820313,,,,,,,,,,,,,,,,,,,,,,,,,,,,,,,,,,,,,,,,,,,,,,,,,,,,,,,,,,,,,,,,,,,,,,
1720416430,56,0,4262.307617,4288.974121,4289.230957,4310,4293.846191,4297.94873,4277.179688,4273.333496,4258.846191,4247.307617,4391.794922,4443.846191,4303.077148,4338.077148,,,,,,,,,,,,,,,,,,,,,,,,,,,,,,,,,,,,,,,,,,,,,,,,,,,,,,,,,,,,,,,,,,,,,,
1720416430,57,0,4277.307617,4278.717773,4281.538574,4296.025879,4292.179688,4298.717773,4280,4278.846191,4260.897461,4248.846191,4384.358887,4435.769043,4293.974121,4333.333496,,,,,,,,,,,,,,,,,,,,,,,,,,,,,,,,,,,,,,,,,,,,,,,,,,,,,,,,,,,,,,,,,,,,,,
1720416430,58,0,4320.256348,4272.820313,4279.487305,4292.94873,4290.641113,4299.358887,4282.179688,4281.153809,4267.436035,4250.256348,4387.05127,4434.615234,4293.461426,4334.871582,,,,,,,,,,,,,,,,,,,,,,,,,,,,,,,,,,,,,,,,,,,,,,,,,,,,,,,,,,,,,,,,,,,,,,
1720416430,59,0,4352.436035,4277.692383,4283.077148,4299.358887,4286.538574,4298.974121,4278.589844,4276.410156,4264.487305,4235.128418,4392.820313,4438.461426,4299.615234,4345,,,,,,,,,,,,,,,,,,,,,,,,,,,,,,,,,,,,,,,,,,,,,,,,,,,,,,,,,,,,,,,,,,,,,,
1720416430,60,0,4351.025879,4280.256348,4279.615234,4295.897461,4287.94873,4295.897461,4274.743652,4273.717773,4259.743652,4219.102539,4392.436035,4437.94873,4298.461426,4345.769043,,,,,,,,,,,,,,,,,,,,,,,,,,,,,,,,,,,,,,,,,,,,,,,,,,,,,,,,,,,,,,,,,,,,,,
1720416430,61,0,4346.410156,4279.102539,4274.871582,4292.179688,4291.666504,4293.846191,4273.717773,4272.05127,4260.256348,4219.230957,4391.282227,4433.077148,4295.897461,4341.794922,,,,,,,,,,,,,,,,,,,,,,,,,,,,,,,,,,,,,,,,,,,,,,,,,,,,,,,,,,,,,,,,,,,,,,
1720416430,62,0,4353.717773,4280,4278.205078,4297.05127,4293.461426,4297.94873,4275.641113,4271.282227,4260.641113,4221.282227,4392.563965,4438.461426,4298.589844,4352.563965,,,,,,,,,,,,,,,,,,,,,,,,,,,,,,,,,,,,,,,,,,,,,,,,,,,,,,,,,,,,,,,,,,,,,,
1720416430,63,0,4357.692383,4280.256348,4285.512695,4302.307617,4298.461426,4298.333496,4277.692383,4275.256348,4261.282227,4222.05127,4395.769043,4440.512695,4300.897461,4367.436035,,,,,,,,,,,,,,,,,,,,,,,,,,,,,,,,,,,,,,,,,,,,,,,,,,,,,,,,,,,,,,,,,,,,,,
1720416430,64,0,4356.538574,4280.256348,4288.589844,4302.179688,4302.179688,4298.589844,4280.384766,4281.282227,4264.487305,4230.384766,4404.743652,4445.128418,4303.846191,4374.102539,,,,,,,,,,,,,,,,,,,,,,,,,,,,,,,,,,,,,,,,,,,,,,,,,,,,,,,,,,,,,,,,,,,,,,
1720416430,65,0,4354.102539,4276.282227,4281.153809,4295.897461,4300.384766,4304.230957,4281.666504,4280.641113,4263.589844,4233.077148,4406.410156,4456.666504,4308.205078,4374.230957,,,,,,,,,,,,,,,,,,,,,,,,,,,,,,,,,,,,,,,,,,,,,,,,,,,,,,,,,,,,,,,,,,,,,,
1720416430,66,0,4356.794922,4277.179688,4277.563965,4300,4306.666504,4307.436035,4281.410156,4279.743652,4263.846191,4228.461426,4399.230957,4441.282227,4307.307617,4371.794922,,,,,,,,,,,,,,,,,,,,,,,,,,,,,,,,,,,,,,,,,,,,,,,,,,,,,,,,,,,,,,,,,,,,,,
1720416430,67,0,4363.461426,4285.897461,4285.512695,4311.922852,4306.666504,4300.512695,4281.666504,4281.538574,4269.102539,4231.025879,4400.897461,4434.743652,4305,4374.358887,,,,,,,,,,,,,,,,,,,,,,,,,,,,,,,,,,,,,,,,,,,,,,,,,,,,,,,,,,,,,,,,,,,,,,
1720416430,68,0,4357.179688,4284.487305,4288.205078,4305.641113,4286.025879,4292.179688,4277.820313,4277.692383,4267.05127,4230.384766,4404.871582,4450.384766,4302.436035,4376.153809,,,,,,,,,,,,,,,,,,,,,,,,,,,,,,,,,,,,,,,,,,,,,,,,,,,,,,,,,,,,,,,,,,,,,,
1720416430,69,0,4348.461426,4276.794922,4282.820313,4298.077148,4280.641113,4293.205078,4272.820313,4275,4262.820313,4225.128418,4401.282227,4446.025879,4296.666504,4372.692383,,,,,,,,,,,,,,,,,,,,,,,,,,,,,,,,,,,,,,,,,,,,,,,,,,,,,,,,,,,,,,,,,,,,,,
1720416430,70,0,4347.94873,4277.436035,4278.717773,4304.743652,4290,4295.128418,4274.102539,4276.282227,4263.333496,4226.666504,4397.563965,4443.717773,4295.128418,4369.102539,19.097919,5.172057,2.366606,0.881146,0.595415,0.477633,2.452932,0.822162,0.443511,0.278658,0.572421,3.048592,0.795982,0.40099,0.218633,0.465594,2.454415,0.747245,0.408378,0.24496,0.252884,0.935707,0.340687,0.295613,0.122595,0.276133,0.294802,0.160032,0.254686,0.239359,0.562148,1.918174,0.680234,0.493713,0.235023,0.638384,1.559139,0.86547,0.473318,0.254898,0.464266,1.216249,0.76873,0.492545,0.256869,0.457834,0.523045,0.29795,0.443605,0.193983,0.94989,2.183539,1.00225,0.513815,0.282569,1.80651,1.502372,0.527684,0.50381,0.721748,1.096789,1.933528,0.61623,0.300627,0.216107,2.454898,6.544243,0.735467,0.733313,0.320079
1720416430,71,0,4345.769043,4282.307617,4276.538574,4305.769043,4283.077148,4293.077148,4277.563965,4276.282227,4263.205078,4229.358887,4400.897461,4458.974121,4299.487305,4369.871582,,,,,,,,,,,,,,,,,,,,,,,,,,,,,,,,,,,,,,,,,,,,,,,,,,,,,,,,,,,,,,,,,,,,,,
1720416430,72,0,4347.179688,4289.487305,4281.538574,4307.05127,4281.538574,4297.436035,4279.230957,4281.025879,4265.641113,4234.102539,4413.461426,4456.666504,4308.717773,4377.563965,,,,,,,,,,,,,,,,,,,,,,,,,,,,,,,,,,,,,,,,,,,,,,,,,,,,,,,,,,,,,,,,,,,,,,
1720416430,73,0,4355.128418,4296.666504,4287.94873,4311.410156,4292.820313,4303.205078,4279.230957,4284.615234,4268.461426,4238.205078,4421.153809,4452.563965,4315.641113,4380,,,,,,,,,,,,,,,,,,,,,,,,,,,,,,,,,,,,,,,,,,,,,,,,,,,,,,,,,,,,,,,,,,,,,,
1720416430,74,0,4357.05127,4294.743652,4283.077148,4302.05127,4291.282227,4296.666504,4274.615234,4277.436035,4262.563965,4234.743652,4413.846191,4460.384766,4312.05127,4381.666504,,,,,,,,,,,,,,,,,,,,,,,,,,,,,,,,,,,,,,,,,,,,,,,,,,,,,,,,,,,,,,,,,,,,,,
1720416430,75,0,4352.436035,4288.846191,4278.205078,4293.205078,4289.230957,4295.256348,4276.025879,4279.871582,4263.589844,4231.922852,4410,4448.589844,4306.922852,4400.256348,,,,,,,,,,,,,,,,,,,,,,,,,,,,,,,,,,,,,,,,,,,,,,,,,,,,,,,,,,,,,,,,,,,,,,
1720416430,76,0,4352.820313,4290.897461,4284.102539,4302.820313,4296.794922,4308.461426,4283.974121,4292.179688,4272.692383,4236.025879,4420.769043,4447.05127,4312.820313,4424.230957,,,,,,,,,,,,,,,,,,,,,,,,,,,,,,,,,,,,,,,,,,,,,,,,,,,,,,,,,,,,,,,,,,,,,,
1720416430,77,0,4352.563965,4293.205078,4285.128418,4305.769043,4291.153809,4304.230957,4280,4286.666504,4267.436035,4237.05127,4421.153809,4454.871582,4317.820313,4427.05127,,,,,,,,,,,,,,,,,,,,,,,,,,,,,,,,,,,,,,,,,,,,,,,,,,,,,,,,,,,,,,,,,,,,,,
1720416430,78,0,4356.153809,4292.307617,4282.307617,4300.512695,4281.282227,4292.05127,4276.153809,4277.692383,4261.282227,4234.102539,4412.692383,4447.307617,4314.487305,4426.282227,,,,,,,,,,,,,,,,,,,,,,,,,,,,,,,,,,,,,,,,,,,,,,,,,,,,,,,,,,,,,,,,,,,,,,
1720416430,79,0,4355.769043,4283.846191,4280.384766,4297.563965,4281.794922,4293.333496,4273.205078,4279.743652,4261.025879,4234.230957,4408.589844,4444.615234,4309.358887,4429.358887,,,,,,,,,,,,,,,,,,,,,,,,,,,,,,,,,,,,,,,,,,,,,,,,,,,,,,,,,,,,,,,,,,,,,,
1720416430,80,0,4335.256348,4266.794922,4268.077148,4284.102539,4280.769043,4296.666504,4264.358887,4277.179688,4256.025879,4233.461426,4400,4440.384766,4299.230957,4417.692383,,,,,,,,,,,,,,,,,,,,,,,,,,,,,,,,,,,,,,,,,,,,,,,,,,,,,,,,,,,,,,,,,,,,,,
1720416430,81,0,4324.615234,4260,4260.256348,4276.666504,4279.743652,4298.717773,4269.487305,4276.410156,4256.666504,4228.461426,4394.487305,4438.974121,4291.538574,4412.307617,,,,,,,,,,,,,,,,,,,,,,,,,,,,,,,,,,,,,,,,,,,,,,,,,,,,,,,,,,,,,,,,,,,,,,
1720416430,82,0,4329.487305,4263.974121,4263.589844,4283.205078,4282.563965,4298.974121,4274.358887,4282.05127,4259.615234,4217.563965,4392.179688,4437.94873,4285,4413.974121,,,,,,,,,,,,,,,,,,,,,,,,,,,,,,,,,,,,,,,,,,,,,,,,,,,,,,,,,,,,,,,,,,,,,,
1720416430,83,0,4323.205078,4263.077148,4263.717773,4281.666504,4281.410156,4294.102539,4265.641113,4279.743652,4256.922852,4212.05127,4387.05127,4434.743652,4277.05127,4406.922852,,,,,,,,,,,,,,,,,,,,,,,,,,,,,,,,,,,,,,,,,,,,,,,,,,,,,,,,,,,,,,,,,,,,,,
1720416430,84,0,4312.179688,4256.153809,4262.563965,4272.820313,4277.94873,4293.974121,4268.333496,4278.333496,4260.512695,4221.153809,4391.153809,4444.230957,4282.05127,4410,,,,,,,,,,,,,,,,,,,,,,,,,,,,,,,,,,,,,,,,,,,,,,,,,,,,,,,,,,,,,,,,,,,,,,
1720416430,85,0,4321.666504,4260,4273.205078,4278.333496,4278.077148,4295.897461,4276.794922,4282.307617,4265.769043,4231.025879,4403.333496,4457.94873,4293.205078,4424.487305,,,,,,,,,,,,,,,,,,,,,,,,,,,,,,,,,,,,,,,,,,,,,,,,,,,,,,,,,,,,,,,,,,,,,,
1720416430,86,0,4337.436035,4274.358887,4285.128418,4291.666504,4280.512695,4291.410156,4266.410156,4278.717773,4261.538574,4230.641113,4406.922852,4460.512695,4293.974121,4426.153809,28.486547,5.821165,3.177778,1.132134,0.745556,0.503462,2.157368,0.973721,0.4895,0.258026,0.618666,2.843296,0.841498,0.398512,0.250864,0.626437,2.25213,0.901238,0.412531,0.260378,0.263587,0.758073,0.329321,0.297509,0.123178,0.245021,0.304261,0.190394,0.254756,0.244846,0.557758,2.211265,0.896407,0.511146,0.236732,0.677748,1.888437,1.064728,0.47544,0.249089,0.555414,1.14315,0.726668,0.474673,0.264602,0.553627,0.493511,0.213235,0.44213,0.190692,1.571168,2.098198,1.422423,0.565121,0.297886,1.61158,1.504098,0.662615,0.490734,0.789202,0.915067,1.565734,0.691879,0.311199,0.225276,2.330864,5.847434,0.792802,0.766059,0.334347
1720416430,87,0,4341.794922,4281.666504,4288.461426,4296.282227,4285,4292.05127,4261.410156,4275.256348,4260.128418,4229.743652,4409.358887,4462.436035,4296.410156,4426.794922,,,,,,,,,,,,,,,,,,,,,,,,,,,,,,,,,,,,,,,,,,,,,,,,,,,,,,,,,,,,,,,,,,,,,,
1720416430,88,0,4343.717773,4279.230957,4290.641113,4296.410156,4288.589844,4296.538574,4275.128418,4277.820313,4267.436035,4237.436035,4416.922852,4471.153809,4308.461426,4441.282227,,,,,,,,,,,,,,,,,,,,,,,,,,,,,,,,,,,,,,,,,,,,,,,,,,,,,,,,,,,,,,,,,,,,,,
1720416430,89,0,4343.333496,4276.922852,4290.897461,4296.282227,4291.025879,4298.461426,4282.307617,4283.461426,4273.461426,4245.512695,4418.589844,4475.128418,4311.922852,4447.05127,,,,,,,,,,,,,,,,,,,,,,,,,,,,,,,,,,,,,,,,,,,,,,,,,,,,,,,,,,,,,,,,,,,,,,
1720416430,90,0,4343.333496,4280,4291.410156,4298.333496,4294.871582,4305.641113,4284.358887,4292.563965,4276.794922,4248.974121,4421.410156,4487.563965,4310.512695,4445.512695,,,,,,,,,,,,,,,,,,,,,,,,,,,,,,,,,,,,,,,,,,,,,,,,,,,,,,,,,,,,,,,,,,,,,,
1720416430,91,0,4343.333496,4278.077148,4293.461426,4297.05127,4295.897461,4306.025879,4287.820313,4297.436035,4279.230957,4249.358887,4425.897461,4488.589844,4311.666504,4445,,,,,,,,,,,,,,,,,,,,,,,,,,,,,,,,,,,,,,,,,,,,,,,,,,,,,,,,,,,,,,,,,,,,,,
1720416430,92,0,4337.94873,4275,4295,4295.256348,4294.487305,4299.743652,4290.256348,4294.358887,4278.717773,4249.230957,4420.512695,4470.512695,4307.179688,4441.282227,,,,,,,,,,,,,,,,,,,,,,,,,,,,,,,,,,,,,,,,,,,,,,,,,,,,,,,,,,,,,,,,,,,,,,
1720416430,93,0,4331.025879,4279.102539,4296.794922,4299.358887,4293.589844,4303.461426,4292.179688,4291.666504,4273.589844,4248.077148,4415.128418,4481.666504,4305.512695,4441.922852,,,,,,,,,,,,,,,,,,,,,,,,,,,,,,,,,,,,,,,,,,,,,,,,,,,,,,,,,,,,,,,,,,,,,,
1720416430,94,0,4318.589844,4277.94873,4287.563965,4297.307617,4292.05127,4312.179688,4292.307617,4291.025879,4269.358887,4243.205078,4412.05127,4482.563965,4302.94873,4435,,,,,,,,,,,,,,,,,,,,,,,,,,,,,,,,,,,,,,,,,,,,,,,,,,,,,,,,,,,,,,,,,,,,,,
1720416430,95,0,4304.102539,4271.538574,4268.846191,4282.94873,4287.05127,4308.974121,4282.94873,4282.820313,4267.179688,4234.743652,4400.641113,4457.307617,4293.461426,4417.820313,,,,,,,,,,,,,,,,,,,,,,,,,,,,,,,,,,,,,,,,,,,,,,,,,,,,,,,,,,,,,,,,,,,,,,
1720416430,96,0,4303.717773,4272.436035,4265,4274.102539,4280,4294.230957,4264.871582,4268.846191,4264.102539,4229.102539,4396.025879,4458.205078,4294.358887,4414.358887,,,,,,,,,,,,,,,,,,,,,,,,,,,,,,,,,,,,,,,,,,,,,,,,,,,,,,,,,,,,,,,,,,,,,,
1720416430,97,0,4319.358887,4278.589844,4275.769043,4281.282227,4275.769043,4285.512695,4258.333496,4259.230957,4258.205078,4232.820313,4403.589844,4463.717773,4304.615234,4425.128418,,,,,,,,,,,,,,,,,,,,,,,,,,,,,,,,,,,,,,,,,,,,,,,,,,,,,,,,,,,,,,,,,,,,,,
1720416430,98,0,4323.205078,4285,4278.333496,4290.256348,4279.743652,4290.897461,4263.717773,4258.846191,4251.922852,4235.769043,4405.128418,4455.512695,4310.256348,4435.384766,,,,,,,,,,,,,,,,,,,,,,,,,,,,,,,,,,,,,,,,,,,,,,,,,,,,,,,,,,,,,,,,,,,,,,
1720416430,99,0,4316.666504,4293.205078,4278.077148,4292.307617,4289.358887,4296.538574,4263.077148,4259.743652,4250.512695,4235.384766,4406.410156,4462.692383,4314.230957,4443.461426,,,,,,,,,,,,,,,,,,,,,,,,,,,,,,,,,,,,,,,,,,,,,,,,,,,,,,,,,,,,,,,,,,,,,,
1720416430,100,0,4329.615234,4298.205078,4284.358887,4291.794922,4293.974121,4292.94873,4263.461426,4262.94873,4258.846191,4242.307617,4411.538574,4469.871582,4316.922852,4447.436035,,,,,,,,,,,,,,,,,,,,,,,,,,,,,,,,,,,,,,,,,,,,,,,,,,,,,,,,,,,,,,,,,,,,,,
1720416430,101,0,4336.666504,4300.641113,4288.846191,4298.077148,4293.974121,4295.641113,4274.102539,4273.846191,4264.358887,4251.282227,4415.384766,4466.282227,4320.512695,4452.94873,,,,,,,,,,,,,,,,,,,,,,,,,,,,,,,,,,,,,,,,,,,,,,,,,,,,,,,,,,,,,,,,,,,,,,
1720416430,102,0,4302.692383,4308.589844,4295.256348,4312.05127,4298.077148,4303.461426,4285.384766,4281.922852,4265.641113,4251.538574,4426.666504,4480.128418,4333.846191,4468.717773,37.644588,6.318855,3.954066,1.343947,0.853806,0.606189,1.822197,1.201133,0.516289,0.234637,0.663661,2.563958,0.926706,0.413666,0.27929,0.809555,2.070717,1.118507,0.422008,0.277613,0.278937,0.592138,0.333368,0.281788,0.122573,0.199034,0.298865,0.224756,0.251253,0.243295,0.515222,2.390772,1.223434,0.526357,0.228508,0.658082,2.16937,1.380282,0.474625,0.234035,0.620559,1.077597,0.776636,0.452765,0.255587,0.678911,0.521137,0.211722,0.417414,0.183095,2.758214,2.180953,2.098754,0.613234,0.319532,1.447823,1.546807,0.859508,0.460901,0.828694,0.72917,1.159111,0.754613,0.313446,0.232355,2.352425,4.986017,0.929859,0.776094,0.352116
1720416430,103,0,4261.666504,4314.358887,4299.102539,4314.358887,4303.077148,4303.717773,4285.256348,4280.256348,4274.102539,4251.794922,4434.358887,4481.410156,4339.615234,4470.641113,,,,,,,,,,,,,,,,,,,,,,,,,,,,,,,,,,,,,,,,,,,,,,,,,,,,,,,,,,,,,,,,,,,,,,
1720416430,104,0,4255.897461,4309.743652,4291.025879,4306.666504,4300.897461,4301.794922,4278.333496,4277.820313,4275.384766,4257.05127,4422.436035,4470.769043,4328.461426,4453.077148,,,,,,,,,,,,,,,,,,,,,,,,,,,,,,,,,,,,,,,,,,,,,,,,,,,,,,,,,,,,,,,,,,,,,,
1720416430,105,0,4262.820313,4303.717773,4284.102539,4306.410156,4296.410156,4301.666504,4276.922852,4281.410156,4267.563965,4259.358887,4416.282227,4477.436035,4323.333496,4438.205078,,,,,,,,,,,,,,,,,,,,,,,,,,,,,,,,,,,,,,,,,,,,,,,,,,,,,,,,,,,,,,,,,,,,,,
1720416430,106,0,4244.358887,4294.871582,4281.025879,4303.205078,4295,4306.025879,4281.282227,4279.871582,4266.538574,4253.846191,4420.641113,4473.974121,4324.230957,4425.641113,,,,,,,,,,,,,,,,,,,,,,,,,,,,,,,,,,,,,,,,,,,,,,,,,,,,,,,,,,,,,,,,,,,,,,
1720416430,107,0,4217.820313,4283.846191,4274.358887,4293.333496,4294.615234,4309.102539,4277.94873,4267.307617,4262.436035,4246.153809,4416.538574,4463.717773,4318.589844,4411.922852,,,,,,,,,,,,,,,,,,,,,,,,,,,,,,,,,,,,,,,,,,,,,,,,,,,,,,,,,,,,,,,,,,,,,,
1720416430,108,0,4208.333496,4280.512695,4272.436035,4293.205078,4294.615234,4301.538574,4265.384766,4258.846191,4250.384766,4244.487305,4411.666504,4460.641113,4315.128418,4402.05127,,,,,,,,,,,,,,,,,,,,,,,,,,,,,,,,,,,,,,,,,,,,,,,,,,,,,,,,,,,,,,,,,,,,,,
1720416430,109,0,4204.615234,4279.230957,4274.102539,4293.333496,4287.307617,4291.794922,4258.974121,4259.230957,4249.871582,4245.384766,4412.436035,4463.077148,4316.538574,4399.871582,,,,,,,,,,,,,,,,,,,,,,,,,,,,,,,,,,,,,,,,,,,,,,,,,,,,,,,,,,,,,,,,,,,,,,
1720416430,110,0,4192.436035,4276.282227,4270.897461,4290,4277.436035,4294.230957,4262.563965,4262.05127,4264.871582,4245.384766,4414.358887,4463.589844,4317.05127,4401.794922,,,,,,,,,,,,,,,,,,,,,,,,,,,,,,,,,,,,,,,,,,,,,,,,,,,,,,,,,,,,,,,,,,,,,,
1720416430,111,0,4186.153809,4279.871582,4272.307617,4294.358887,4279.871582,4296.922852,4263.077148,4260.384766,4267.563965,4248.974121,4422.692383,4462.563965,4321.153809,4407.05127,,,,,,,,,,,,,,,,,,,,,,,,,,,,,,,,,,,,,,,,,,,,,,,,,,,,,,,,,,,,,,,,,,,,,,
1720416430,112,0,4185.384766,4283.205078,4273.461426,4290.384766,4282.436035,4291.666504,4257.436035,4251.410156,4252.307617,4248.205078,4423.846191,4461.538574,4320,4407.563965,,,,,,,,,,,,,,,,,,,,,,,,,,,,,,,,,,,,,,,,,,,,,,,,,,,,,,,,,,,,,,,,,,,,,,
1720416430,113,0,4175.897461,4276.538574,4265.128418,4278.461426,4278.717773,4293.589844,4257.563965,4245.512695,4246.666504,4236.922852,4411.794922,4456.153809,4309.615234,4398.846191,,,,,,,,,,,,,,,,,,,,,,,,,,,,,,,,,,,,,,,,,,,,,,,,,,,,,,,,,,,,,,,,,,,,,,
1720416430,114,0,4182.436035,4278.205078,4268.717773,4286.025879,4282.94873,4298.974121,4264.743652,4257.05127,4257.05127,4236.538574,4416.025879,4459.871582,4312.563965,4405.256348,,,,,,,,,,,,,,,,,,,,,,,,,,,,,,,,,,,,,,,,,,,,,,,,,,,,,,,,,,,,,,,,,,,,,,
1720416430,115,0,4205.512695,4291.153809,4281.153809,4299.743652,4291.922852,4299.358887,4267.563965,4267.436035,4258.205078,4247.05127,4430.512695,4469.615234,4323.333496,4422.179688,,,,,,,,,,,,,,,,,,,,,,,,,,,,,,,,,,,,,,,,,,,,,,,,,,,,,,,,,,,,,,,,,,,,,,
1720416430,116,0,4214.487305,4293.589844,4281.282227,4298.589844,4292.179688,4294.358887,4264.102539,4260.256348,4247.05127,4245.897461,4426.410156,4471.538574,4320.256348,4427.05127,,,,,,,,,,,,,,,,,,,,,,,,,,,,,,,,,,,,,,,,,,,,,,,,,,,,,,,,,,,,,,,,,,,,,,
1720416430,117,0,4218.333496,4292.307617,4281.025879,4297.05127,4291.666504,4291.282227,4263.205078,4257.05127,4245.512695,4243.717773,4422.307617,4461.282227,4317.563965,4428.205078,,,,,,,,,,,,,,,,,,,,,,,,,,,,,,,,,,,,,,,,,,,,,,,,,,,,,,,,,,,,,,,,,,,,,,
1720416430,118,0,4226.282227,4298.974121,4288.717773,4304.230957,4294.743652,4296.666504,4269.487305,4263.846191,4252.692383,4250.641113,4433.077148,4467.94873,4325.384766,4437.692383,44.19928,6.55893,4.453598,1.43704,0.893255,0.842624,1.530681,1.426432,0.51194,0.214303,0.732057,2.265173,1.013089,0.431324,0.300424,1.024427,1.934104,1.314002,0.426286,0.296309,0.304188,0.474711,0.360046,0.249505,0.120715,0.149211,0.276687,0.261623,0.247835,0.232947,0.441919,2.388349,1.61547,0.530424,0.210699,0.592638,2.307328,1.765506,0.470101,0.212002,0.652135,1.018489,0.896856,0.437713,0.229642,0.840268,0.565473,0.272114,0.381719,0.17085,4.456718,2.4645,2.875983,0.643676,0.344592,1.330536,1.612059,1.066083,0.418818,0.827289,0.661176,0.845964,0.787837,0.304477,0.237146,2.574587,4.280607,1.086579,0.758133,0.363389
1720416430,119,0,4219.487305,4293.333496,4282.436035,4298.589844,4289.487305,4295.128418,4264.743652,4255,4249.871582,4249.743652,4429.230957,4473.461426,4322.179688,4433.461426,,,,,,,,,,,,,,,,,,,,,,,,,,,,,,,,,,,,,,,,,,,,,,,,,,,,,,,,,,,,,,,,,,,,,,
1720416430,120,0,4205,4274.102539,4265.128418,4281.666504,4277.436035,4282.179688,4245.897461,4235.384766,4241.922852,4243.333496,4408.846191,4440.384766,4306.282227,4413.077148,,,,,,,,,,,,,,,,,,,,,,,,,,,,,,,,,,,,,,,,,,,,,,,,,,,,,,,,,,,,,,,,,,,,,,
1720416430,121,0,4214.230957,4278.333496,4268.974121,4285.128418,4278.717773,4285.769043,4244.102539,4235.641113,4245.769043,4245.128418,4406.538574,4437.820313,4305.769043,4414.615234,,,,,,,,,,,,,,,,,,,,,,,,,,,,,,,,,,,,,,,,,,,,,,,,,,,,,,,,,,,,,,,,,,,,,,
1720416430,122,0,4234.615234,4298.333496,4286.538574,4301.666504,4293.205078,4300.128418,4264.487305,4250,4261.025879,4249.102539,4424.358887,4466.922852,4318.205078,4435.256348,,,,,,,,,,,,,,,,,,,,,,,,,,,,,,,,,,,,,,,,,,,,,,,,,,,,,,,,,,,,,,,,,,,,,,
1720416430,123,0,4236.282227,4294.358887,4288.205078,4298.077148,4296.538574,4300.384766,4276.666504,4254.358887,4269.230957,4253.589844,4435.128418,4466.282227,4320.641113,4444.743652,,,,,,,,,,,,,,,,,,,,,,,,,,,,,,,,,,,,,,,,,,,,,,,,,,,,,,,,,,,,,,,,,,,,,,
1720416430,124,0,4241.922852,4285.769043,4286.922852,4294.230957,4290.769043,4296.922852,4271.282227,4252.563965,4266.410156,4262.692383,4433.717773,4464.487305,4321.410156,4448.077148,,,,,,,,,,,,,,,,,,,,,,,,,,,,,,,,,,,,,,,,,,,,,,,,,,,,,,,,,,,,,,,,,,,,,,
1720416430,125,0,4262.563965,4296.794922,4294.230957,4307.563965,4293.846191,4299.487305,4264.615234,4248.333496,4265.641113,4263.461426,4432.94873,4472.820313,4327.179688,4451.410156,,,,,,,,,,,,,,,,,,,,,,,,,,,,,,,,,,,,,,,,,,,,,,,,,,,,,,,,,,,,,,,,,,,,,,
1720416430,126,0,4264.102539,4296.794922,4288.717773,4305.897461,4294.615234,4302.820313,4267.692383,4238.589844,4263.717773,4252.436035,4429.743652,4461.025879,4323.846191,4442.692383,,,,,,,,,,,,,,,,,,,,,,,,,,,,,,,,,,,,,,,,,,,,,,,,,,,,,,,,,,,,,,,,,,,,,,
1720416430,127,0,4255.128418,4288.205078,4283.461426,4298.589844,4293.077148,4308.461426,4277.05127,4232.94873,4263.205078,4253.077148,4429.102539,4461.538574,4324.102539,4438.461426,,,,,,,,,,,,,,,,,,,,,,,,,,,,,,,,,,,,,,,,,,,,,,,,,,,,,,,,,,,,,,,,,,,,,,
1720416430,0,0,4265.512695,4296.153809,4292.563965,4310.512695,4299.487305,4306.794922,4275.769043,4228.717773,4266.025879,4264.871582,4434.230957,4471.282227,4334.358887,4444.358887,,,,,,,,,,,,,,,,,,,,,,,,,,,,,,,,,,,,,,,,,,,,,,,,,,,,,,,,,,,,,,,,,,,,,,
1720416430,1,0,4271.025879,4300.384766,4285.897461,4309.102539,4300.128418,4293.974121,4261.410156,4211.794922,4256.794922,4263.461426,4431.410156,4450.769043,4331.282227,4436.410156,,,,,,,,,,,,,,,,,,,,,,,,,,,,,,,,,,,,,,,,,,,,,,,,,,,,,,,,,,,,,,,,,,,,,,
1720416430,2,0,4262.820313,4290.769043,4276.025879,4297.179688,4292.307617,4290.384766,4258.333496,4198.333496,4246.282227,4257.692383,4424.102539,4448.461426,4323.589844,4426.025879,,,,,,,,,,,,,,,,,,,,,,,,,,,,,,,,,,,,,,,,,,,,,,,,,,,,,,,,,,,,,,,,,,,,,,
1720416430,3,0,4265.897461,4289.230957,4282.436035,4304.102539,4292.820313,4297.307617,4266.922852,4202.563965,4254.230957,4263.077148,4425.641113,4461.282227,4330,4428.589844,,,,,,,,,,,,,,,,,,,,,,,,,,,,,,,,,,,,,,,,,,,,,,,,,,,,,,,,,,,,,,,,,,,,,,
1720416430,4,0,4273.974121,4292.94873,4282.94873,4307.307617,4296.025879,4301.666504,4268.077148,4204.487305,4260.641113,4267.436035,4431.922852,4453.717773,4338.717773,4433.974121,,,,,,,,,,,,,,,,,,,,,,,,,,,,,,,,,,,,,,,,,,,,,,,,,,,,,,,,,,,,,,,,,,,,,,
1720416430,5,0,4271.922852,4285.897461,4276.282227,4297.692383,4292.692383,4297.692383,4263.974121,4190.769043,4251.794922,4262.436035,4427.692383,4445.769043,4335.128418,4431.153809,,,,,,,,,,,,,,,,,,,,,,,,,,,,,,,,,,,,,,,,,,,,,,,,,,,,,,,,,,,,,,,,,,,,,,
1720416430,6,0,4271.282227,4283.974121,4280.128418,4301.666504,4292.820313,4297.94873,4265.128418,4184.102539,4253.717773,4261.666504,4422.05127,4447.179688,4326.794922,4428.717773,46.872398,6.562442,4.561117,1.381812,0.861861,1.22539,1.372023,1.565361,0.478066,0.200569,0.827693,2.011274,1.052678,0.439661,0.311357,1.235588,1.847267,1.403593,0.422169,0.314738,0.340935,0.435079,0.410356,0.207978,0.118345,0.109147,0.254122,0.298344,0.245834,0.215877,0.384686,2.221664,1.968125,0.515861,0.187895,0.512507,2.283748,2.114842,0.458092,0.187496,0.658165,0.982122,1.034418,0.430806,0.193377,1.05133,0.627788,0.376708,0.349393,0.156246,6.258961,2.898904,3.536256,0.645557,0.365981,1.31276,1.681905,1.216411,0.371385,0.782888,0.755292,0.751287,0.787825,0.287989,0.238451,2.824311,3.971684,1.208752,0.716408,0.363096
1720416430,7,0,4273.461426,4289.487305,4281.794922,4304.871582,4296.922852,4305.641113,4267.436035,4187.692383,4264.743652,4264.358887,4420.769043,4454.230957,4325.769043,4433.333496,,,,,,,,,,,,,,,,,,,,,,,,,,,,,,,,,,,,,,,,,,,,,,,,,,,,,,,,,,,,,,,,,,,,,,
1720416430,8,0,4265.512695,4285.384766,4277.307617,4296.794922,4295.256348,4303.461426,4263.205078,4181.025879,4263.333496,4262.563965,4414.358887,4444.230957,4325,4433.589844,,,,,,,,,,,,,,,,,,,,,,,,,,,,,,,,,,,,,,,,,,,,,,,,,,,,,,,,,,,,,,,,,,,,,,
1720416430,9,0,4258.205078,4280.641113,4280.512695,4296.025879,4290.897461,4299.230957,4263.846191,4176.922852,4261.282227,4261.666504,4408.717773,4434.615234,4319.230957,4431.153809,,,,,,,,,,,,,,,,,,,,,,,,,,,,,,,,,,,,,,,,,,,,,,,,,,,,,,,,,,,,,,,,,,,,,,
1720416430,10,0,4254.358887,4276.666504,4277.307617,4297.307617,4289.358887,4301.666504,4269.743652,4180.641113,4265.256348,4263.077148,4409.230957,4442.692383,4316.025879,4432.436035,,,,,,,,,,,,,,,,,,,,,,,,,,,,,,,,,,,,,,,,,,,,,,,,,,,,,,,,,,,,,,,,,,,,,,
1720416430,11,0,4250.128418,4268.077148,4268.846191,4291.794922,4286.025879,4301.410156,4270.384766,4178.461426,4266.282227,4266.538574,4417.692383,4446.282227,4322.692383,4432.563965,,,,,,,,,,,,,,,,,,,,,,,,,,,,,,,,,,,,,,,,,,,,,,,,,,,,,,,,,,,,,,,,,,,,,,
1720416430,12,0,4251.282227,4267.692383,4271.922852,4291.410156,4284.102539,4297.05127,4272.436035,4177.05127,4266.666504,4271.153809,4424.102539,4445.769043,4327.94873,4430.897461,,,,,,,,,,,,,,,,,,,,,,,,,,,,,,,,,,,,,,,,,,,,,,,,,,,,,,,,,,,,,,,,,,,,,,
1720416430,13,0,4252.563965,4276.666504,4277.692383,4293.589844,4289.230957,4298.846191,4277.179688,4178.589844,4267.94873,4269.615234,4416.922852,4447.436035,4322.563965,4428.077148,,,,,,,,,,,,,,,,,,,,,,,,,,,,,,,,,,,,,,,,,,,,,,,,,,,,,,,,,,,,,,,,,,,,,,
1720416430,14,0,4253.974121,4277.05127,4278.974121,4293.846191,4291.666504,4302.820313,4276.153809,4168.974121,4259.615234,4263.333496,4407.436035,4442.94873,4319.102539,4425.512695,,,,,,,,,,,,,,,,,,,,,,,,,,,,,,,,,,,,,,,,,,,,,,,,,,,,,,,,,,,,,,,,,,,,,,
1720416430,15,0,4263.589844,4275.769043,4282.307617,4297.179688,4289.230957,4302.563965,4273.974121,4162.692383,4250.641113,4257.692383,4413.333496,4438.205078,4324.230957,4425.384766,,,,,,,,,,,,,,,,,,,,,,,,,,,,,,,,,,,,,,,,,,,,,,,,,,,,,,,,,,,,,,,,,,,,,,
1720416431,16,0,4273.846191,4282.563965,4287.94873,4299.871582,4292.563965,4300.128418,4276.410156,4171.025879,4251.410156,4253.077148,4418.589844,4444.487305,4328.077148,4429.615234,,,,,,,,,,,,,,,,,,,,,,,,,,,,,,,,,,,,,,,,,,,,,,,,,,,,,,,,,,,,,,,,,,,,,,
1720416431,17,0,4274.358887,4282.307617,4285.256348,4298.461426,4295.128418,4296.538574,4276.410156,4166.922852,4249.358887,4248.974121,4407.563965,4433.461426,4321.794922,4427.692383,,,,,,,,,,,,,,,,,,,,,,,,,,,,,,,,,,,,,,,,,,,,,,,,,,,,,,,,,,,,,,,,,,,,,,
1720416431,18,0,4278.333496,4278.589844,4282.820313,4295.769043,4288.974121,4296.922852,4276.153809,4156.922852,4250.641113,4253.333496,4410.128418,4424.871582,4325,4428.077148,,,,,,,,,,,,,,,,,,,,,,,,,,,,,,,,,,,,,,,,,,,,,,,,,,,,,,,,,,,,,,,,,,,,,,
1720416431,19,0,4293.333496,4283.717773,4289.871582,4297.563965,4285.897461,4296.410156,4278.205078,4164.615234,4262.692383,4262.94873,4427.179688,4451.410156,4338.333496,4443.846191,,,,,,,,,,,,,,,,,,,,,,,,,,,,,,,,,,,,,,,,,,,,,,,,,,,,,,,,,,,,,,,,,,,,,,
1720416431,20,0,4298.205078,4289.743652,4292.563965,4305.128418,4291.538574,4294.102539,4278.333496,4173.333496,4269.615234,4268.846191,4431.153809,4455.641113,4335.128418,4451.922852,,,,,,,,,,,,,,,,,,,,,,,,,,,,,,,,,,,,,,,,,,,,,,,,,,,,,,,,,,,,,,,,,,,,,,
1720416431,21,0,4291.025879,4292.307617,4288.077148,4308.333496,4295.512695,4297.94873,4280.256348,4170.384766,4266.153809,4267.94873,4426.025879,4443.205078,4327.563965,4444.102539,,,,,,,,,,,,,,,,,,,,,,,,,,,,,,,,,,,,,,,,,,,,,,,,,,,,,,,,,,,,,,,,,,,,,,
1720416431,22,0,4290.897461,4293.461426,4284.358887,4307.179688,4295,4301.025879,4280.128418,4166.025879,4265.512695,4262.94873,4420.512695,4448.205078,4329.871582,4439.615234,45.702717,6.466577,4.316571,1.211103,0.783598,1.747355,1.425312,1.555576,0.428464,0.19383,0.971654,1.8791,1.016821,0.434204,0.310557,1.461818,1.823867,1.345995,0.413667,0.329577,0.396163,0.493204,0.47334,0.167279,0.116264,0.090067,0.25764,0.331574,0.242879,0.196784,0.378453,1.996733,2.174922,0.480037,0.168114,0.466794,2.170146,2.319805,0.434453,0.166465,0.672387,0.990015,1.126317,0.4239,0.158053,1.308945,0.735537,0.49505,0.329753,0.142793,7.614254,3.384175,3.869212,0.616264,0.375297,1.464295,1.761372,1.259965,0.326132,0.705706,1.017427,0.939497,0.754035,0.271008,0.235007,3.104213,4.200544,1.250853,0.661313,0.351342
1720416431,23,0,4299.615234,4292.563965,4285.384766,4308.846191,4294.615234,4298.333496,4274.871582,4163.077148,4265.384766,4263.333496,4419.871582,4445.256348,4329.871582,4443.461426,,,,,,,,,,,,,,,,,,,,,,,,,,,,,,,,,,,,,,,,,,,,,,,,,,,,,,,,,,,,,,,,,,,,,,
1720416431,24,0,4303.461426,4297.05127,4292.94873,4315.769043,4299.743652,4303.461426,4279.871582,4162.563965,4264.615234,4269.487305,4426.410156,4445.641113,4330.897461,4447.692383,,,,,,,,,,,,,,,,,,,,,,,,,,,,,,,,,,,,,,,,,,,,,,,,,,,,,,,,,,,,,,,,,,,,,,
1720416431,25,0,4302.05127,4318.717773,4300.384766,4321.666504,4306.282227,4313.717773,4293.333496,4171.922852,4270.897461,4272.307617,4432.94873,4462.563965,4339.871582,4448.589844,,,,,,,,,,,,,,,,,,,,,,,,,,,,,,,,,,,,,,,,,,,,,,,,,,,,,,,,,,,,,,,,,,,,,,
1720416431,26,0,4304.230957,4339.102539,4292.94873,4321.282227,4302.436035,4306.922852,4291.025879,4171.538574,4271.153809,4269.743652,4431.410156,4458.077148,4338.974121,4446.025879,,,,,,,,,,,,,,,,,,,,,,,,,,,,,,,,,,,,,,,,,,,,,,,,,,,,,,,,,,,,,,,,,,,,,,
1720416431,27,0,4301.025879,4336.794922,4278.461426,4309.487305,4295.897461,4298.717773,4274.487305,4156.153809,4257.563965,4263.205078,4421.922852,4440.512695,4329.102539,4439.871582,,,,,,,,,,,,,,,,,,,,,,,,,,,,,,,,,,,,,,,,,,,,,,,,,,,,,,,,,,,,,,,,,,,,,,
1720416431,28,0,4290.256348,4329.102539,4274.743652,4300.384766,4293.974121,4299.871582,4266.025879,4146.794922,4247.179688,4255.769043,4411.153809,4442.436035,4323.589844,4431.410156,,,,,,,,,,,,,,,,,,,,,,,,,,,,,,,,,,,,,,,,,,,,,,,,,,,,,,,,,,,,,,,,,,,,,,
1720416431,29,0,4278.589844,4322.179688,4274.871582,4297.436035,4280.897461,4289.102539,4264.743652,4143.717773,4248.717773,4250.128418,4401.794922,4435.256348,4315.512695,4420.384766,,,,,,,,,,,,,,,,,,,,,,,,,,,,,,,,,,,,,,,,,,,,,,,,,,,,,,,,,,,,,,,,,,,,,,
1720416431,30,0,4267.563965,4308.461426,4267.436035,4284.358887,4263.461426,4274.743652,4258.846191,4135.641113,4244.487305,4241.666504,4392.820313,4426.282227,4308.461426,4411.153809,,,,,,,,,,,,,,,,,,,,,,,,,,,,,,,,,,,,,,,,,,,,,,,,,,,,,,,,,,,,,,,,,,,,,,
1720416431,31,0,4267.179688,4310.128418,4264.615234,4281.025879,4269.871582,4280.256348,4255.897461,4132.307617,4233.333496,4238.846191,4390.512695,4429.230957,4312.179688,4409.743652,,,,,,,,,,,,,,,,,,,,,,,,,,,,,,,,,,,,,,,,,,,,,,,,,,,,,,,,,,,,,,,,,,,,,,
1720416431,32,0,4284.743652,4332.05127,4276.282227,4301.538574,4287.307617,4292.05127,4263.717773,4142.307617,4241.153809,4255,4410.641113,4438.077148,4326.794922,4424.358887,,,,,,,,,,,,,,,,,,,,,,,,,,,,,,,,,,,,,,,,,,,,,,,,,,,,,,,,,,,,,,,,,,,,,,
1720416431,33,0,4296.410156,4343.077148,4287.563965,4315.897461,4290.384766,4294.871582,4274.358887,4155.256348,4261.538574,4271.410156,4436.153809,4456.794922,4341.410156,4445.641113,,,,,,,,,,,,,,,,,,,,,,,,,,,,,,,,,,,,,,,,,,,,,,,,,,,,,,,,,,,,,,,,,,,,,,
1720416431,34,0,4293.333496,4338.077148,4285.641113,4308.974121,4291.410156,4294.871582,4279.743652,4158.589844,4267.563965,4274.871582,4434.358887,4458.846191,4342.307617,4452.179688,,,,,,,,,,,,,,,,,,,,,,,,,,,,,,,,,,,,,,,,,,,,,,,,,,,,,,,,,,,,,,,,,,,,,,
1720416431,35,0,4295.512695,4333.846191,4283.205078,4303.846191,4294.358887,4295.641113,4278.205078,4154.743652,4261.025879,4273.077148,4423.717773,4455.769043,4337.436035,4449.871582,,,,,,,,,,,,,,,,,,,,,,,,,,,,,,,,,,,,,,,,,,,,,,,,,,,,,,,,,,,,,,,,,,,,,,
1720416431,36,0,4296.922852,4331.666504,4285.512695,4310.769043,4290.512695,4296.794922,4276.025879,4153.333496,4259.102539,4271.538574,4428.205078,4459.487305,4340,4450.128418,,,,,,,,,,,,,,,,,,,,,,,,,,,,,,,,,,,,,,,,,,,,,,,,,,,,,,,,,,,,,,,,,,,,,,
1720416431,37,0,4289.230957,4330,4280.384766,4311.282227,4290.384766,4300.128418,4276.538574,4154.230957,4261.922852,4272.820313,4433.589844,4455.128418,4344.871582,4446.794922,,,,,,,,,,,,,,,,,,,,,,,,,,,,,,,,,,,,,,,,,,,,,,,,,,,,,,,,,,,,,,,,,,,,,,
1720416431,38,0,4279.230957,4324.230957,4268.333496,4301.282227,4294.615234,4302.94873,4279.230957,4153.717773,4260.897461,4271.666504,4421.794922,4447.692383,4339.615234,4433.717773,41.795422,6.397684,3.88134,0.995075,0.693542,2.345382,1.708821,1.386624,0.380471,0.192822,1.162329,1.911232,0.904352,0.416651,0.299351,1.663806,1.868486,1.153079,0.405573,0.337082,0.469325,0.648711,0.533304,0.136151,0.115,0.101123,0.309693,0.359908,0.234754,0.181408,0.453982,1.838254,2.163749,0.426884,0.160342,0.515877,2.076204,2.310066,0.398802,0.155002,0.732957,1.059688,1.128219,0.405843,0.135057,1.579985,0.903664,0.585698,0.322235,0.133365,8.062926,3.784646,3.741503,0.563985,0.368179,1.783378,1.861576,1.1755,0.289505,0.616992,1.361038,1.372012,0.683898,0.25904,0.226991,3.481385,4.906578,1.193589,0.607046,0.331688
1720416431,39,0,4269.871582,4311.922852,4264.487305,4292.94873,4289.487305,4301.153809,4279.102539,4155.641113,4258.717773,4266.410156,4409.230957,4442.179688,4331.794922,4422.692383,,,,,,,,,,,,,,,,,,,,,,,,,,,,,,,,,,,,,,,,,,,,,,,,,,,,,,,,,,,,,,,,,,,,,,
1720416431,40,0,4274.230957,4306.282227,4268.461426,4292.436035,4280.256348,4294.743652,4274.358887,4155,4259.615234,4269.615234,4414.615234,4446.282227,4336.153809,4430.769043,,,,,,,,,,,,,,,,,,,,,,,,,,,,,,,,,,,,,,,,,,,,,,,,,,,,,,,,,,,,,,,,,,,,,,
1720416431,41,0,4288.589844,4310.512695,4270.641113,4295.256348,4279.230957,4293.205078,4271.922852,4153.717773,4262.94873,4275.128418,4423.589844,4454.102539,4341.666504,4438.077148,,,,,,,,,,,,,,,,,,,,,,,,,,,,,,,,,,,,,,,,,,,,,,,,,,,,,,,,,,,,,,,,,,,,,,
1720416431,42,0,4290.384766,4311.153809,4273.717773,4302.94873,4281.666504,4297.692383,4276.538574,4159.230957,4263.717773,4272.692383,4423.846191,4455,4340.256348,4431.153809,,,,,,,,,,,,,,,,,,,,,,,,,,,,,,,,,,,,,,,,,,,,,,,,,,,,,,,,,,,,,,,,,,,,,,
1720416431,43,0,4287.436035,4308.846191,4284.230957,4309.871582,4287.05127,4300.128418,4282.436035,4167.307617,4261.922852,4275.897461,4428.077148,4457.563965,4342.307617,4433.077148,,,,,,,,,,,,,,,,,,,,,,,,,,,,,,,,,,,,,,,,,,,,,,,,,,,,,,,,,,,,,,,,,,,,,,
1720416431,44,0,4292.563965,4307.820313,4289.615234,4303.589844,4293.846191,4298.846191,4282.436035,4172.563965,4264.358887,4278.461426,4433.846191,4469.358887,4336.922852,4439.102539,,,,,,,,,,,,,,,,,,,,,,,,,,,,,,,,,,,,,,,,,,,,,,,,,,,,,,,,,,,,,,,,,,,,,,
1720416431,45,0,4289.871582,4301.282227,4280.128418,4294.102539,4288.717773,4295.384766,4278.717773,4169.487305,4262.692383,4265.256348,4423.717773,4459.102539,4318.589844,4423.205078,,,,,,,,,,,,,,,,,,,,,,,,,,,,,,,,,,,,,,,,,,,,,,,,,,,,,,,,,,,,,,,,,,,,,,
1720416431,46,0,4280.128418,4295.769043,4270.128418,4295,4278.333496,4294.358887,4276.153809,4158.589844,4253.974121,4257.820313,4410.256348,4432.436035,4310,4406.666504,,,,,,,,,,,,,,,,,,,,,,,,,,,,,,,,,,,,,,,,,,,,,,,,,,,,,,,,,,,,,,,,,,,,,,
1720416431,47,0,4277.94873,4292.307617,4267.692383,4293.717773,4275.384766,4294.615234,4275.897461,4154.487305,4253.077148,4265.256348,4408.461426,4443.205078,4316.025879,4413.077148,,,,,,,,,,,,,,,,,,,,,,,,,,,,,,,,,,,,,,,,,,,,,,,,,,,,,,,,,,,,,,,,,,,,,,
1720416431,48,0,4279.871582,4289.615234,4270.384766,4289.230957,4282.179688,4295.512695,4276.922852,4162.820313,4262.94873,4266.666504,4410.769043,4455.512695,4320.512695,4416.922852,,,,,,,,,,,,,,,,,,,,,,,,,,,,,,,,,,,,,,,,,,,,,,,,,,,,,,,,,,,,,,,,,,,,,,
1720416431,49,0,4287.563965,4300.128418,4278.974121,4296.282227,4292.436035,4296.282227,4278.205078,4171.794922,4268.717773,4266.538574,4418.461426,4448.461426,4326.922852,4415.769043,,,,,,,,,,,,,,,,,,,,,,,,,,,,,,,,,,,,,,,,,,,,,,,,,,,,,,,,,,,,,,,,,,,,,,
1720416431,50,0,4297.05127,4309.230957,4285.384766,4304.358887,4294.487305,4294.230957,4278.717773,4168.589844,4267.94873,4271.282227,4424.102539,4454.358887,4331.794922,4422.692383,,,,,,,,,,,,,,,,,,,,,,,,,,,,,,,,,,,,,,,,,,,,,,,,,,,,,,,,,,,,,,,,,,,,,,
1720416431,51,0,4295.256348,4302.563965,4283.589844,4299.358887,4292.179688,4293.589844,4274.871582,4158.846191,4262.436035,4268.077148,4419.487305,4457.307617,4328.589844,4425.512695,,,,,,,,,,,,,,,,,,,,,,,,,,,,,,,,,,,,,,,,,,,,,,,,,,,,,,,,,,,,,,,,,,,,,,
1720416431,52,0,4289.615234,4292.563965,4278.589844,4293.205078,4291.538574,4295.897461,4269.487305,4154.102539,4250.641113,4261.153809,4415.897461,4450.128418,4332.692383,4421.025879,,,,,,,,,,,,,,,,,,,,,,,,,,,,,,,,,,,,,,,,,,,,,,,,,,,,,,,,,,,,,,,,,,,,,,
1720416431,53,0,4285.897461,4285.769043,4273.333496,4293.846191,4287.05127,4294.230957,4264.871582,4154.230957,4248.846191,4262.179688,4416.025879,4445,4339.743652,4415.769043,,,,,,,,,,,,,,,,,,,,,,,,,,,,,,,,,,,,,,,,,,,,,,,,,,,,,,,,,,,,,,,,,,,,,,
1720416431,54,0,4280.128418,4282.563965,4269.487305,4293.461426,4282.307617,4291.282227,4263.717773,4154.743652,4258.077148,4264.871582,4412.820313,4436.153809,4336.538574,4411.666504,36.839642,6.364861,3.435222,0.804693,0.620146,2.970798,2.136856,1.106792,0.34804,0.195326,1.369147,2.075036,0.745942,0.392,0.28101,1.840096,1.961082,0.880991,0.397575,0.334547,0.551862,0.870277,0.577456,0.120346,0.11474,0.13362,0.409211,0.386547,0.218585,0.173904,0.580425,1.813112,1.940398,0.366979,0.169481,0.682058,2.081713,2.092113,0.358786,0.156994,0.837649,1.203452,1.035324,0.372809,0.131237,1.793595,1.126444,0.619184,0.32185,0.128818,7.43841,3.961899,3.163324,0.506847,0.347407,2.1727,1.980615,0.974652,0.268043,0.541276,1.693793,1.90785,0.581246,0.254917,0.216426,3.933618,5.828516,1.044745,0.565812,0.30955
1720416431,55,0,4282.820313,4290.128418,4275.769043,4293.974121,4290.897461,4296.282227,4274.615234,4162.563965,4263.077148,4268.333496,4418.205078,4439.358887,4336.282227,4415.256348,,,,,,,,,,,,,,,,,,,,,,,,,,,,,,,,,,,,,,,,,,,,,,,,,,,,,,,,,,,,,,,,,,,,,,
1720416431,56,0,4290.641113,4296.922852,4281.153809,4298.974121,4296.025879,4298.846191,4280.897461,4169.358887,4259.871582,4272.436035,4424.615234,4461.538574,4340.128418,4423.717773,,,,,,,,,,,,,,,,,,,,,,,,,,,,,,,,,,,,,,,,,,,,,,,,,,,,,,,,,,,,,,,,,,,,,,
1720416431,57,0,4282.692383,4289.358887,4270.512695,4297.307617,4282.563965,4291.794922,4268.589844,4162.179688,4251.025879,4265.256348,4413.205078,4447.563965,4332.692383,4410.769043,,,,,,,,,,,,,,,,,,,,,,,,,,,,,,,,,,,,,,,,,,,,,,,,,,,,,,,,,,,,,,,,,,,,,,
1720416431,58,0,4275,4286.025879,4265.897461,4290.512695,4273.333496,4288.846191,4264.871582,4160.256348,4251.666504,4261.282227,4411.538574,4431.922852,4331.410156,4396.666504,,,,,,,,,,,,,,,,,,,,,,,,,,,,,,,,,,,,,,,,,,,,,,,,,,,,,,,,,,,,,,,,,,,,,,
1720416431,59,0,4289.358887,4298.461426,4282.563965,4297.436035,4282.820313,4295,4282.563965,4173.077148,4266.153809,4277.436035,4429.743652,4455.256348,4347.692383,4411.666504,,,,,,,,,,,,,,,,,,,,,,,,,,,,,,,,,,,,,,,,,,,,,,,,,,,,,,,,,,,,,,,,,,,,,,
1720416431,60,0,4301.794922,4309.102539,4290.512695,4309.743652,4296.922852,4302.563965,4284.615234,4176.538574,4266.410156,4282.179688,4434.487305,4458.846191,4355,4425.897461,,,,,,,,,,,,,,,,,,,,,,,,,,,,,,,,,,,,,,,,,,,,,,,,,,,,,,,,,,,,,,,,,,,,,,
1720416431,61,0,4302.05127,4311.794922,4282.436035,4305.384766,4295.128418,4300.384766,4266.794922,4163.846191,4253.077148,4273.077148,4428.205078,4446.153809,4353.333496,4423.974121,,,,,,,,,,,,,,,,,,,,,,,,,,,,,,,,,,,,,,,,,,,,,,,,,,,,,,,,,,,,,,,,,,,,,,
1720416431,62,0,4300.128418,4306.538574,4275.512695,4294.102539,4285.256348,4294.487305,4259.487305,4155.641113,4255.641113,4276.410156,4430.897461,4440.256348,4354.743652,4418.846191,,,,,,,,,,,,,,,,,,,,,,,,,,,,,,,,,,,,,,,,,,,,,,,,,,,,,,,,,,,,,,,,,,,,,,
1720416431,63,0,4294.743652,4298.589844,4275.128418,4294.615234,4284.102539,4296.282227,4262.436035,4161.153809,4265.512695,4277.692383,4434.230957,4442.436035,4355.256348,4418.205078,,,,,,,,,,,,,,,,,,,,,,,,,,,,,,,,,,,,,,,,,,,,,,,,,,,,,,,,,,,,,,,,,,,,,,
1720416431,64,0,4289.358887,4297.94873,4277.692383,4302.307617,4288.717773,4302.692383,4271.538574,4169.871582,4262.94873,4266.282227,4428.974121,4446.025879,4350.384766,4420.128418,,,,,,,,,,,,,,,,,,,,,,,,,,,,,,,,,,,,,,,,,,,,,,,,,,,,,,,,,,,,,,,,,,,,,,
1720416431,65,0,4291.666504,4302.179688,4278.205078,4308.846191,4290.897461,4302.563965,4284.102539,4176.025879,4260.256348,4264.487305,4425.128418,4441.410156,4343.461426,4418.846191,,,,,,,,,,,,,,,,,,,,,,,,,,,,,,,,,,,,,,,,,,,,,,,,,,,,,,,,,,,,,,,,,,,,,,
1720416431,66,0,4296.025879,4298.717773,4278.333496,4307.179688,4286.025879,4297.179688,4289.871582,4182.307617,4265.769043,4274.871582,4427.94873,4442.692383,4344.615234,4413.205078,,,,,,,,,,,,,,,,,,,,,,,,,,,,,,,,,,,,,,,,,,,,,,,,,,,,,,,,,,,,,,,,,,,,,,
1720416431,67,0,4295.256348,4291.922852,4279.615234,4298.333496,4278.333496,4295,4291.025879,4186.153809,4267.820313,4275.641113,4429.487305,4446.025879,4348.077148,4409.615234,,,,,,,,,,,,,,,,,,,,,,,,,,,,,,,,,,,,,,,,,,,,,,,,,,,,,,,,,,,,,,,,,,,,,,
1720416431,68,0,4300,4295,4281.922852,4302.820313,4280.897461,4301.666504,4298.077148,4188.717773,4266.538574,4275.769043,4431.282227,4449.871582,4351.666504,4415.512695,,,,,,,,,,,,,,,,,,,,,,,,,,,,,,,,,,,,,,,,,,,,,,,,,,,,,,,,,,,,,,,,,,,,,,
1720416431,69,0,4303.974121,4297.436035,4282.563965,4310,4285.512695,4304.743652,4292.307617,4187.563965,4268.205078,4277.307617,4432.94873,4454.230957,4355.384766,4416.025879,,,,,,,,,,,,,,,,,,,,,,,,,,,,,,,,,,,,,,,,,,,,,,,,,,,,,,,,,,,,,,,,,,,,,,
1720416431,70,0,4296.282227,4292.179688,4277.05127,4300.641113,4281.025879,4288.717773,4267.563965,4174.743652,4262.179688,4270.897461,4429.743652,4445.641113,4353.974121,4411.153809,32.470295,6.272365,3.099167,0.687849,0.572527,3.60038,2.552426,0.826186,0.345369,0.199506,1.560709,2.266884,0.605663,0.367666,0.260153,1.956894,2.063627,0.626959,0.388764,0.322973,0.635622,1.103988,0.608049,0.122578,0.115511,0.179538,0.535144,0.416156,0.195033,0.174602,0.726739,1.891852,1.594836,0.314219,0.193133,1.003325,2.181634,1.741549,0.328484,0.171288,0.952769,1.41761,0.869935,0.332435,0.145871,1.889894,1.374501,0.587838,0.326943,0.127741,6.003955,3.871355,2.336358,0.473959,0.321729,2.450004,2.099026,0.73073,0.272843,0.493528,1.932467,2.3721,0.471801,0.262795,0.205911,4.454491,6.65841,0.861777,0.551697,0.289625
1720416431,71,0,4292.820313,4291.666504,4275.512695,4294.743652,4282.820313,4278.461426,4259.615234,4165,4249.230957,4267.179688,4425.641113,4435.897461,4353.205078,4414.743652,,,,,,,,,,,,,,,,,,,,,,,,,,,,,,,,,,,,,,,,,,,,,,,,,,,,,,,,,,,,,,,,,,,,,,
1720416431,72,0,4299.358887,4297.05127,4280.897461,4303.205078,4290,4287.94873,4268.589844,4167.563965,4246.025879,4272.179688,4425.769043,4445.256348,4359.487305,4420.128418,,,,,,,,,,,,,,,,,,,,,,,,,,,,,,,,,,,,,,,,,,,,,,,,,,,,,,,,,,,,,,,,,,,,,,
1720416431,73,0,4299.358887,4298.077148,4281.025879,4308.205078,4282.94873,4291.922852,4266.794922,4167.820313,4254.102539,4277.692383,4429.871582,4446.794922,4363.589844,4420.256348,,,,,,,,,,,,,,,,,,,,,,,,,,,,,,,,,,,,,,,,,,,,,,,,,,,,,,,,,,,,,,,,,,,,,,
1720416431,74,0,4290.256348,4294.230957,4275,4306.025879,4278.589844,4289.871582,4268.333496,4171.794922,4258.974121,4277.820313,4438.717773,4437.563965,4363.333496,4424.102539,,,,,,,,,,,,,,,,,,,,,,,,,,,,,,,,,,,,,,,,,,,,,,,,,,,,,,,,,,,,,,,,,,,,,,
1720416431,75,0,4289.102539,4299.871582,4282.563965,4310.897461,4294.487305,4296.153809,4288.974121,4190.641113,4270.128418,4281.410156,4452.436035,4455.512695,4369.743652,4433.717773,,,,,,,,,,,,,,,,,,,,,,,,,,,,,,,,,,,,,,,,,,,,,,,,,,,,,,,,,,,,,,,,,,,,,,
1720416431,76,0,4287.563965,4300.769043,4291.538574,4311.282227,4298.717773,4299.743652,4295.512695,4200.769043,4281.794922,4283.589844,4447.563965,4460.641113,4367.94873,4429.871582,,,,,,,,,,,,,,,,,,,,,,,,,,,,,,,,,,,,,,,,,,,,,,,,,,,,,,,,,,,,,,,,,,,,,,
1720416431,77,0,4271.922852,4282.436035,4279.358887,4297.94873,4281.282227,4293.589844,4276.922852,4186.153809,4269.230957,4270.384766,4422.563965,4432.563965,4350,4408.589844,,,,,,,,,,,,,,,,,,,,,,,,,,,,,,,,,,,,,,,,,,,,,,,,,,,,,,,,,,,,,,,,,,,,,,
1720416431,78,0,4267.563965,4279.487305,4275.641113,4294.743652,4280.384766,4295.512695,4276.282227,4181.410156,4260.897461,4265.512695,4422.179688,4434.230957,4349.615234,4403.077148,,,,,,,,,,,,,,,,,,,,,,,,,,,,,,,,,,,,,,,,,,,,,,,,,,,,,,,,,,,,,,,,,,,,,,
1720416431,79,0,4284.230957,4299.743652,4290.128418,4310.641113,4297.820313,4302.179688,4293.846191,4200.384766,4277.563965,4282.307617,4445.256348,4455.769043,4365.769043,4419.358887,,,,,,,,,,,,,,,,,,,,,,,,,,,,,,,,,,,,,,,,,,,,,,,,,,,,,,,,,,,,,,,,,,,,,,
1720416431,80,0,4288.205078,4301.538574,4289.230957,4312.820313,4295.128418,4300.641113,4290.769043,4204.743652,4278.589844,4286.922852,4446.153809,4450.897461,4363.205078,4421.282227,,,,,,,,,,,,,,,,,,,,,,,,,,,,,,,,,,,,,,,,,,,,,,,,,,,,,,,,,,,,,,,,,,,,,,
1720416431,81,0,4275.384766,4287.436035,4275.897461,4298.333496,4280.641113,4291.666504,4275.512695,4187.820313,4259.615234,4272.692383,4432.179688,4444.615234,4353.846191,4410.384766,,,,,,,,,,,,,,,,,,,,,,,,,,,,,,,,,,,,,,,,,,,,,,,,,,,,,,,,,,,,,,,,,,,,,,
1720416431,82,0,4279.615234,4294.871582,4281.538574,4302.307617,4287.692383,4287.307617,4275.897461,4183.461426,4259.743652,4275.256348,4437.05127,4449.743652,4361.282227,4415.641113,,,,,,,,,,,,,,,,,,,,,,,,,,,,,,,,,,,,,,,,,,,,,,,,,,,,,,,,,,,,,,,,,,,,,,
1720416431,83,0,4292.179688,4306.794922,4294.743652,4315.256348,4293.205078,4288.461426,4277.05127,4186.794922,4265.769043,4283.589844,4446.282227,4446.666504,4366.025879,4426.410156,,,,,,,,,,,,,,,,,,,,,,,,,,,,,,,,,,,,,,,,,,,,,,,,,,,,,,,,,,,,,,,,,,,,,,
1720416431,84,0,4284.487305,4299.358887,4292.94873,4311.025879,4280.641113,4289.615234,4273.461426,4185.256348,4262.436035,4279.743652,4443.717773,4450.897461,4361.922852,4427.307617,,,,,,,,,,,,,,,,,,,,,,,,,,,,,,,,,,,,,,,,,,,,,,,,,,,,,,,,,,,,,,,,,,,,,,
1720416431,85,0,4272.179688,4292.179688,4289.615234,4305.256348,4278.974121,4291.538574,4278.589844,4192.94873,4269.102539,4283.461426,4445,4456.666504,4364.230957,4423.205078,,,,,,,,,,,,,,,,,,,,,,,,,,,,,,,,,,,,,,,,,,,,,,,,,,,,,,,,,,,,,,,,,,,,,,
1720416431,86,0,4278.077148,4296.153809,4295.897461,4310.512695,4291.666504,4293.333496,4284.102539,4201.922852,4275.128418,4288.974121,4452.436035,4455.897461,4374.743652,4425,29.123549,5.97512,2.896095,0.646397,0.540392,4.197987,2.790102,0.659747,0.38175,0.203879,1.694593,2.358983,0.551431,0.348697,0.24108,2.013145,2.120963,0.484626,0.376285,0.305736,0.708306,1.293154,0.638756,0.145484,0.117246,0.231873,0.658091,0.452231,0.168737,0.179569,0.85153,1.973098,1.244277,0.280451,0.222825,1.397652,2.293776,1.36817,0.322894,0.192521,1.033617,1.668514,0.675651,0.300407,0.172559,1.85118,1.596942,0.516172,0.340282,0.128133,4.277143,3.554666,1.553809,0.488324,0.300737,2.488607,2.174442,0.541707,0.31252,0.476864,2.094573,2.614914,0.397957,0.286794,0.197738,4.931982,7.12311,0.730533,0.572111,0.274582
1720416431,87,0,4284.102539,4298.333496,4298.589844,4312.94873,4292.563965,4292.94873,4283.589844,4199.871582,4267.307617,4282.179688,4453.333496,4455.128418,4378.589844,4430.641113,,,,,,,,,,,,,,,,,,,,,,,,,,,,,,,,,,,,,,,,,,,,,,,,,,,,,,,,,,,,,,,,,,,,,,
1720416431,88,0,4275.512695,4294.487305,4292.307617,4308.461426,4282.179688,4293.333496,4283.846191,4198.461426,4262.05127,4275.512695,4449.743652,4448.077148,4373.077148,4425,,,,,,,,,,,,,,,,,,,,,,,,,,,,,,,,,,,,,,,,,,,,,,,,,,,,,,,,,,,,,,,,,,,,,,
1720416431,89,0,4270.641113,4294.230957,4288.461426,4307.563965,4278.717773,4293.205078,4281.282227,4199.230957,4263.589844,4276.025879,4450.769043,4450,4370.384766,4416.666504,,,,,,,,,,,,,,,,,,,,,,,,,,,,,,,,,,,,,,,,,,,,,,,,,,,,,,,,,,,,,,,,,,,,,,
1720416431,90,0,4272.820313,4293.333496,4289.487305,4307.436035,4280.769043,4291.794922,4280.512695,4200.256348,4265.897461,4274.871582,4454.102539,4454.615234,4371.153809,4415.384766,,,,,,,,,,,,,,,,,,,,,,,,,,,,,,,,,,,,,,,,,,,,,,,,,,,,,,,,,,,,,,,,,,,,,,
1720416431,91,0,4261.282227,4281.538574,4281.794922,4296.922852,4280.128418,4292.94873,4283.717773,4203.589844,4269.102539,4266.282227,4442.179688,4447.179688,4360.512695,4397.436035,,,,,,,,,,,,,,,,,,,,,,,,,,,,,,,,,,,,,,,,,,,,,,,,,,,,,,,,,,,,,,,,,,,,,,
1720416431,92,0,4248.461426,4271.025879,4273.077148,4289.358887,4275.897461,4293.717773,4279.102539,4199.230957,4264.615234,4257.692383,4425.384766,4440.256348,4348.974121,4375.641113,,,,,,,,,,,,,,,,,,,,,,,,,,,,,,,,,,,,,,,,,,,,,,,,,,,,,,,,,,,,,,,,,,,,,,
1720416431,93,0,4258.077148,4284.358887,4282.563965,4300.641113,4276.666504,4291.410156,4272.94873,4191.153809,4261.666504,4262.94873,4432.436035,4446.025879,4358.974121,4394.615234,,,,,,,,,,,,,,,,,,,,,,,,,,,,,,,,,,,,,,,,,,,,,,,,,,,,,,,,,,,,,,,,,,,,,,
1720416431,94,0,4276.922852,4304.487305,4304.871582,4314.487305,4286.153809,4293.846191,4281.922852,4198.846191,4272.563965,4279.487305,4449.871582,4462.05127,4378.333496,4423.461426,,,,,,,,,,,,,,,,,,,,,,,,,,,,,,,,,,,,,,,,,,,,,,,,,,,,,,,,,,,,,,,,,,,,,,
1720416431,95,0,4285.769043,4310.769043,4316.410156,4322.94873,4294.487305,4296.153809,4291.282227,4212.179688,4277.563965,4286.410156,4454.871582,4467.692383,4383.205078,4411.025879,,,,,,,,,,,,,,,,,,,,,,,,,,,,,,,,,,,,,,,,,,,,,,,,,,,,,,,,,,,,,,,,,,,,,,
1720416431,96,0,4286.025879,4317.820313,4312.436035,4332.820313,4295.641113,4296.666504,4290.384766,4213.077148,4265.128418,4280.128418,4453.974121,4463.205078,4379.102539,4390.256348,,,,,,,,,,,,,,,,,,,,,,,,,,,,,,,,,,,,,,,,,,,,,,,,,,,,,,,,,,,,,,,,,,,,,,
1720416431,97,0,4282.94873,4323.717773,4307.94873,4334.871582,4295.769043,4299.743652,4291.538574,4211.922852,4261.922852,4276.410156,4456.666504,4463.205078,4379.102539,4390.769043,,,,,,,,,,,,,,,,,,,,,,,,,,,,,,,,,,,,,,,,,,,,,,,,,,,,,,,,,,,,,,,,,,,,,,
1720416431,98,0,4277.820313,4316.282227,4310.256348,4327.94873,4298.461426,4298.846191,4291.025879,4215.128418,4273.077148,4279.230957,4457.179688,4461.025879,4381.025879,4392.307617,,,,,,,,,,,,,,,,,,,,,,,,,,,,,,,,,,,,,,,,,,,,,,,,,,,,,,,,,,,,,,,,,,,,,,
1720416431,99,0,4274.615234,4310.769043,4309.230957,4326.922852,4297.820313,4291.538574,4282.436035,4211.410156,4270.384766,4276.538574,4455,4456.794922,4380.256348,4396.153809,,,,,,,,,,,,,,,,,,,,,,,,,,,,,,,,,,,,,,,,,,,,,,,,,,,,,,,,,,,,,,,,,,,,,,
1720416431,100,0,4271.025879,4310.641113,4301.410156,4328.333496,4292.436035,4290.641113,4275.769043,4207.436035,4262.307617,4269.743652,4451.153809,4461.538574,4376.025879,4403.974121,,,,,,,,,,,,,,,,,,,,,,,,,,,,,,,,,,,,,,,,,,,,,,,,,,,,,,,,,,,,,,,,,,,,,,
1720416431,101,0,4266.794922,4303.077148,4300,4323.846191,4292.179688,4295.769043,4280.641113,4214.358887,4270.256348,4270.256348,4448.717773,4464.358887,4371.025879,4405.512695,,,,,,,,,,,,,,,,,,,,,,,,,,,,,,,,,,,,,,,,,,,,,,,,,,,,,,,,,,,,,,,,,,,,,,
1720416431,102,0,4271.282227,4301.282227,4306.153809,4324.230957,4299.871582,4300.128418,4290.769043,4221.282227,4281.153809,4275.897461,4456.538574,4460.641113,4374.615234,4407.436035,26.425499,5.355278,2.766426,0.647209,0.505374,4.683038,2.744261,0.65888,0.454526,0.207776,1.746271,2.255314,0.61675,0.336216,0.227388,1.973603,2.075052,0.494624,0.359992,0.288227,0.754569,1.390866,0.680174,0.189676,0.121481,0.285229,0.74924,0.492046,0.146369,0.183619,0.938664,1.959281,1.00085,0.272232,0.249932,1.82428,2.316556,1.072483,0.350023,0.214779,1.048741,1.902081,0.50957,0.292352,0.203979,1.698539,1.736175,0.447326,0.366214,0.129643,2.808194,3.085829,1.048166,0.553472,0.290522,2.266879,2.152532,0.477894,0.383869,0.484587,2.219344,2.555607,0.399957,0.325955,0.192686,5.219514,7.032827,0.712835,0.618345,0.265808
1720416431,103,0,4283.461426,4311.410156,4310.128418,4333.205078,4303.333496,4301.922852,4291.538574,4221.282227,4279.871582,4281.282227,4465.384766,4474.743652,4384.871582,4417.94873,,,,,,,,,,,,,,,,,,,,,,,,,,,,,,,,,,,,,,,,,,,,,,,,,,,,,,,,,,,,,,,,,,,,,,
1720416431,104,0,4290.256348,4310.384766,4310.128418,4336.153809,4300.769043,4300,4290.897461,4225,4278.333496,4281.538574,4466.410156,4481.153809,4387.563965,4428.077148,,,,,,,,,,,,,,,,,,,,,,,,,,,,,,,,,,,,,,,,,,,,,,,,,,,,,,,,,,,,,,,,,,,,,,
1720416431,105,0,4293.717773,4309.487305,4313.974121,4338.077148,4306.025879,4306.666504,4305.769043,4235.512695,4287.436035,4283.974121,4470.512695,4471.666504,4386.794922,4438.589844,,,,,,,,,,,,,,,,,,,,,,,,,,,,,,,,,,,,,,,,,,,,,,,,,,,,,,,,,,,,,,,,,,,,,,
1720416431,106,0,4302.820313,4321.410156,4323.333496,4348.589844,4312.307617,4316.538574,4315.256348,4239.230957,4291.794922,4289.871582,4479.230957,4485.897461,4392.820313,4452.179688,,,,,,,,,,,,,,,,,,,,,,,,,,,,,,,,,,,,,,,,,,,,,,,,,,,,,,,,,,,,,,,,,,,,,,
1720416431,107,0,4303.461426,4320.512695,4323.589844,4348.717773,4307.307617,4305.641113,4301.794922,4231.282227,4284.615234,4288.974121,4475.256348,4488.717773,4391.153809,4453.077148,,,,,,,,,,,,,,,,,,,,,,,,,,,,,,,,,,,,,,,,,,,,,,,,,,,,,,,,,,,,,,,,,,,,,,
1720416431,108,0,4292.94873,4309.615234,4313.461426,4339.358887,4302.307617,4295.256348,4292.05127,4227.05127,4277.307617,4280.769043,4460.897461,4467.692383,4382.692383,4442.563965,,,,,,,,,,,,,,,,,,,,,,,,,,,,,,,,,,,,,,,,,,,,,,,,,,,,,,,,,,,,,,,,,,,,,,
1720416431,109,0,4298.205078,4315.128418,4313.846191,4347.436035,4307.436035,4304.230957,4295,4228.717773,4281.025879,4278.717773,4459.743652,4469.871582,4385.384766,4438.846191,,,,,,,,,,,,,,,,,,,,,,,,,,,,,,,,,,,,,,,,,,,,,,,,,,,,,,,,,,,,,,,,,,,,,,
1720416431,110,0,4316.282227,4329.615234,4326.025879,4367.692383,4316.025879,4308.589844,4299.743652,4230.256348,4290.256348,4291.282227,4473.205078,4484.358887,4393.974121,4449.487305,,,,,,,,,,,,,,,,,,,,,,,,,,,,,,,,,,,,,,,,,,,,,,,,,,,,,,,,,,,,,,,,,,,,,,
1720416431,111,0,4321.922852,4333.461426,4331.282227,4380.897461,4321.025879,4306.794922,4308.589844,4240.128418,4296.922852,4302.307617,4485.512695,4486.922852,4400,4467.05127,,,,,,,,,,,,,,,,,,,,,,,,,,,,,,,,,,,,,,,,,,,,,,,,,,,,,,,,,,,,,,,,,,,,,,
1720416431,112,0,4316.922852,4330.384766,4325.384766,4380.384766,4317.436035,4308.846191,4308.589844,4246.794922,4292.563965,4299.102539,4481.922852,4492.692383,4401.538574,4471.538574,,,,,,,,,,,,,,,,,,,,,,,,,,,,,,,,,,,,,,,,,,,,,,,,,,,,,,,,,,,,,,,,,,,,,,
1720416431,113,0,4312.179688,4326.025879,4316.794922,4367.820313,4309.615234,4303.077148,4295.897461,4236.794922,4280.897461,4291.794922,4467.05127,4485.769043,4394.743652,4459.487305,,,,,,,,,,,,,,,,,,,,,,,,,,,,,,,,,,,,,,,,,,,,,,,,,,,,,,,,,,,,,,,,,,,,,,
1720416431,114,0,4313.974121,4325.897461,4316.794922,4363.717773,4310.128418,4300.897461,4292.692383,4232.307617,4277.563965,4292.307617,4465.641113,4470.769043,4390.128418,4460.384766,,,,,,,,,,,,,,,,,,,,,,,,,,,,,,,,,,,,,,,,,,,,,,,,,,,,,,,,,,,,,,,,,,,,,,
1720416431,115,0,4320,4331.922852,4325.641113,4373.205078,4317.179688,4306.922852,4299.615234,4240.256348,4280.641113,4295.897461,4472.179688,4478.333496,4396.794922,4479.487305,,,,,,,,,,,,,,,,,,,,,,,,,,,,,,,,,,,,,,,,,,,,,,,,,,,,,,,,,,,,,,,,,,,,,,
1720416431,116,0,4317.179688,4329.743652,4328.205078,4373.717773,4322.563965,4311.282227,4307.179688,4247.307617,4286.922852,4295.769043,4469.743652,4478.974121,4397.820313,4481.666504,,,,,,,,,,,,,,,,,,,,,,,,,,,,,,,,,,,,,,,,,,,,,,,,,,,,,,,,,,,,,,,,,,,,,,
1720416431,117,0,4308.333496,4318.717773,4318.205078,4363.461426,4322.436035,4316.025879,4311.538574,4251.666504,4294.743652,4298.589844,4466.410156,4472.563965,4392.563965,4468.717773,,,,,,,,,,,,,,,,,,,,,,,,,,,,,,,,,,,,,,,,,,,,,,,,,,,,,,,,,,,,,,,,,,,,,,
1720416431,118,0,4300.256348,4310.256348,4303.205078,4351.410156,4312.436035,4310.128418,4301.025879,4244.358887,4292.307617,4295.897461,4460.897461,4467.94873,4387.436035,4460,23.381763,4.457241,2.624745,0.65372,0.457131,4.952418,2.425678,0.78578,0.552417,0.213562,1.681931,1.942991,0.780836,0.329141,0.22238,1.833222,1.901915,0.625959,0.346087,0.276915,0.764083,1.377898,0.72904,0.250751,0.132506,0.3364,0.794005,0.529366,0.13398,0.183648,0.989517,1.820102,0.936189,0.290128,0.271509,2.130273,2.195147,0.924639,0.405943,0.234765,1.005319,2.056667,0.41877,0.31377,0.235351,1.490883,1.750755,0.41853,0.405373,0.134312,1.891278,2.555598,0.893667,0.653653,0.294684,1.857922,1.991354,0.545384,0.470817,0.506414,2.317809,2.238059,0.487687,0.375553,0.191223,5.157593,6.374541,0.81969,0.671664,0.26715
1720416431,119,0,4292.436035,4303.974121,4294.230957,4343.205078,4301.538574,4300,4286.025879,4228.974121,4276.666504,4281.666504,4443.717773,4456.282227,4378.846191,4450,,,,,,,,,,,,,,,,,,,,,,,,,,,,,,,,,,,,,,,,,,,,,,,,,,,,,,,,,,,,,,,,,,,,,,
1720416431,120,0,4287.94873,4303.846191,4296.794922,4346.025879,4306.282227,4306.666504,4292.05127,4231.922852,4270.384766,4276.666504,4438.717773,4460,4379.102539,4445.769043,,,,,,,,,,,,,,,,,,,,,,,,,,,,,,,,,,,,,,,,,,,,,,,,,,,,,,,,,,,,,,,,,,,,,,
1720416431,121,0,4292.692383,4313.205078,4305.641113,4347.05127,4316.153809,4315,4306.922852,4249.871582,4288.589844,4291.922852,4453.333496,4468.846191,4387.820313,4449.230957,,,,,,,,,,,,,,,,,,,,,,,,,,,,,,,,,,,,,,,,,,,,,,,,,,,,,,,,,,,,,,,,,,,,,,
1720416431,122,0,4298.077148,4318.205078,4305.897461,4341.025879,4313.717773,4308.461426,4303.589844,4250,4298.077148,4299.743652,4453.974121,4463.717773,4387.692383,4449.743652,,,,,,,,,,,,,,,,,,,,,,,,,,,,,,,,,,,,,,,,,,,,,,,,,,,,,,,,,,,,,,,,,,,,,,
1720416431,123,0,4300.641113,4315.769043,4301.282227,4343.589844,4306.794922,4302.436035,4287.563965,4234.871582,4280.384766,4286.794922,4442.436035,4458.589844,4379.743652,4443.205078,,,,,,,,,,,,,,,,,,,,,,,,,,,,,,,,,,,,,,,,,,,,,,,,,,,,,,,,,,,,,,,,,,,,,,
1720416431,124,0,4309.743652,4319.230957,4308.717773,4352.05127,4307.94873,4303.974121,4282.563965,4235.256348,4268.846191,4281.794922,4445.641113,4465.384766,4382.05127,4446.794922,,,,,,,,,,,,,,,,,,,,,,,,,,,,,,,,,,,,,,,,,,,,,,,,,,,,,,,,,,,,,,,,,,,,,,
1720416431,125,0,4321.666504,4327.307617,4320.384766,4353.461426,4316.922852,4307.692383,4292.179688,4246.153809,4278.461426,4291.153809,4457.692383,4473.974121,4390.769043,4471.153809,,,,,,,,,,,,,,,,,,,,,,,,,,,,,,,,,,,,,,,,,,,,,,,,,,,,,,,,,,,,,,,,,,,,,,
1720416431,126,0,4324.358887,4327.179688,4319.487305,4352.436035,4320.256348,4309.871582,4297.692383,4248.589844,4281.025879,4293.846191,4458.974121,4472.820313,4390,4492.692383,,,,,,,,,,,,,,,,,,,,,,,,,,,,,,,,,,,,,,,,,,,,,,,,,,,,,,,,,,,,,,,,,,,,,,
1720416431,127,0,4323.846191,4325.512695,4314.871582,4355,4313.974121,4304.743652,4292.179688,4242.563965,4277.692383,4292.179688,4453.846191,4458.077148,4387.179688,4495.512695,,,,,,,,,,,,,,,,,,,,,,,,,,,,,,,,,,,,,,,,,,,,,,,,,,,,,,,,,,,,,,,,,,,,,,
1720416431,0,0,4339.358887,4330.256348,4326.025879,4362.563965,4317.05127,4309.743652,4298.589844,4247.563965,4285.641113,4295.641113,4461.666504,4461.153809,4395.769043,4505.641113,,,,,,,,,,,,,,,,,,,,,,,,,,,,,,,,,,,,,,,,,,,,,,,,,,,,,,,,,,,,,,,,,,,,,,
1720416431,1,0,4356.538574,4333.333496,4337.436035,4363.846191,4329.487305,4321.666504,4312.563965,4261.538574,4293.717773,4297.820313,4476.153809,4491.922852,4406.410156,4528.205078,,,,,,,,,,,,,,,,,,,,,,,,,,,,,,,,,,,,,,,,,,,,,,,,,,,,,,,,,,,,,,,,,,,,,,
1720416431,2,0,4346.025879,4326.410156,4329.102539,4354.615234,4325.897461,4317.94873,4308.461426,4261.922852,4294.487305,4297.436035,4475.128418,4489.615234,4399.102539,4526.794922,,,,,,,,,,,,,,,,,,,,,,,,,,,,,,,,,,,,,,,,,,,,,,,,,,,,,,,,,,,,,,,,,,,,,,
1720416431,3,0,4322.05127,4310.256348,4311.922852,4343.205078,4308.846191,4308.846191,4294.102539,4250.128418,4289.102539,4292.692383,4457.820313,4465.256348,4381.666504,4506.538574,,,,,,,,,,,,,,,,,,,,,,,,,,,,,,,,,,,,,,,,,,,,,,,,,,,,,,,,,,,,,,,,,,,,,,
1720416431,4,0,4314.230957,4300.128418,4303.205078,4332.05127,4305.256348,4308.077148,4290.512695,4245.512695,4280.641113,4281.538574,4445.512695,4469.358887,4376.922852,4500,,,,,,,,,,,,,,,,,,,,,,,,,,,,,,,,,,,,,,,,,,,,,,,,,,,,,,,,,,,,,,,,,,,,,,
1720416431,5,0,4317.692383,4300.769043,4307.692383,4328.717773,4311.025879,4310.897461,4294.487305,4249.615234,4280.769043,4282.179688,4449.230957,4474.871582,4383.974121,4508.333496,,,,,,,,,,,,,,,,,,,,,,,,,,,,,,,,,,,,,,,,,,,,,,,,,,,,,,,,,,,,,,,,,,,,,,
1720416431,6,0,4313.846191,4300,4311.922852,4333.974121,4304.871582,4307.692383,4292.307617,4248.589844,4286.153809,4292.563965,4456.666504,4471.025879,4387.05127,4517.05127,19.091686,3.502429,2.438374,0.646272,0.400524,4.896567,1.972645,0.954822,0.653692,0.223237,1.492258,1.504968,0.994495,0.325344,0.226703,1.578529,1.631038,0.803884,0.34314,0.274037,0.73299,1.26773,0.769402,0.316756,0.154403,0.372889,0.790434,0.552542,0.132636,0.179116,1.001242,1.594557,1.049508,0.330084,0.289331,2.261037,1.943215,0.925883,0.477001,0.251465,0.919098,2.079926,0.413461,0.356584,0.26459,1.274533,1.632506,0.442863,0.451015,0.144697,1.485701,2.037769,1.003242,0.760713,0.310908,1.372785,1.693059,0.691489,0.550241,0.532185,2.37943,1.797862,0.640251,0.42653,0.192404,4.686847,5.298162,1.019892,0.71486,0.283735
1720416431,7,0,4307.307617,4293.717773,4305.128418,4332.436035,4293.333496,4303.077148,4290,4248.205078,4285.384766,4290.128418,4454.102539,4468.974121,4382.692383,4510.128418,,,,,,,,,,,,,,,,,,,,,,,,,,,,,,,,,,,,,,,,,,,,,,,,,,,,,,,,,,,,,,,,,,,,,,
1720416431,8,0,4307.179688,4293.461426,4299.743652,4323.589844,4295.512695,4303.205078,4289.743652,4247.179688,4277.692383,4277.05127,4444.871582,4463.333496,4380,4493.589844,,,,,,,,,,,,,,,,,,,,,,,,,,,,,,,,,,,,,,,,,,,,,,,,,,,,,,,,,,,,,,,,,,,,,,
1720416431,9,0,4318.717773,4307.563965,4314.102539,4332.820313,4307.436035,4306.666504,4292.820313,4247.820313,4274.487305,4277.94873,4449.230957,4468.333496,4388.333496,4497.05127,,,,,,,,,,,,,,,,,,,,,,,,,,,,,,,,,,,,,,,,,,,,,,,,,,,,,,,,,,,,,,,,,,,,,,
1720416431,10,0,4333.589844,4315.128418,4331.666504,4351.153809,4311.922852,4311.410156,4299.487305,4255.512695,4278.461426,4284.487305,4463.717773,4480.512695,4396.666504,4509.487305,,,,,,,,,,,,,,,,,,,,,,,,,,,,,,,,,,,,,,,,,,,,,,,,,,,,,,,,,,,,,,,,,,,,,,
1720416431,11,0,4334.230957,4301.922852,4326.666504,4348.846191,4310.769043,4310.384766,4301.025879,4255.128418,4278.461426,4282.307617,4462.307617,4473.077148,4393.461426,4505,,,,,,,,,,,,,,,,,,,,,,,,,,,,,,,,,,,,,,,,,,,,,,,,,,,,,,,,,,,,,,,,,,,,,,
1720416431,12,0,4332.563965,4291.025879,4320.641113,4339.102539,4310.769043,4308.461426,4297.436035,4252.307617,4273.846191,4285.641113,4455.128418,4477.05127,4394.358887,4503.077148,,,,,,,,,,,,,,,,,,,,,,,,,,,,,,,,,,,,,,,,,,,,,,,,,,,,,,,,,,,,,,,,,,,,,,
1720416431,13,0,4336.922852,4298.846191,4328.333496,4343.205078,4310.769043,4310.769043,4296.922852,4260,4276.666504,4295.512695,4462.05127,4493.461426,4401.922852,4509.102539,,,,,,,,,,,,,,,,,,,,,,,,,,,,,,,,,,,,,,,,,,,,,,,,,,,,,,,,,,,,,,,,,,,,,,
1720416431,14,0,4328.461426,4298.846191,4328.589844,4346.153809,4311.153809,4313.461426,4294.871582,4267.94873,4282.94873,4297.692383,4469.230957,4482.94873,4399.487305,4505.641113,,,,,,,,,,,,,,,,,,,,,,,,,,,,,,,,,,,,,,,,,,,,,,,,,,,,,,,,,,,,,,,,,,,,,,
1720416431,15,0,4314.615234,4283.717773,4322.94873,4336.282227,4311.025879,4311.025879,4284.743652,4266.410156,4282.436035,4292.94873,4465.641113,4481.794922,4395.128418,4498.974121,,,,,,,,,,,,,,,,,,,,,,,,,,,,,,,,,,,,,,,,,,,,,,,,,,,,,,,,,,,,,,,,,,,,,,
1720416431,16,0,4311.666504,4277.436035,4325.384766,4331.794922,4307.692383,4309.487305,4277.692383,4263.205078,4278.205078,4289.358887,4459.487305,4488.589844,4394.743652,4493.077148,,,,,,,,,,,,,,,,,,,,,,,,,,,,,,,,,,,,,,,,,,,,,,,,,,,,,,,,,,,,,,,,,,,,,,
1720416432,17,0,4312.692383,4282.94873,4328.333496,4338.589844,4307.307617,4313.846191,4285.641113,4267.436035,4281.794922,4291.410156,4465,4484.615234,4396.153809,4489.743652,,,,,,,,,,,,,,,,,,,,,,,,,,,,,,,,,,,,,,,,,,,,,,,,,,,,,,,,,,,,,,,,,,,,,,
1720416432,18,0,4305.128418,4280.512695,4321.538574,4336.153809,4309.871582,4317.179688,4295,4273.077148,4292.179688,4294.102539,4472.436035,4489.102539,4398.077148,4488.717773,,,,,,,,,,,,,,,,,,,,,,,,,,,,,,,,,,,,,,,,,,,,,,,,,,,,,,,,,,,,,,,,,,,,,,
1720416432,19,0,4293.461426,4268.974121,4310.769043,4320.256348,4303.846191,4311.666504,4288.205078,4269.487305,4292.436035,4291.025879,4466.666504,4487.692383,4395,4479.102539,,,,,,,,,,,,,,,,,,,,,,,,,,,,,,,,,,,,,,,,,,,,,,,,,,,,,,,,,,,,,,,,,,,,,,
1720416432,20,0,4290.256348,4261.282227,4303.205078,4310.641113,4291.666504,4299.615234,4272.563965,4257.94873,4279.871582,4282.179688,4453.461426,4478.717773,4388.717773,4470.128418,,,,,,,,,,,,,,,,,,,,,,,,,,,,,,,,,,,,,,,,,,,,,,,,,,,,,,,,,,,,,,,,,,,,,,
1720416432,21,0,4294.871582,4265.256348,4306.922852,4320.256348,4291.282227,4293.461426,4270.641113,4253.589844,4273.461426,4280.384766,4450.256348,4476.794922,4393.333496,4477.436035,,,,,,,,,,,,,,,,,,,,,,,,,,,,,,,,,,,,,,,,,,,,,,,,,,,,,,,,,,,,,,,,,,,,,,
1720416432,22,0,4304.230957,4278.205078,4324.487305,4332.820313,4304.358887,4300.897461,4282.05127,4263.717773,4278.717773,4289.102539,4461.410156,4490.256348,4403.974121,4491.666504,14.123721,2.682115,2.216943,0.627755,0.34705,4.49862,1.583135,1.087793,0.733774,0.237772,1.222908,1.09142,1.203797,0.325335,0.239028,1.25504,1.35459,0.955815,0.359431,0.278736,0.671339,1.098165,0.783074,0.373158,0.188215,0.385909,0.744158,0.551089,0.139587,0.172149,0.970454,1.351136,1.286359,0.387289,0.307696,2.143431,1.620058,1.034202,0.545443,0.265551,0.815332,1.946778,0.473046,0.407306,0.291144,1.077014,1.417079,0.505017,0.491646,0.161751,1.367492,1.584112,1.203973,0.846502,0.33373,0.941344,1.317024,0.845951,0.601982,0.553269,2.310317,1.390984,0.816654,0.46877,0.195391,4.032258,4.094553,1.256135,0.743269,0.318586
1720416432,23,0,4308.077148,4281.538574,4331.025879,4333.077148,4309.230957,4309.871582,4286.538574,4274.871582,4283.846191,4294.102539,4470,4504.743652,4403.846191,4493.205078,,,,,,,,,,,,,,,,,,,,,,,,,,,,,,,,,,,,,,,,,,,,,,,,,,,,,,,,,,,,,,,,,,,,,,
1720416432,24,0,4300.256348,4270,4318.333496,4323.974121,4300,4306.025879,4282.563965,4272.307617,4281.666504,4287.307617,4460,4497.179688,4396.794922,4477.179688,,,,,,,,,,,,,,,,,,,,,,,,,,,,,,,,,,,,,,,,,,,,,,,,,,,,,,,,,,,,,,,,,,,,,,
1720416432,25,0,4289.743652,4258.205078,4304.102539,4313.333496,4290,4296.153809,4275.384766,4260.128418,4272.05127,4272.05127,4437.94873,4477.179688,4389.102539,4456.794922,,,,,,,,,,,,,,,,,,,,,,,,,,,,,,,,,,,,,,,,,,,,,,,,,,,,,,,,,,,,,,,,,,,,,,
1720416432,26,0,4283.717773,4255.512695,4299.487305,4305.897461,4287.94873,4293.717773,4265.769043,4252.436035,4260.512695,4259.358887,4426.922852,4472.94873,4379.615234,4448.589844,,,,,,,,,,,,,,,,,,,,,,,,,,,,,,,,,,,,,,,,,,,,,,,,,,,,,,,,,,,,,,,,,,,,,,
1720416432,27,0,4283.205078,4257.94873,4300.769043,4307.94873,4290.769043,4294.615234,4264.487305,4253.717773,4261.794922,4262.307617,4432.307617,4479.358887,4380,4453.333496,,,,,,,,,,,,,,,,,,,,,,,,,,,,,,,,,,,,,,,,,,,,,,,,,,,,,,,,,,,,,,,,,,,,,,
1720416432,28,0,4288.974121,4263.589844,4306.794922,4315.384766,4291.025879,4293.589844,4273.333496,4258.717773,4272.436035,4274.230957,4442.563965,4478.461426,4393.717773,4461.153809,,,,,,,,,,,,,,,,,,,,,,,,,,,,,,,,,,,,,,,,,,,,,,,,,,,,,,,,,,,,,,,,,,,,,,
1720416432,29,0,4305.641113,4277.820313,4319.358887,4322.94873,4295.256348,4296.666504,4278.846191,4262.94873,4277.436035,4282.307617,4450.384766,4490.384766,4400.641113,4473.846191,,,,,,,,,,,,,,,,,,,,,,,,,,,,,,,,,,,,,,,,,,,,,,,,,,,,,,,,,,,,,,,,,,,,,,
1720416432,30,0,4315,4288.846191,4324.615234,4330.641113,4305.256348,4301.922852,4280.897461,4268.461426,4280.512695,4285,4456.282227,4497.307617,4395.128418,4481.153809,,,,,,,,,,,,,,,,,,,,,,,,,,,,,,,,,,,,,,,,,,,,,,,,,,,,,,,,,,,,,,,,,,,,,,
1720416432,31,0,4309.358887,4285.256348,4319.487305,4333.333496,4310.128418,4308.589844,4286.153809,4275,4284.743652,4283.589844,4461.794922,4487.692383,4393.461426,4476.538574,,,,,,,,,,,,,,,,,,,,,,,,,,,,,,,,,,,,,,,,,,,,,,,,,,,,,,,,,,,,,,,,,,,,,,
1720416432,32,0,4305.641113,4279.102539,4314.871582,4328.461426,4306.666504,4310,4286.025879,4280.128418,4286.282227,4281.025879,4457.692383,4482.436035,4395.512695,4469.487305,,,,,,,,,,,,,,,,,,,,,,,,,,,,,,,,,,,,,,,,,,,,,,,,,,,,,,,,,,,,,,,,,,,,,,
1720416432,33,0,4302.05127,4279.230957,4314.358887,4320.128418,4307.436035,4303.333496,4280.384766,4275.256348,4281.666504,4280.256348,4445.384766,4467.94873,4392.563965,4462.692383,,,,,,,,,,,,,,,,,,,,,,,,,,,,,,,,,,,,,,,,,,,,,,,,,,,,,,,,,,,,,,,,,,,,,,
1720416432,34,0,4295.256348,4274.615234,4310.897461,4311.922852,4306.794922,4303.333496,4278.717773,4266.153809,4273.461426,4268.717773,4438.589844,4455,4385.256348,4453.461426,,,,,,,,,,,,,,,,,,,,,,,,,,,,,,,,,,,,,,,,,,,,,,,,,,,,,,,,,,,,,,,,,,,,,,
1720416432,35,0,4297.179688,4272.692383,4310.512695,4314.871582,4299.615234,4305,4280,4267.179688,4273.717773,4260.384766,4441.410156,4468.974121,4382.820313,4450.897461,,,,,,,,,,,,,,,,,,,,,,,,,,,,,,,,,,,,,,,,,,,,,,,,,,,,,,,,,,,,,,,,,,,,,,
1720416432,36,0,4302.94873,4275.897461,4317.179688,4322.436035,4297.820313,4298.333496,4280.769043,4273.205078,4281.282227,4272.307617,4441.666504,4478.077148,4385.384766,4453.589844,,,,,,,,,,,,,,,,,,,,,,,,,,,,,,,,,,,,,,,,,,,,,,,,,,,,,,,,,,,,,,,,,,,,,,
1720416432,37,0,4297.692383,4269.358887,4312.692383,4318.589844,4299.230957,4298.717773,4279.615234,4268.205078,4279.615234,4273.974121,4436.538574,4463.717773,4387.307617,4451.410156,,,,,,,,,,,,,,,,,,,,,,,,,,,,,,,,,,,,,,,,,,,,,,,,,,,,,,,,,,,,,,,,,,,,,,
1720416432,38,0,4294.230957,4268.333496,4306.282227,4314.487305,4299.871582,4307.436035,4279.487305,4262.307617,4273.205078,4263.333496,4439.230957,4467.692383,4388.589844,4451.922852,9.31435,2.168483,1.976344,0.609461,0.308857,3.850981,1.441328,1.138966,0.771368,0.256269,0.954023,0.866955,1.360418,0.331073,0.257838,0.983294,1.21846,1.036776,0.396426,0.28821,0.609971,0.923418,0.753423,0.407244,0.230673,0.371878,0.671095,0.522696,0.150757,0.166584,0.910096,1.154601,1.57047,0.455113,0.330433,1.833095,1.308864,1.190472,0.595455,0.279676,0.72546,1.676963,0.563609,0.454151,0.315725,0.922183,1.167549,0.572337,0.516149,0.184902,1.314114,1.235216,1.34413,0.892246,0.359592,0.67312,0.958781,0.949706,0.613832,0.566653,2.104558,1.125548,0.966919,0.493623,0.200671,3.722486,3.112202,1.465311,0.764057,0.370934
1720416432,39,0,4299.487305,4278.333496,4312.820313,4322.692383,4301.538574,4304.102539,4281.153809,4266.410156,4276.025879,4267.05127,4444.102539,4477.94873,4390.512695,4454.871582,,,,,,,,,,,,,,,,,,,,,,,,,,,,,,,,,,,,,,,,,,,,,,,,,,,,,,,,,,,,,,,,,,,,,,
1720416432,40,0,4300.256348,4282.05127,4318.077148,4327.436035,4306.282227,4300.641113,4280.256348,4267.179688,4277.436035,4270.769043,4442.820313,4473.846191,4390.256348,4454.615234,,,,,,,,,,,,,,,,,,,,,,,,,,,,,,,,,,,,,,,,,,,,,,,,,,,,,,,,,,,,,,,,,,,,,,
1720416432,41,0,4297.563965,4283.461426,4314.358887,4326.410156,4307.820313,4305.512695,4278.077148,4263.974121,4273.589844,4264.871582,4438.589844,4472.94873,4387.307617,4448.846191,,,,,,,,,,,,,,,,,,,,,,,,,,,,,,,,,,,,,,,,,,,,,,,,,,,,,,,,,,,,,,,,,,,,,,
1720416432,42,0,4296.410156,4284.230957,4309.358887,4323.589844,4300.128418,4300.897461,4277.692383,4267.692383,4276.153809,4267.179688,4430.384766,4466.666504,4384.230957,4437.436035,,,,,,,,,,,,,,,,,,,,,,,,,,,,,,,,,,,,,,,,,,,,,,,,,,,,,,,,,,,,,,,,,,,,,,
1720416432,43,0,4298.077148,4282.307617,4310.897461,4321.153809,4297.563965,4298.205078,4277.94873,4274.743652,4280.641113,4276.025879,4427.436035,4470.256348,4383.461426,4433.974121,,,,,,,,,,,,,,,,,,,,,,,,,,,,,,,,,,,,,,,,,,,,,,,,,,,,,,,,,,,,,,,,,,,,,,
1720416432,44,0,4301.922852,4286.282227,4314.102539,4324.615234,4306.025879,4308.589844,4279.102539,4278.205078,4279.358887,4278.077148,4433.717773,4478.333496,4386.538574,4441.153809,,,,,,,,,,,,,,,,,,,,,,,,,,,,,,,,,,,,,,,,,,,,,,,,,,,,,,,,,,,,,,,,,,,,,,
1720416432,45,0,4303.589844,4287.820313,4313.205078,4322.307617,4308.077148,4313.077148,4281.922852,4277.307617,4279.487305,4271.410156,4435.128418,4472.94873,4386.282227,4438.846191,,,,,,,,,,,,,,,,,,,,,,,,,,,,,,,,,,,,,,,,,,,,,,,,,,,,,,,,,,,,,,,,,,,,,,
1720416432,46,0,4300.256348,4279.358887,4307.436035,4312.179688,4297.563965,4301.922852,4278.461426,4275.128418,4280.384766,4263.333496,4428.461426,4468.846191,4380.897461,4425.384766,,,,,,,,,,,,,,,,,,,,,,,,,,,,,,,,,,,,,,,,,,,,,,,,,,,,,,,,,,,,,,,,,,,,,,
1720416432,47,0,4291.153809,4271.410156,4298.846191,4309.743652,4290.384766,4292.563965,4268.461426,4267.692383,4267.563965,4261.153809,4420.128418,4463.205078,4376.410156,4413.461426,,,,,,,,,,,,,,,,,,,,,,,,,,,,,,,,,,,,,,,,,,,,,,,,,,,,,,,,,,,,,,,,,,,,,,
1720416432,48,0,4282.05127,4265,4291.666504,4307.05127,4287.307617,4292.820313,4260.128418,4256.538574,4252.179688,4262.563965,4407.563965,4452.179688,4372.307617,4399.743652,,,,,,,,,,,,,,,,,,,,,,,,,,,,,,,,,,,,,,,,,,,,,,,,,,,,,,,,,,,,,,,,,,,,,,
1720416432,49,0,4290.128418,4267.307617,4297.307617,4305.641113,4291.922852,4295.641113,4263.461426,4256.538574,4257.436035,4270.641113,4403.205078,4452.05127,4371.282227,4391.538574,,,,,,,,,,,,,,,,,,,,,,,,,,,,,,,,,,,,,,,,,,,,,,,,,,,,,,,,,,,,,,,,,,,,,,
1720416432,50,0,4303.205078,4272.94873,4305.769043,4308.974121,4295.512695,4296.153809,4270.641113,4262.94873,4266.025879,4279.871582,4412.94873,4460.641113,4375.128418,4393.333496,,,,,,,,,,,,,,,,,,,,,,,,,,,,,,,,,,,,,,,,,,,,,,,,,,,,,,,,,,,,,,,,,,,,,,
1720416432,51,0,4298.717773,4265.769043,4298.846191,4301.538574,4283.205078,4293.974121,4267.94873,4263.077148,4264.615234,4280.384766,4417.307617,4463.077148,4377.820313,4387.05127,,,,,,,,,,,,,,,,,,,,,,,,,,,,,,,,,,,,,,,,,,,,,,,,,,,,,,,,,,,,,,,,,,,,,,
1720416432,52,0,4293.333496,4258.205078,4295.128418,4294.230957,4279.358887,4292.94873,4264.871582,4262.820313,4268.589844,4280.128418,4411.538574,4461.794922,4373.846191,4374.102539,,,,,,,,,,,,,,,,,,,,,,,,,,,,,,,,,,,,,,,,,,,,,,,,,,,,,,,,,,,,,,,,,,,,,,
1720416432,53,0,4301.282227,4265.256348,4304.615234,4306.025879,4290.512695,4294.487305,4267.563965,4267.436035,4272.436035,4282.94873,4410.641113,4459.871582,4369.230957,4372.436035,,,,,,,,,,,,,,,,,,,,,,,,,,,,,,,,,,,,,,,,,,,,,,,,,,,,,,,,,,,,,,,,,,,,,,
1720416432,54,0,4305.897461,4272.05127,4303.974121,4313.846191,4289.358887,4296.794922,4268.205078,4270,4265.512695,4275.512695,4413.717773,4461.794922,4370,4369.871582,5.59213,2.115954,1.747846,0.600713,0.291835,3.111641,1.627259,1.109162,0.761052,0.277116,0.798466,0.925138,1.432396,0.349389,0.282447,0.86886,1.343051,1.038543,0.449488,0.300201,0.572761,0.797451,0.678969,0.414679,0.274337,0.339952,0.58833,0.473104,0.164598,0.165714,0.835742,1.026238,1.809967,0.525803,0.358215,1.422627,1.063158,1.3255,0.619328,0.296742,0.668648,1.335121,0.646375,0.491572,0.338274,0.8038,0.946957,0.614909,0.522382,0.211876,1.296856,1.036246,1.356487,0.898789,0.388234,0.590677,0.691466,0.970129,0.590099,0.574115,1.740539,1.029005,1.050371,0.499726,0.209657,4.099979,2.617495,1.595495,0.792674,0.43492
1720416432,55,0,4301.922852,4273.461426,4297.563965,4307.179688,4285.256348,4296.282227,4265.769043,4269.102539,4261.922852,4264.487305,4410.384766,4467.692383,4373.461426,4361.538574,,,,,,,,,,,,,,,,,,,,,,,,,,,,,,,,,,,,,,,,,,,,,,,,,,,,,,,,,,,,,,,,,,,,,,
1720416432,56,0,4306.025879,4277.179688,4304.871582,4308.589844,4296.153809,4294.102539,4265.384766,4268.589844,4264.230957,4263.205078,4408.333496,4462.179688,4376.025879,4367.820313,,,,,,,,,,,,,,,,,,,,,,,,,,,,,,,,,,,,,,,,,,,,,,,,,,,,,,,,,,,,,,,,,,,,,,
1720416432,57,0,4315.897461,4280.512695,4315.769043,4313.717773,4296.666504,4293.717773,4265.384766,4268.333496,4261.666504,4264.615234,4418.461426,4465.256348,4377.307617,4379.102539,,,,,,,,,,,,,,,,,,,,,,,,,,,,,,,,,,,,,,,,,,,,,,,,,,,,,,,,,,,,,,,,,,,,,,
1720416432,58,0,4317.563965,4279.615234,4318.205078,4310.769043,4284.358887,4297.820313,4264.487305,4270.769043,4262.307617,4265,4427.820313,4474.358887,4374.102539,4376.025879,,,,,,,,,,,,,,,,,,,,,,,,,,,,,,,,,,,,,,,,,,,,,,,,,,,,,,,,,,,,,,,,,,,,,,
1720416432,59,0,4316.922852,4277.94873,4321.538574,4316.410156,4286.025879,4301.794922,4266.410156,4272.436035,4265.256348,4266.794922,4428.333496,4467.692383,4372.820313,4373.974121,,,,,,,,,,,,,,,,,,,,,,,,,,,,,,,,,,,,,,,,,,,,,,,,,,,,,,,,,,,,,,,,,,,,,,
1720416432,60,0,4325,4284.615234,4327.820313,4329.615234,4294.615234,4306.794922,4275.128418,4274.487305,4265.128418,4270,4430.769043,4471.410156,4380.128418,4386.282227,,,,,,,,,,,,,,,,,,,,,,,,,,,,,,,,,,,,,,,,,,,,,,,,,,,,,,,,,,,,,,,,,,,,,,
1720416432,61,0,4327.820313,4291.282227,4328.333496,4333.974121,4297.179688,4312.692383,4287.179688,4283.461426,4275,4277.563965,4435.128418,4476.922852,4384.358887,4394.615234,,,,,,,,,,,,,,,,,,,,,,,,,,,,,,,,,,,,,,,,,,,,,,,,,,,,,,,,,,,,,,,,,,,,,,
1720416432,62,0,4316.922852,4284.615234,4319.487305,4324.615234,4295.256348,4307.820313,4285,4286.538574,4280.769043,4280.897461,4429.358887,4464.743652,4376.153809,4387.94873,,,,,,,,,,,,,,,,,,,,,,,,,,,,,,,,,,,,,,,,,,,,,,,,,,,,,,,,,,,,,,,,,,,,,,
1720416432,63,0,4312.94873,4274.743652,4312.692383,4312.692383,4290.128418,4298.846191,4273.333496,4278.461426,4269.487305,4274.871582,4422.692383,4463.589844,4370.512695,4386.282227,,,,,,,,,,,,,,,,,,,,,,,,,,,,,,,,,,,,,,,,,,,,,,,,,,,,,,,,,,,,,,,,,,,,,,
1720416432,64,0,4316.410156,4273.077148,4314.230957,4308.846191,4287.692383,4299.358887,4272.820313,4275.897461,4261.794922,4271.153809,4427.692383,4474.487305,4376.666504,4400,,,,,,,,,,,,,,,,,,,,,,,,,,,,,,,,,,,,,,,,,,,,,,,,,,,,,,,,,,,,,,,,,,,,,,
1720416432,65,0,4311.153809,4274.487305,4315.641113,4313.974121,4290.256348,4300.384766,4277.820313,4280.128418,4263.974121,4273.717773,4431.538574,4475,4383.077148,4409.615234,,,,,,,,,,,,,,,,,,,,,,,,,,,,,,,,,,,,,,,,,,,,,,,,,,,,,,,,,,,,,,,,,,,,,,
1720416432,66,0,4307.94873,4278.077148,4317.563965,4322.307617,4291.153809,4293.589844,4276.025879,4279.230957,4266.666504,4275,4431.666504,4477.820313,4387.436035,4412.05127,,,,,,,,,,,,,,,,,,,,,,,,,,,,,,,,,,,,,,,,,,,,,,,,,,,,,,,,,,,,,,,,,,,,,,
1720416432,67,0,4314.358887,4286.922852,4324.871582,4328.846191,4290.641113,4293.333496,4276.282227,4277.563965,4268.205078,4273.589844,4439.358887,4479.102539,4391.538574,4422.05127,,,,,,,,,,,,,,,,,,,,,,,,,,,,,,,,,,,,,,,,,,,,,,,,,,,,,,,,,,,,,,,,,,,,,,
1720416432,68,0,4317.307617,4290.384766,4326.025879,4329.358887,4296.282227,4300,4280.641113,4281.538574,4265.641113,4274.871582,4445,4471.538574,4395.641113,4434.358887,,,,,,,,,,,,,,,,,,,,,,,,,,,,,,,,,,,,,,,,,,,,,,,,,,,,,,,,,,,,,,,,,,,,,,
1720416432,69,0,4309.615234,4282.436035,4311.153809,4318.077148,4296.153809,4299.615234,4275.256348,4277.436035,4264.743652,4278.589844,4437.436035,4475.256348,4399.487305,4436.794922,,,,,,,,,,,,,,,,,,,,,,,,,,,,,,,,,,,,,,,,,,,,,,,,,,,,,,,,,,,,,,,,,,,,,,
1720416432,70,0,4293.333496,4270.897461,4293.589844,4304.615234,4281.794922,4293.333496,4263.461426,4266.282227,4270.769043,4277.820313,4422.563965,4465.256348,4392.05127,4426.410156,3.543508,2.547708,1.569845,0.60705,0.291753,2.452758,2.078854,1.041685,0.717108,0.296429,0.813811,1.237767,1.418639,0.390942,0.309255,0.976684,1.732008,0.987907,0.511038,0.311269,0.586099,0.754731,0.584788,0.402506,0.309473,0.310419,0.515352,0.412318,0.182577,0.170097,0.772204,0.947358,1.92424,0.592308,0.385699,1.040343,0.906828,1.379773,0.621793,0.31671,0.657002,1.014297,0.689724,0.523843,0.356252,0.749018,0.79643,0.633258,0.521441,0.238922,1.400653,0.993876,1.268263,0.887472,0.41674,0.669627,0.541438,0.919818,0.556287,0.578353,1.344528,1.051729,1.059843,0.492318,0.221044,5.381528,2.647743,1.646854,0.844946,0.496387
1720416432,71,0,4288.333496,4270.256348,4289.615234,4304.358887,4273.205078,4292.436035,4265,4266.794922,4277.05127,4278.717773,4417.307617,4455.897461,4386.794922,4418.974121,,,,,,,,,,,,,,,,,,,,,,,,,,,,,,,,,,,,,,,,,,,,,,,,,,,,,,,,,,,,,,,,,,,,,,
1720416432,72,0,4295.512695,4272.563965,4289.358887,4304.102539,4278.589844,4297.563965,4277.05127,4279.487305,4283.205078,4284.102539,4420.769043,4469.487305,4392.692383,4419.743652,,,,,,,,,,,,,,,,,,,,,,,,,,,,,,,,,,,,,,,,,,,,,,,,,,,,,,,,,,,,,,,,,,,,,,
1720416432,73,0,4294.743652,4263.589844,4278.717773,4297.436035,4280.128418,4297.94873,4279.487305,4282.307617,4280.128418,4275,4416.025879,4470.128418,4389.615234,4418.974121,,,,,,,,,,,,,,,,,,,,,,,,,,,,,,,,,,,,,,,,,,,,,,,,,,,,,,,,,,,,,,,,,,,,,,
1720416432,74,0,4296.025879,4263.717773,4275.384766,4301.410156,4282.05127,4297.436035,4277.436035,4277.820313,4265.641113,4260.256348,4412.563965,4470.512695,4382.692383,4424.487305,,,,,,,,,,,,,,,,,,,,,,,,,,,,,,,,,,,,,,,,,,,,,,,,,,,,,,,,,,,,,,,,,,,,,,
