Timestamp,EEG.Counter,EEG.Interpolated,EEG.AF3,EEG.F7,EEG.F3,EEG.FC5,EEG.T7,EEG.P7,EEG.O1,EEG.O2,EEG.P8,EEG.T8,EEG.FC6,EEG.F4,EEG.F8,EEG.AF4,POW.AF3.Theta,POW.AF3.Alpha,POW.AF3.BetaL,POW.AF3.BetaH,POW.AF3.Gamma,POW.F7.Theta,POW.F7.Alpha,POW.F7.BetaL,POW.F7.BetaH,POW.F7.Gamma,POW.F3.Theta,POW.F3.Alpha,POW.F3.BetaL,POW.F3.BetaH,POW.F3.Gamma,POW.FC5.Theta,POW.FC5.Alpha,POW.FC5.BetaL,POW.FC5.BetaH,POW.FC5.Gamma,POW.T7.Theta,POW.T7.Alpha,POW.T7.BetaL,POW.T7.BetaH,POW.T7.Gamma,POW.P7.Theta,POW.P7.Alpha,POW.P7.BetaL,POW.P7.BetaH,POW.P7.Gamma,POW.O1.Theta,POW.O1.Alpha,POW.O1.BetaL,POW.O1.BetaH,POW.O1.Gamma,POW.O2.Theta,POW.O2.Alpha,POW.O2.BetaL,POW.O2.BetaH,POW.O2.Gamma,POW.P8.Theta,POW.P8.Alpha,POW.P8.BetaL,POW.P8.BetaH,POW.P8.Gamma,POW.T8.Theta,POW.T8.Alpha,POW.T8.BetaL,POW.T8.BetaH,POW.T8.Gamma,POW.FC6.Theta,POW.FC6.Alpha,POW.FC6.BetaL,POW.FC6.BetaH,POW.FC6.Gamma,POW.F4.Theta,POW.F4.Alpha,POW.F4.BetaL,POW.F4.BetaH,POW.F4.Gamma,POW.F8.Theta,POW.F8.Alpha,POW.F8.BetaL,POW.F8.BetaH,POW.F8.Gamma,POW.AF4.Theta,POW.AF4.Alpha,POW.AF4.BetaL,POW.AF4.BetaH,POW.AF4.Gamma
1720179051,92,0,4197.692383,4216.410156,4289.615234,4269.615234,4263.846191,4259.230957,4296.025879,4244.871582,4282.692383,4127.692383,4376.282227,4400.128418,4387.05127,4511.794922,,,,,,,,,,,,,,,,,,,,,,,,,,,,,,,,,,,,,,,,,,,,,,,,,,,,,,,,,,,,,,,,,,,,,,
1720179052,93,0,4210.256348,4219.871582,4294.102539,4275.128418,4262.307617,4260.897461,4293.333496,4245.384766,4279.487305,4126.025879,4373.974121,4394.358887,4392.820313,4526.538574,,,,,,,,,,,,,,,,,,,,,,,,,,,,,,,,,,,,,,,,,,,,,,,,,,,,,,,,,,,,,,,,,,,,,,
1720179052,94,0,4204.358887,4222.563965,4297.94873,4278.717773,4261.410156,4257.820313,4286.538574,4242.436035,4271.153809,4120.897461,4368.974121,4396.922852,4390.384766,4510.256348,,,,,,,,,,,,,,,,,,,,,,,,,,,,,,,,,,,,,,,,,,,,,,,,,,,,,,,,,,,,,,,,,,,,,,
1720179052,95,0,4203.205078,4229.871582,4301.538574,4285.897461,4263.461426,4254.230957,4279.615234,4236.922852,4252.692383,4112.820313,4375.512695,4400.256348,4388.461426,4498.077148,,,,,,,,,,,,,,,,,,,,,,,,,,,,,,,,,,,,,,,,,,,,,,,,,,,,,,,,,,,,,,,,,,,,,,
1720179052,96,0,4223.205078,4235.256348,4312.563965,4295.384766,4264.743652,4250,4273.974121,4230.769043,4230.128418,4106.538574,4376.922852,4408.461426,4392.436035,4516.922852,2.915682,7.938171,0.803815,0.271752,0.218211,2.741006,8.546246,0.634987,0.370496,0.23284,1.879194,13.751385,1.256399,0.484388,0.272245,2.067378,8.191609,0.719943,0.336058,0.193542,0.777439,0.746579,0.314395,0.210864,0.095523,0.351245,1.916237,0.10366,0.064248,0.115085,1.109534,6.741878,0.412359,0.311241,0.089669,0.710294,4.832283,0.697837,0.367142,0.107866,1.576692,29.794418,2.795717,1.272733,0.235995,1.352783,1.558018,0.95892,0.792572,0.281658,0.220361,0.056639,0.025601,0.036225,0.083145,2.398395,13.751472,1.193929,0.863582,0.611271,2.168883,6.155523,1.827188,0.909445,0.324999,2.484312,13.206151,2.745766,1.056177,0.85128
1720179052,97,0,4238.589844,4237.436035,4323.974121,4297.179688,4268.205078,4246.410156,4275,4225,4215.512695,4105.641113,4372.307617,4420.897461,4392.563965,4535.769043,,,,,,,,,,,,,,,,,,,,,,,,,,,,,,,,,,,,,,,,,,,,,,,,,,,,,,,,,,,,,,,,,,,,,,
1720179052,98,0,4233.205078,4242.05127,4326.025879,4299.615234,4272.692383,4248.846191,4277.307617,4223.846191,4216.666504,4109.871582,4376.922852,4427.179688,4393.077148,4538.205078,,,,,,,,,,,,,,,,,,,,,,,,,,,,,,,,,,,,,,,,,,,,,,,,,,,,,,,,,,,,,,,,,,,,,,
1720179052,99,0,4233.333496,4251.410156,4322.05127,4312.563965,4278.974121,4257.692383,4277.436035,4228.589844,4233.717773,4116.794922,4374.487305,4434.230957,4408.461426,4548.717773,,,,,,,,,,,,,,,,,,,,,,,,,,,,,,,,,,,,,,,,,,,,,,,,,,,,,,,,,,,,,,,,,,,,,,
1720179052,100,0,4242.820313,4251.025879,4318.205078,4312.692383,4279.358887,4263.717773,4274.871582,4231.922852,4252.179688,4108.077148,4369.358887,4435.512695,4408.717773,4549.615234,,,,,,,,,,,,,,,,,,,,,,,,,,,,,,,,,,,,,,,,,,,,,,,,,,,,,,,,,,,,,,,,,,,,,,
1720179052,101,0,4230.384766,4232.94873,4312.307617,4296.666504,4270.769043,4261.153809,4273.974121,4230.769043,4263.205078,4094.487061,4368.333496,4417.436035,4383.461426,4520.641113,,,,,,,,,,,,,,,,,,,,,,,,,,,,,,,,,,,,,,,,,,,,,,,,,,,,,,,,,,,,,,,,,,,,,,
1720179052,102,0,4205.256348,4217.563965,4298.974121,4283.846191,4265.769043,4253.589844,4285.897461,4236.922852,4276.538574,4092.307617,4367.179688,4398.589844,4369.615234,4500.769043,,,,,,,,,,,,,,,,,,,,,,,,,,,,,,,,,,,,,,,,,,,,,,,,,,,,,,,,,,,,,,,,,,,,,,
1720179052,103,0,4197.692383,4214.102539,4287.436035,4279.487305,4262.436035,4250.769043,4295.769043,4247.307617,4288.974121,4078.589844,4368.717773,4394.230957,4373.205078,4508.974121,,,,,,,,,,,,,,,,,,,,,,,,,,,,,,,,,,,,,,,,,,,,,,,,,,,,,,,,,,,,,,,,,,,,,,
1720179052,104,0,4200.512695,4207.820313,4290.256348,4276.538574,4253.717773,4256.025879,4288.717773,4245.769043,4286.410156,4046.153809,4371.538574,4393.717773,4367.820313,4507.563965,,,,,,,,,,,,,,,,,,,,,,,,,,,,,,,,,,,,,,,,,,,,,,,,,,,,,,,,,,,,,,,,,,,,,,
1720179052,105,0,4193.077148,4196.794922,4292.94873,4272.563965,4248.461426,4257.436035,4279.358887,4236.282227,4272.692383,4020.897461,4366.153809,4381.153809,4352.436035,4488.205078,,,,,,,,,,,,,,,,,,,,,,,,,,,,,,,,,,,,,,,,,,,,,,,,,,,,,,,,,,,,,,,,,,,,,,
1720179052,106,0,4190.384766,4199.743652,4284.487305,4272.307617,4248.461426,4249.102539,4280.256348,4232.179688,4258.333496,4013.076904,4365.384766,4367.563965,4352.563965,4488.974121,,,,,,,,,,,,,,,,,,,,,,,,,,,,,,,,,,,,,,,,,,,,,,,,,,,,,,,,,,,,,,,,,,,,,,
1720179052,107,0,4207.436035,4215,4286.282227,4279.743652,4249.615234,4245.256348,4276.153809,4229.487305,4250,4018.718018,4373.333496,4378.461426,4366.922852,4514.615234,,,,,,,,,,,,,,,,,,,,,,,,,,,,,,,,,,,,,,,,,,,,,,,,,,,,,,,,,,,,,,,,,,,,,,
1720179052,108,0,4227.05127,4229.743652,4305.128418,4293.461426,4256.538574,4247.692383,4265.128418,4222.94873,4243.974121,4034.358887,4369.230957,4411.666504,4384.102539,4539.743652,,,,,,,,,,,,,,,,,,,,,,,,,,,,,,,,,,,,,,,,,,,,,,,,,,,,,,,,,,,,,,,,,,,,,,
1720179052,109,0,4234.102539,4245.256348,4318.974121,4306.538574,4263.333496,4245.384766,4264.615234,4221.794922,4235,4036.153809,4369.871582,4433.717773,4396.666504,4553.461426,,,,,,,,,,,,,,,,,,,,,,,,,,,,,,,,,,,,,,,,,,,,,,,,,,,,,,,,,,,,,,,,,,,,,,
1720179052,110,0,4242.307617,4253.461426,4324.615234,4315.256348,4263.974121,4242.179688,4269.102539,4228.974121,4234.358887,4027.94873,4374.871582,4435.897461,4401.794922,4561.922852,,,,,,,,,,,,,,,,,,,,,,,,,,,,,,,,,,,,,,,,,,,,,,,,,,,,,,,,,,,,,,,,,,,,,,
1720179052,111,0,4250.128418,4241.282227,4325.512695,4311.666504,4263.589844,4239.871582,4269.230957,4233.077148,4248.205078,4017.94873,4372.307617,4436.410156,4395.897461,4558.846191,,,,,,,,,,,,,,,,,,,,,,,,,,,,,,,,,,,,,,,,,,,,,,,,,,,,,,,,,,,,,,,,,,,,,,
1720179052,112,0,4244.102539,4228.974121,4316.025879,4298.589844,4259.871582,4238.974121,4271.922852,4230,4261.025879,3996.923096,4371.282227,4435.897461,4382.94873,4541.538574,2.675292,7.660457,1.007814,0.302524,0.207045,2.873076,8.356643,0.649689,0.427504,0.236826,1.801724,13.946502,1.229098,0.484452,0.259923,2.030313,8.008166,0.724411,0.352781,0.20877,0.785426,0.755295,0.275064,0.199841,0.093828,0.504712,1.842004,0.131156,0.074458,0.101111,1.180541,6.206805,0.578408,0.316483,0.094932,0.760403,4.725836,0.682851,0.345226,0.114206,1.723161,27.356745,3.080344,1.292462,0.253172,1.556423,1.893345,1.020903,0.844994,0.311437,0.121737,0.043912,0.018993,0.033916,0.083243,2.715458,14.11818,1.451869,0.92697,0.569267,2.020181,6.221045,1.703668,0.944558,0.368185,2.926568,13.587297,2.52216,1.156423,0.921169
1720179052,113,0,4241.666504,4233.846191,4306.282227,4296.538574,4256.282227,4247.692383,4278.846191,4237.179688,4274.615234,3992.307617,4367.94873,4435.256348,4385.256348,4540.897461,,,,,,,,,,,,,,,,,,,,,,,,,,,,,,,,,,,,,,,,,,,,,,,,,,,,,,,,,,,,,,,,,,,,,,
1720179052,114,0,4239.871582,4224.102539,4301.025879,4296.922852,4260.512695,4260,4283.717773,4257.05127,4295.256348,4006.666748,4368.717773,4431.025879,4386.922852,4548.333496,,,,,,,,,,,,,,,,,,,,,,,,,,,,,,,,,,,,,,,,,,,,,,,,,,,,,,,,,,,,,,,,,,,,,,
1720179052,115,0,4210.512695,4197.692383,4285.384766,4279.230957,4260.512695,4262.05127,4282.563965,4258.333496,4298.717773,3999.230713,4371.794922,4407.436035,4366.410156,4532.05127,,,,,,,,,,,,,,,,,,,,,,,,,,,,,,,,,,,,,,,,,,,,,,,,,,,,,,,,,,,,,,,,,,,,,,
1720179052,116,0,4187.94873,4195.641113,4267.692383,4263.333496,4250,4255.256348,4277.307617,4242.436035,4284.230957,3971.153809,4367.94873,4385.769043,4353.589844,4513.461426,,,,,,,,,,,,,,,,,,,,,,,,,,,,,,,,,,,,,,,,,,,,,,,,,,,,,,,,,,,,,,,,,,,,,,
1720179052,117,0,4199.743652,4204.102539,4252.563965,4261.025879,4237.94873,4246.410156,4260.256348,4232.179688,4267.179688,3947.307617,4362.94873,4377.05127,4349.871582,4509.358887,,,,,,,,,,,,,,,,,,,,,,,,,,,,,,,,,,,,,,,,,,,,,,,,,,,,,,,,,,,,,,,,,,,,,,
1720179052,118,0,4193.333496,4185.897461,4230.384766,4246.410156,4229.615234,4236.538574,4235.897461,4216.410156,4237.692383,3914.743652,4365,4350.128418,4320.128418,4489.102539,,,,,,,,,,,,,,,,,,,,,,,,,,,,,,,,,,,,,,,,,,,,,,,,,,,,,,,,,,,,,,,,,,,,,,
1720179052,119,0,4170,4172.692383,4224.358887,4234.871582,4230.256348,4228.461426,4225.512695,4198.974121,4207.563965,3885.769287,4362.179688,4327.563965,4299.358887,4466.282227,,,,,,,,,,,,,,,,,,,,,,,,,,,,,,,,,,,,,,,,,,,,,,,,,,,,,,,,,,,,,,,,,,,,,,
1720179052,120,0,4192.94873,4196.538574,4252.820313,4255,4239.102539,4229.871582,4232.179688,4208.974121,4209.487305,3896.281982,4362.179688,4357.179688,4330.769043,4489.743652,,,,,,,,,,,,,,,,,,,,,,,,,,,,,,,,,,,,,,,,,,,,,,,,,,,,,,,,,,,,,,,,,,,,,,
1720179052,121,0,4228.717773,4218.846191,4277.05127,4278.205078,4245.384766,4234.102539,4234.871582,4224.230957,4225,3923.076904,4369.871582,4395.769043,4364.615234,4520.128418,,,,,,,,,,,,,,,,,,,,,,,,,,,,,,,,,,,,,,,,,,,,,,,,,,,,,,,,,,,,,,,,,,,,,,
1720179052,122,0,4227.436035,4220.256348,4280.897461,4287.692383,4248.974121,4230.769043,4233.717773,4215.641113,4218.846191,3926.923096,4362.94873,4404.743652,4367.179688,4521.538574,,,,,,,,,,,,,,,,,,,,,,,,,,,,,,,,,,,,,,,,,,,,,,,,,,,,,,,,,,,,,,,,,,,,,,
1720179052,123,0,4226.410156,4225.769043,4288.461426,4295,4253.974121,4230.641113,4242.05127,4212.307617,4207.563965,3913.589844,4363.333496,4414.487305,4371.666504,4537.05127,,,,,,,,,,,,,,,,,,,,,,,,,,,,,,,,,,,,,,,,,,,,,,,,,,,,,,,,,,,,,,,,,,,,,,
1720179052,124,0,4245.128418,4235.512695,4296.666504,4300.256348,4254.871582,4233.461426,4249.487305,4227.563965,4217.436035,3913.076904,4372.820313,4432.307617,4386.922852,4559.487305,,,,,,,,,,,,,,,,,,,,,,,,,,,,,,,,,,,,,,,,,,,,,,,,,,,,,,,,,,,,,,,,,,,,,,
1720179052,125,0,4251.538574,4235.384766,4297.307617,4305.256348,4250.128418,4232.820313,4249.743652,4236.282227,4238.077148,3928.461426,4367.05127,4434.487305,4391.410156,4555.512695,,,,,,,,,,,,,,,,,,,,,,,,,,,,,,,,,,,,,,,,,,,,,,,,,,,,,,,,,,,,,,,,,,,,,,
1720179052,126,0,4239.102539,4231.666504,4294.615234,4305.897461,4248.205078,4233.077148,4251.666504,4237.94873,4254.102539,3944.871826,4363.717773,4423.333496,4384.102539,4549.102539,,,,,,,,,,,,,,,,,,,,,,,,,,,,,,,,,,,,,,,,,,,,,,,,,,,,,,,,,,,,,,,,,,,,,,
1720179052,127,0,4218.077148,4228.077148,4285.256348,4299.102539,4250.769043,4234.743652,4254.230957,4239.743652,4271.025879,3942.05127,4365.769043,4416.538574,4381.410156,4545.897461,,,,,,,,,,,,,,,,,,,,,,,,,,,,,,,,,,,,,,,,,,,,,,,,,,,,,,,,,,,,,,,,,,,,,,
1720179052,0,0,4197.05127,4218.461426,4268.205078,4291.410156,4250.256348,4233.461426,4249.230957,4240.256348,4281.538574,3916.538574,4364.102539,4409.743652,4381.666504,4527.05127,2.40844,7.817917,1.248817,0.3985,0.203777,3.153126,8.122464,0.692864,0.518379,0.229077,1.930636,14.006035,1.247026,0.53699,0.229955,2.153835,7.939736,0.759932,0.391355,0.210929,0.812761,0.786924,0.229189,0.200995,0.090946,0.71596,1.721842,0.163678,0.093082,0.086216,1.324437,5.684185,0.860303,0.331928,0.10343,0.869308,4.791498,0.694861,0.313492,0.117644,1.863224,26.078156,3.172112,1.261678,0.263245,2.066516,2.231049,1.233262,0.853556,0.335247,0.085695,0.043224,0.016458,0.0315,0.083656,3.401548,14.859238,1.804067,1.027039,0.507459,2.105452,6.470545,1.61826,1.006932,0.40468,3.737517,13.722363,2.54134,1.360165,0.948502
1720179052,1,0,4200.384766,4212.179688,4259.230957,4285.128418,4248.077148,4233.717773,4239.102539,4235,4272.307617,3895.512939,4362.692383,4398.846191,4375,4519.230957,,,,,,,,,,,,,,,,,,,,,,,,,,,,,,,,,,,,,,,,,,,,,,,,,,,,,,,,,,,,,,,,,,,,,,
1720179052,2,0,4213.589844,4215.256348,4263.077148,4278.846191,4247.436035,4237.563965,4233.461426,4224.230957,4254.871582,3894.487061,4360.384766,4391.153809,4367.05127,4525.769043,,,,,,,,,,,,,,,,,,,,,,,,,,,,,,,,,,,,,,,,,,,,,,,,,,,,,,,,,,,,,,,,,,,,,,
1720179052,3,0,4203.846191,4216.282227,4262.05127,4278.333496,4247.563965,4238.077148,4228.333496,4215.512695,4238.589844,3894.230713,4360.897461,4394.230957,4362.563965,4512.05127,,,,,,,,,,,,,,,,,,,,,,,,,,,,,,,,,,,,,,,,,,,,,,,,,,,,,,,,,,,,,,,,,,,,,,
1720179052,4,0,4195.128418,4212.436035,4256.922852,4279.230957,4247.436035,4234.871582,4217.307617,4213.205078,4218.846191,3888.076904,4366.410156,4397.820313,4355.641113,4497.179688,,,,,,,,,,,,,,,,,,,,,,,,,,,,,,,,,,,,,,,,,,,,,,,,,,,,,,,,,,,,,,,,,,,,,,
1720179052,5,0,4207.05127,4214.487305,4266.025879,4279.230957,4248.846191,4229.743652,4212.436035,4213.974121,4201.410156,3896.923096,4361.025879,4395.512695,4359.871582,4518.077148,,,,,,,,,,,,,,,,,,,,,,,,,,,,,,,,,,,,,,,,,,,,,,,,,,,,,,,,,,,,,,,,,,,,,,
1720179052,6,0,4209.487305,4222.307617,4285,4289.102539,4250,4226.922852,4222.05127,4216.922852,4199.230957,3890,4356.282227,4404.358887,4377.563965,4548.846191,,,,,,,,,,,,,,,,,,,,,,,,,,,,,,,,,,,,,,,,,,,,,,,,,,,,,,,,,,,,,,,,,,,,,,
1720179052,7,0,4202.307617,4222.179688,4287.94873,4297.820313,4244.871582,4230.128418,4229.743652,4221.666504,4203.717773,3861.281982,4366.153809,4414.487305,4378.077148,4545.641113,,,,,,,,,,,,,,,,,,,,,,,,,,,,,,,,,,,,,,,,,,,,,,,,,,,,,,,,,,,,,,,,,,,,,,
1720179052,8,0,4208.589844,4218.077148,4280.641113,4297.179688,4242.563965,4234.358887,4233.589844,4226.666504,4213.461426,3865.897461,4363.589844,4416.025879,4369.487305,4525.769043,,,,,,,,,,,,,,,,,,,,,,,,,,,,,,,,,,,,,,,,,,,,,,,,,,,,,,,,,,,,,,,,,,,,,,
1720179052,9,0,4215.512695,4218.077148,4276.538574,4293.461426,4244.871582,4235,4244.358887,4235.384766,4240.384766,3897.05127,4359.230957,4417.94873,4372.563965,4523.589844,,,,,,,,,,,,,,,,,,,,,,,,,,,,,,,,,,,,,,,,,,,,,,,,,,,,,,,,,,,,,,,,,,,,,,
1720179052,10,0,4213.717773,4211.666504,4269.102539,4283.077148,4246.025879,4231.922852,4250.384766,4242.94873,4265.256348,3903.974365,4362.436035,4415,4369.615234,4525.641113,,,,,,,,,,,,,,,,,,,,,,,,,,,,,,,,,,,,,,,,,,,,,,,,,,,,,,,,,,,,,,,,,,,,,,
1720179052,11,0,4210.512695,4200,4260.641113,4267.307617,4242.05127,4233.461426,4249.487305,4239.487305,4270.384766,3895,4357.436035,4403.717773,4358.974121,4518.974121,,,,,,,,,,,,,,,,,,,,,,,,,,,,,,,,,,,,,,,,,,,,,,,,,,,,,,,,,,,,,,,,,,,,,,
1720179052,12,0,4201.410156,4198.077148,4256.025879,4262.436035,4237.05127,4241.538574,4245.128418,4232.563965,4266.538574,3894.743652,4357.179688,4392.94873,4349.615234,4513.333496,,,,,,,,,,,,,,,,,,,,,,,,,,,,,,,,,,,,,,,,,,,,,,,,,,,,,,,,,,,,,,,,,,,,,,
1720179052,13,0,4189.615234,4207.820313,4256.410156,4272.05127,4238.846191,4242.820313,4238.974121,4228.461426,4262.94873,3898.846191,4358.717773,4388.461426,4341.922852,4502.307617,,,,,,,,,,,,,,,,,,,,,,,,,,,,,,,,,,,,,,,,,,,,,,,,,,,,,,,,,,,,,,,,,,,,,,
1720179052,14,0,4190.769043,4214.358887,4258.333496,4274.230957,4242.05127,4233.589844,4234.487305,4224.615234,4252.692383,3904.871826,4360.641113,4388.461426,4342.94873,4496.922852,,,,,,,,,,,,,,,,,,,,,,,,,,,,,,,,,,,,,,,,,,,,,,,,,,,,,,,,,,,,,,,,,,,,,,
1720179052,15,0,4198.461426,4215.897461,4262.05127,4271.410156,4236.025879,4226.666504,4225.769043,4218.589844,4238.589844,3902.307617,4364.487305,4396.282227,4352.05127,4514.615234,,,,,,,,,,,,,,,,,,,,,,,,,,,,,,,,,,,,,,,,,,,,,,,,,,,,,,,,,,,,,,,,,,,,,,
1720179052,16,0,4205.512695,4217.563965,4271.025879,4277.436035,4228.717773,4224.871582,4216.153809,4214.743652,4220.641113,3895,4359.487305,4401.794922,4352.05127,4532.179688,2.223284,8.318535,1.423349,0.521833,0.213936,3.500039,7.857294,0.725645,0.614287,0.211451,2.158812,13.740794,1.26462,0.612554,0.189605,2.353893,7.890194,0.789911,0.434811,0.198917,0.820098,0.861508,0.17817,0.210576,0.089413,0.906075,1.568797,0.190882,0.118322,0.073034,1.463291,5.144547,1.238551,0.337868,0.11377,0.96109,4.902484,0.749542,0.274718,0.117835,1.894485,26.295944,2.99001,1.176959,0.260194,2.887673,2.562292,1.585764,0.826378,0.345462,0.080854,0.047062,0.014547,0.028205,0.083703,4.208759,15.423041,2.103492,1.12571,0.440624,2.419296,6.646256,1.573399,1.064257,0.425333,4.69863,13.430753,2.675075,1.602269,0.920192
1720179052,17,0,4218.205078,4218.846191,4281.922852,4283.717773,4236.794922,4226.153809,4219.230957,4213.974121,4203.333496,3904.102539,4356.538574,4402.307617,4349.230957,4532.307617,,,,,,,,,,,,,,,,,,,,,,,,,,,,,,,,,,,,,,,,,,,,,,,,,,,,,,,,,,,,,,,,,,,,,,
1720179052,18,0,4220.641113,4224.358887,4284.487305,4282.307617,4250.384766,4230.769043,4233.205078,4218.717773,4202.94873,3911.666748,4361.282227,4410.384766,4357.05127,4534.487305,,,,,,,,,,,,,,,,,,,,,,,,,,,,,,,,,,,,,,,,,,,,,,,,,,,,,,,,,,,,,,,,,,,,,,
1720179052,19,0,4214.102539,4228.077148,4280,4281.153809,4250.641113,4235.384766,4242.436035,4225.512695,4215.128418,3912.435791,4355.128418,4419.358887,4364.743652,4539.102539,,,,,,,,,,,,,,,,,,,,,,,,,,,,,,,,,,,,,,,,,,,,,,,,,,,,,,,,,,,,,,,,,,,,,,
1720179052,20,0,4215.384766,4224.102539,4281.538574,4283.974121,4245.128418,4236.538574,4249.487305,4231.538574,4226.666504,3921.923096,4352.563965,4420.384766,4367.692383,4532.179688,,,,,,,,,,,,,,,,,,,,,,,,,,,,,,,,,,,,,,,,,,,,,,,,,,,,,,,,,,,,,,,,,,,,,,
1720179052,21,0,4219.871582,4218.461426,4281.794922,4282.05127,4241.666504,4238.846191,4254.743652,4238.589844,4242.94873,3930.769287,4366.282227,4417.436035,4366.025879,4531.538574,,,,,,,,,,,,,,,,,,,,,,,,,,,,,,,,,,,,,,,,,,,,,,,,,,,,,,,,,,,,,,,,,,,,,,
1720179052,22,0,4207.179688,4212.05127,4272.94873,4271.538574,4238.461426,4244.743652,4252.307617,4239.743652,4260.641113,3932.179443,4362.820313,4409.358887,4354.743652,4535.384766,,,,,,,,,,,,,,,,,,,,,,,,,,,,,,,,,,,,,,,,,,,,,,,,,,,,,,,,,,,,,,,,,,,,,,
1720179052,23,0,4187.94873,4203.461426,4263.717773,4261.153809,4235.384766,4245.512695,4248.333496,4238.077148,4266.282227,3938.333252,4354.230957,4400.384766,4350.897461,4527.820313,,,,,,,,,,,,,,,,,,,,,,,,,,,,,,,,,,,,,,,,,,,,,,,,,,,,,,,,,,,,,,,,,,,,,,
1720179052,24,0,4187.94873,4198.974121,4261.025879,4260.256348,4232.692383,4242.436035,4239.358887,4236.666504,4261.922852,3945,4360.897461,4394.358887,4358.589844,4518.974121,,,,,,,,,,,,,,,,,,,,,,,,,,,,,,,,,,,,,,,,,,,,,,,,,,,,,,,,,,,,,,,,,,,,,,
1720179052,25,0,4200.256348,4202.94873,4261.025879,4263.846191,4232.692383,4241.666504,4228.589844,4229.230957,4253.974121,3946.794922,4360.641113,4390.256348,4361.410156,4520.897461,,,,,,,,,,,,,,,,,,,,,,,,,,,,,,,,,,,,,,,,,,,,,,,,,,,,,,,,,,,,,,,,,,,,,,
1720179052,26,0,4208.205078,4210.256348,4261.153809,4269.230957,4241.410156,4243.717773,4227.05127,4220.256348,4243.205078,3944.743652,4358.846191,4390.641113,4356.153809,4529.871582,,,,,,,,,,,,,,,,,,,,,,,,,,,,,,,,,,,,,,,,,,,,,,,,,,,,,,,,,,,,,,,,,,,,,,
1720179052,27,0,4212.563965,4213.205078,4269.102539,4272.563965,4246.410156,4244.102539,4229.743652,4222.436035,4234.743652,3941.538574,4359.102539,4396.666504,4353.461426,4533.974121,,,,,,,,,,,,,,,,,,,,,,,,,,,,,,,,,,,,,,,,,,,,,,,,,,,,,,,,,,,,,,,,,,,,,,
1720179052,28,0,4221.410156,4218.846191,4281.538574,4275.384766,4242.563965,4240.256348,4227.692383,4226.794922,4226.666504,3941.794922,4356.538574,4411.794922,4362.436035,4540.512695,,,,,,,,,,,,,,,,,,,,,,,,,,,,,,,,,,,,,,,,,,,,,,,,,,,,,,,,,,,,,,,,,,,,,,
1720179052,29,0,4235.128418,4228.717773,4291.025879,4284.615234,4241.282227,4237.436035,4227.94873,4224.743652,4213.589844,3944.615479,4358.461426,4432.436035,4378.205078,4557.307617,,,,,,,,,,,,,,,,,,,,,,,,,,,,,,,,,,,,,,,,,,,,,,,,,,,,,,,,,,,,,,,,,,,,,,
1720179052,30,0,4249.871582,4236.794922,4304.230957,4297.820313,4247.94873,4240.128418,4243.333496,4227.179688,4200.256348,3943.589844,4361.538574,4446.153809,4389.102539,4582.820313,,,,,,,,,,,,,,,,,,,,,,,,,,,,,,,,,,,,,,,,,,,,,,,,,,,,,,,,,,,,,,,,,,,,,,
1720179052,31,0,4254.487305,4243.205078,4319.230957,4305,4255.897461,4248.205078,4263.461426,4234.743652,4201.538574,3939.102539,4360.769043,4456.153809,4396.025879,4596.666504,,,,,,,,,,,,,,,,,,,,,,,,,,,,,,,,,,,,,,,,,,,,,,,,,,,,,,,,,,,,,,,,,,,,,,
1720179052,32,0,4246.025879,4244.358887,4318.846191,4301.666504,4255.256348,4249.102539,4267.94873,4240.769043,4215.256348,3943.589844,4363.077148,4459.102539,4399.743652,4591.794922,2.113368,9.377368,1.477895,0.632263,0.244829,3.759541,7.825482,0.728513,0.682953,0.191735,2.403071,13.452472,1.285721,0.683162,0.150855,2.548745,8.047088,0.799023,0.471348,0.177335,0.795615,1.012642,0.133104,0.226645,0.090364,1.012082,1.424023,0.212452,0.151291,0.063439,1.544475,4.663016,1.664661,0.328494,0.125067,1.004207,4.981305,0.853876,0.24232,0.117169,1.919027,28.180347,2.575117,1.066481,0.244198,3.720881,3.043576,2.003527,0.819823,0.343345,0.085987,0.054006,0.012961,0.024596,0.082518,4.900091,15.998759,2.274378,1.200165,0.386524,2.899353,6.832866,1.536744,1.100838,0.42941,5.510448,13.126386,2.774725,1.811015,0.84692
1720179052,33,0,4240,4235.384766,4307.692383,4295.384766,4248.333496,4245.384766,4262.94873,4245.512695,4234.743652,3959.615479,4359.871582,4451.666504,4395.641113,4587.307617,,,,,,,,,,,,,,,,,,,,,,,,,,,,,,,,,,,,,,,,,,,,,,,,,,,,,,,,,,,,,,,,,,,,,,
1720179052,34,0,4233.205078,4228.974121,4304.102539,4293.205078,4246.538574,4250.641113,4264.871582,4249.102539,4256.153809,3971.538574,4355.769043,4450.384766,4388.333496,4580.641113,,,,,,,,,,,,,,,,,,,,,,,,,,,,,,,,,,,,,,,,,,,,,,,,,,,,,,,,,,,,,,,,,,,,,,
1720179052,35,0,4221.922852,4230.128418,4300.128418,4290.512695,4252.05127,4258.205078,4263.846191,4248.333496,4263.077148,3976.410156,4364.871582,4455.128418,4391.666504,4581.153809,,,,,,,,,,,,,,,,,,,,,,,,,,,,,,,,,,,,,,,,,,,,,,,,,,,,,,,,,,,,,,,,,,,,,,
1720179052,36,0,4213.589844,4221.666504,4285.128418,4280.384766,4252.05127,4255.897461,4249.487305,4241.410156,4255.384766,3983.846191,4364.230957,4449.102539,4404.487305,4598.205078,,,,,,,,,,,,,,,,,,,,,,,,,,,,,,,,,,,,,,,,,,,,,,,,,,,,,,,,,,,,,,,,,,,,,,
1720179052,37,0,4213.974121,4211.922852,4274.743652,4272.820313,4246.538574,4247.436035,4235,4231.922852,4249.230957,3991.025635,4360.128418,4440.897461,4412.307617,4602.307617,,,,,,,,,,,,,,,,,,,,,,,,,,,,,,,,,,,,,,,,,,,,,,,,,,,,,,,,,,,,,,,,,,,,,,
1720179052,38,0,4214.871582,4215.256348,4275.641113,4275.769043,4243.077148,4245,4226.025879,4227.820313,4241.025879,3992.692383,4364.487305,4436.794922,4412.307617,4583.461426,,,,,,,,,,,,,,,,,,,,,,,,,,,,,,,,,,,,,,,,,,,,,,,,,,,,,,,,,,,,,,,,,,,,,,
1720179052,39,0,4221.538574,4223.846191,4280.256348,4281.666504,4246.922852,4246.025879,4224.743652,4229.230957,4222.692383,3990.641113,4361.282227,4436.153809,4419.230957,4580.641113,,,,,,,,,,,,,,,,,,,,,,,,,,,,,,,,,,,,,,,,,,,,,,,,,,,,,,,,,,,,,,,,,,,,,,
1720179052,40,0,4235.384766,4230,4288.333496,4284.615234,4253.461426,4246.794922,4235.769043,4232.820313,4206.538574,3989.230713,4358.846191,4451.153809,4431.538574,4595.641113,,,,,,,,,,,,,,,,,,,,,,,,,,,,,,,,,,,,,,,,,,,,,,,,,,,,,,,,,,,,,,,,,,,,,,
1720179052,41,0,4242.179688,4232.179688,4298.589844,4288.589844,4252.820313,4246.282227,4249.871582,4232.692383,4200.256348,3992.820557,4359.487305,4469.487305,4432.94873,4598.333496,,,,,,,,,,,,,,,,,,,,,,,,,,,,,,,,,,,,,,,,,,,,,,,,,,,,,,,,,,,,,,,,,,,,,,
1720179052,42,0,4243.333496,4235.897461,4306.153809,4296.025879,4247.307617,4245.769043,4257.820313,4233.077148,4194.615234,3998.461426,4362.94873,4475.128418,4432.820313,4605.256348,,,,,,,,,,,,,,,,,,,,,,,,,,,,,,,,,,,,,,,,,,,,,,,,,,,,,,,,,,,,,,,,,,,,,,
1720179052,43,0,4239.871582,4231.794922,4307.307617,4291.025879,4249.615234,4252.436035,4266.410156,4240.384766,4196.922852,4000.512939,4366.410156,4475.128418,4433.205078,4612.436035,,,,,,,,,,,,,,,,,,,,,,,,,,,,,,,,,,,,,,,,,,,,,,,,,,,,,,,,,,,,,,,,,,,,,,
1720179052,44,0,4233.461426,4220.128418,4300.769043,4279.358887,4259.615234,4262.179688,4279.102539,4250.384766,4220.384766,4004.615479,4357.563965,4472.179688,4423.461426,4602.307617,,,,,,,,,,,,,,,,,,,,,,,,,,,,,,,,,,,,,,,,,,,,,,,,,,,,,,,,,,,,,,,,,,,,,,
1720179052,45,0,4228.589844,4216.282227,4286.410156,4274.871582,4260.128418,4266.666504,4280.769043,4258.461426,4248.461426,4012.435791,4351.153809,4460.512695,4415,4587.307617,,,,,,,,,,,,,,,,,,,,,,,,,,,,,,,,,,,,,,,,,,,,,,,,,,,,,,,,,,,,,,,,,,,,,,
1720179052,46,0,4219.102539,4211.153809,4269.358887,4267.94873,4248.333496,4264.358887,4259.871582,4256.153809,4257.692383,4014.871826,4360.384766,4444.102539,4411.538574,4565.512695,,,,,,,,,,,,,,,,,,,,,,,,,,,,,,,,,,,,,,,,,,,,,,,,,,,,,,,,,,,,,,,,,,,,,,
1720179052,47,0,4210.641113,4200.256348,4259.871582,4258.461426,4242.820313,4257.94873,4237.436035,4241.282227,4252.307617,4014.743652,4358.205078,4434.615234,4403.717773,4548.461426,,,,,,,,,,,,,,,,,,,,,,,,,,,,,,,,,,,,,,,,,,,,,,,,,,,,,,,,,,,,,,,,,,,,,,
1720179052,48,0,4212.94873,4203.846191,4260,4258.846191,4247.563965,4252.94873,4227.563965,4228.974121,4242.820313,4011.538574,4349.487305,4434.358887,4395,4556.025879,2.120729,11.211351,1.424475,0.697998,0.302162,3.844642,8.31078,0.699965,0.702531,0.180338,2.657174,13.634335,1.323407,0.722699,0.125831,2.719374,8.671367,0.786606,0.497043,0.154458,0.74061,1.252497,0.102495,0.248342,0.093134,1.008528,1.332606,0.232277,0.192232,0.058082,1.53958,4.434165,2.053353,0.307022,0.135941,0.984648,5.065583,0.980055,0.228501,0.118471,1.961064,31.552986,2.099212,0.968613,0.220453,4.480897,3.847042,2.349651,0.910422,0.337194,0.092824,0.064995,0.011935,0.021998,0.079696,5.323844,17.194817,2.283445,1.232023,0.355459,3.462655,7.337902,1.449329,1.1111,0.423285,5.971327,13.433726,2.734539,1.934819,0.759467
1720179052,49,0,4217.563965,4217.692383,4268.846191,4264.358887,4243.974121,4251.410156,4218.974121,4225.641113,4230.512695,4007.05127,4360.512695,4437.563965,4399.230957,4575.641113,,,,,,,,,,,,,,,,,,,,,,,,,,,,,,,,,,,,,,,,,,,,,,,,,,,,,,,,,,,,,,,,,,,,,,
1720179052,50,0,4219.230957,4218.717773,4279.358887,4263.461426,4234.358887,4250.384766,4207.820313,4217.563965,4220.256348,4006.153809,4361.410156,4439.871582,4412.436035,4583.974121,,,,,,,,,,,,,,,,,,,,,,,,,,,,,,,,,,,,,,,,,,,,,,,,,,,,,,,,,,,,,,,,,,,,,,
1720179052,51,0,4230.897461,4216.153809,4279.871582,4264.102539,4237.820313,4252.05127,4205.128418,4214.230957,4209.871582,3999.615479,4354.487305,4443.333496,4415.641113,4582.94873,,,,,,,,,,,,,,,,,,,,,,,,,,,,,,,,,,,,,,,,,,,,,,,,,,,,,,,,,,,,,,,,,,,,,,
1720179052,52,0,4238.333496,4224.615234,4279.102539,4270.128418,4246.153809,4252.820313,4210.512695,4224.615234,4194.358887,3991.923096,4360.897461,4451.794922,4410.769043,4578.461426,,,,,,,,,,,,,,,,,,,,,,,,,,,,,,,,,,,,,,,,,,,,,,,,,,,,,,,,,,,,,,,,,,,,,,
1720179052,53,0,4234.230957,4234.871582,4294.358887,4281.410156,4244.615234,4247.436035,4221.410156,4230.384766,4180.641113,3981.794922,4362.307617,4470.512695,4415.769043,4587.179688,,,,,,,,,,,,,,,,,,,,,,,,,,,,,,,,,,,,,,,,,,,,,,,,,,,,,,,,,,,,,,,,,,,,,,
1720179052,54,0,4240.769043,4235.897461,4312.820313,4293.846191,4240.128418,4248.077148,4234.487305,4236.666504,4168.846191,3966.410156,4363.077148,4491.922852,4421.538574,4602.307617,,,,,,,,,,,,,,,,,,,,,,,,,,,,,,,,,,,,,,,,,,,,,,,,,,,,,,,,,,,,,,,,,,,,,,
1720179052,55,0,4255,4235.897461,4315.256348,4297.05127,4246.410156,4256.025879,4244.615234,4242.179688,4163.717773,3957.435791,4364.871582,4496.410156,4419.358887,4593.717773,,,,,,,,,,,,,,,,,,,,,,,,,,,,,,,,,,,,,,,,,,,,,,,,,,,,,,,,,,,,,,,,,,,,,,
1720179052,56,0,4247.563965,4236.282227,4306.794922,4287.05127,4249.487305,4260.256348,4258.589844,4238.589844,4172.307617,3959.358887,4360.128418,4481.025879,4414.743652,4581.538574,,,,,,,,,,,,,,,,,,,,,,,,,,,,,,,,,,,,,,,,,,,,,,,,,,,,,,,,,,,,,,,,,,,,,,
1720179052,57,0,4228.205078,4226.282227,4295,4270.128418,4244.487305,4266.025879,4270,4238.974121,4183.461426,3957.179443,4360.128418,4464.102539,4399.358887,4584.487305,,,,,,,,,,,,,,,,,,,,,,,,,,,,,,,,,,,,,,,,,,,,,,,,,,,,,,,,,,,,,,,,,,,,,,
1720179052,58,0,4224.102539,4213.205078,4282.94873,4260.512695,4246.153809,4273.974121,4259.230957,4242.692383,4193.589844,3952.05127,4362.692383,4452.436035,4386.282227,4576.538574,,,,,,,,,,,,,,,,,,,,,,,,,,,,,,,,,,,,,,,,,,,,,,,,,,,,,,,,,,,,,,,,,,,,,,
1720179052,59,0,4224.743652,4211.153809,4275.384766,4259.230957,4250.769043,4278.846191,4239.358887,4239.230957,4211.153809,3959.615479,4358.461426,4441.794922,4392.563965,4553.846191,,,,,,,,,,,,,,,,,,,,,,,,,,,,,,,,,,,,,,,,,,,,,,,,,,,,,,,,,,,,,,,,,,,,,,
1720179052,60,0,4212.436035,4211.794922,4269.615234,4257.563965,4247.563965,4278.589844,4230.384766,4230,4221.410156,3968.205078,4362.692383,4431.794922,4395,4543.974121,,,,,,,,,,,,,,,,,,,,,,,,,,,,,,,,,,,,,,,,,,,,,,,,,,,,,,,,,,,,,,,,,,,,,,
1720179052,61,0,4209.102539,4211.538574,4269.358887,4256.794922,4243.717773,4270.128418,4220.769043,4220.641113,4212.05127,3973.846191,4366.666504,4430.512695,4389.871582,4553.077148,,,,,,,,,,,,,,,,,,,,,,,,,,,,,,,,,,,,,,,,,,,,,,,,,,,,,,,,,,,,,,,,,,,,,,
1720179052,62,0,4230.512695,4220.769043,4283.461426,4261.410156,4242.436035,4255.512695,4204.871582,4213.205078,4201.922852,3971.025635,4355.897461,4444.102539,4404.615234,4566.922852,,,,,,,,,,,,,,,,,,,,,,,,,,,,,,,,,,,,,,,,,,,,,,,,,,,,,,,,,,,,,,,,,,,,,,
1720179052,63,0,4243.077148,4231.282227,4294.743652,4269.871582,4238.077148,4246.922852,4199.487305,4219.615234,4197.05127,3956.923096,4360.769043,4460.897461,4421.794922,4582.05127,,,,,,,,,,,,,,,,,,,,,,,,,,,,,,,,,,,,,,,,,,,,,,,,,,,,,,,,,,,,,,,,,,,,,,
1720179052,64,0,4241.410156,4237.436035,4294.615234,4280,4240.512695,4247.692383,4210.128418,4232.436035,4185.641113,3957.05127,4369.743652,4472.05127,4423.333496,4593.205078,2.216288,13.659658,1.285342,0.704249,0.382091,3.771136,9.309743,0.634134,0.667357,0.183601,2.96684,14.523555,1.356037,0.714449,0.120376,2.911149,9.78549,0.752311,0.510069,0.13763,0.674562,1.554156,0.08941,0.27333,0.09631,0.890634,1.309366,0.257945,0.236789,0.056594,1.44688,4.659117,2.304819,0.281394,0.14464,0.909563,5.226104,1.067919,0.235852,0.122668,2.053159,35.775204,1.728197,0.905713,0.196333,4.94095,5.059316,2.509656,1.137141,0.336885,0.101715,0.079034,0.012365,0.021829,0.075827,5.526974,19.300714,2.111752,1.210965,0.345624,4.00411,8.32615,1.268103,1.097516,0.414836,6.05618,14.60302,2.538441,1.954486,0.690078
1720179052,65,0,4251.794922,4246.025879,4301.538574,4288.974121,4249.358887,4252.563965,4222.820313,4237.692383,4170.897461,3971.666748,4364.871582,4484.358887,4426.153809,4600.384766,,,,,,,,,,,,,,,,,,,,,,,,,,,,,,,,,,,,,,,,,,,,,,,,,,,,,,,,,,,,,,,,,,,,,,
1720179052,66,0,4259.102539,4252.05127,4316.153809,4293.205078,4249.487305,4256.153809,4231.410156,4240.384766,4163.205078,3974.358887,4363.205078,4498.077148,4431.794922,4608.589844,,,,,,,,,,,,,,,,,,,,,,,,,,,,,,,,,,,,,,,,,,,,,,,,,,,,,,,,,,,,,,,,,,,,,,
1720179052,67,0,4252.563965,4251.410156,4319.358887,4293.589844,4250.512695,4262.05127,4243.077148,4245,4171.794922,3972.820557,4361.538574,4503.205078,4434.743652,4613.461426,,,,,,,,,,,,,,,,,,,,,,,,,,,,,,,,,,,,,,,,,,,,,,,,,,,,,,,,,,,,,,,,,,,,,,
1720179052,68,0,4241.538574,4236.794922,4303.974121,4280.769043,4251.153809,4271.538574,4252.692383,4250.256348,4187.563965,3972.820557,4359.358887,4478.333496,4417.820313,4589.871582,,,,,,,,,,,,,,,,,,,,,,,,,,,,,,,,,,,,,,,,,,,,,,,,,,,,,,,,,,,,,,,,,,,,,,
1720179052,69,0,4210.384766,4202.563965,4267.820313,4245.128418,4235.641113,4271.153809,4242.179688,4239.743652,4182.94873,3946.794922,4357.05127,4419.743652,4366.666504,4530.512695,,,,,,,,,,,,,,,,,,,,,,,,,,,,,,,,,,,,,,,,,,,,,,,,,,,,,,,,,,,,,,,,,,,,,,
1720179052,70,0,4173.205078,4173.333496,4229.615234,4210.897461,4218.974121,4265.641113,4224.230957,4219.743652,4171.794922,3920.256348,4356.282227,4381.794922,4330.769043,4480.641113,,,,,,,,,,,,,,,,,,,,,,,,,,,,,,,,,,,,,,,,,,,,,,,,,,,,,,,,,,,,,,,,,,,,,,
1720179052,71,0,4180.128418,4177.179688,4222.820313,4211.025879,4221.025879,4274.102539,4225.384766,4220.256348,4188.589844,3940.256348,4361.538574,4398.846191,4352.563965,4487.05127,,,,,,,,,,,,,,,,,,,,,,,,,,,,,,,,,,,,,,,,,,,,,,,,,,,,,,,,,,,,,,,,,,,,,,
1720179052,72,0,4208.589844,4196.794922,4238.077148,4232.307617,4233.717773,4284.102539,4234.358887,4227.692383,4208.077148,3976.410156,4361.794922,4418.846191,4386.922852,4527.563965,,,,,,,,,,,,,,,,,,,,,,,,,,,,,,,,,,,,,,,,,,,,,,,,,,,,,,,,,,,,,,,,,,,,,,
1720179052,73,0,4213.333496,4206.153809,4249.230957,4241.794922,4241.666504,4281.410156,4230.641113,4225.769043,4206.794922,3979.358887,4356.025879,4420.512695,4399.102539,4556.025879,,,,,,,,,,,,,,,,,,,,,,,,,,,,,,,,,,,,,,,,,,,,,,,,,,,,,,,,,,,,,,,,,,,,,,
1720179052,74,0,4218.589844,4216.025879,4263.333496,4247.436035,4238.974121,4271.794922,4216.282227,4226.538574,4202.307617,3971.410156,4359.871582,4439.615234,4411.025879,4570.641113,,,,,,,,,,,,,,,,,,,,,,,,,,,,,,,,,,,,,,,,,,,,,,,,,,,,,,,,,,,,,,,,,,,,,,
1720179052,75,0,4242.820313,4237.94873,4282.94873,4267.05127,4237.692383,4260.641113,4197.820313,4225.769043,4193.461426,3985.128174,4363.974121,4466.794922,4430.897461,4589.102539,,,,,,,,,,,,,,,,,,,,,,,,,,,,,,,,,,,,,,,,,,,,,,,,,,,,,,,,,,,,,,,,,,,,,,
1720179052,76,0,4257.692383,4251.410156,4295.897461,4282.307617,4245.512695,4250.769043,4189.230957,4215.641113,4172.05127,4000.384521,4359.743652,4472.820313,4444.102539,4605.384766,,,,,,,,,,,,,,,,,,,,,,,,,,,,,,,,,,,,,,,,,,,,,,,,,,,,,,,,,,,,,,,,,,,,,,
1720179052,77,0,4254.743652,4252.563965,4305.384766,4282.692383,4250.128418,4252.436035,4194.871582,4215,4155.384766,4002.820557,4365.256348,4477.05127,4447.05127,4609.487305,,,,,,,,,,,,,,,,,,,,,,,,,,,,,,,,,,,,,,,,,,,,,,,,,,,,,,,,,,,,,,,,,,,,,,
1720179052,78,0,4256.025879,4259.102539,4315.128418,4290.128418,4249.358887,4258.077148,4205,4223.333496,4148.974121,4002.05127,4367.436035,4498.333496,4447.94873,4602.436035,,,,,,,,,,,,,,,,,,,,,,,,,,,,,,,,,,,,,,,,,,,,,,,,,,,,,,,,,,,,,,,,,,,,,,
1720179052,79,0,4266.922852,4264.487305,4322.05127,4300.256348,4250.384766,4254.358887,4220.769043,4232.94873,4148.461426,4001.923096,4364.358887,4515.256348,4445.641113,4598.717773,,,,,,,,,,,,,,,,,,,,,,,,,,,,,,,,,,,,,,,,,,,,,,,,,,,,,,,,,,,,,,,,,,,,,,
1720179052,80,0,4278.205078,4265.384766,4327.179688,4300.769043,4248.974121,4247.05127,4240.128418,4245.897461,4165.512695,4008.589844,4367.05127,4510.256348,4443.333496,4614.743652,2.339157,16.162634,1.106687,0.656841,0.469124,3.602695,10.48436,0.539987,0.589036,0.200573,3.377764,15.919014,1.358282,0.660782,0.131496,3.15876,11.095903,0.697422,0.508234,0.129984,0.617937,1.852918,0.09381,0.295777,0.099396,0.723656,1.340143,0.29191,0.277467,0.058167,1.283637,5.509061,2.330692,0.260572,0.1504,0.800131,5.509028,1.056667,0.258715,0.128425,2.229322,39.940536,1.505174,0.883703,0.177756,5.23636,6.554769,2.437383,1.468626,0.345951,0.103205,0.093551,0.015118,0.025038,0.072637,5.612206,21.977507,1.800124,1.137987,0.34536,4.544259,9.666207,1.010037,1.063473,0.408843,5.953037,16.32456,2.237024,1.883115,0.656256
1720179052,81,0,4277.563965,4266.666504,4322.692383,4295.641113,4248.461426,4250.897461,4248.205078,4251.538574,4193.205078,4021.153809,4361.666504,4501.922852,4449.743652,4631.538574,,,,,,,,,,,,,,,,,,,,,,,,,,,,,,,,,,,,,,,,,,,,,,,,,,,,,,,,,,,,,,,,,,,,,,
1720179052,82,0,4260.769043,4253.717773,4306.538574,4280.897461,4246.922852,4265,4249.615234,4252.563965,4206.025879,4012.94873,4359.102539,4498.846191,4452.692383,4618.717773,,,,,,,,,,,,,,,,,,,,,,,,,,,,,,,,,,,,,,,,,,,,,,,,,,,,,,,,,,,,,,,,,,,,,,
1720179052,83,0,4244.743652,4235,4289.102539,4262.820313,4240,4267.436035,4248.077148,4247.692383,4204.615234,3994.358887,4362.436035,4481.666504,4438.333496,4593.717773,,,,,,,,,,,,,,,,,,,,,,,,,,,,,,,,,,,,,,,,,,,,,,,,,,,,,,,,,,,,,,,,,,,,,,
1720179052,84,0,4237.05127,4232.179688,4276.666504,4255,4239.743652,4261.153809,4238.846191,4234.871582,4201.410156,3994.871826,4360.256348,4460.641113,4427.820313,4581.922852,,,,,,,,,,,,,,,,,,,,,,,,,,,,,,,,,,,,,,,,,,,,,,,,,,,,,,,,,,,,,,,,,,,,,,
1720179052,85,0,4230.384766,4230.256348,4268.461426,4248.205078,4245,4266.410156,4226.922852,4230.256348,4191.153809,3992.05127,4361.922852,4455.384766,4429.871582,4572.307617,,,,,,,,,,,,,,,,,,,,,,,,,,,,,,,,,,,,,,,,,,,,,,,,,,,,,,,,,,,,,,,,,,,,,,
1720179052,86,0,4234.615234,4225.256348,4269.871582,4245.897461,4247.563965,4272.436035,4219.358887,4229.230957,4175.769043,3985.256348,4366.153809,4460.897461,4431.025879,4557.563965,,,,,,,,,,,,,,,,,,,,,,,,,,,,,,,,,,,,,,,,,,,,,,,,,,,,,,,,,,,,,,,,,,,,,,
1720179052,87,0,4247.692383,4232.563965,4276.025879,4257.436035,4248.846191,4268.717773,4211.538574,4219.871582,4163.589844,3998.718018,4360.256348,4460.256348,4432.436035,4562.692383,,,,,,,,,,,,,,,,,,,,,,,,,,,,,,,,,,,,,,,,,,,,,,,,,,,,,,,,,,,,,,,,,,,,,,
1720179052,88,0,4248.205078,4241.922852,4273.846191,4262.307617,4248.333496,4262.179688,4199.230957,4213.077148,4148.461426,4013.974365,4360.641113,4457.436035,4439.615234,4587.436035,,,,,,,,,,,,,,,,,,,,,,,,,,,,,,,,,,,,,,,,,,,,,,,,,,,,,,,,,,,,,,,,,,,,,,
1720179052,89,0,4250.384766,4246.153809,4277.563965,4261.666504,4249.102539,4264.487305,4195.256348,4214.743652,4135.128418,4015.641113,4368.077148,4474.615234,4451.794922,4599.230957,,,,,,,,,,,,,,,,,,,,,,,,,,,,,,,,,,,,,,,,,,,,,,,,,,,,,,,,,,,,,,,,,,,,,,
1720179052,90,0,4263.333496,4255.769043,4294.871582,4273.077148,4253.205078,4268.589844,4207.05127,4218.205078,4135.512695,4020.512939,4360.384766,4500.897461,4460,4606.794922,,,,,,,,,,,,,,,,,,,,,,,,,,,,,,,,,,,,,,,,,,,,,,,,,,,,,,,,,,,,,,,,,,,,,,
1720179052,91,0,4269.871582,4264.871582,4314.487305,4283.589844,4254.615234,4266.153809,4228.846191,4230.128418,4146.282227,4031.281982,4362.307617,4512.563965,4460.256348,4627.05127,,,,,,,,,,,,,,,,,,,,,,,,,,,,,,,,,,,,,,,,,,,,,,,,,,,,,,,,,,,,,,,,,,,,,,
1720179052,92,0,4265.769043,4261.025879,4323.717773,4283.717773,4251.666504,4263.205078,4239.230957,4240.384766,4162.436035,4039.871826,4370.512695,4510.384766,4456.538574,4630.384766,,,,,,,,,,,,,,,,,,,,,,,,,,,,,,,,,,,,,,,,,,,,,,,,,,,,,,,,,,,,,,,,,,,,,,
1720179052,93,0,4264.230957,4253.333496,4320.128418,4281.282227,4248.717773,4263.717773,4238.846191,4240.897461,4182.692383,4052.307617,4365.128418,4507.179688,4452.563965,4603.846191,,,,,,,,,,,,,,,,,,,,,,,,,,,,,,,,,,,,,,,,,,,,,,,,,,,,,,,,,,,,,,,,,,,,,,
1720179053,94,0,4263.461426,4249.230957,4312.05127,4271.025879,4243.589844,4263.077148,4243.077148,4244.743652,4200.128418,4061.281982,4365,4500.384766,4447.820313,4581.666504,,,,,,,,,,,,,,,,,,,,,,,,,,,,,,,,,,,,,,,,,,,,,,,,,,,,,,,,,,,,,,,,,,,,,,
1720179053,95,0,4253.846191,4237.692383,4295.256348,4250.641113,4242.692383,4263.333496,4242.692383,4245.512695,4208.461426,4058.076904,4361.282227,4480.384766,4438.333496,4582.05127,,,,,,,,,,,,,,,,,,,,,,,,,,,,,,,,,,,,,,,,,,,,,,,,,,,,,,,,,,,,,,,,,,,,,,
1720179053,96,0,4240.256348,4226.794922,4278.717773,4242.179688,4244.743652,4268.333496,4237.05127,4236.922852,4206.153809,4059.743652,4358.333496,4461.153809,4428.974121,4587.05127,2.557112,18.093533,0.936995,0.583311,0.542051,3.514318,11.450919,0.447444,0.494566,0.222907,3.915244,17.403324,1.31159,0.584773,0.151765,3.520994,12.231492,0.632128,0.495621,0.130709,0.583809,2.068086,0.11669,0.310199,0.103738,0.550484,1.416746,0.323621,0.307363,0.062132,1.106481,7.125367,2.106351,0.254777,0.154195,0.684863,5.913209,0.938187,0.288053,0.133551,2.422624,43.144398,1.377627,0.893775,0.167085,5.326552,7.990074,2.160767,1.808561,0.359587,0.102186,0.105432,0.020158,0.031472,0.072274,5.781475,24.592876,1.449364,1.038949,0.344585,5.027162,11.043314,0.749393,1.016756,0.406753,5.976281,18.104328,1.931493,1.779444,0.657526
1720179053,97,0,4233.974121,4228.974121,4278.717773,4243.974121,4236.666504,4268.589844,4230.769043,4231.282227,4195.256348,4072.820557,4365.128418,4458.333496,4425.769043,4585.512695,,,,,,,,,,,,,,,,,,,,,,,,,,,,,,,,,,,,,,,,,,,,,,,,,,,,,,,,,,,,,,,,,,,,,,
1720179053,98,0,4241.153809,4233.333496,4288.205078,4245.769043,4230.128418,4264.743652,4222.692383,4231.538574,4183.846191,4076.923096,4363.846191,4464.358887,4426.922852,4580.384766,,,,,,,,,,,,,,,,,,,,,,,,,,,,,,,,,,,,,,,,,,,,,,,,,,,,,,,,,,,,,,,,,,,,,,
1720179053,99,0,4255.897461,4236.153809,4289.871582,4253.974121,4236.794922,4264.230957,4212.94873,4225.897461,4172.563965,4072.05127,4360.897461,4463.717773,4429.102539,4581.153809,,,,,,,,,,,,,,,,,,,,,,,,,,,,,,,,,,,,,,,,,,,,,,,,,,,,,,,,,,,,,,,,,,,,,,
1720179053,100,0,4265.897461,4245.128418,4288.333496,4263.974121,4245.256348,4260.512695,4208.589844,4217.436035,4155.256348,4081.153809,4367.563965,4464.615234,4435.256348,4589.487305,,,,,,,,,,,,,,,,,,,,,,,,,,,,,,,,,,,,,,,,,,,,,,,,,,,,,,,,,,,,,,,,,,,,,,
1720179053,101,0,4269.230957,4249.743652,4300.128418,4266.538574,4249.487305,4255.512695,4208.717773,4213.333496,4140.128418,4091.794922,4364.358887,4481.025879,4445.256348,4599.743652,,,,,,,,,,,,,,,,,,,,,,,,,,,,,,,,,,,,,,,,,,,,,,,,,,,,,,,,,,,,,,,,,,,,,,
1720179053,102,0,4273.717773,4247.692383,4315.897461,4270.384766,4251.410156,4260.384766,4212.436035,4215.384766,4132.307617,4089.871826,4359.743652,4502.05127,4452.179688,4604.871582,,,,,,,,,,,,,,,,,,,,,,,,,,,,,,,,,,,,,,,,,,,,,,,,,,,,,,,,,,,,,,,,,,,,,,
1720179053,103,0,4275.769043,4256.153809,4325.128418,4278.205078,4251.153809,4266.153809,4227.692383,4222.94873,4130.769043,4087.564209,4369.487305,4513.077148,4457.179688,4613.717773,,,,,,,,,,,,,,,,,,,,,,,,,,,,,,,,,,,,,,,,,,,,,,,,,,,,,,,,,,,,,,,,,,,,,,
1720179053,104,0,4272.692383,4263.717773,4328.205078,4281.922852,4250.897461,4262.05127,4241.538574,4233.077148,4146.153809,4087.179443,4367.820313,4515.512695,4460.897461,4629.615234,,,,,,,,,,,,,,,,,,,,,,,,,,,,,,,,,,,,,,,,,,,,,,,,,,,,,,,,,,,,,,,,,,,,,,
1720179053,105,0,4267.436035,4256.666504,4322.563965,4280.512695,4248.974121,4260.769043,4248.846191,4245.769043,4176.153809,4095.897461,4362.94873,4512.307617,4458.974121,4628.589844,,,,,,,,,,,,,,,,,,,,,,,,,,,,,,,,,,,,,,,,,,,,,,,,,,,,,,,,,,,,,,,,,,,,,,
1720179053,106,0,4252.179688,4242.05127,4305.641113,4270.641113,4245.256348,4267.05127,4251.794922,4253.589844,4197.436035,4107.94873,4367.692383,4497.179688,4452.05127,4602.307617,,,,,,,,,,,,,,,,,,,,,,,,,,,,,,,,,,,,,,,,,,,,,,,,,,,,,,,,,,,,,,,,,,,,,,
1720179053,107,0,4238.717773,4233.589844,4289.230957,4257.692383,4245.512695,4269.615234,4250.384766,4250,4202.05127,4109.102539,4367.563965,4480.256348,4443.077148,4585.384766,,,,,,,,,,,,,,,,,,,,,,,,,,,,,,,,,,,,,,,,,,,,,,,,,,,,,,,,,,,,,,,,,,,,,,
1720179053,108,0,4247.436035,4232.179688,4290.256348,4256.666504,4247.563965,4268.461426,4251.025879,4240.512695,4200.512695,4112.307617,4366.666504,4478.077148,4433.589844,4594.871582,,,,,,,,,,,,,,,,,,,,,,,,,,,,,,,,,,,,,,,,,,,,,,,,,,,,,,,,,,,,,,,,,,,,,,
1720179053,109,0,4258.333496,4231.410156,4294.358887,4258.717773,4247.563965,4267.94873,4245.897461,4234.230957,4195,4121.666504,4364.358887,4480.769043,4426.025879,4589.487305,,,,,,,,,,,,,,,,,,,,,,,,,,,,,,,,,,,,,,,,,,,,,,,,,,,,,,,,,,,,,,,,,,,,,,
1720179053,110,0,4251.153809,4237.436035,4290.641113,4257.307617,4246.153809,4267.563965,4236.794922,4236.153809,4183.846191,4121.666504,4362.05127,4481.666504,4430.384766,4577.05127,,,,,,,,,,,,,,,,,,,,,,,,,,,,,,,,,,,,,,,,,,,,,,,,,,,,,,,,,,,,,,,,,,,,,,
1720179053,111,0,4243.205078,4247.563965,4297.05127,4261.922852,4243.333496,4264.871582,4227.05127,4232.563965,4170.384766,4119.743652,4362.692383,4488.461426,4445.641113,4594.871582,,,,,,,,,,,,,,,,,,,,,,,,,,,,,,,,,,,,,,,,,,,,,,,,,,,,,,,,,,,,,,,,,,,,,,
1720179053,112,0,4246.282227,4252.94873,4307.563965,4264.487305,4245.128418,4262.820313,4219.230957,4220.641113,4153.717773,4117.05127,4364.358887,4494.487305,4448.205078,4610.384766,2.880791,19.066492,0.804428,0.517663,0.584153,3.584685,12.02376,0.395331,0.416148,0.239627,4.627282,18.711407,1.21707,0.522765,0.172613,3.981339,13.000042,0.579928,0.48576,0.136672,0.585238,2.133487,0.155096,0.315021,0.111732,0.428249,1.575431,0.343077,0.324813,0.067779,0.969012,9.579243,1.7428,0.27342,0.157599,0.597851,6.382879,0.776661,0.316575,0.136216,2.609012,44.790871,1.292416,0.917098,0.164327,5.52092,8.969014,1.762521,2.045064,0.371617,0.097199,0.112144,0.026219,0.040155,0.075749,6.119803,26.663319,1.210859,0.95866,0.339847,5.428402,12.15587,0.601626,0.97401,0.408012,6.273863,19.594995,1.789177,1.725161,0.682111
1720179053,113,0,4254.230957,4254.230957,4306.538574,4265.769043,4248.589844,4263.974121,4215.384766,4214.615234,4140.256348,4111.410156,4364.615234,4491.666504,4441.922852,4607.307617,,,,,,,,,,,,,,,,,,,,,,,,,,,,,,,,,,,,,,,,,,,,,,,,,,,,,,,,,,,,,,,,,,,,,,
1720179053,114,0,4270,4261.025879,4308.333496,4277.05127,4243.974121,4265.512695,4215.256348,4216.666504,4133.205078,4121.922852,4364.487305,4495.256348,4448.461426,4613.846191,,,,,,,,,,,,,,,,,,,,,,,,,,,,,,,,,,,,,,,,,,,,,,,,,,,,,,,,,,,,,,,,,,,,,,
1720179053,115,0,4292.436035,4274.615234,4321.666504,4284.102539,4245.769043,4263.461426,4224.487305,4221.666504,4132.94873,4140,4363.333496,4514.487305,4464.102539,4633.974121,,,,,,,,,,,,,,,,,,,,,,,,,,,,,,,,,,,,,,,,,,,,,,,,,,,,,,,,,,,,,,,,,,,,,,
1720179053,116,0,4298.333496,4281.410156,4326.282227,4283.333496,4257.94873,4264.487305,4240.641113,4232.436035,4143.333496,4147.436035,4365.256348,4532.563965,4466.922852,4635.384766,,,,,,,,,,,,,,,,,,,,,,,,,,,,,,,,,,,,,,,,,,,,,,,,,,,,,,,,,,,,,,,,,,,,,,
1720179053,117,0,4277.692383,4270.897461,4315.769043,4280.256348,4258.717773,4271.153809,4252.436035,4238.717773,4158.717773,4153.205078,4368.974121,4524.358887,4454.358887,4609.743652,,,,,,,,,,,,,,,,,,,,,,,,,,,,,,,,,,,,,,,,,,,,,,,,,,,,,,,,,,,,,,,,,,,,,,
1720179053,118,0,4253.846191,4252.436035,4297.179688,4264.358887,4248.717773,4272.820313,4252.436035,4234.230957,4167.820313,4158.974121,4356.794922,4494.615234,4445.384766,4582.820313,,,,,,,,,,,,,,,,,,,,,,,,,,,,,,,,,,,,,,,,,,,,,,,,,,,,,,,,,,,,,,,,,,,,,,
1720179053,119,0,4235.128418,4238.974121,4275,4242.436035,4245.897461,4275.128418,4253.846191,4240.256348,4174.102539,4151.410156,4356.538574,4477.94873,4438.333496,4581.153809,,,,,,,,,,,,,,,,,,,,,,,,,,,,,,,,,,,,,,,,,,,,,,,,,,,,,,,,,,,,,,,,,,,,,,
1720179053,120,0,4219.743652,4235.384766,4266.794922,4237.820313,4248.333496,4278.846191,4253.846191,4249.871582,4181.410156,4139.102539,4368.589844,4475.512695,4432.436035,4599.230957,,,,,,,,,,,,,,,,,,,,,,,,,,,,,,,,,,,,,,,,,,,,,,,,,,,,,,,,,,,,,,,,,,,,,,
1720179053,121,0,4225.769043,4244.358887,4278.461426,4248.974121,4246.538574,4274.615234,4238.589844,4240.256348,4180.256348,4139.102539,4361.153809,4473.846191,4436.922852,4600.641113,,,,,,,,,,,,,,,,,,,,,,,,,,,,,,,,,,,,,,,,,,,,,,,,,,,,,,,,,,,,,,,,,,,,,,
1720179053,122,0,4249.358887,4259.102539,4290.128418,4257.692383,4244.230957,4271.025879,4230.256348,4233.077148,4172.820313,4143.589844,4358.205078,4479.615234,4444.102539,4586.153809,,,,,,,,,,,,,,,,,,,,,,,,,,,,,,,,,,,,,,,,,,,,,,,,,,,,,,,,,,,,,,,,,,,,,,
1720179053,123,0,4257.307617,4261.794922,4293.077148,4257.692383,4248.077148,4268.333496,4228.846191,4230.512695,4159.358887,4140.128418,4362.307617,4492.05127,4440.641113,4587.563965,,,,,,,,,,,,,,,,,,,,,,,,,,,,,,,,,,,,,,,,,,,,,,,,,,,,,,,,,,,,,,,,,,,,,,
1720179053,124,0,4256.538574,4260,4301.538574,4258.589844,4257.94873,4266.922852,4220.897461,4220.256348,4141.410156,4142.307617,4364.487305,4498.461426,4439.230957,4604.230957,,,,,,,,,,,,,,,,,,,,,,,,,,,,,,,,,,,,,,,,,,,,,,,,,,,,,,,,,,,,,,,,,,,,,,
1720179053,125,0,4267.05127,4268.461426,4311.666504,4263.205078,4264.230957,4270.641113,4218.461426,4213.717773,4135.256348,4157.179688,4367.820313,4501.538574,4446.410156,4608.974121,,,,,,,,,,,,,,,,,,,,,,,,,,,,,,,,,,,,,,,,,,,,,,,,,,,,,,,,,,,,,,,,,,,,,,
1720179053,126,0,4273.077148,4276.538574,4315.641113,4265.769043,4261.282227,4271.794922,4227.820313,4217.436035,4135.128418,4166.794922,4363.333496,4509.615234,4448.333496,4607.05127,,,,,,,,,,,,,,,,,,,,,,,,,,,,,,,,,,,,,,,,,,,,,,,,,,,,,,,,,,,,,,,,,,,,,,
1720179053,127,0,4278.974121,4281.922852,4326.794922,4273.974121,4261.666504,4266.794922,4240.769043,4225.897461,4133.333496,4179.230957,4361.410156,4522.820313,4455.384766,4629.615234,,,,,,,,,,,,,,,,,,,,,,,,,,,,,,,,,,,,,,,,,,,,,,,,,,,,,,,,,,,,,,,,,,,,,,
1720179053,0,0,4283.461426,4283.077148,4336.410156,4282.436035,4262.820313,4267.692383,4256.153809,4240.384766,4145.128418,4195.897461,4371.410156,4536.153809,4466.794922,4642.05127,3.321603,19.107672,0.750307,0.489833,0.589261,3.806872,12.339284,0.419968,0.37751,0.243105,5.396895,19.884153,1.130341,0.509858,0.18788,4.423346,13.536105,0.575222,0.494568,0.144578,0.601477,2.042253,0.200292,0.311819,0.124443,0.37001,1.848581,0.343208,0.332357,0.074994,0.914602,12.704682,1.421874,0.320353,0.162333,0.547475,6.805097,0.666299,0.343787,0.135609,2.774535,44.738621,1.2612,0.944369,0.167672,5.800977,9.231306,1.35153,2.109988,0.379587,0.097495,0.114325,0.031062,0.049634,0.082285,6.51631,28.138559,1.235938,0.938307,0.33486,5.567663,12.938845,0.68455,0.954157,0.411638,6.786106,20.847178,2.007272,1.793903,0.715784
1720179053,1,0,4268.717773,4274.615234,4321.922852,4271.666504,4254.871582,4271.794922,4266.794922,4247.820313,4167.436035,4191.922852,4368.974121,4529.102539,4457.436035,4616.666504,,,,,,,,,,,,,,,,,,,,,,,,,,,,,,,,,,,,,,,,,,,,,,,,,,,,,,,,,,,,,,,,,,,,,,
1720179053,2,0,4251.794922,4261.282227,4298.461426,4252.94873,4247.94873,4273.846191,4265.128418,4241.410156,4173.717773,4183.077148,4360,4501.282227,4435.897461,4596.538574,,,,,,,,,,,,,,,,,,,,,,,,,,,,,,,,,,,,,,,,,,,,,,,,,,,,,,,,,,,,,,,,,,,,,,
1720179053,3,0,4253.461426,4251.538574,4291.794922,4245.769043,4249.871582,4279.743652,4261.282227,4242.179688,4169.743652,4190,4367.692383,4485.769043,4425.256348,4592.05127,,,,,,,,,,,,,,,,,,,,,,,,,,,,,,,,,,,,,,,,,,,,,,,,,,,,,,,,,,,,,,,,,,,,,,
1720179053,4,0,4261.538574,4246.538574,4292.436035,4245.512695,4250.769043,4280.128418,4257.436035,4250.256348,4174.358887,4200.512695,4368.077148,4488.333496,4423.461426,4581.666504,,,,,,,,,,,,,,,,,,,,,,,,,,,,,,,,,,,,,,,,,,,,,,,,,,,,,,,,,,,,,,,,,,,,,,
1720179053,5,0,4258.461426,4246.922852,4291.922852,4247.307617,4248.461426,4274.743652,4248.333496,4249.871582,4178.717773,4201.666504,4364.102539,4493.974121,4422.820313,4583.717773,,,,,,,,,,,,,,,,,,,,,,,,,,,,,,,,,,,,,,,,,,,,,,,,,,,,,,,,,,,,,,,,,,,,,,
1720179053,6,0,4253.461426,4256.410156,4292.692383,4247.563965,4249.743652,4270.512695,4237.94873,4239.743652,4171.538574,4193.077148,4367.94873,4494.615234,4426.922852,4604.871582,,,,,,,,,,,,,,,,,,,,,,,,,,,,,,,,,,,,,,,,,,,,,,,,,,,,,,,,,,,,,,,,,,,,,,
1720179053,7,0,4257.436035,4261.538574,4294.871582,4246.922852,4249.871582,4265.769043,4227.820313,4229.615234,4157.05127,4186.025879,4368.589844,4490.641113,4433.717773,4615.128418,,,,,,,,,,,,,,,,,,,,,,,,,,,,,,,,,,,,,,,,,,,,,,,,,,,,,,,,,,,,,,,,,,,,,,
1720179053,8,0,4266.025879,4261.153809,4300.641113,4254.358887,4252.307617,4265.384766,4226.153809,4228.717773,4145.769043,4180.512695,4370.384766,4498.333496,4440.897461,4608.077148,,,,,,,,,,,,,,,,,,,,,,,,,,,,,,,,,,,,,,,,,,,,,,,,,,,,,,,,,,,,,,,,,,,,,,
1720179053,9,0,4276.794922,4270.897461,4310.512695,4267.179688,4262.179688,4268.717773,4235.128418,4230.256348,4141.410156,4171.410156,4371.666504,4527.563965,4452.179688,4607.563965,,,,,,,,,,,,,,,,,,,,,,,,,,,,,,,,,,,,,,,,,,,,,,,,,,,,,,,,,,,,,,,,,,,,,,
1720179053,10,0,4291.538574,4284.871582,4322.307617,4279.102539,4267.05127,4270.512695,4244.102539,4230.384766,4133.846191,4170.256348,4371.538574,4544.102539,4459.743652,4623.077148,,,,,,,,,,,,,,,,,,,,,,,,,,,,,,,,,,,,,,,,,,,,,,,,,,,,,,,,,,,,,,,,,,,,,,
1720179053,11,0,4307.692383,4290.641113,4332.94873,4286.538574,4267.94873,4268.717773,4246.538574,4231.538574,4126.538574,4181.538574,4371.538574,4538.589844,4464.358887,4647.436035,,,,,,,,,,,,,,,,,,,,,,,,,,,,,,,,,,,,,,,,,,,,,,,,,,,,,,,,,,,,,,,,,,,,,,
1720179053,12,0,4312.692383,4296.410156,4341.153809,4287.820313,4270.641113,4264.871582,4246.282227,4233.461426,4130.384766,4190.897461,4371.025879,4545.897461,4470.769043,4657.436035,,,,,,,,,,,,,,,,,,,,,,,,,,,,,,,,,,,,,,,,,,,,,,,,,,,,,,,,,,,,,,,,,,,,,,
1720179053,13,0,4303.846191,4297.820313,4341.025879,4282.820313,4268.974121,4266.025879,4247.05127,4233.077148,4140.769043,4191.538574,4371.794922,4556.410156,4472.436035,4651.666504,,,,,,,,,,,,,,,,,,,,,,,,,,,,,,,,,,,,,,,,,,,,,,,,,,,,,,,,,,,,,,,,,,,,,,
1720179053,14,0,4290,4285,4331.153809,4279.230957,4266.666504,4272.05127,4247.94873,4234.358887,4150.512695,4187.179688,4373.717773,4541.153809,4462.179688,4652.179688,,,,,,,,,,,,,,,,,,,,,,,,,,,,,,,,,,,,,,,,,,,,,,,,,,,,,,,,,,,,,,,,,,,,,,
1720179053,15,0,4282.563965,4278.717773,4325.641113,4277.692383,4266.666504,4277.307617,4247.94873,4242.563965,4164.871582,4187.436035,4367.563965,4523.717773,4446.922852,4648.717773,,,,,,,,,,,,,,,,,,,,,,,,,,,,,,,,,,,,,,,,,,,,,,,,,,,,,,,,,,,,,,,,,,,,,,
1720179053,16,0,4283.589844,4282.307617,4325.641113,4272.05127,4266.666504,4281.282227,4252.436035,4249.487305,4181.282227,4201.794922,4365.641113,4523.333496,4439.230957,4624.615234,3.850427,18.5982,0.847482,0.518507,0.562274,4.128517,12.71043,0.552258,0.385068,0.232921,6.165494,21.143627,1.155826,0.562667,0.194861,4.779755,14.162119,0.657614,0.530391,0.152206,0.624362,1.849057,0.242472,0.303639,0.139705,0.392842,2.216755,0.322288,0.333512,0.084022,0.903824,16.067154,1.270457,0.389594,0.168404,0.516105,7.09722,0.664706,0.372056,0.131964,2.829154,43.385067,1.284154,0.964959,0.17386,6.309496,8.747316,1.007748,1.999552,0.38635,0.101028,0.115129,0.032981,0.058082,0.089675,6.90325,29.347233,1.628199,0.993508,0.336307,5.507061,13.528363,1.062417,0.964653,0.416071,7.412542,22.182449,2.720886,2.013038,0.748161
1720179053,17,0,4272.307617,4273.846191,4311.922852,4258.974121,4265.384766,4280.128418,4252.179688,4245.897461,4181.410156,4205.769043,4378.974121,4516.794922,4427.179688,4601.410156,,,,,,,,,,,,,,,,,,,,,,,,,,,,,,,,,,,,,,,,,,,,,,,,,,,,,,,,,,,,,,,,,,,,,,
1720179053,18,0,4246.922852,4255.512695,4282.820313,4243.974121,4257.436035,4270.641113,4232.692383,4229.358887,4159.487305,4187.820313,4371.153809,4491.538574,4401.666504,4591.025879,,,,,,,,,,,,,,,,,,,,,,,,,,,,,,,,,,,,,,,,,,,,,,,,,,,,,,,,,,,,,,,,,,,,,,
1720179053,19,0,4233.846191,4243.717773,4266.922852,4235.897461,4241.538574,4261.666504,4211.025879,4213.077148,4132.692383,4174.230957,4360,4465.769043,4375.512695,4582.692383,,,,,,,,,,,,,,,,,,,,,,,,,,,,,,,,,,,,,,,,,,,,,,,,,,,,,,,,,,,,,,,,,,,,,,
1720179053,20,0,4243.846191,4243.846191,4286.153809,4239.743652,4242.436035,4266.282227,4219.615234,4217.436035,4130.384766,4184.102539,4370.256348,4475.897461,4375.384766,4584.743652,,,,,,,,,,,,,,,,,,,,,,,,,,,,,,,,,,,,,,,,,,,,,,,,,,,,,,,,,,,,,,,,,,,,,,
1720179053,21,0,4266.794922,4266.538574,4319.230957,4262.563965,4260.641113,4276.666504,4242.692383,4232.05127,4142.05127,4203.974121,4369.487305,4522.05127,4412.94873,4617.436035,,,,,,,,,,,,,,,,,,,,,,,,,,,,,,,,,,,,,,,,,,,,,,,,,,,,,,,,,,,,,,,,,,,,,,
1720179053,22,0,4288.205078,4299.102539,4335.512695,4290.128418,4265.512695,4280.256348,4246.666504,4233.461426,4130.256348,4215.128418,4366.666504,4552.179688,4450.512695,4663.077148,,,,,,,,,,,,,,,,,,,,,,,,,,,,,,,,,,,,,,,,,,,,,,,,,,,,,,,,,,,,,,,,,,,,,,
1720179053,23,0,4303.717773,4309.871582,4344.487305,4299.102539,4265.512695,4277.94873,4241.922852,4227.436035,4115.128418,4216.025879,4370.641113,4556.025879,4456.666504,4685.256348,,,,,,,,,,,,,,,,,,,,,,,,,,,,,,,,,,,,,,,,,,,,,,,,,,,,,,,,,,,,,,,,,,,,,,
1720179053,24,0,4311.025879,4309.230957,4362.05127,4296.922852,4275.256348,4275.641113,4248.846191,4232.94873,4132.179688,4216.282227,4373.461426,4565.897461,4454.871582,4683.974121,,,,,,,,,,,,,,,,,,,,,,,,,,,,,,,,,,,,,,,,,,,,,,,,,,,,,,,,,,,,,,,,,,,,,,
1720179053,25,0,4307.820313,4311.538574,4371.538574,4298.974121,4277.307617,4273.589844,4256.794922,4242.820313,4158.333496,4228.846191,4375.256348,4578.461426,4465.897461,4683.077148,,,,,,,,,,,,,,,,,,,,,,,,,,,,,,,,,,,,,,,,,,,,,,,,,,,,,,,,,,,,,,,,,,,,,,
1720179053,26,0,4299.358887,4306.666504,4367.563965,4296.666504,4268.461426,4272.820313,4255.897461,4247.820313,4173.077148,4248.333496,4373.333496,4572.563965,4468.205078,4678.205078,,,,,,,,,,,,,,,,,,,,,,,,,,,,,,,,,,,,,,,,,,,,,,,,,,,,,,,,,,,,,,,,,,,,,,
1720179053,27,0,4285,4291.153809,4365.512695,4284.487305,4262.05127,4274.230957,4250.641113,4249.230957,4185.641113,4249.615234,4371.922852,4554.102539,4455.128418,4667.563965,,,,,,,,,,,,,,,,,,,,,,,,,,,,,,,,,,,,,,,,,,,,,,,,,,,,,,,,,,,,,,,,,,,,,,
1720179053,28,0,4268.077148,4282.820313,4359.230957,4272.179688,4260.769043,4270,4245.897461,4244.871582,4189.230957,4233.461426,4375.384766,4534.871582,4444.743652,4656.410156,,,,,,,,,,,,,,,,,,,,,,,,,,,,,,,,,,,,,,,,,,,,,,,,,,,,,,,,,,,,,,,,,,,,,,
1720179053,29,0,4268.461426,4283.974121,4354.102539,4263.974121,4260.512695,4265.769043,4245.384766,4242.05127,4184.102539,4234.743652,4373.461426,4525,4442.563965,4643.333496,,,,,,,,,,,,,,,,,,,,,,,,,,,,,,,,,,,,,,,,,,,,,,,,,,,,,,,,,,,,,,,,,,,,,,
1720179053,30,0,4286.794922,4290.128418,4371.282227,4267.436035,4262.05127,4271.025879,4247.692383,4247.692383,4190,4256.538574,4370.897461,4536.410156,4447.179688,4650.128418,,,,,,,,,,,,,,,,,,,,,,,,,,,,,,,,,,,,,,,,,,,,,,,,,,,,,,,,,,,,,,,,,,,,,,
1720179053,31,0,4287.307617,4300.897461,4388.333496,4276.538574,4263.974121,4273.461426,4247.05127,4249.358887,4187.307617,4254.230957,4378.077148,4549.871582,4449.743652,4670.897461,,,,,,,,,,,,,,,,,,,,,,,,,,,,,,,,,,,,,,,,,,,,,,,,,,,,,,,,,,,,,,,,,,,,,,
1720179053,32,0,4272.563965,4301.666504,4380.384766,4278.589844,4263.461426,4265.128418,4245.897461,4237.307617,4160.512695,4233.717773,4372.179688,4542.692383,4441.282227,4660.897461,4.400949,18.028662,1.108579,0.609645,0.516493,4.422768,13.370409,0.772316,0.431606,0.214545,6.799403,22.627899,1.333754,0.672039,0.195326,4.985535,15.080648,0.824845,0.592958,0.158589,0.63862,1.640779,0.275502,0.293128,0.152932,0.465591,2.59611,0.281077,0.33068,0.093948,0.907536,19.076656,1.286608,0.469151,0.173523,0.498459,7.279242,0.753288,0.403603,0.126289,2.779504,41.49036,1.32436,0.97121,0.179035,6.861099,7.744466,0.794029,1.768088,0.393857,0.107792,0.117454,0.031724,0.063676,0.095855,7.18418,30.641863,2.315218,1.110063,0.349469,5.223706,14.09649,1.655849,0.99926,0.419071,7.948893,23.791491,3.813211,2.346446,0.777423
1720179053,33,0,4282.307617,4297.94873,4373.077148,4282.179688,4264.743652,4264.487305,4245.384766,4227.307617,4137.692383,4235,4366.922852,4532.436035,4435.641113,4639.358887,,,,,,,,,,,,,,,,,,,,,,,,,,,,,,,,,,,,,,,,,,,,,,,,,,,,,,,,,,,,,,,,,,,,,,
1720179053,34,0,4302.05127,4308.846191,4383.205078,4295.897461,4273.461426,4272.179688,4250.641113,4231.025879,4132.307617,4248.205078,4375.512695,4543.333496,4447.94873,4657.179688,,,,,,,,,,,,,,,,,,,,,,,,,,,,,,,,,,,,,,,,,,,,,,,,,,,,,,,,,,,,,,,,,,,,,,
1720179053,35,0,4311.794922,4322.94873,4393.589844,4303.974121,4279.230957,4274.230957,4258.077148,4234.487305,4130.128418,4250.641113,4375.641113,4566.153809,4468.205078,4685.512695,,,,,,,,,,,,,,,,,,,,,,,,,,,,,,,,,,,,,,,,,,,,,,,,,,,,,,,,,,,,,,,,,,,,,,
1720179053,36,0,4318.589844,4321.282227,4393.205078,4301.282227,4276.794922,4277.179688,4256.282227,4236.025879,4132.307617,4255.256348,4375.512695,4578.333496,4467.436035,4680.128418,,,,,,,,,,,,,,,,,,,,,,,,,,,,,,,,,,,,,,,,,,,,,,,,,,,,,,,,,,,,,,,,,,,,,,
1720179053,37,0,4308.589844,4307.692383,4382.436035,4295.384766,4275.256348,4277.820313,4247.179688,4234.615234,4149.230957,4266.538574,4375.128418,4568.717773,4449.487305,4654.102539,,,,,,,,,,,,,,,,,,,,,,,,,,,,,,,,,,,,,,,,,,,,,,,,,,,,,,,,,,,,,,,,,,,,,,
1720179053,38,0,4283.717773,4296.794922,4363.589844,4285.897461,4272.820313,4272.692383,4245.512695,4231.794922,4171.794922,4263.205078,4371.025879,4548.461426,4440.897461,4636.794922,,,,,,,,,,,,,,,,,,,,,,,,,,,,,,,,,,,,,,,,,,,,,,,,,,,,,,,,,,,,,,,,,,,,,,
1720179053,39,0,4273.846191,4290.384766,4349.615234,4277.820313,4263.461426,4274.102539,4248.333496,4240.512695,4190.769043,4262.05127,4373.461426,4535,4441.794922,4635.384766,,,,,,,,,,,,,,,,,,,,,,,,,,,,,,,,,,,,,,,,,,,,,,,,,,,,,,,,,,,,,,,,,,,,,,
1720179053,40,0,4278.077148,4287.820313,4340.512695,4276.922852,4260.128418,4279.487305,4247.94873,4249.102539,4206.410156,4279.230957,4377.307617,4530.897461,4445.512695,4645,,,,,,,,,,,,,,,,,,,,,,,,,,,,,,,,,,,,,,,,,,,,,,,,,,,,,,,,,,,,,,,,,,,,,,
1720179053,41,0,4268.974121,4279.743652,4329.871582,4273.589844,4257.563965,4274.743652,4246.922852,4239.871582,4206.282227,4273.974121,4373.461426,4520.512695,4441.922852,4642.307617,,,,,,,,,,,,,,,,,,,,,,,,,,,,,,,,,,,,,,,,,,,,,,,,,,,,,,,,,,,,,,,,,,,,,,
1720179053,42,0,4257.179688,4275.897461,4329.487305,4264.743652,4251.282227,4267.179688,4245.384766,4230,4186.666504,4250.512695,4374.358887,4504.615234,4425.897461,4616.282227,,,,,,,,,,,,,,,,,,,,,,,,,,,,,,,,,,,,,,,,,,,,,,,,,,,,,,,,,,,,,,,,,,,,,,
1720179053,43,0,4261.410156,4286.666504,4332.436035,4262.307617,4257.820313,4266.922852,4243.717773,4231.282227,4171.282227,4253.461426,4375.769043,4501.538574,4416.538574,4600.641113,,,,,,,,,,,,,,,,,,,,,,,,,,,,,,,,,,,,,,,,,,,,,,,,,,,,,,,,,,,,,,,,,,,,,,
1720179053,44,0,4271.025879,4293.717773,4329.615234,4270.256348,4268.205078,4271.666504,4241.794922,4232.307617,4170,4270.641113,4370.897461,4513.846191,4424.871582,4611.538574,,,,,,,,,,,,,,,,,,,,,,,,,,,,,,,,,,,,,,,,,,,,,,,,,,,,,,,,,,,,,,,,,,,,,,
1720179053,45,0,4277.05127,4297.94873,4335.769043,4279.871582,4267.692383,4276.794922,4235.897461,4230,4161.153809,4266.538574,4376.666504,4520,4431.794922,4618.077148,,,,,,,,,,,,,,,,,,,,,,,,,,,,,,,,,,,,,,,,,,,,,,,,,,,,,,,,,,,,,,,,,,,,,,
1720179053,46,0,4282.692383,4307.563965,4344.230957,4289.230957,4265.641113,4273.333496,4230.641113,4221.282227,4138.589844,4261.410156,4380,4510.128418,4427.05127,4616.282227,,,,,,,,,,,,,,,,,,,,,,,,,,,,,,,,,,,,,,,,,,,,,,,,,,,,,,,,,,,,,,,,,,,,,,
1720179053,47,0,4290.384766,4308.846191,4345.641113,4295.128418,4266.282227,4265,4228.077148,4213.846191,4128.974121,4274.487305,4373.846191,4509.871582,4430.256348,4631.794922,,,,,,,,,,,,,,,,,,,,,,,,,,,,,,,,,,,,,,,,,,,,,,,,,,,,,,,,,,,,,,,,,,,,,,
1720179053,48,0,4289.230957,4307.563965,4353.205078,4297.436035,4265,4262.179688,4231.922852,4221.538574,4140.384766,4281.794922,4377.436035,4532.179688,4443.717773,4641.794922,4.769934,17.766523,1.449115,0.758915,0.466256,4.504169,14.329733,0.999744,0.507991,0.194637,7.127143,24.235939,1.580127,0.811226,0.193673,4.934394,16.213301,1.008047,0.676292,0.162343,0.644361,1.506422,0.297392,0.281183,0.159425,0.555968,2.864317,0.228097,0.324904,0.10233,0.896158,21.160643,1.379862,0.543333,0.17496,0.48688,7.424386,0.861047,0.438499,0.120746,2.667367,39.720985,1.336208,0.957977,0.181432,7.274908,6.58905,0.73266,1.495312,0.400822,0.114102,0.122566,0.02816,0.065157,0.099977,7.1541,32.122013,3.01714,1.255333,0.37606,4.852026,14.790356,2.238095,1.047753,0.417898,8.085599,25.583546,4.899559,2.707913,0.80394
1720179053,49,0,4277.820313,4307.820313,4357.692383,4292.94873,4263.846191,4265,4242.94873,4233.333496,4152.307617,4280.384766,4375.384766,4540.769043,4445.128418,4628.974121,,,,,,,,,,,,,,,,,,,,,,,,,,,,,,,,,,,,,,,,,,,,,,,,,,,,,,,,,,,,,,,,,,,,,,
1720179053,50,0,4277.436035,4299.487305,4346.282227,4284.102539,4265.897461,4265.512695,4249.358887,4239.615234,4159.615234,4281.025879,4367.94873,4528.077148,4431.794922,4623.461426,,,,,,,,,,,,,,,,,,,,,,,,,,,,,,,,,,,,,,,,,,,,,,,,,,,,,,,,,,,,,,,,,,,,,,
1720179053,51,0,4286.025879,4289.871582,4336.794922,4280,4263.077148,4264.487305,4246.666504,4243.717773,4172.820313,4281.666504,4369.615234,4525.769043,4428.974121,4624.743652,,,,,,,,,,,,,,,,,,,,,,,,,,,,,,,,,,,,,,,,,,,,,,,,,,,,,,,,,,,,,,,,,,,,,,
1720179053,52,0,4280.256348,4291.282227,4335,4275,4255.512695,4263.846191,4246.153809,4247.436035,4185.769043,4279.102539,4372.563965,4526.538574,4437.179688,4620.128418,,,,,,,,,,,,,,,,,,,,,,,,,,,,,,,,,,,,,,,,,,,,,,,,,,,,,,,,,,,,,,,,,,,,,,
1720179053,53,0,4268.589844,4291.282227,4325.128418,4265.641113,4254.102539,4263.461426,4247.94873,4245.512695,4187.436035,4279.358887,4373.077148,4510.512695,4429.358887,4610.128418,,,,,,,,,,,,,,,,,,,,,,,,,,,,,,,,,,,,,,,,,,,,,,,,,,,,,,,,,,,,,,,,,,,,,,
1720179053,54,0,4270.128418,4287.436035,4311.666504,4263.846191,4262.179688,4264.743652,4244.487305,4238.333496,4186.282227,4287.563965,4374.358887,4498.205078,4418.077148,4591.922852,,,,,,,,,,,,,,,,,,,,,,,,,,,,,,,,,,,,,,,,,,,,,,,,,,,,,,,,,,,,,,,,,,,,,,
1720179053,55,0,4276.666504,4286.025879,4307.436035,4265.897461,4264.743652,4263.717773,4238.077148,4233.077148,4182.692383,4290.897461,4373.333496,4500.384766,4423.461426,4583.974121,,,,,,,,,,,,,,,,,,,,,,,,,,,,,,,,,,,,,,,,,,,,,,,,,,,,,,,,,,,,,,,,,,,,,,
1720179053,56,0,4280.256348,4287.05127,4315.384766,4266.025879,4260.897461,4264.615234,4233.461426,4229.102539,4168.461426,4283.846191,4378.205078,4504.230957,4433.077148,4606.282227,,,,,,,,,,,,,,,,,,,,,,,,,,,,,,,,,,,,,,,,,,,,,,,,,,,,,,,,,,,,,,,,,,,,,,
1720179053,57,0,4277.94873,4290.384766,4321.666504,4271.666504,4263.077148,4265,4224.871582,4219.230957,4151.538574,4275.256348,4379.230957,4501.282227,4433.205078,4619.871582,,,,,,,,,,,,,,,,,,,,,,,,,,,,,,,,,,,,,,,,,,,,,,,,,,,,,,,,,,,,,,,,,,,,,,
1720179053,58,0,4271.922852,4291.794922,4319.102539,4276.666504,4265.897461,4260.384766,4216.153809,4209.358887,4136.282227,4278.333496,4369.871582,4489.102539,4426.153809,4604.871582,,,,,,,,,,,,,,,,,,,,,,,,,,,,,,,,,,,,,,,,,,,,,,,,,,,,,,,,,,,,,,,,,,,,,,
1720179053,59,0,4269.230957,4300.384766,4330.128418,4280.128418,4268.717773,4264.358887,4222.820313,4213.717773,4129.487305,4291.922852,4372.563965,4494.230957,4428.461426,4602.692383,,,,,,,,,,,,,,,,,,,,,,,,,,,,,,,,,,,,,,,,,,,,,,,,,,,,,,,,,,,,,,,,,,,,,,
1720179053,60,0,4273.974121,4315.256348,4344.230957,4293.077148,4273.205078,4272.563965,4235.641113,4217.820313,4136.794922,4293.461426,4376.153809,4516.538574,4443.589844,4618.333496,,,,,,,,,,,,,,,,,,,,,,,,,,,,,,,,,,,,,,,,,,,,,,,,,,,,,,,,,,,,,,,,,,,,,,
1720179053,61,0,4282.820313,4310.256348,4335.512695,4297.820313,4268.717773,4269.743652,4234.871582,4219.615234,4156.922852,4294.102539,4372.94873,4516.666504,4445.897461,4624.102539,,,,,,,,,,,,,,,,,,,,,,,,,,,,,,,,,,,,,,,,,,,,,,,,,,,,,,,,,,,,,,,,,,,,,,
1720179053,62,0,4279.743652,4295.641113,4330.641113,4286.666504,4259.615234,4264.102539,4232.692383,4231.025879,4180,4307.307617,4374.871582,4504.871582,4430.769043,4608.461426,,,,,,,,,,,,,,,,,,,,,,,,,,,,,,,,,,,,,,,,,,,,,,,,,,,,,,,,,,,,,,,,,,,,,,
1720179053,63,0,4267.05127,4291.153809,4342.05127,4276.153809,4255.384766,4264.615234,4240.512695,4237.820313,4191.538574,4304.871582,4373.717773,4504.230957,4425.256348,4587.307617,,,,,,,,,,,,,,,,,,,,,,,,,,,,,,,,,,,,,,,,,,,,,,,,,,,,,,,,,,,,,,,,,,,,,,
1720179053,64,0,4261.666504,4286.282227,4337.563965,4269.230957,4251.153809,4263.717773,4240.897461,4234.871582,4192.179688,4294.871582,4373.461426,4496.922852,4430.256348,4586.794922,4.817126,17.937237,1.778461,0.951476,0.422364,4.312185,15.349925,1.170434,0.602803,0.179105,7.17376,25.583073,1.791188,0.949476,0.196434,4.624183,17.260839,1.13963,0.764221,0.162289,0.646466,1.498622,0.315042,0.268997,0.157287,0.624565,2.911083,0.17738,0.316289,0.106873,0.859347,21.911036,1.457676,0.596214,0.17252,0.477696,7.55996,0.912121,0.47345,0.119614,2.451073,38.398621,1.276993,0.920156,0.185869,7.447843,5.582825,0.799203,1.246682,0.408838,0.115607,0.128788,0.023909,0.062332,0.102796,6.757491,33.532166,3.461798,1.396408,0.416839,4.537864,15.635914,2.613346,1.097179,0.413337,7.739105,27.23793,5.617037,2.984884,0.830938
1720179053,65,0,4263.846191,4277.05127,4313.589844,4261.538574,4245.512695,4261.282227,4233.974121,4232.563965,4194.743652,4305.128418,4376.410156,4483.846191,4429.102539,4603.589844,,,,,,,,,,,,,,,,,,,,,,,,,,,,,,,,,,,,,,,,,,,,,,,,,,,,,,,,,,,,,,,,,,,,,,
1720179053,66,0,4262.05127,4275.897461,4304.230957,4257.94873,4247.436035,4263.461426,4232.692383,4232.692383,4194.487305,4308.717773,4374.230957,4485.897461,4426.282227,4601.153809,,,,,,,,,,,,,,,,,,,,,,,,,,,,,,,,,,,,,,,,,,,,,,,,,,,,,,,,,,,,,,,,,,,,,,
1720179053,67,0,4259.358887,4285.128418,4319.743652,4266.410156,4255.256348,4266.282227,4231.025879,4232.307617,4181.794922,4296.282227,4371.410156,4500.384766,4433.205078,4586.153809,,,,,,,,,,,,,,,,,,,,,,,,,,,,,,,,,,,,,,,,,,,,,,,,,,,,,,,,,,,,,,,,,,,,,,
1720179053,68,0,4264.230957,4293.461426,4340.384766,4276.410156,4260.641113,4266.794922,4230,4227.436035,4168.333496,4297.692383,4373.717773,4506.410156,4445,4595,,,,,,,,,,,,,,,,,,,,,,,,,,,,,,,,,,,,,,,,,,,,,,,,,,,,,,,,,,,,,,,,,,,,,,
1720179053,69,0,4264.487305,4288.974121,4338.461426,4270.256348,4259.871582,4266.666504,4227.692383,4219.487305,4156.538574,4302.436035,4375,4497.05127,4444.743652,4602.05127,,,,,,,,,,,,,,,,,,,,,,,,,,,,,,,,,,,,,,,,,,,,,,,,,,,,,,,,,,,,,,,,,,,,,,
1720179053,70,0,4261.025879,4281.794922,4323.333496,4262.179688,4257.94873,4265.897461,4222.05127,4215.384766,4143.589844,4303.205078,4375.512695,4496.282227,4437.179688,4595.641113,,,,,,,,,,,,,,,,,,,,,,,,,,,,,,,,,,,,,,,,,,,,,,,,,,,,,,,,,,,,,,,,,,,,,,
1720179053,71,0,4269.230957,4291.282227,4331.666504,4272.307617,4262.05127,4263.461426,4221.538574,4216.025879,4144.230957,4311.538574,4375.128418,4513.333496,4446.410156,4612.692383,,,,,,,,,,,,,,,,,,,,,,,,,,,,,,,,,,,,,,,,,,,,,,,,,,,,,,,,,,,,,,,,,,,,,,
1720179053,72,0,4281.153809,4300.897461,4346.666504,4286.666504,4264.615234,4262.436035,4230.897461,4222.179688,4160.128418,4313.077148,4371.922852,4521.153809,4462.05127,4636.410156,,,,,,,,,,,,,,,,,,,,,,,,,,,,,,,,,,,,,,,,,,,,,,,,,,,,,,,,,,,,,,,,,,,,,,
1720179053,73,0,4285.128418,4296.922852,4347.436035,4290.641113,4262.563965,4266.666504,4242.307617,4240.512695,4184.230957,4309.487305,4378.205078,4526.794922,4463.461426,4629.615234,,,,,,,,,,,,,,,,,,,,,,,,,,,,,,,,,,,,,,,,,,,,,,,,,,,,,,,,,,,,,,,,,,,,,,
1720179053,74,0,4280,4297.179688,4344.615234,4291.282227,4262.05127,4266.666504,4250.897461,4255,4210.512695,4314.102539,4383.205078,4543.077148,4459.615234,4617.179688,,,,,,,,,,,,,,,,,,,,,,,,,,,,,,,,,,,,,,,,,,,,,,,,,,,,,,,,,,,,,,,,,,,,,,
1720179053,75,0,4271.282227,4292.436035,4332.563965,4280.897461,4259.102539,4261.922852,4254.871582,4255.128418,4223.846191,4310.769043,4375.769043,4535.769043,4452.436035,4616.282227,,,,,,,,,,,,,,,,,,,,,,,,,,,,,,,,,,,,,,,,,,,,,,,,,,,,,,,,,,,,,,,,,,,,,,
1720179053,76,0,4261.794922,4283.077148,4313.461426,4265.128418,4256.153809,4266.282227,4250.256348,4249.358887,4218.717773,4298.974121,4374.871582,4506.025879,4438.846191,4607.436035,,,,,,,,,,,,,,,,,,,,,,,,,,,,,,,,,,,,,,,,,,,,,,,,,,,,,,,,,,,,,,,,,,,,,,
1720179053,77,0,4256.666504,4287.179688,4304.615234,4261.794922,4261.025879,4271.410156,4246.410156,4240.769043,4208.205078,4296.410156,4376.282227,4495.128418,4435.897461,4601.794922,,,,,,,,,,,,,,,,,,,,,,,,,,,,,,,,,,,,,,,,,,,,,,,,,,,,,,,,,,,,,,,,,,,,,,
1720179053,78,0,4258.589844,4285.769043,4308.333496,4262.692383,4258.974121,4266.922852,4245.769043,4235.641113,4206.282227,4295,4374.615234,4505.384766,4439.102539,4602.179688,,,,,,,,,,,,,,,,,,,,,,,,,,,,,,,,,,,,,,,,,,,,,,,,,,,,,,,,,,,,,,,,,,,,,,
1720179053,79,0,4261.666504,4276.153809,4314.743652,4263.846191,4249.358887,4263.717773,4239.743652,4237.563965,4203.461426,4285.897461,4376.794922,4510.769043,4432.692383,4598.974121,,,,,,,,,,,,,,,,,,,,,,,,,,,,,,,,,,,,,,,,,,,,,,,,,,,,,,,,,,,,,,,,,,,,,,
1720179053,80,0,4265,4282.94873,4318.974121,4271.025879,4254.230957,4266.538574,4226.410156,4233.205078,4185.641113,4279.743652,4374.615234,4500.897461,4428.717773,4607.94873,4.532443,18.387371,2.047234,1.158174,0.389534,3.89587,16.054913,1.266817,0.700505,0.170765,7.158136,26.164871,1.90629,1.060047,0.208473,4.112168,17.857697,1.193851,0.83469,0.157857,0.650226,1.614102,0.338171,0.256783,0.148419,0.648146,2.688311,0.141224,0.30562,0.106752,0.815771,21.172056,1.468415,0.615355,0.168711,0.483393,7.63145,0.865653,0.500282,0.126589,2.18833,37.620628,1.133465,0.85951,0.199817,7.232364,4.863128,0.928161,1.044557,0.422954,0.113775,0.13236,0.020979,0.056252,0.105612,6.078896,34.358665,3.514821,1.507153,0.470813,4.402508,16.479975,2.685796,1.134325,0.40916,7.020482,28.289486,5.79225,3.08695,0.862166
1720179053,81,0,4271.538574,4296.282227,4318.589844,4276.153809,4266.666504,4266.666504,4215.897461,4222.94873,4164.615234,4279.871582,4374.743652,4495.769043,4429.871582,4619.743652,,,,,,,,,,,,,,,,,,,,,,,,,,,,,,,,,,,,,,,,,,,,,,,,,,,,,,,,,,,,,,,,,,,,,,
1720179053,82,0,4279.358887,4298.333496,4322.436035,4274.743652,4263.717773,4265.512695,4221.153809,4220,4154.871582,4278.717773,4380.641113,4504.615234,4428.974121,4615.384766,,,,,,,,,,,,,,,,,,,,,,,,,,,,,,,,,,,,,,,,,,,,,,,,,,,,,,,,,,,,,,,,,,,,,,
1720179053,83,0,4281.282227,4300.897461,4333.077148,4283.077148,4261.282227,4266.538574,4229.871582,4218.589844,4151.538574,4278.333496,4375.897461,4510.897461,4430.256348,4624.615234,,,,,,,,,,,,,,,,,,,,,,,,,,,,,,,,,,,,,,,,,,,,,,,,,,,,,,,,,,,,,,,,,,,,,,
1720179053,84,0,4279.358887,4309.358887,4338.974121,4298.589844,4271.025879,4266.410156,4231.282227,4217.692383,4149.230957,4281.153809,4371.666504,4512.563965,4431.794922,4637.94873,,,,,,,,,,,,,,,,,,,,,,,,,,,,,,,,,,,,,,,,,,,,,,,,,,,,,,,,,,,,,,,,,,,,,,
1720179053,85,0,4281.153809,4309.230957,4337.94873,4295.512695,4273.077148,4267.307617,4234.358887,4224.102539,4153.974121,4286.025879,4377.94873,4516.282227,4430.384766,4620.128418,,,,,,,,,,,,,,,,,,,,,,,,,,,,,,,,,,,,,,,,,,,,,,,,,,,,,,,,,,,,,,,,,,,,,,
1720179053,86,0,4282.436035,4297.563965,4332.179688,4281.538574,4264.487305,4265.384766,4241.282227,4228.077148,4168.589844,4294.871582,4376.922852,4514.358887,4425.512695,4608.717773,,,,,,,,,,,,,,,,,,,,,,,,,,,,,,,,,,,,,,,,,,,,,,,,,,,,,,,,,,,,,,,,,,,,,,
1720179053,87,0,4275.641113,4283.717773,4327.307617,4272.307617,4259.871582,4264.615234,4245,4231.410156,4185.769043,4299.102539,4374.743652,4504.358887,4414.102539,4617.563965,,,,,,,,,,,,,,,,,,,,,,,,,,,,,,,,,,,,,,,,,,,,,,,,,,,,,,,,,,,,,,,,,,,,,,
1720179053,88,0,4263.077148,4279.102539,4326.410156,4266.153809,4260.384766,4271.282227,4247.307617,4234.615234,4204.615234,4295.384766,4378.717773,4500.128418,4407.179688,4612.05127,,,,,,,,,,,,,,,,,,,,,,,,,,,,,,,,,,,,,,,,,,,,,,,,,,,,,,,,,,,,,,,,,,,,,,
1720179053,89,0,4260,4281.538574,4324.871582,4269.102539,4263.589844,4276.282227,4248.717773,4237.179688,4217.436035,4296.282227,4378.461426,4505.512695,4411.794922,4599.358887,,,,,,,,,,,,,,,,,,,,,,,,,,,,,,,,,,,,,,,,,,,,,,,,,,,,,,,,,,,,,,,,,,,,,,
1720179053,90,0,4264.102539,4281.410156,4322.692383,4277.692383,4270.128418,4277.563965,4247.436035,4240.384766,4213.974121,4300.769043,4376.922852,4503.461426,4411.922852,4599.871582,,,,,,,,,,,,,,,,,,,,,,,,,,,,,,,,,,,,,,,,,,,,,,,,,,,,,,,,,,,,,,,,,,,,,,
1720179053,91,0,4264.615234,4281.282227,4317.692383,4276.794922,4272.307617,4275.512695,4246.922852,4237.307617,4200,4286.025879,4377.820313,4492.820313,4410,4610,,,,,,,,,,,,,,,,,,,,,,,,,,,,,,,,,,,,,,,,,,,,,,,,,,,,,,,,,,,,,,,,,,,,,,
1720179053,92,0,4268.974121,4281.794922,4315.769043,4272.436035,4266.282227,4269.487305,4243.461426,4232.05127,4192.179688,4265.641113,4378.461426,4495.384766,4414.102539,4619.871582,,,,,,,,,,,,,,,,,,,,,,,,,,,,,,,,,,,,,,,,,,,,,,,,,,,,,,,,,,,,,,,,,,,,,,
1720179053,93,0,4271.410156,4281.025879,4321.025879,4275.512695,4262.436035,4265,4236.025879,4232.05127,4183.846191,4266.794922,4377.05127,4508.077148,4414.743652,4618.846191,,,,,,,,,,,,,,,,,,,,,,,,,,,,,,,,,,,,,,,,,,,,,,,,,,,,,,,,,,,,,,,,,,,,,,
1720179054,94,0,4267.563965,4282.436035,4326.538574,4279.230957,4265,4265.769043,4230.641113,4227.05127,4165.384766,4276.410156,4375.512695,4510.897461,4413.461426,4602.94873,,,,,,,,,,,,,,,,,,,,,,,,,,,,,,,,,,,,,,,,,,,,,,,,,,,,,,,,,,,,,,,,,,,,,,
1720179054,95,0,4267.307617,4284.615234,4331.025879,4279.743652,4268.717773,4268.077148,4232.05127,4219.871582,4150.128418,4277.179688,4376.538574,4510.256348,4411.538574,4594.230957,,,,,,,,,,,,,,,,,,,,,,,,,,,,,,,,,,,,,,,,,,,,,,,,,,,,,,,,,,,,,,,,,,,,,,
1720179054,96,0,4258.589844,4274.487305,4323.974121,4269.487305,4261.794922,4267.05127,4227.692383,4215.128418,4140.769043,4266.538574,4375.128418,4497.94873,4394.743652,4585.897461,4.010765,18.755793,2.22827,1.33551,0.36695,3.325004,16.133711,1.299201,0.782207,0.169032,7.268887,25.596785,1.90225,1.123016,0.231068,3.4336,17.753851,1.175431,0.868334,0.149127,0.646672,1.807194,0.367684,0.245149,0.136991,0.620771,2.239473,0.121591,0.293177,0.102818,0.768642,19.086931,1.419028,0.595092,0.16718,0.5071,7.538546,0.733404,0.509158,0.142208,1.927716,37.315521,0.968311,0.78607,0.226729,6.694049,4.379223,1.048023,0.877356,0.447024,0.108676,0.129988,0.021488,0.048795,0.108813,5.224831,34.073273,3.183942,1.56773,0.534132,4.471393,17.040203,2.478487,1.144212,0.410334,6.119131,28.336676,5.451197,2.978987,0.899429
1720179054,97,0,4227.94873,4250.641113,4300.641113,4247.563965,4247.563965,4263.461426,4216.538574,4206.410156,4132.307617,4250.384766,4372.820313,4462.179688,4369.743652,4562.307617,,,,,,,,,,,,,,,,,,,,,,,,,,,,,,,,,,,,,,,,,,,,,,,,,,,,,,,,,,,,,,,,,,,,,,
1720179054,98,0,4207.563965,4238.589844,4288.205078,4240.512695,4247.692383,4265.256348,4223.333496,4208.205078,4144.358887,4252.05127,4375,4445.512695,4366.282227,4550.384766,,,,,,,,,,,,,,,,,,,,,,,,,,,,,,,,,,,,,,,,,,,,,,,,,,,,,,,,,,,,,,,,,,,,,,
1720179054,99,0,4221.025879,4246.538574,4295.512695,4249.871582,4266.153809,4277.179688,4245.128418,4227.563965,4183.461426,4273.974121,4377.179688,4467.436035,4386.922852,4558.589844,,,,,,,,,,,,,,,,,,,,,,,,,,,,,,,,,,,,,,,,,,,,,,,,,,,,,,,,,,,,,,,,,,,,,,
1720179054,100,0,4229.615234,4250.897461,4296.666504,4253.205078,4267.692383,4279.615234,4253.077148,4238.846191,4217.94873,4281.282227,4370.512695,4479.230957,4404.358887,4564.743652,,,,,,,,,,,,,,,,,,,,,,,,,,,,,,,,,,,,,,,,,,,,,,,,,,,,,,,,,,,,,,,,,,,,,,
1720179054,101,0,4223.077148,4247.179688,4289.487305,4248.589844,4250,4267.94873,4245,4239.871582,4224.743652,4275.128418,4371.153809,4468.846191,4410.512695,4566.538574,,,,,,,,,,,,,,,,,,,,,,,,,,,,,,,,,,,,,,,,,,,,,,,,,,,,,,,,,,,,,,,,,,,,,,
1720179054,102,0,4227.179688,4247.563965,4288.333496,4247.692383,4245.897461,4262.820313,4239.358887,4239.230957,4220.769043,4278.205078,4378.333496,4465.512695,4412.692383,4567.05127,,,,,,,,,,,,,,,,,,,,,,,,,,,,,,,,,,,,,,,,,,,,,,,,,,,,,,,,,,,,,,,,,,,,,,
1720179054,103,0,4230.128418,4252.820313,4290.128418,4253.205078,4252.94873,4265.128418,4235.256348,4236.025879,4220,4281.153809,4373.589844,4471.794922,4409.102539,4557.436035,,,,,,,,,,,,,,,,,,,,,,,,,,,,,,,,,,,,,,,,,,,,,,,,,,,,,,,,,,,,,,,,,,,,,,
1720179054,104,0,4229.358887,4259.102539,4295.897461,4261.025879,4251.794922,4264.871582,4230.384766,4236.794922,4214.871582,4284.615234,4375.641113,4480.128418,4415.128418,4557.436035,,,,,,,,,,,,,,,,,,,,,,,,,,,,,,,,,,,,,,,,,,,,,,,,,,,,,,,,,,,,,,,,,,,,,,
1720179054,105,0,4239.102539,4261.922852,4306.025879,4263.589844,4244.230957,4262.563965,4230,4238.077148,4202.179688,4294.615234,4380.641113,4489.871582,4430.512695,4577.563965,,,,,,,,,,,,,,,,,,,,,,,,,,,,,,,,,,,,,,,,,,,,,,,,,,,,,,,,,,,,,,,,,,,,,,
1720179054,106,0,4242.179688,4259.487305,4308.974121,4264.102539,4245.256348,4260.769043,4230.384766,4231.410156,4185.641113,4294.871582,4375.641113,4495.384766,4426.410156,4576.794922,,,,,,,,,,,,,,,,,,,,,,,,,,,,,,,,,,,,,,,,,,,,,,,,,,,,,,,,,,,,,,,,,,,,,,
1720179054,107,0,4238.333496,4263.205078,4308.974121,4271.410156,4256.794922,4260.512695,4228.589844,4227.94873,4170,4281.794922,4376.025879,4491.794922,4416.922852,4565.128418,,,,,,,,,,,,,,,,,,,,,,,,,,,,,,,,,,,,,,,,,,,,,,,,,,,,,,,,,,,,,,,,,,,,,,
1720179054,108,0,4253.974121,4270.769043,4313.846191,4278.974121,4266.922852,4264.615234,4230.641113,4231.538574,4167.94873,4278.333496,4376.153809,4488.077148,4426.282227,4578.717773,,,,,,,,,,,,,,,,,,,,,,,,,,,,,,,,,,,,,,,,,,,,,,,,,,,,,,,,,,,,,,,,,,,,,,
1720179054,109,0,4261.794922,4269.102539,4319.487305,4281.794922,4267.563965,4266.410156,4240.897461,4233.846191,4179.487305,4291.666504,4375.512695,4492.820313,4437.05127,4594.743652,,,,,,,,,,,,,,,,,,,,,,,,,,,,,,,,,,,,,,,,,,,,,,,,,,,,,,,,,,,,,,,,,,,,,,
1720179054,110,0,4238.974121,4265.128418,4311.025879,4279.102539,4265,4265.512695,4249.102539,4232.307617,4187.307617,4298.717773,4376.282227,4494.230957,4431.282227,4574.615234,,,,,,,,,,,,,,,,,,,,,,,,,,,,,,,,,,,,,,,,,,,,,,,,,,,,,,,,,,,,,,,,,,,,,,
1720179054,111,0,4224.358887,4261.153809,4292.563965,4270.897461,4265.641113,4271.025879,4246.282227,4231.153809,4194.358887,4292.94873,4370.128418,4478.974121,4420.897461,4541.025879,,,,,,,,,,,,,,,,,,,,,,,,,,,,,,,,,,,,,,,,,,,,,,,,,,,,,,,,,,,,,,,,,,,,,,
1720179054,112,0,4230.128418,4252.94873,4289.230957,4264.358887,4266.922852,4281.153809,4247.820313,4239.871582,4210.512695,4296.794922,4371.666504,4462.94873,4415.897461,4535.128418,3.424927,18.65333,2.293009,1.43798,0.350504,2.753358,15.4936,1.277123,0.832312,0.171929,7.610558,23.861242,1.786942,1.132273,0.261739,2.687018,16.954536,1.094833,0.85952,0.137356,0.631801,2.020435,0.393771,0.235554,0.12722,0.551618,1.67821,0.11329,0.279359,0.097054,0.735764,16.081568,1.354369,0.541049,0.16979,0.550446,7.220474,0.571596,0.495088,0.162823,1.703807,37.332314,0.847153,0.713662,0.263043,5.915048,3.989081,1.096067,0.721509,0.477996,0.103121,0.121463,0.02667,0.041913,0.111291,4.397912,32.442383,2.587724,1.570738,0.598745,4.640018,17.038996,2.078187,1.115501,0.419212,5.278572,27.233278,4.751599,2.690282,0.938773
1720179054,113,0,4225.128418,4247.436035,4291.538574,4262.436035,4265.384766,4283.205078,4254.871582,4251.538574,4222.05127,4310.641113,4382.820313,4466.153809,4415.384766,4551.922852,,,,,,,,,,,,,,,,,,,,,,,,,,,,,,,,,,,,,,,,,,,,,,,,,,,,,,,,,,,,,,,,,,,,,,
1720179054,114,0,4214.230957,4248.974121,4280.641113,4261.153809,4263.717773,4270.769043,4247.563965,4246.922852,4222.05127,4313.717773,4376.410156,4465,4415.256348,4552.820313,,,,,,,,,,,,,,,,,,,,,,,,,,,,,,,,,,,,,,,,,,,,,,,,,,,,,,,,,,,,,,,,,,,,,,
1720179054,115,0,4218.717773,4250.384766,4272.94873,4257.05127,4258.461426,4262.436035,4229.230957,4235.769043,4214.102539,4304.230957,4370.512695,4448.205078,4409.487305,4536.025879,,,,,,,,,,,,,,,,,,,,,,,,,,,,,,,,,,,,,,,,,,,,,,,,,,,,,,,,,,,,,,,,,,,,,,
1720179054,116,0,4224.358887,4256.153809,4281.410156,4258.333496,4252.179688,4260.512695,4214.358887,4230.128418,4199.102539,4297.94873,4379.487305,4446.025879,4410,4538.333496,,,,,,,,,,,,,,,,,,,,,,,,,,,,,,,,,,,,,,,,,,,,,,,,,,,,,,,,,,,,,,,,,,,,,,
1720179054,117,0,4228.846191,4271.410156,4294.487305,4270.641113,4254.487305,4253.846191,4205.897461,4222.05127,4187.05127,4305.128418,4378.333496,4459.743652,4417.820313,4558.846191,,,,,,,,,,,,,,,,,,,,,,,,,,,,,,,,,,,,,,,,,,,,,,,,,,,,,,,,,,,,,,,,,,,,,,
1720179054,118,0,4242.820313,4280.512695,4303.846191,4285.769043,4260.897461,4251.922852,4203.974121,4215.512695,4178.461426,4305.512695,4374.743652,4463.717773,4419.102539,4558.205078,,,,,,,,,,,,,,,,,,,,,,,,,,,,,,,,,,,,,,,,,,,,,,,,,,,,,,,,,,,,,,,,,,,,,,
1720179054,119,0,4247.436035,4282.179688,4311.794922,4296.922852,4268.589844,4260.897461,4208.333496,4214.230957,4167.820313,4307.307617,4376.282227,4461.794922,4414.871582,4543.974121,,,,,,,,,,,,,,,,,,,,,,,,,,,,,,,,,,,,,,,,,,,,,,,,,,,,,,,,,,,,,,,,,,,,,,
1720179054,120,0,4237.820313,4284.871582,4316.538574,4298.846191,4275.769043,4267.436035,4218.589844,4214.871582,4163.717773,4323.974121,4376.153809,4466.282227,4416.538574,4551.282227,,,,,,,,,,,,,,,,,,,,,,,,,,,,,,,,,,,,,,,,,,,,,,,,,,,,,,,,,,,,,,,,,,,,,,
1720179054,121,0,4230,4278.846191,4314.871582,4291.410156,4271.538574,4263.333496,4227.94873,4219.358887,4172.820313,4287.820313,4375.641113,4462.94873,4418.077148,4561.153809,,,,,,,,,,,,,,,,,,,,,,,,,,,,,,,,,,,,,,,,,,,,,,,,,,,,,,,,,,,,,,,,,,,,,,
1720179054,122,0,4222.179688,4259.743652,4300.512695,4277.436035,4262.692383,4264.358887,4230.897461,4222.307617,4193.974121,4200.256348,4374.102539,4447.179688,4407.94873,4542.307617,,,,,,,,,,,,,,,,,,,,,,,,,,,,,,,,,,,,,,,,,,,,,,,,,,,,,,,,,,,,,,,,,,,,,,
1720179054,123,0,4209.743652,4247.179688,4280.897461,4264.358887,4262.692383,4276.538574,4238.461426,4223.589844,4213.846191,4168.205078,4374.358887,4432.307617,4397.307617,4521.794922,,,,,,,,,,,,,,,,,,,,,,,,,,,,,,,,,,,,,,,,,,,,,,,,,,,,,,,,,,,,,,,,,,,,,,
1720179054,124,0,4207.692383,4246.153809,4263.205078,4257.820313,4261.025879,4280.128418,4247.05127,4230,4220.897461,4187.179688,4373.333496,4416.666504,4395,4525.384766,,,,,,,,,,,,,,,,,,,,,,,,,,,,,,,,,,,,,,,,,,,,,,,,,,,,,,,,,,,,,,,,,,,,,,
1720179054,125,0,4214.743652,4241.666504,4250.256348,4258.077148,4250.641113,4268.333496,4239.743652,4233.205078,4226.794922,4185.384766,4369.358887,4407.05127,4397.692383,4521.666504,,,,,,,,,,,,,,,,,,,,,,,,,,,,,,,,,,,,,,,,,,,,,,,,,,,,,,,,,,,,,,,,,,,,,,
1720179054,126,0,4214.743652,4243.333496,4253.333496,4259.487305,4249.102539,4263.077148,4231.025879,4232.692383,4235,4186.794922,4370.897461,4422.692383,4400,4504.615234,,,,,,,,,,,,,,,,,,,,,,,,,,,,,,,,,,,,,,,,,,,,,,,,,,,,,,,,,,,,,,,,,,,,,,
1720179054,127,0,4212.563965,4257.179688,4273.205078,4260,4251.922852,4267.436035,4231.025879,4233.717773,4228.846191,4202.94873,4379.358887,4444.871582,4400.384766,4519.743652,,,,,,,,,,,,,,,,,,,,,,,,,,,,,,,,,,,,,,,,,,,,,,,,,,,,,,,,,,,,,,,,,,,,,,
1720179054,0,0,4215.256348,4265.256348,4288.589844,4268.846191,4249.358887,4265.128418,4222.307617,4226.410156,4213.461426,4200.897461,4373.461426,4443.589844,4404.102539,4546.410156,2.933296,17.793488,2.251095,1.435867,0.337504,2.278558,14.268031,1.224858,0.840491,0.178743,8.078343,21.271681,1.600136,1.100719,0.295223,2.004897,15.669935,0.987697,0.818088,0.126201,0.612401,2.199292,0.408128,0.228674,0.122998,0.459417,1.142704,0.111253,0.264856,0.091985,0.70322,12.756742,1.299944,0.468323,0.175521,0.619839,6.725542,0.449863,0.462745,0.181893,1.537195,37.625732,0.799112,0.659254,0.299259,5.05051,3.629768,1.04381,0.570775,0.508713,0.098471,0.109437,0.035973,0.036813,0.111026,3.749304,29.596552,1.952065,1.528506,0.65483,4.768373,16.322832,1.639199,1.052463,0.434725,4.651232,25.121895,3.956518,2.296291,0.972928
1720179054,1,0,4216.794922,4264.102539,4292.179688,4278.717773,4248.461426,4258.846191,4211.794922,4217.436035,4203.974121,4195.512695,4367.436035,4434.358887,4409.615234,4542.94873,,,,,,,,,,,,,,,,,,,,,,,,,,,,,,,,,,,,,,,,,,,,,,,,,,,,,,,,,,,,,,,,,,,,,,
1720179054,2,0,4222.05127,4268.077148,4301.666504,4280.128418,4254.358887,4252.563965,4215.128418,4218.205078,4198.846191,4200,4376.282227,4450.769043,4419.487305,4546.153809,,,,,,,,,,,,,,,,,,,,,,,,,,,,,,,,,,,,,,,,,,,,,,,,,,,,,,,,,,,,,,,,,,,,,,
1720179054,3,0,4241.410156,4277.436035,4316.410156,4286.282227,4262.94873,4251.666504,4219.615234,4224.230957,4199.230957,4208.974121,4377.05127,4477.563965,4433.333496,4577.563965,,,,,,,,,,,,,,,,,,,,,,,,,,,,,,,,,,,,,,,,,,,,,,,,,,,,,,,,,,,,,,,,,,,,,,
1720179054,4,0,4262.820313,4282.179688,4322.94873,4295.897461,4266.922852,4254.743652,4215.641113,4226.282227,4202.436035,4219.102539,4375.256348,4481.538574,4435.641113,4590.897461,,,,,,,,,,,,,,,,,,,,,,,,,,,,,,,,,,,,,,,,,,,,,,,,,,,,,,,,,,,,,,,,,,,,,,
1720179054,5,0,4264.615234,4282.94873,4322.05127,4296.538574,4266.025879,4255.384766,4217.692383,4223.077148,4197.94873,4216.794922,4377.94873,4475.512695,4428.717773,4576.922852,,,,,,,,,,,,,,,,,,,,,,,,,,,,,,,,,,,,,,,,,,,,,,,,,,,,,,,,,,,,,,,,,,,,,,
1720179054,6,0,4250,4277.692383,4316.922852,4287.692383,4266.282227,4257.692383,4229.743652,4225.384766,4196.153809,4211.410156,4375.641113,4474.230957,4428.205078,4567.05127,,,,,,,,,,,,,,,,,,,,,,,,,,,,,,,,,,,,,,,,,,,,,,,,,,,,,,,,,,,,,,,,,,,,,,
1720179054,7,0,4233.589844,4262.307617,4300.256348,4275.256348,4263.974121,4263.717773,4232.563965,4229.615234,4208.461426,4222.307617,4374.102539,4461.282227,4423.846191,4557.820313,,,,,,,,,,,,,,,,,,,,,,,,,,,,,,,,,,,,,,,,,,,,,,,,,,,,,,,,,,,,,,,,,,,,,,
1720179054,8,0,4221.538574,4248.717773,4283.846191,4262.436035,4256.282227,4265,4228.205078,4229.615234,4225,4231.922852,4372.820313,4442.179688,4405.256348,4542.05127,,,,,,,,,,,,,,,,,,,,,,,,,,,,,,,,,,,,,,,,,,,,,,,,,,,,,,,,,,,,,,,,,,,,,,
1720179054,9,0,4219.102539,4248.846191,4287.692383,4260.897461,4254.615234,4264.615234,4237.820313,4232.692383,4236.410156,4225,4373.461426,4440.512695,4397.692383,4532.563965,,,,,,,,,,,,,,,,,,,,,,,,,,,,,,,,,,,,,,,,,,,,,,,,,,,,,,,,,,,,,,,,,,,,,,
1720179054,10,0,4223.205078,4249.358887,4296.538574,4268.461426,4257.436035,4268.333496,4248.589844,4239.230957,4242.05127,4217.94873,4377.436035,4445.256348,4406.794922,4539.871582,,,,,,,,,,,,,,,,,,,,,,,,,,,,,,,,,,,,,,,,,,,,,,,,,,,,,,,,,,,,,,,,,,,,,,
1720179054,11,0,4228.974121,4245.769043,4293.974121,4271.282227,4251.538574,4266.666504,4236.922852,4235.897461,4241.666504,4220,4374.743652,4445.256348,4412.563965,4558.461426,,,,,,,,,,,,,,,,,,,,,,,,,,,,,,,,,,,,,,,,,,,,,,,,,,,,,,,,,,,,,,,,,,,,,,
1720179054,12,0,4243.846191,4251.922852,4293.077148,4271.794922,4245.256348,4259.743652,4219.487305,4231.282227,4233.205078,4227.307617,4371.666504,4454.230957,4410.256348,4568.846191,,,,,,,,,,,,,,,,,,,,,,,,,,,,,,,,,,,,,,,,,,,,,,,,,,,,,,,,,,,,,,,,,,,,,,
1720179054,13,0,4256.410156,4263.846191,4303.205078,4276.153809,4252.05127,4259.358887,4215,4231.538574,4218.333496,4231.794922,4376.153809,4465.897461,4410.769043,4571.794922,,,,,,,,,,,,,,,,,,,,,,,,,,,,,,,,,,,,,,,,,,,,,,,,,,,,,,,,,,,,,,,,,,,,,,
1720179054,14,0,4253.589844,4266.922852,4318.077148,4284.871582,4262.179688,4258.333496,4217.94873,4229.487305,4206.025879,4230.256348,4368.846191,4476.025879,4422.94873,4573.846191,,,,,,,,,,,,,,,,,,,,,,,,,,,,,,,,,,,,,,,,,,,,,,,,,,,,,,,,,,,,,,,,,,,,,,
1720179054,15,0,4253.461426,4263.846191,4330.512695,4293.461426,4263.974121,4252.563965,4221.410156,4230.512695,4196.538574,4220.128418,4365.128418,4488.846191,4431.666504,4569.615234,,,,,,,,,,,,,,,,,,,,,,,,,,,,,,,,,,,,,,,,,,,,,,,,,,,,,,,,,,,,,,,,,,,,,,
1720179054,16,0,4263.205078,4269.615234,4335.897461,4296.282227,4263.717773,4253.077148,4219.743652,4228.205078,4183.077148,4200.384766,4374.487305,4494.615234,4429.871582,4574.230957,2.633535,16.121815,2.142867,1.334399,0.328921,1.979126,12.677009,1.180677,0.803579,0.189075,8.344637,18.265205,1.390116,1.048771,0.326238,1.491432,14.145502,0.913971,0.762166,0.120216,0.60425,2.286093,0.418762,0.224024,0.127637,0.369077,0.747842,0.115652,0.250088,0.089741,0.700863,9.720448,1.246117,0.397236,0.181809,0.724313,6.196246,0.41008,0.424639,0.193,1.561322,38.302116,0.821327,0.637351,0.324652,4.078136,3.385279,0.933375,0.458461,0.534604,0.090795,0.096917,0.047446,0.033547,0.106785,3.380483,25.883839,1.496404,1.46821,0.693011,4.742052,14.855576,1.332684,0.972841,0.451687,4.266377,22.278688,3.320914,1.886398,0.996431
1720179054,17,0,4269.487305,4286.410156,4336.922852,4297.94873,4268.461426,4256.282227,4216.153809,4217.307617,4175.384766,4190.256348,4372.307617,4493.589844,4439.102539,4601.794922,,,,,,,,,,,,,,,,,,,,,,,,,,,,,,,,,,,,,,,,,,,,,,,,,,,,,,,,,,,,,,,,,,,,,,
1720179054,18,0,4267.436035,4293.205078,4337.563965,4300.769043,4270,4256.794922,4222.692383,4214.487305,4177.436035,4198.461426,4370.256348,4490.641113,4444.230957,4617.307617,,,,,,,,,,,,,,,,,,,,,,,,,,,,,,,,,,,,,,,,,,,,,,,,,,,,,,,,,,,,,,,,,,,,,,
1720179054,19,0,4255.128418,4280,4331.922852,4294.487305,4265.384766,4261.410156,4234.102539,4221.538574,4185.128418,4204.743652,4371.794922,4480.769043,4425.256348,4599.358887,,,,,,,,,,,,,,,,,,,,,,,,,,,,,,,,,,,,,,,,,,,,,,,,,,,,,,,,,,,,,,,,,,,,,,
1720179054,20,0,4237.307617,4260.256348,4318.077148,4282.179688,4262.05127,4268.717773,4237.820313,4229.102539,4206.922852,4200.256348,4370,4468.846191,4410.641113,4572.820313,,,,,,,,,,,,,,,,,,,,,,,,,,,,,,,,,,,,,,,,,,,,,,,,,,,,,,,,,,,,,,,,,,,,,,
1720179054,21,0,4220,4247.820313,4300.897461,4271.922852,4260.128418,4269.358887,4236.794922,4234.102539,4233.717773,4200.512695,4371.538574,4457.307617,4406.922852,4548.205078,,,,,,,,,,,,,,,,,,,,,,,,,,,,,,,,,,,,,,,,,,,,,,,,,,,,,,,,,,,,,,,,,,,,,,
1720179054,22,0,4216.666504,4243.846191,4289.871582,4264.487305,4260.897461,4265.897461,4235.897461,4230.641113,4237.94873,4199.743652,4369.358887,4440.384766,4394.487305,4535.128418,,,,,,,,,,,,,,,,,,,,,,,,,,,,,,,,,,,,,,,,,,,,,,,,,,,,,,,,,,,,,,,,,,,,,,
1720179054,23,0,4227.692383,4243.333496,4288.333496,4264.102539,4260.897461,4264.743652,4231.025879,4226.666504,4230.384766,4196.410156,4366.025879,4430.128418,4386.282227,4536.922852,,,,,,,,,,,,,,,,,,,,,,,,,,,,,,,,,,,,,,,,,,,,,,,,,,,,,,,,,,,,,,,,,,,,,,
1720179054,24,0,4233.461426,4247.179688,4288.461426,4271.025879,4258.589844,4264.487305,4225.769043,4231.666504,4229.358887,4207.307617,4369.743652,4438.589844,4394.743652,4537.436035,,,,,,,,,,,,,,,,,,,,,,,,,,,,,,,,,,,,,,,,,,,,,,,,,,,,,,,,,,,,,,,,,,,,,,
1720179054,25,0,4234.358887,4259.230957,4292.05127,4283.589844,4260.641113,4262.692383,4227.436035,4231.538574,4226.538574,4220.769043,4369.102539,4455.256348,4407.05127,4546.922852,,,,,,,,,,,,,,,,,,,,,,,,,,,,,,,,,,,,,,,,,,,,,,,,,,,,,,,,,,,,,,,,,,,,,,
1720179054,26,0,4243.461426,4267.05127,4305,4292.563965,4266.153809,4263.461426,4231.282227,4228.077148,4215.128418,4221.538574,4364.358887,4466.025879,4414.102539,4562.307617,,,,,,,,,,,,,,,,,,,,,,,,,,,,,,,,,,,,,,,,,,,,,,,,,,,,,,,,,,,,,,,,,,,,,,
1720179054,27,0,4250.512695,4267.05127,4320,4298.717773,4267.692383,4264.743652,4231.538574,4227.436035,4202.94873,4218.077148,4374.487305,4469.102539,4418.717773,4572.307617,,,,,,,,,,,,,,,,,,,,,,,,,,,,,,,,,,,,,,,,,,,,,,,,,,,,,,,,,,,,,,,,,,,,,,
1720179054,28,0,4250.512695,4276.922852,4329.102539,4308.461426,4267.179688,4255.769043,4229.358887,4223.846191,4194.487305,4214.230957,4377.179688,4478.205078,4423.846191,4589.358887,,,,,,,,,,,,,,,,,,,,,,,,,,,,,,,,,,,,,,,,,,,,,,,,,,,,,,,,,,,,,,,,,,,,,,
1720179054,29,0,4260.769043,4283.717773,4332.692383,4310.256348,4268.077148,4250.512695,4227.692383,4222.179688,4183.589844,4206.922852,4367.94873,4492.563965,4420.256348,4605.256348,,,,,,,,,,,,,,,,,,,,,,,,,,,,,,,,,,,,,,,,,,,,,,,,,,,,,,,,,,,,,,,,,,,,,,
1720179054,30,0,4267.692383,4273.461426,4332.179688,4301.794922,4267.436035,4259.487305,4230.769043,4221.666504,4173.077148,4202.436035,4371.666504,4488.461426,4399.230957,4596.282227,,,,,,,,,,,,,,,,,,,,,,,,,,,,,,,,,,,,,,,,,,,,,,,,,,,,,,,,,,,,,,,,,,,,,,
1720179054,31,0,4253.717773,4262.563965,4320.256348,4292.436035,4265.128418,4264.615234,4238.333496,4221.666504,4176.153809,4202.94873,4372.179688,4463.461426,4373.846191,4561.794922,,,,,,,,,,,,,,,,,,,,,,,,,,,,,,,,,,,,,,,,,,,,,,,,,,,,,,,,,,,,,,,,,,,,,,
1720179054,32,0,4231.025879,4250.256348,4299.358887,4277.820313,4261.666504,4262.563965,4238.589844,4226.025879,4193.717773,4198.461426,4368.461426,4442.94873,4361.282227,4521.922852,2.588527,13.842664,1.989756,1.175913,0.324692,1.848125,10.978361,1.151882,0.728547,0.199902,8.159598,15.390905,1.176807,0.987694,0.347949,1.237741,12.572926,0.900104,0.707277,0.121904,0.618312,2.25106,0.439683,0.219306,0.142352,0.305795,0.548359,0.126274,0.234008,0.091566,0.748091,7.427748,1.166147,0.341725,0.185674,0.865699,5.76902,0.444845,0.390889,0.191586,1.778976,39.411507,0.921424,0.644737,0.330752,3.708462,3.437516,0.865543,0.455697,0.557166,0.080524,0.086516,0.057728,0.031274,0.099034,3.343944,21.714497,1.264454,1.41325,0.704405,4.573966,12.737517,1.217312,0.890337,0.459534,4.053069,19.032587,2.894284,1.521262,1.006837
1720179054,33,0,4215.384766,4235.256348,4282.05127,4260,4258.846191,4263.333496,4231.410156,4226.025879,4212.820313,4196.666504,4369.102539,4433.205078,4360.128418,4515.769043,,,,,,,,,,,,,,,,,,,,,,,,,,,,,,,,,,,,,,,,,,,,,,,,,,,,,,,,,,,,,,,,,,,,,,
1720179054,34,0,4213.717773,4228.205078,4264.487305,4256.666504,4259.743652,4265.641113,4228.205078,4225.256348,4223.077148,4203.974121,4366.282227,4428.205078,4359.871582,4537.692383,,,,,,,,,,,,,,,,,,,,,,,,,,,,,,,,,,,,,,,,,,,,,,,,,,,,,,,,,,,,,,,,,,,,,,
1720179054,35,0,4216.666504,4230.641113,4244.871582,4262.307617,4260.256348,4264.358887,4226.282227,4227.307617,4220.769043,4204.230957,4366.794922,4428.205078,4350,4530.769043,,,,,,,,,,,,,,,,,,,,,,,,,,,,,,,,,,,,,,,,,,,,,,,,,,,,,,,,,,,,,,,,,,,,,,
1720179054,36,0,4217.05127,4237.05127,4243.461426,4265.897461,4261.282227,4263.846191,4224.743652,4225.384766,4213.461426,4198.461426,4371.538574,4427.05127,4343.077148,4511.538574,,,,,,,,,,,,,,,,,,,,,,,,,,,,,,,,,,,,,,,,,,,,,,,,,,,,,,,,,,,,,,,,,,,,,,
1720179054,37,0,4225.769043,4245.256348,4261.282227,4273.846191,4262.820313,4262.307617,4227.94873,4225.897461,4215.512695,4208.846191,4369.871582,4431.410156,4354.487305,4528.974121,,,,,,,,,,,,,,,,,,,,,,,,,,,,,,,,,,,,,,,,,,,,,,,,,,,,,,,,,,,,,,,,,,,,,,
1720179054,38,0,4240.512695,4252.563965,4271.410156,4287.436035,4261.538574,4259.871582,4231.410156,4230.897461,4218.205078,4225.256348,4369.743652,4447.94873,4364.871582,4551.410156,,,,,,,,,,,,,,,,,,,,,,,,,,,,,,,,,,,,,,,,,,,,,,,,,,,,,,,,,,,,,,,,,,,,,,
1720179054,39,0,4244.102539,4258.461426,4272.563965,4296.410156,4262.436035,4256.794922,4230.641113,4225.384766,4205,4219.615234,4370.641113,4462.05127,4370.128418,4550,,,,,,,,,,,,,,,,,,,,,,,,,,,,,,,,,,,,,,,,,,,,,,,,,,,,,,,,,,,,,,,,,,,,,,
1720179054,40,0,4249.230957,4264.487305,4279.358887,4297.692383,4267.820313,4251.282227,4232.563965,4218.461426,4185.897461,4211.538574,4366.282227,4467.692383,4377.563965,4557.05127,,,,,,,,,,,,,,,,,,,,,,,,,,,,,,,,,,,,,,,,,,,,,,,,,,,,,,,,,,,,,,,,,,,,,,
1720179054,41,0,4262.820313,4266.922852,4288.461426,4303.717773,4267.94873,4251.153809,4234.487305,4227.179688,4184.743652,4228.589844,4372.563965,4477.436035,4382.692383,4570.769043,,,,,,,,,,,,,,,,,,,,,,,,,,,,,,,,,,,,,,,,,,,,,,,,,,,,,,,,,,,,,,,,,,,,,,
1720179054,42,0,4257.820313,4267.436035,4290.897461,4310.641113,4265.128418,4252.179688,4231.282227,4228.205078,4190.769043,4235.384766,4373.461426,4481.794922,4384.871582,4562.563965,,,,,,,,,,,,,,,,,,,,,,,,,,,,,,,,,,,,,,,,,,,,,,,,,,,,,,,,,,,,,,,,,,,,,,
1720179054,43,0,4241.922852,4266.410156,4283.846191,4304.102539,4273.846191,4252.05127,4238.205078,4221.666504,4184.743652,4218.589844,4366.153809,4467.436035,4383.974121,4560.128418,,,,,,,,,,,,,,,,,,,,,,,,,,,,,,,,,,,,,,,,,,,,,,,,,,,,,,,,,,,,,,,,,,,,,,
1720179054,44,0,4235,4257.436035,4266.666504,4290,4280.641113,4258.589844,4250.128418,4225.384766,4184.102539,4217.820313,4370,4448.846191,4375.128418,4570.897461,,,,,,,,,,,,,,,,,,,,,,,,,,,,,,,,,,,,,,,,,,,,,,,,,,,,,,,,,,,,,,,,,,,,,,
1720179054,45,0,4234.358887,4250.128418,4252.94873,4282.563965,4272.820313,4263.717773,4249.102539,4231.794922,4203.077148,4231.025879,4367.820313,4442.94873,4365.769043,4555.256348,,,,,,,,,,,,,,,,,,,,,,,,,,,,,,,,,,,,,,,,,,,,,,,,,,,,,,,,,,,,,,,,,,,,,,
1720179054,46,0,4235.256348,4246.282227,4250.641113,4275.256348,4263.205078,4264.102539,4247.692383,4237.436035,4220.769043,4227.436035,4364.358887,4442.05127,4363.846191,4529.487305,,,,,,,,,,,,,,,,,,,,,,,,,,,,,,,,,,,,,,,,,,,,,,,,,,,,,,,,,,,,,,,,,,,,,,
1720179054,47,0,4223.077148,4230.128418,4233.461426,4256.666504,4256.410156,4262.692383,4246.538574,4229.487305,4213.846191,4209.102539,4366.538574,4415.641113,4344.487305,4519.743652,,,,,,,,,,,,,,,,,,,,,,,,,,,,,,,,,,,,,,,,,,,,,,,,,,,,,,,,,,,,,,,,,,,,,,
1720179054,48,0,4192.05127,4200.897461,4195.384766,4230.512695,4246.282227,4255.641113,4227.692383,4206.538574,4186.282227,4186.666504,4365.256348,4366.025879,4300.897461,4482.94873,2.795385,11.40462,1.804167,1.018165,0.321431,1.858878,9.443,1.125438,0.630479,0.206895,7.365258,13.174287,0.990363,0.916243,0.354004,1.238104,11.087808,0.93666,0.656701,0.129598,0.668943,2.117098,0.480672,0.211102,0.164861,0.266317,0.548538,0.143755,0.214767,0.097382,0.852657,6.087539,1.046466,0.30587,0.186289,1.032962,5.482614,0.514879,0.366131,0.176994,2.168562,40.720177,1.098198,0.665771,0.315491,4.620545,3.918186,0.933051,0.628784,0.580906,0.067731,0.079383,0.063645,0.02908,0.089925,3.63747,17.601971,1.176405,1.370518,0.68433,4.346758,10.273283,1.24778,0.810271,0.448142,3.979608,15.82437,2.588081,1.233532,1.001883
1720179054,49,0,4172.307617,4188.717773,4179.358887,4220,4240.641113,4251.538574,4216.538574,4197.692383,4171.538574,4172.563965,4365.384766,4352.05127,4281.922852,4445.128418,,,,,,,,,,,,,,,,,,,,,,,,,,,,,,,,,,,,,,,,,,,,,,,,,,,,,,,,,,,,,,,,,,,,,,
1720179054,50,0,4190.897461,4206.282227,4208.333496,4239.871582,4248.974121,4255.256348,4231.153809,4212.307617,4188.846191,4194.230957,4366.025879,4386.282227,4313.846191,4475.384766,,,,,,,,,,,,,,,,,,,,,,,,,,,,,,,,,,,,,,,,,,,,,,,,,,,,,,,,,,,,,,,,,,,,,,
1720179054,51,0,4217.563965,4227.820313,4242.820313,4262.307617,4259.487305,4257.563965,4240,4219.230957,4206.282227,4230,4364.743652,4415.384766,4349.871582,4519.487305,,,,,,,,,,,,,,,,,,,,,,,,,,,,,,,,,,,,,,,,,,,,,,,,,,,,,,,,,,,,,,,,,,,,,,
1720179054,52,0,4222.436035,4237.94873,4242.820313,4268.717773,4263.717773,4253.974121,4237.179688,4214.230957,4199.102539,4237.05127,4369.230957,4426.153809,4355.897461,4531.282227,,,,,,,,,,,,,,,,,,,,,,,,,,,,,,,,,,,,,,,,,,,,,,,,,,,,,,,,,,,,,,,,,,,,,,
1720179054,53,0,4228.717773,4250.897461,4227.563965,4279.358887,4265.128418,4253.461426,4242.436035,4217.436035,4187.307617,4227.05127,4376.025879,4450.512695,4363.974121,4546.666504,,,,,,,,,,,,,,,,,,,,,,,,,,,,,,,,,,,,,,,,,,,,,,,,,,,,,,,,,,,,,,,,,,,,,,
1720179054,54,0,4244.230957,4262.94873,4233.461426,4292.436035,4265.769043,4255.384766,4247.94873,4218.589844,4182.94873,4232.179688,4367.94873,4467.563965,4380.641113,4564.230957,,,,,,,,,,,,,,,,,,,,,,,,,,,,,,,,,,,,,,,,,,,,,,,,,,,,,,,,,,,,,,,,,,,,,,
1720179054,55,0,4243.205078,4256.538574,4244.358887,4288.333496,4262.820313,4260,4246.538574,4219.615234,4184.102539,4247.563965,4364.230957,4454.230957,4381.922852,4562.05127,,,,,,,,,,,,,,,,,,,,,,,,,,,,,,,,,,,,,,,,,,,,,,,,,,,,,,,,,,,,,,,,,,,,,,
1720179054,56,0,4232.563965,4246.538574,4237.820313,4281.666504,4261.410156,4265.256348,4247.307617,4227.692383,4198.589844,4251.922852,4368.461426,4448.077148,4372.307617,4551.410156,,,,,,,,,,,,,,,,,,,,,,,,,,,,,,,,,,,,,,,,,,,,,,,,,,,,,,,,,,,,,,,,,,,,,,
1720179054,57,0,4231.282227,4244.871582,4232.820313,4281.922852,4264.615234,4265,4251.153809,4235.128418,4218.589844,4249.102539,4366.025879,4459.102539,4365.384766,4542.307617,,,,,,,,,,,,,,,,,,,,,,,,,,,,,,,,,,,,,,,,,,,,,,,,,,,,,,,,,,,,,,,,,,,,,,
1720179054,58,0,4223.461426,4237.05127,4232.307617,4271.538574,4262.820313,4264.102539,4249.871582,4233.205078,4222.692383,4243.461426,4366.410156,4447.820313,4358.717773,4536.538574,,,,,,,,,,,,,,,,,,,,,,,,,,,,,,,,,,,,,,,,,,,,,,,,,,,,,,,,,,,,,,,,,,,,,,
1720179054,59,0,4211.153809,4229.615234,4225.769043,4263.333496,4260.769043,4264.102539,4244.102539,4227.179688,4218.846191,4244.615234,4366.410156,4423.974121,4355.897461,4529.487305,,,,,,,,,,,,,,,,,,,,,,,,,,,,,,,,,,,,,,,,,,,,,,,,,,,,,,,,,,,,,,,,,,,,,,
1720179054,60,0,4214.743652,4233.974121,4228.846191,4272.179688,4262.436035,4263.846191,4242.692383,4227.820313,4221.794922,4249.358887,4366.025879,4426.794922,4357.563965,4523.974121,,,,,,,,,,,,,,,,,,,,,,,,,,,,,,,,,,,,,,,,,,,,,,,,,,,,,,,,,,,,,,,,,,,,,,
1720179054,61,0,4220.512695,4233.461426,4231.666504,4277.05127,4259.871582,4262.05127,4239.102539,4225.384766,4218.461426,4238.461426,4368.974121,4433.974121,4356.025879,4529.743652,,,,,,,,,,,,,,,,,,,,,,,,,,,,,,,,,,,,,,,,,,,,,,,,,,,,,,,,,,,,,,,,,,,,,,
1720179054,62,0,4220.256348,4228.846191,4229.615234,4272.307617,4257.05127,4261.282227,4230,4218.077148,4205.384766,4233.461426,4368.589844,4427.94873,4356.025879,4540.897461,,,,,,,,,,,,,,,,,,,,,,,,,,,,,,,,,,,,,,,,,,,,,,,,,,,,,,,,,,,,,,,,,,,,,,
1720179054,63,0,4226.153809,4239.871582,4241.922852,4279.358887,4261.282227,4260,4227.05127,4216.538574,4196.410156,4252.820313,4369.230957,4434.615234,4366.922852,4547.692383,,,,,,,,,,,,,,,,,,,,,,,,,,,,,,,,,,,,,,,,,,,,,,,,,,,,,,,,,,,,,,,,,,,,,,
1720179054,64,0,4238.205078,4253.333496,4253.333496,4289.230957,4266.282227,4254.102539,4227.563965,4216.922852,4187.94873,4264.743652,4369.871582,4448.077148,4382.820313,4556.153809,3.120226,9.434772,1.603106,0.92023,0.315725,1.896255,8.364881,1.09628,0.533685,0.207149,6.065516,12.07725,0.869885,0.83215,0.343222,1.383451,9.886539,0.99561,0.606328,0.139144,0.742085,1.94221,0.538307,0.1977,0.189108,0.24133,0.719305,0.167842,0.192562,0.105602,0.98157,5.647378,0.892702,0.285253,0.185152,1.187095,5.264319,0.576986,0.348468,0.153228,2.618367,41.722851,1.308393,0.684878,0.284814,7.571779,4.794815,1.178052,0.991184,0.606734,0.057015,0.075375,0.06418,0.026701,0.082293,4.100377,14.271547,1.137294,1.334268,0.636366,4.11114,8.004712,1.336832,0.735111,0.415276,3.974355,13.331692,2.347343,1.055807,0.98316
1720179054,65,0,4242.307617,4253.974121,4249.102539,4288.077148,4265,4255.256348,4228.333496,4219.102539,4181.282227,4258.077148,4366.922852,4451.666504,4384.358887,4558.846191,,,,,,,,,,,,,,,,,,,,,,,,,,,,,,,,,,,,,,,,,,,,,,,,,,,,,,,,,,,,,,,,,,,,,,
1720179054,66,0,4234.102539,4249.871582,4248.077148,4281.153809,4261.794922,4262.179688,4238.077148,4227.436035,4188.974121,4258.205078,4368.461426,4450.128418,4373.974121,4550.641113,,,,,,,,,,,,,,,,,,,,,,,,,,,,,,,,,,,,,,,,,,,,,,,,,,,,,,,,,,,,,,,,,,,,,,
1720179054,67,0,4232.692383,4247.692383,4248.846191,4277.179688,4260.384766,4262.94873,4247.179688,4232.820313,4207.179688,4261.666504,4370.256348,4446.794922,4371.538574,4556.153809,,,,,,,,,,,,,,,,,,,,,,,,,,,,,,,,,,,,,,,,,,,,,,,,,,,,,,,,,,,,,,,,,,,,,,
1720179054,68,0,4237.05127,4240,4239.102539,4280.256348,4262.94873,4260.256348,4248.589844,4232.563965,4223.974121,4261.410156,4364.871582,4441.922852,4371.410156,4558.333496,,,,,,,,,,,,,,,,,,,,,,,,,,,,,,,,,,,,,,,,,,,,,,,,,,,,,,,,,,,,,,,,,,,,,,
1720179054,69,0,4232.307617,4228.846191,4233.461426,4275.128418,4261.538574,4262.05127,4250.897461,4237.179688,4234.615234,4264.230957,4368.589844,4443.974121,4363.846191,4541.025879,,,,,,,,,,,,,,,,,,,,,,,,,,,,,,,,,,,,,,,,,,,,,,,,,,,,,,,,,,,,,,,,,,,,,,
1720179054,70,0,4227.307617,4228.205078,4234.743652,4264.743652,4249.871582,4259.102539,4245.897461,4237.05127,4238.717773,4266.410156,4371.538574,4447.563965,4361.666504,4540.641113,,,,,,,,,,,,,,,,,,,,,,,,,,,,,,,,,,,,,,,,,,,,,,,,,,,,,,,,,,,,,,,,,,,,,,
1720179054,71,0,4231.282227,4231.025879,4230.641113,4268.205078,4244.871582,4252.436035,4232.563965,4227.820313,4238.461426,4267.436035,4364.743652,4440.769043,4367.179688,4561.410156,,,,,,,,,,,,,,,,,,,,,,,,,,,,,,,,,,,,,,,,,,,,,,,,,,,,,,,,,,,,,,,,,,,,,,
1720179054,72,0,4230.641113,4232.179688,4234.102539,4278.717773,4256.410156,4256.282227,4228.077148,4225.897461,4236.666504,4261.922852,4367.692383,4430.512695,4367.179688,4572.179688,,,,,,,,,,,,,,,,,,,,,,,,,,,,,,,,,,,,,,,,,,,,,,,,,,,,,,,,,,,,,,,,,,,,,,
1720179054,73,0,4222.94873,4240.256348,4247.692383,4280.897461,4266.153809,4263.846191,4230.897461,4224.743652,4231.538574,4256.410156,4367.436035,4429.615234,4365.384766,4568.846191,,,,,,,,,,,,,,,,,,,,,,,,,,,,,,,,,,,,,,,,,,,,,,,,,,,,,,,,,,,,,,,,,,,,,,
1720179054,74,0,4223.333496,4248.333496,4254.615234,4279.487305,4264.358887,4265.128418,4230.769043,4221.153809,4223.974121,4259.358887,4365.128418,4439.743652,4365,4567.692383,,,,,,,,,,,,,,,,,,,,,,,,,,,,,,,,,,,,,,,,,,,,,,,,,,,,,,,,,,,,,,,,,,,,,,
1720179054,75,0,4229.871582,4248.077148,4250,4280.769043,4262.692383,4262.05127,4230.384766,4222.436035,4214.358887,4260.384766,4366.794922,4441.922852,4362.307617,4569.487305,,,,,,,,,,,,,,,,,,,,,,,,,,,,,,,,,,,,,,,,,,,,,,,,,,,,,,,,,,,,,,,,,,,,,,
1720179054,76,0,4240.384766,4249.743652,4245.512695,4281.153809,4265.128418,4261.922852,4230.128418,4219.871582,4201.922852,4257.307617,4363.461426,4432.179688,4364.230957,4576.666504,,,,,,,,,,,,,,,,,,,,,,,,,,,,,,,,,,,,,,,,,,,,,,,,,,,,,,,,,,,,,,,,,,,,,,
1720179054,77,0,4247.307617,4252.307617,4246.410156,4280.384766,4263.333496,4264.230957,4230.128418,4215.897461,4192.05127,4258.461426,4363.077148,4430.512695,4365.641113,4573.846191,,,,,,,,,,,,,,,,,,,,,,,,,,,,,,,,,,,,,,,,,,,,,,,,,,,,,,,,,,,,,,,,,,,,,,
1720179054,78,0,4241.025879,4247.307617,4246.794922,4278.846191,4260.256348,4264.615234,4232.05127,4218.974121,4194.615234,4262.436035,4365.641113,4435.769043,4360.897461,4561.666504,,,,,,,,,,,,,,,,,,,,,,,,,,,,,,,,,,,,,,,,,,,,,,,,,,,,,,,,,,,,,,,,,,,,,,
1720179054,79,0,4237.820313,4245,4250.128418,4279.230957,4260.769043,4263.717773,4236.538574,4222.820313,4212.563965,4268.717773,4362.820313,4433.717773,4361.025879,4571.794922,,,,,,,,,,,,,,,,,,,,,,,,,,,,,,,,,,,,,,,,,,,,,,,,,,,,,,,,,,,,,,,,,,,,,,
1720179054,80,0,4243.717773,4249.102539,4258.461426,4283.077148,4256.025879,4265.128418,4240.384766,4227.05127,4230.256348,4273.589844,4364.230957,4431.666504,4367.563965,4581.922852,3.406447,8.530916,1.418119,0.9146,0.306847,1.901925,8.050429,1.080256,0.465866,0.200864,4.582426,12.474924,0.834077,0.740249,0.322272,1.565593,9.302191,1.05926,0.553843,0.146731,0.818005,1.790576,0.598029,0.182123,0.206746,0.214945,1.007597,0.190572,0.171195,0.113694,1.084714,5.815821,0.735467,0.278016,0.18437,1.289199,4.976764,0.60437,0.335571,0.128085,2.996094,41.759743,1.47237,0.699659,0.252388,12.089232,5.881519,1.568032,1.488568,0.633006,0.051776,0.073993,0.06068,0.024553,0.078212,4.563529,12.628002,1.099948,1.300663,0.574231,3.9467,6.629769,1.442139,0.677235,0.371632,3.941247,12.423735,2.247391,1.026567,0.957822
1720179054,81,0,4248.589844,4250.897461,4262.05127,4283.589844,4249.230957,4262.179688,4237.563965,4234.743652,4236.666504,4278.589844,4371.025879,4434.487305,4370.512695,4575.641113,,,,,,,,,,,,,,,,,,,,,,,,,,,,,,,,,,,,,,,,,,,,,,,,,,,,,,,,,,,,,,,,,,,,,,
1720179054,82,0,4241.410156,4242.820313,4258.077148,4279.871582,4249.358887,4258.077148,4232.436035,4233.333496,4235.897461,4279.358887,4364.102539,4430.128418,4363.077148,4565.769043,,,,,,,,,,,,,,,,,,,,,,,,,,,,,,,,,,,,,,,,,,,,,,,,,,,,,,,,,,,,,,,,,,,,,,
1720179054,83,0,4230.384766,4232.820313,4259.102539,4277.94873,4252.692383,4259.743652,4232.94873,4226.025879,4228.589844,4262.563965,4359.743652,4425.769043,4349.743652,4549.487305,,,,,,,,,,,,,,,,,,,,,,,,,,,,,,,,,,,,,,,,,,,,,,,,,,,,,,,,,,,,,,,,,,,,,,
1720179054,84,0,4236.410156,4239.230957,4266.666504,4284.230957,4258.077148,4257.179688,4235.512695,4224.871582,4226.282227,4253.589844,4366.410156,4432.179688,4350,4539.871582,,,,,,,,,,,,,,,,,,,,,,,,,,,,,,,,,,,,,,,,,,,,,,,,,,,,,,,,,,,,,,,,,,,,,,
1720179054,85,0,4247.05127,4248.974121,4264.743652,4291.153809,4264.102539,4255.897461,4234.487305,4228.077148,4229.102539,4274.102539,4365.384766,4433.974121,4362.820313,4553.589844,,,,,,,,,,,,,,,,,,,,,,,,,,,,,,,,,,,,,,,,,,,,,,,,,,,,,,,,,,,,,,,,,,,,,,
1720179054,86,0,4238.974121,4247.820313,4260.512695,4291.538574,4263.974121,4259.615234,4231.282227,4226.538574,4223.974121,4289.487305,4364.615234,4431.282227,4368.846191,4571.025879,,,,,,,,,,,,,,,,,,,,,,,,,,,,,,,,,,,,,,,,,,,,,,,,,,,,,,,,,,,,,,,,,,,,,,
1720179054,87,0,4234.102539,4253.717773,4270.256348,4294.358887,4263.205078,4257.179688,4230.641113,4220,4212.307617,4283.846191,4365.384766,4440.128418,4372.94873,4572.820313,,,,,,,,,,,,,,,,,,,,,,,,,,,,,,,,,,,,,,,,,,,,,,,,,,,,,,,,,,,,,,,,,,,,,,
1720179054,88,0,4247.179688,4263.974121,4280.128418,4298.461426,4267.436035,4254.615234,4232.307617,4221.538574,4201.410156,4279.230957,4365.897461,4451.025879,4376.282227,4567.307617,,,,,,,,,,,,,,,,,,,,,,,,,,,,,,,,,,,,,,,,,,,,,,,,,,,,,,,,,,,,,,,,,,,,,,
1720179054,89,0,4250.512695,4262.563965,4277.94873,4298.205078,4267.05127,4256.794922,4234.743652,4226.410156,4200.512695,4279.615234,4367.05127,4453.461426,4368.589844,4563.205078,,,,,,,,,,,,,,,,,,,,,,,,,,,,,,,,,,,,,,,,,,,,,,,,,,,,,,,,,,,,,,,,,,,,,,
1720179054,90,0,4244.487305,4260.384766,4281.282227,4304.615234,4261.025879,4257.94873,4240.897461,4227.820313,4216.410156,4284.102539,4367.692383,4458.205078,4364.743652,4567.436035,,,,,,,,,,,,,,,,,,,,,,,,,,,,,,,,,,,,,,,,,,,,,,,,,,,,,,,,,,,,,,,,,,,,,,
1720179054,91,0,4250.384766,4265.769043,4292.436035,4314.615234,4262.05127,4256.666504,4248.974121,4236.410156,4239.230957,4294.358887,4367.436035,4463.589844,4370,4576.282227,,,,,,,,,,,,,,,,,,,,,,,,,,,,,,,,,,,,,,,,,,,,,,,,,,,,,,,,,,,,,,,,,,,,,,
1720179054,92,0,4251.025879,4262.94873,4287.436035,4305.897461,4264.230957,4255.897461,4249.743652,4243.589844,4247.820313,4292.307617,4366.666504,4452.307617,4367.05127,4571.025879,,,,,,,,,,,,,,,,,,,,,,,,,,,,,,,,,,,,,,,,,,,,,,,,,,,,,,,,,,,,,,,,,,,,,,
1720179054,93,0,4238.589844,4256.025879,4272.692383,4291.794922,4261.025879,4256.538574,4245.769043,4236.538574,4242.179688,4275.128418,4364.102539,4429.615234,4356.153809,4559.358887,,,,,,,,,,,,,,,,,,,,,,,,,,,,,,,,,,,,,,,,,,,,,,,,,,,,,,,,,,,,,,,,,,,,,,
1720179055,94,0,4231.794922,4255.641113,4273.974121,4293.974121,4260.512695,4257.436035,4242.179688,4230.897461,4235.384766,4266.025879,4367.05127,4415.769043,4345.512695,4551.666504,,,,,,,,,,,,,,,,,,,,,,,,,,,,,,,,,,,,,,,,,,,,,,,,,,,,,,,,,,,,,,,,,,,,,,
1720179055,95,0,4231.282227,4252.692383,4274.615234,4293.589844,4263.461426,4256.538574,4235.769043,4227.307617,4233.461426,4276.282227,4370.769043,4413.205078,4336.410156,4539.358887,,,,,,,,,,,,,,,,,,,,,,,,,,,,,,,,,,,,,,,,,,,,,,,,,,,,,,,,,,,,,,,,,,,,,,
1720179055,96,0,4231.410156,4247.307617,4262.692383,4288.077148,4263.846191,4252.94873,4230.384766,4216.666504,4230.641113,4284.615234,4359.102539,4418.333496,4339.230957,4521.153809,3.554142,8.970782,1.286749,0.995097,0.298067,1.883366,8.670217,1.104131,0.446143,0.191507,3.283284,14.37487,0.877759,0.660491,0.305774,1.765362,9.640884,1.123249,0.501847,0.151407,0.861785,1.709703,0.64124,0.171111,0.21059,0.187432,1.333164,0.20639,0.154467,0.118959,1.127344,6.171085,0.616435,0.285651,0.184763,1.314019,4.523403,0.589259,0.326997,0.109784,3.21019,40.301403,1.536559,0.724881,0.23325,17.077335,6.921346,1.99525,2.00993,0.658313,0.05272,0.075389,0.056518,0.023445,0.077329,4.99595,13.353454,1.085102,1.274878,0.518858,3.897475,6.727837,1.602625,0.654382,0.33648,3.947622,13.737259,2.460547,1.155509,0.933326
1720179055,97,0,4236.538574,4250.897461,4263.974121,4293.974121,4263.589844,4252.436035,4229.358887,4215,4221.410156,4280.769043,4358.974121,4428.205078,4347.307617,4522.820313,,,,,,,,,,,,,,,,,,,,,,,,,,,,,,,,,,,,,,,,,,,,,,,,,,,,,,,,,,,,,,,,,,,,,,
1720179055,98,0,4243.717773,4260.256348,4279.358887,4300.641113,4264.358887,4256.538574,4231.538574,4218.846191,4215.769043,4278.333496,4367.94873,4429.358887,4352.692383,4553.589844,,,,,,,,,,,,,,,,,,,,,,,,,,,,,,,,,,,,,,,,,,,,,,,,,,,,,,,,,,,,,,,,,,,,,,
1720179055,99,0,4247.307617,4264.615234,4285.256348,4301.153809,4262.94873,4257.94873,4238.846191,4215.641113,4215.641113,4280,4362.05127,4420.897461,4362.563965,4573.589844,,,,,,,,,,,,,,,,,,,,,,,,,,,,,,,,,,,,,,,,,,,,,,,,,,,,,,,,,,,,,,,,,,,,,,
1720179055,100,0,4245,4261.410156,4281.794922,4302.179688,4259.743652,4257.05127,4247.307617,4216.666504,4211.922852,4276.538574,4361.666504,4422.179688,4364.615234,4561.538574,,,,,,,,,,,,,,,,,,,,,,,,,,,,,,,,,,,,,,,,,,,,,,,,,,,,,,,,,,,,,,,,,,,,,,
1720179055,101,0,4240.512695,4256.025879,4278.974121,4299.230957,4255.641113,4254.871582,4245.512695,4219.487305,4209.871582,4272.563965,4362.436035,4431.410156,4353.077148,4549.358887,,,,,,,,,,,,,,,,,,,,,,,,,,,,,,,,,,,,,,,,,,,,,,,,,,,,,,,,,,,,,,,,,,,,,,
1720179055,102,0,4239.871582,4250.512695,4275.128418,4293.205078,4249.487305,4254.102539,4235.128418,4217.820313,4216.025879,4268.205078,4360.256348,4430.641113,4343.974121,4544.743652,,,,,,,,,,,,,,,,,,,,,,,,,,,,,,,,,,,,,,,,,,,,,,,,,,,,,,,,,,,,,,,,,,,,,,
1720179055,103,0,4237.05127,4246.538574,4270.128418,4292.436035,4247.94873,4254.230957,4233.717773,4222.820313,4225.512695,4261.922852,4365.512695,4424.871582,4348.846191,4539.358887,,,,,,,,,,,,,,,,,,,,,,,,,,,,,,,,,,,,,,,,,,,,,,,,,,,,,,,,,,,,,,,,,,,,,,
1720179055,104,0,4236.410156,4248.589844,4274.615234,4293.589844,4250.897461,4254.358887,4242.307617,4231.922852,4238.974121,4271.666504,4365.512695,4427.05127,4358.589844,4543.077148,,,,,,,,,,,,,,,,,,,,,,,,,,,,,,,,,,,,,,,,,,,,,,,,,,,,,,,,,,,,,,,,,,,,,,
1720179055,105,0,4246.922852,4249.102539,4281.794922,4286.794922,4249.871582,4251.666504,4248.333496,4234.871582,4250.897461,4288.077148,4361.794922,4432.436035,4353.846191,4542.94873,,,,,,,,,,,,,,,,,,,,,,,,,,,,,,,,,,,,,,,,,,,,,,,,,,,,,,,,,,,,,,,,,,,,,,
1720179055,106,0,4245.897461,4237.436035,4274.615234,4278.717773,4245.897461,4248.205078,4242.94873,4233.205078,4250.384766,4288.205078,4365,4426.538574,4338.077148,4533.333496,,,,,,,,,,,,,,,,,,,,,,,,,,,,,,,,,,,,,,,,,,,,,,,,,,,,,,,,,,,,,,,,,,,,,,
1720179055,107,0,4230.897461,4233.077148,4268.333496,4285.769043,4245.897461,4251.025879,4236.794922,4228.461426,4248.333496,4280.512695,4362.563965,4413.974121,4334.487305,4535.769043,,,,,,,,,,,,,,,,,,,,,,,,,,,,,,,,,,,,,,,,,,,,,,,,,,,,,,,,,,,,,,,,,,,,,,
1720179055,108,0,4229.615234,4243.461426,4275.256348,4293.974121,4249.743652,4250.128418,4239.102539,4228.333496,4250.641113,4281.282227,4358.461426,4411.666504,4338.589844,4543.333496,,,,,,,,,,,,,,,,,,,,,,,,,,,,,,,,,,,,,,,,,,,,,,,,,,,,,,,,,,,,,,,,,,,,,,
1720179055,109,0,4242.436035,4246.025879,4274.871582,4288.077148,4248.717773,4247.307617,4238.717773,4227.692383,4240.128418,4282.94873,4367.692383,4420.384766,4330.641113,4544.487305,,,,,,,,,,,,,,,,,,,,,,,,,,,,,,,,,,,,,,,,,,,,,,,,,,,,,,,,,,,,,,,,,,,,,,
1720179055,110,0,4247.436035,4238.333496,4264.871582,4287.05127,4247.05127,4249.743652,4231.153809,4218.846191,4220.256348,4276.025879,4362.563965,4428.974121,4324.230957,4535.384766,,,,,,,,,,,,,,,,,,,,,,,,,,,,,,,,,,,,,,,,,,,,,,,,,,,,,,,,,,,,,,,,,,,,,,
1720179055,111,0,4239.230957,4236.153809,4261.282227,4288.717773,4250.384766,4249.230957,4228.846191,4217.307617,4208.461426,4263.205078,4353.333496,4427.179688,4324.871582,4514.102539,,,,,,,,,,,,,,,,,,,,,,,,,,,,,,,,,,,,,,,,,,,,,,,,,,,,,,,,,,,,,,,,,,,,,,
1720179055,112,0,4233.077148,4238.974121,4261.666504,4281.282227,4247.94873,4246.153809,4232.307617,4221.025879,4205.512695,4248.461426,4364.230957,4415.641113,4315.512695,4505.769043,3.499977,10.474483,1.214009,1.114134,0.293171,1.883188,10.057308,1.179418,0.470804,0.183006,2.435695,17.213358,0.974898,0.612272,0.308151,2.019845,10.868362,1.184231,0.452435,0.154857,0.85925,1.703095,0.655226,0.169376,0.198004,0.167995,1.594426,0.212856,0.143076,0.119187,1.08262,6.332286,0.545781,0.307609,0.184643,1.257758,3.922821,0.535121,0.32331,0.10318,3.197246,37.320675,1.492995,0.780382,0.23494,20.934858,7.644499,2.321602,2.405693,0.676826,0.058066,0.079594,0.054956,0.023903,0.077625,5.391854,16.307812,1.118981,1.252642,0.486316,3.948797,8.328895,1.830763,0.665873,0.324079,4.027707,17.048452,3.038361,1.390364,0.912688
1720179055,113,0,4238.461426,4245,4263.461426,4284.487305,4242.692383,4247.307617,4231.666504,4217.436035,4208.333496,4248.717773,4367.820313,4408.974121,4307.692383,4523.589844,,,,,,,,,,,,,,,,,,,,,,,,,,,,,,,,,,,,,,,,,,,,,,,,,,,,,,,,,,,,,,,,,,,,,,
1720179055,114,0,4242.179688,4252.05127,4270.128418,4300.256348,4248.333496,4252.820313,4232.692383,4219.358887,4216.025879,4263.333496,4362.05127,4416.794922,4315,4531.410156,,,,,,,,,,,,,,,,,,,,,,,,,,,,,,,,,,,,,,,,,,,,,,,,,,,,,,,,,,,,,,,,,,,,,,
1720179055,115,0,4234.358887,4246.922852,4269.230957,4298.077148,4251.282227,4250.384766,4233.974121,4224.487305,4221.153809,4261.410156,4358.846191,4420.769043,4314.487305,4520.769043,,,,,,,,,,,,,,,,,,,,,,,,,,,,,,,,,,,,,,,,,,,,,,,,,,,,,,,,,,,,,,,,,,,,,,
1720179055,116,0,4229.615234,4233.205078,4259.871582,4285,4240.128418,4244.230957,4230.384766,4223.846191,4228.461426,4247.179688,4357.563965,4407.05127,4300,4521.282227,,,,,,,,,,,,,,,,,,,,,,,,,,,,,,,,,,,,,,,,,,,,,,,,,,,,,,,,,,,,,,,,,,,,,,
1720179055,117,0,4238.717773,4231.666504,4252.820313,4284.743652,4237.820313,4245.512695,4228.846191,4226.025879,4246.922852,4252.820313,4358.846191,4400,4299.102539,4520.256348,,,,,,,,,,,,,,,,,,,,,,,,,,,,,,,,,,,,,,,,,,,,,,,,,,,,,,,,,,,,,,,,,,,,,,
1720179055,118,0,4242.94873,4239.358887,4248.205078,4288.077148,4246.025879,4246.922852,4227.94873,4232.179688,4261.666504,4269.743652,4359.871582,4411.025879,4312.692383,4505.384766,,,,,,,,,,,,,,,,,,,,,,,,,,,,,,,,,,,,,,,,,,,,,,,,,,,,,,,,,,,,,,,,,,,,,,
1720179055,119,0,4228.717773,4239.743652,4249.230957,4287.820313,4244.871582,4245.384766,4227.307617,4230.384766,4259.102539,4261.410156,4360.384766,4414.358887,4311.153809,4507.436035,,,,,,,,,,,,,,,,,,,,,,,,,,,,,,,,,,,,,,,,,,,,,,,,,,,,,,,,,,,,,,,,,,,,,,
1720179055,120,0,4223.846191,4240.769043,4259.743652,4292.307617,4243.333496,4248.077148,4229.743652,4225.384766,4248.461426,4243.077148,4364.230957,4403.461426,4297.563965,4522.820313,,,,,,,,,,,,,,,,,,,,,,,,,,,,,,,,,,,,,,,,,,,,,,,,,,,,,,,,,,,,,,,,,,,,,,
1720179055,121,0,4234.358887,4244.615234,4264.871582,4295.641113,4249.358887,4251.410156,4232.307617,4220.897461,4239.230957,4246.538574,4360.128418,4395.512695,4294.102539,4520,,,,,,,,,,,,,,,,,,,,,,,,,,,,,,,,,,,,,,,,,,,,,,,,,,,,,,,,,,,,,,,,,,,,,,
1720179055,122,0,4229.102539,4241.025879,4252.820313,4287.05127,4249.358887,4248.717773,4230.512695,4215.512695,4228.077148,4251.410156,4354.230957,4392.179688,4292.179688,4504.615234,,,,,,,,,,,,,,,,,,,,,,,,,,,,,,,,,,,,,,,,,,,,,,,,,,,,,,,,,,,,,,,,,,,,,,
1720179055,123,0,4216.922852,4236.538574,4247.820313,4282.179688,4242.436035,4248.205078,4230.128418,4213.717773,4219.487305,4235.128418,4363.846191,4389.487305,4289.487305,4502.820313,,,,,,,,,,,,,,,,,,,,,,,,,,,,,,,,,,,,,,,,,,,,,,,,,,,,,,,,,,,,,,,,,,,,,,
