Timestamp,EEG.Counter,EEG.Interpolated,EEG.AF3,EEG.F7,EEG.F3,EEG.FC5,EEG.T7,EEG.P7,EEG.O1,EEG.O2,EEG.P8,EEG.T8,EEG.FC6,EEG.F4,EEG.F8,EEG.AF4,POW.AF3.Theta,POW.AF3.Alpha,POW.AF3.BetaL,POW.AF3.BetaH,POW.AF3.Gamma,POW.F7.Theta,POW.F7.Alpha,POW.F7.BetaL,POW.F7.BetaH,POW.F7.Gamma,POW.F3.Theta,POW.F3.Alpha,POW.F3.BetaL,POW.F3.BetaH,POW.F3.Gamma,POW.FC5.Theta,POW.FC5.Alpha,POW.FC5.BetaL,POW.FC5.BetaH,POW.FC5.Gamma,POW.T7.Theta,POW.T7.Alpha,POW.T7.BetaL,POW.T7.BetaH,POW.T7.Gamma,POW.P7.Theta,POW.P7.Alpha,POW.P7.BetaL,POW.P7.BetaH,POW.P7.Gamma,POW.O1.Theta,POW.O1.Alpha,POW.O1.BetaL,POW.O1.BetaH,POW.O1.Gamma,POW.O2.Theta,POW.O2.Alpha,POW.O2.BetaL,POW.O2.BetaH,POW.O2.Gamma,POW.P8.Theta,POW.P8.Alpha,POW.P8.BetaL,POW.P8.BetaH,POW.P8.Gamma,POW.T8.Theta,POW.T8.Alpha,POW.T8.BetaL,POW.T8.BetaH,POW.T8.Gamma,POW.FC6.Theta,POW.FC6.Alpha,POW.FC6.BetaL,POW.FC6.BetaH,POW.FC6.Gamma,POW.F4.Theta,POW.F4.Alpha,POW.F4.BetaL,POW.F4.BetaH,POW.F4.Gamma,POW.F8.Theta,POW.F8.Alpha,POW.F8.BetaL,POW.F8.BetaH,POW.F8.Gamma,POW.AF4.Theta,POW.AF4.Alpha,POW.AF4.BetaL,POW.AF4.BetaH,POW.AF4.Gamma
1720178500,35,0,4193.461426,4261.922852,4070.641113,4171.666504,4179.871582,4295.769043,4169.743652,4252.94873,4202.94873,4077.564209,4328.846191,4216.410156,4172.307617,4307.307617,,,,,,,,,,,,,,,,,,,,,,,,,,,,,,,,,,,,,,,,,,,,,,,,,,,,,,,,,,,,,,,,,,,,,,
1720178500,36,0,4201.025879,4264.743652,4073.205078,4177.307617,4183.717773,4292.692383,4167.563965,4247.820313,4204.743652,4081.281982,4335.384766,4226.153809,4178.717773,4313.461426,,,,,,,,,,,,,,,,,,,,,,,,,,,,,,,,,,,,,,,,,,,,,,,,,,,,,,,,,,,,,,,,,,,,,,
1720178500,37,0,4192.692383,4262.179688,4075.128174,4172.563965,4178.461426,4297.307617,4166.666504,4243.333496,4203.461426,4068.076904,4326.666504,4219.615234,4171.538574,4301.794922,,,,,,,,,,,,,,,,,,,,,,,,,,,,,,,,,,,,,,,,,,,,,,,,,,,,,,,,,,,,,,,,,,,,,,
1720178500,38,0,4175,4246.410156,4062.692383,4160.128418,4171.666504,4297.436035,4155.512695,4240.128418,4200.256348,4050.384521,4308.974121,4202.692383,4156.153809,4285.897461,,,,,,,,,,,,,,,,,,,,,,,,,,,,,,,,,,,,,,,,,,,,,,,,,,,,,,,,,,,,,,,,,,,,,,
1720178500,39,0,4166.794922,4229.487305,4049.871826,4148.589844,4170.641113,4292.179688,4139.615234,4241.282227,4195.384766,4042.435791,4297.820313,4192.436035,4150.897461,4280.769043,,,,,,,,,,,,,,,,,,,,,,,,,,,,,,,,,,,,,,,,,,,,,,,,,,,,,,,,,,,,,,,,,,,,,,
1720178500,40,0,4164.358887,4229.615234,4048.718018,4140.512695,4173.333496,4291.922852,4133.589844,4236.538574,4188.333496,4041.794922,4287.94873,4182.563965,4150.769043,4276.922852,,,,,,,,,,,,,,,,,,,,,,,,,,,,,,,,,,,,,,,,,,,,,,,,,,,,,,,,,,,,,,,,,,,,,,
1720178500,41,0,4169.230957,4241.410156,4052.94873,4143.077148,4173.077148,4293.717773,4131.666504,4227.179688,4186.794922,4042.307617,4276.794922,4175.512695,4143.974121,4275.128418,,,,,,,,,,,,,,,,,,,,,,,,,,,,,,,,,,,,,,,,,,,,,,,,,,,,,,,,,,,,,,,,,,,,,,
1720178500,42,0,4181.025879,4248.717773,4062.307617,4152.563965,4170.384766,4293.846191,4125.256348,4225.512695,4189.358887,4040.256348,4270.641113,4182.05127,4137.05127,4278.077148,,,,,,,,,,,,,,,,,,,,,,,,,,,,,,,,,,,,,,,,,,,,,,,,,,,,,,,,,,,,,,,,,,,,,,
1720178500,43,0,4179.743652,4243.974121,4067.179443,4147.820313,4168.589844,4291.666504,4120.384766,4225,4184.230957,4035.512939,4268.846191,4189.743652,4135.897461,4278.589844,,,,,,,,,,,,,,,,,,,,,,,,,,,,,,,,,,,,,,,,,,,,,,,,,,,,,,,,,,,,,,,,,,,,,,
1720178500,44,0,4169.487305,4235.256348,4061.666748,4137.05127,4169.102539,4292.692383,4117.94873,4219.358887,4181.153809,4036.153809,4270.384766,4191.282227,4136.666504,4278.589844,,,,,,,,,,,,,,,,,,,,,,,,,,,,,,,,,,,,,,,,,,,,,,,,,,,,,,,,,,,,,,,,,,,,,,
1720178500,45,0,4165.256348,4233.077148,4058.333252,4136.794922,4170,4295.128418,4112.820313,4221.666504,4191.025879,4045.384521,4269.871582,4196.025879,4141.025879,4282.94873,,,,,,,,,,,,,,,,,,,,,,,,,,,,,,,,,,,,,,,,,,,,,,,,,,,,,,,,,,,,,,,,,,,,,,
1720178500,46,0,4161.410156,4229.102539,4055.769287,4132.692383,4169.358887,4293.205078,4104.743652,4225.256348,4201.153809,4046.153809,4263.717773,4195.384766,4140.769043,4281.794922,,,,,,,,,,,,,,,,,,,,,,,,,,,,,,,,,,,,,,,,,,,,,,,,,,,,,,,,,,,,,,,,,,,,,,
1720178500,47,0,4148.205078,4216.538574,4047.435791,4120.769043,4167.436035,4291.282227,4100.769043,4224.230957,4202.820313,4042.94873,4260.512695,4190.641113,4131.282227,4270.256348,,,,,,,,,,,,,,,,,,,,,,,,,,,,,,,,,,,,,,,,,,,,,,,,,,,,,,,,,,,,,,,,,,,,,,
1720178500,48,0,4140.256348,4213.333496,4040.897461,4120.128418,4165.641113,4294.487305,4099.358887,4225.512695,4201.794922,4046.923096,4263.077148,4188.461426,4123.333496,4262.692383,5.337859,1.847131,1.019382,0.697141,0.242512,6.578756,3.006763,1.280015,0.43253,0.204518,6.844017,2.344106,1.55164,1.059217,0.198831,5.527712,1.825782,0.775768,0.440714,0.192884,3.894621,1.208507,0.281116,0.237561,0.139743,3.983548,1.130752,0.57862,0.185899,0.14537,5.343246,1.073669,1.820905,0.828561,0.159446,0.873829,0.35733,0.176137,0.161332,0.036957,6.99125,6.706849,2.983448,1.027333,0.263319,6.571903,1.504175,1.192798,0.598553,0.244172,4.902063,1.127868,1.431364,0.716268,0.280205,9.570936,0.992066,1.392857,1.118717,0.235644,5.941665,1.752272,1.38024,0.679995,0.19202,6.746171,1.562205,2.008343,0.80946,0.237881
1720178500,49,0,4140.897461,4220.769043,4039.743652,4123.717773,4170.897461,4297.436035,4096.025879,4224.102539,4201.538574,4043.718018,4258.333496,4186.153809,4121.025879,4262.05127,,,,,,,,,,,,,,,,,,,,,,,,,,,,,,,,,,,,,,,,,,,,,,,,,,,,,,,,,,,,,,,,,,,,,,
1720178500,50,0,4140.769043,4223.205078,4043.076904,4121.922852,4176.922852,4295.512695,4094.487061,4223.333496,4203.077148,4042.820557,4252.05127,4186.410156,4124.230957,4259.871582,,,,,,,,,,,,,,,,,,,,,,,,,,,,,,,,,,,,,,,,,,,,,,,,,,,,,,,,,,,,,,,,,,,,,,
1720178500,51,0,4146.025879,4218.846191,4051.153809,4125.512695,4174.230957,4293.974121,4086.410156,4221.153809,4199.358887,4057.179443,4254.615234,4191.410156,4126.410156,4264.487305,,,,,,,,,,,,,,,,,,,,,,,,,,,,,,,,,,,,,,,,,,,,,,,,,,,,,,,,,,,,,,,,,,,,,,
1720178500,52,0,4151.025879,4216.153809,4057.179443,4127.05127,4169.487305,4294.230957,4075.256348,4213.077148,4187.563965,4062.307617,4257.179688,4203.717773,4122.94873,4275.897461,,,,,,,,,,,,,,,,,,,,,,,,,,,,,,,,,,,,,,,,,,,,,,,,,,,,,,,,,,,,,,,,,,,,,,
1720178500,53,0,4153.589844,4223.077148,4061.538574,4120.769043,4173.717773,4294.358887,4075.128174,4207.436035,4179.102539,4051.025635,4252.94873,4215.512695,4127.94873,4283.077148,,,,,,,,,,,,,,,,,,,,,,,,,,,,,,,,,,,,,,,,,,,,,,,,,,,,,,,,,,,,,,,,,,,,,,
1720178500,54,0,4157.563965,4232.94873,4070.641113,4127.692383,4184.743652,4298.205078,4081.923096,4208.846191,4186.410156,4048.718018,4245.769043,4218.974121,4139.230957,4286.282227,,,,,,,,,,,,,,,,,,,,,,,,,,,,,,,,,,,,,,,,,,,,,,,,,,,,,,,,,,,,,,,,,,,,,,
1720178501,55,0,4159.871582,4230.769043,4075,4136.538574,4187.94873,4300.512695,4085,4212.563965,4199.871582,4052.435791,4240.128418,4215.897461,4136.153809,4286.282227,,,,,,,,,,,,,,,,,,,,,,,,,,,,,,,,,,,,,,,,,,,,,,,,,,,,,,,,,,,,,,,,,,,,,,
1720178501,56,0,4156.282227,4225,4066.410156,4125.384766,4178.974121,4297.05127,4083.333252,4212.563965,4199.358887,4038.076904,4228.589844,4210.897461,4123.205078,4279.358887,,,,,,,,,,,,,,,,,,,,,,,,,,,,,,,,,,,,,,,,,,,,,,,,,,,,,,,,,,,,,,,,,,,,,,
1720178501,57,0,4158.205078,4227.820313,4066.153809,4121.025879,4175.512695,4296.922852,4083.461426,4210.384766,4188.461426,4026.666748,4218.205078,4211.153809,4122.05127,4280.512695,,,,,,,,,,,,,,,,,,,,,,,,,,,,,,,,,,,,,,,,,,,,,,,,,,,,,,,,,,,,,,,,,,,,,,
1720178501,58,0,4171.410156,4232.820313,4082.820557,4136.538574,4180.128418,4305.256348,4082.94873,4206.282227,4188.974121,4036.794922,4224.230957,4219.230957,4127.179688,4296.153809,,,,,,,,,,,,,,,,,,,,,,,,,,,,,,,,,,,,,,,,,,,,,,,,,,,,,,,,,,,,,,,,,,,,,,
1720178501,59,0,4180.512695,4234.871582,4093.205078,4138.333496,4179.102539,4305.897461,4076.410156,4203.461426,4198.589844,4043.205078,4231.282227,4222.820313,4126.153809,4302.820313,,,,,,,,,,,,,,,,,,,,,,,,,,,,,,,,,,,,,,,,,,,,,,,,,,,,,,,,,,,,,,,,,,,,,,
1720178501,60,0,4172.692383,4229.871582,4088.076904,4124.487305,4172.436035,4296.153809,4068.846191,4203.589844,4199.615234,4038.589844,4221.282227,4212.94873,4120.256348,4288.717773,,,,,,,,,,,,,,,,,,,,,,,,,,,,,,,,,,,,,,,,,,,,,,,,,,,,,,,,,,,,,,,,,,,,,,
1720178501,61,0,4155.256348,4221.025879,4081.025635,4121.025879,4175,4298.205078,4069.615479,4204.615234,4198.846191,4035.128174,4210.512695,4206.410156,4117.179688,4274.487305,,,,,,,,,,,,,,,,,,,,,,,,,,,,,,,,,,,,,,,,,,,,,,,,,,,,,,,,,,,,,,,,,,,,,,
1720178501,62,0,4156.794922,4221.922852,4085.384521,4124.230957,4185.512695,4310.256348,4075.641113,4207.307617,4206.922852,4038.333252,4217.94873,4213.846191,4121.666504,4282.94873,,,,,,,,,,,,,,,,,,,,,,,,,,,,,,,,,,,,,,,,,,,,,,,,,,,,,,,,,,,,,,,,,,,,,,
1720178501,63,0,4169.615234,4223.846191,4093.076904,4125.384766,4187.820313,4313.589844,4077.179443,4208.077148,4219.743652,4051.025635,4224.743652,4221.794922,4125.641113,4295.641113,,,,,,,,,,,,,,,,,,,,,,,,,,,,,,,,,,,,,,,,,,,,,,,,,,,,,,,,,,,,,,,,,,,,,,
1720178501,64,0,4162.820313,4218.077148,4086.794922,4123.077148,4187.563965,4312.179688,4075.512939,4211.282227,4227.563965,4060.128174,4217.94873,4223.589844,4125.128418,4289.230957,5.302985,1.667064,1.107541,0.784105,0.218978,7.408726,3.297428,1.52188,0.45286,0.183657,7.13406,2.759942,1.96346,1.26753,0.18687,5.044798,1.82994,0.811489,0.515571,0.190792,3.481185,1.475682,0.360993,0.20451,0.139079,3.081598,0.815414,0.539321,0.188568,0.161718,5.176321,0.901846,1.674296,0.727944,0.156297,0.850834,0.318027,0.177839,0.168356,0.034791,9.06772,8.819918,3.507934,1.292304,0.345641,8.060961,1.734762,1.427198,0.668757,0.245316,5.035871,1.214008,1.610641,0.736905,0.262562,9.066729,1.138358,1.714524,1.284499,0.231808,5.813252,1.759622,1.649316,0.68675,0.184234,6.754552,1.518082,2.412301,0.884483,0.224271
1720178501,65,0,4148.974121,4216.794922,4073.846191,4114.230957,4194.615234,4314.230957,4070.641113,4212.05127,4223.461426,4056.410156,4210,4221.410156,4123.589844,4280.641113,,,,,,,,,,,,,,,,,,,,,,,,,,,,,,,,,,,,,,,,,,,,,,,,,,,,,,,,,,,,,,,,,,,,,,
1720178501,66,0,4150.128418,4216.282227,4069.615479,4104.615234,4197.563965,4311.666504,4062.05127,4200.897461,4217.563965,4050.897461,4201.153809,4212.307617,4115.384766,4277.436035,,,,,,,,,,,,,,,,,,,,,,,,,,,,,,,,,,,,,,,,,,,,,,,,,,,,,,,,,,,,,,,,,,,,,,
1720178501,67,0,4154.487305,4211.666504,4073.333252,4105.897461,4195.384766,4310.769043,4060.897461,4198.717773,4224.230957,4052.435791,4192.94873,4210.384766,4108.205078,4272.563965,,,,,,,,,,,,,,,,,,,,,,,,,,,,,,,,,,,,,,,,,,,,,,,,,,,,,,,,,,,,,,,,,,,,,,
1720178501,68,0,4154.487305,4212.94873,4073.718018,4114.743652,4196.666504,4313.333496,4065,4204.358887,4233.589844,4054.102539,4192.692383,4220.769043,4110.641113,4272.179688,,,,,,,,,,,,,,,,,,,,,,,,,,,,,,,,,,,,,,,,,,,,,,,,,,,,,,,,,,,,,,,,,,,,,,
1720178501,69,0,4148.974121,4208.846191,4066.666748,4108.846191,4191.922852,4303.461426,4055.256348,4199.102539,4222.692383,4043.205078,4186.538574,4215.897461,4099.487305,4263.589844,,,,,,,,,,,,,,,,,,,,,,,,,,,,,,,,,,,,,,,,,,,,,,,,,,,,,,,,,,,,,,,,,,,,,,
1720178501,70,0,4130.769043,4183.589844,4054.615479,4084.743652,4169.615234,4291.282227,4034.743652,4188.846191,4193.589844,4013.076904,4152.179688,4191.153809,4064.615479,4234.358887,,,,,,,,,,,,,,,,,,,,,,,,,,,,,,,,,,,,,,,,,,,,,,,,,,,,,,,,,,,,,,,,,,,,,,
1720178501,71,0,4119.871582,4167.820313,4043.718018,4067.179443,4152.94873,4290.256348,4026.410156,4185,4180.128418,3990.256348,4122.307617,4178.077148,4040.384521,4214.615234,,,,,,,,,,,,,,,,,,,,,,,,,,,,,,,,,,,,,,,,,,,,,,,,,,,,,,,,,,,,,,,,,,,,,,
1720178501,72,0,4132.820313,4182.179688,4051.281982,4076.666748,4160.769043,4295.128418,4035.769287,4189.230957,4198.461426,4008.846191,4142.436035,4195,4057.94873,4233.974121,,,,,,,,,,,,,,,,,,,,,,,,,,,,,,,,,,,,,,,,,,,,,,,,,,,,,,,,,,,,,,,,,,,,,,
1720178501,73,0,4155.384766,4203.589844,4075.384521,4099.615234,4176.922852,4304.487305,4048.205078,4199.358887,4227.307617,4047.05127,4178.589844,4221.025879,4097.563965,4261.153809,,,,,,,,,,,,,,,,,,,,,,,,,,,,,,,,,,,,,,,,,,,,,,,,,,,,,,,,,,,,,,,,,,,,,,
1720178501,74,0,4169.743652,4214.743652,4091.794922,4112.692383,4186.282227,4312.179688,4051.410156,4199.615234,4234.615234,4062.820557,4180.769043,4231.538574,4112.307617,4266.538574,,,,,,,,,,,,,,,,,,,,,,,,,,,,,,,,,,,,,,,,,,,,,,,,,,,,,,,,,,,,,,,,,,,,,,
1720178501,75,0,4169.230957,4216.666504,4091.410156,4109.102539,4187.436035,4309.871582,4045.128174,4190.769043,4223.589844,4053.589844,4170.641113,4227.05127,4102.563965,4264.487305,,,,,,,,,,,,,,,,,,,,,,,,,,,,,,,,,,,,,,,,,,,,,,,,,,,,,,,,,,,,,,,,,,,,,,
1720178501,76,0,4158.077148,4209.230957,4083.461426,4098.461426,4186.666504,4308.333496,4041.410156,4188.974121,4216.153809,4042.820557,4173.077148,4221.153809,4097.179688,4261.922852,,,,,,,,,,,,,,,,,,,,,,,,,,,,,,,,,,,,,,,,,,,,,,,,,,,,,,,,,,,,,,,,,,,,,,
1720178501,77,0,4146.025879,4199.743652,4072.05127,4092.435791,4185.128418,4308.974121,4040.512939,4186.410156,4215.897461,4046.153809,4171.153809,4215.128418,4096.666504,4253.077148,,,,,,,,,,,,,,,,,,,,,,,,,,,,,,,,,,,,,,,,,,,,,,,,,,,,,,,,,,,,,,,,,,,,,,
1720178501,78,0,4136.666504,4196.538574,4067.564209,4087.435791,4182.94873,4305.128418,4035,4180.256348,4213.974121,4048.589844,4158.589844,4209.102539,4089.743652,4244.102539,,,,,,,,,,,,,,,,,,,,,,,,,,,,,,,,,,,,,,,,,,,,,,,,,,,,,,,,,,,,,,,,,,,,,,
1720178501,79,0,4137.436035,4197.307617,4077.435791,4085.128174,4184.615234,4306.794922,4031.794922,4178.333496,4211.794922,4043.205078,4152.307617,4213.846191,4086.025635,4243.717773,,,,,,,,,,,,,,,,,,,,,,,,,,,,,,,,,,,,,,,,,,,,,,,,,,,,,,,,,,,,,,,,,,,,,,
1720178501,80,0,4150.128418,4199.871582,4085.897461,4091.153809,4185.641113,4310.256348,4036.794922,4182.307617,4216.794922,4041.410156,4160.641113,4229.743652,4090.897461,4252.436035,5.344368,1.661018,1.283613,0.904194,0.195982,7.96761,3.617678,1.76308,0.501787,0.161199,7.21639,3.386361,2.356574,1.46159,0.180552,4.559001,2.038582,0.885087,0.616944,0.193875,3.076079,1.750909,0.474467,0.176387,0.134699,2.188772,0.60969,0.485794,0.195702,0.178892,5.015899,0.791128,1.460259,0.638084,0.159619,0.825708,0.287152,0.171542,0.170219,0.034221,11.508008,10.449786,3.73379,1.488144,0.430347,9.35881,2.120827,1.686923,0.744489,0.257381,5.313475,1.345245,1.852803,0.76687,0.240789,8.568497,1.332898,2.142143,1.474907,0.239422,5.95134,1.846597,2.035706,0.740406,0.186611,6.858411,1.58236,2.916591,1.012524,0.215022
1720178501,81,0,4151.282227,4198.077148,4087.94873,4094.358887,4183.333496,4305.512695,4036.794922,4185.256348,4217.820313,4041.538574,4171.282227,4238.333496,4089.230713,4256.025879,,,,,,,,,,,,,,,,,,,,,,,,,,,,,,,,,,,,,,,,,,,,,,,,,,,,,,,,,,,,,,,,,,,,,,
1720178501,82,0,4139.230957,4192.94873,4085.128174,4085.769287,4184.487305,4300.512695,4028.846191,4181.794922,4213.846191,4042.179443,4170.128418,4232.179688,4086.538574,4253.717773,,,,,,,,,,,,,,,,,,,,,,,,,,,,,,,,,,,,,,,,,,,,,,,,,,,,,,,,,,,,,,,,,,,,,,
1720178501,83,0,4136.666504,4193.589844,4081.025635,4080.128174,4183.589844,4305.128418,4028.461426,4182.563965,4215.769043,4041.794922,4163.205078,4232.436035,4088.205078,4253.333496,,,,,,,,,,,,,,,,,,,,,,,,,,,,,,,,,,,,,,,,,,,,,,,,,,,,,,,,,,,,,,,,,,,,,,
1720178501,84,0,4140.128418,4193.974121,4082.820557,4087.94873,4175.641113,4308.974121,4029.615479,4184.102539,4218.589844,4039.743652,4164.487305,4242.692383,4086.025635,4254.230957,,,,,,,,,,,,,,,,,,,,,,,,,,,,,,,,,,,,,,,,,,,,,,,,,,,,,,,,,,,,,,,,,,,,,,
1720178501,85,0,4139.487305,4188.461426,4086.153809,4089.487061,4170.512695,4302.563965,4023.333252,4178.846191,4213.205078,4039.615479,4168.205078,4243.589844,4080.769287,4251.666504,,,,,,,,,,,,,,,,,,,,,,,,,,,,,,,,,,,,,,,,,,,,,,,,,,,,,,,,,,,,,,,,,,,,,,
1720178501,86,0,4138.717773,4186.538574,4085.256348,4081.281982,4172.820313,4302.436035,4021.410156,4175.512695,4203.461426,4039.871826,4160.128418,4239.487305,4075.512939,4250.256348,,,,,,,,,,,,,,,,,,,,,,,,,,,,,,,,,,,,,,,,,,,,,,,,,,,,,,,,,,,,,,,,,,,,,,
1720178501,87,0,4132.94873,4187.436035,4078.974365,4075.256348,4175,4309.487305,4021.410156,4179.230957,4200.384766,4035.384521,4151.282227,4238.974121,4067.179443,4251.282227,,,,,,,,,,,,,,,,,,,,,,,,,,,,,,,,,,,,,,,,,,,,,,,,,,,,,,,,,,,,,,,,,,,,,,
1720178501,88,0,4122.179688,4179.230957,4071.923096,4068.205078,4167.820313,4303.589844,4012.435791,4176.153809,4200.384766,4033.333252,4151.666504,4237.05127,4059.487061,4248.205078,,,,,,,,,,,,,,,,,,,,,,,,,,,,,,,,,,,,,,,,,,,,,,,,,,,,,,,,,,,,,,,,,,,,,,
1720178501,89,0,4119.743652,4170.641113,4066.666748,4058.846191,4158.333496,4298.333496,4009.102539,4167.307617,4202.179688,4037.307617,4149.615234,4231.794922,4057.94873,4246.282227,,,,,,,,,,,,,,,,,,,,,,,,,,,,,,,,,,,,,,,,,,,,,,,,,,,,,,,,,,,,,,,,,,,,,,
1720178501,90,0,4125.384766,4170.769043,4067.692383,4058.718018,4158.333496,4311.282227,4022.307617,4170.512695,4207.05127,4036.794922,4137.820313,4227.692383,4051.923096,4248.333496,,,,,,,,,,,,,,,,,,,,,,,,,,,,,,,,,,,,,,,,,,,,,,,,,,,,,,,,,,,,,,,,,,,,,,
1720178501,91,0,4123.974121,4172.179688,4066.025635,4063.205078,4159.615234,4316.794922,4028.718018,4172.692383,4206.666504,4041.538574,4128.846191,4224.358887,4042.692383,4247.307617,,,,,,,,,,,,,,,,,,,,,,,,,,,,,,,,,,,,,,,,,,,,,,,,,,,,,,,,,,,,,,,,,,,,,,
1720178501,92,0,4115.512695,4170.384766,4058.846191,4059.487061,4153.077148,4309.487305,4022.692383,4169.743652,4201.794922,4056.923096,4127.692383,4221.794922,4043.589844,4247.05127,,,,,,,,,,,,,,,,,,,,,,,,,,,,,,,,,,,,,,,,,,,,,,,,,,,,,,,,,,,,,,,,,,,,,,
1720178501,93,0,4113.589844,4170.384766,4065,4055.897461,4149.230957,4314.871582,4019.743652,4172.05127,4200.897461,4062.820557,4127.179688,4224.615234,4044.358887,4243.205078,,,,,,,,,,,,,,,,,,,,,,,,,,,,,,,,,,,,,,,,,,,,,,,,,,,,,,,,,,,,,,,,,,,,,,
1720178501,94,0,4118.077148,4168.589844,4074.487061,4058.461426,4150,4320.769043,4021.923096,4171.282227,4204.230957,4055.128174,4120.384766,4228.589844,4037.564209,4236.282227,,,,,,,,,,,,,,,,,,,,,,,,,,,,,,,,,,,,,,,,,,,,,,,,,,,,,,,,,,,,,,,,,,,,,,
1720178501,95,0,4119.871582,4158.717773,4076.923096,4059.102539,4141.282227,4314.230957,4022.179443,4169.743652,4199.230957,4050.512939,4111.410156,4227.692383,4031.025635,4230.897461,,,,,,,,,,,,,,,,,,,,,,,,,,,,,,,,,,,,,,,,,,,,,,,,,,,,,,,,,,,,,,,,,,,,,,
1720178501,96,0,4118.974121,4157.94873,4077.05127,4057.307617,4135.384766,4310.256348,4015.384521,4169.230957,4187.692383,4052.820557,4106.922852,4223.333496,4029.102539,4232.307617,5.229681,1.710142,1.466364,1.056209,0.178568,7.928224,3.760201,1.940482,0.573961,0.14372,6.534106,3.961776,2.611291,1.599697,0.179894,3.726057,2.321409,0.949303,0.733853,0.205589,2.448928,1.938116,0.590248,0.160493,0.128427,1.443984,0.516008,0.429043,0.20158,0.192133,4.605216,0.742937,1.233811,0.581772,0.167882,0.733038,0.289103,0.163115,0.165547,0.035223,13.49069,11.164912,3.605345,1.553335,0.494346,9.70978,2.590344,1.897668,0.805553,0.275047,5.003745,1.520378,2.063327,0.802396,0.220834,7.34868,1.539066,2.586596,1.648647,0.252665,5.627429,1.906022,2.401388,0.812665,0.195613,6.694163,1.645178,3.363975,1.172244,0.211456
1720178501,97,0,4127.307617,4168.205078,4080,4063.589844,4139.487305,4309.871582,4004.487061,4166.666504,4189.487305,4056.538574,4108.205078,4222.307617,4032.435791,4238.974121,,,,,,,,,,,,,,,,,,,,,,,,,,,,,,,,,,,,,,,,,,,,,,,,,,,,,,,,,,,,,,,,,,,,,,
1720178501,98,0,4137.307617,4171.666504,4089.358887,4071.923096,4139.871582,4308.589844,4005.512939,4167.94873,4202.179688,4061.666748,4112.94873,4231.922852,4038.333252,4243.461426,,,,,,,,,,,,,,,,,,,,,,,,,,,,,,,,,,,,,,,,,,,,,,,,,,,,,,,,,,,,,,,,,,,,,,
1720178501,99,0,4136.282227,4170.641113,4095.128174,4070.256348,4140.384766,4308.205078,4010.897461,4169.743652,4204.743652,4065,4112.05127,4243.205078,4039.358887,4245.897461,,,,,,,,,,,,,,,,,,,,,,,,,,,,,,,,,,,,,,,,,,,,,,,,,,,,,,,,,,,,,,,,,,,,,,
1720178501,100,0,4130.769043,4165.512695,4093.076904,4058.718018,4137.05127,4309.102539,4006.281982,4167.307617,4196.410156,4063.461426,4105.897461,4245.897461,4034.871826,4248.717773,,,,,,,,,,,,,,,,,,,,,,,,,,,,,,,,,,,,,,,,,,,,,,,,,,,,,,,,,,,,,,,,,,,,,,
1720178501,101,0,4124.230957,4156.410156,4092.179443,4050,4124.615234,4309.487305,4006.025635,4168.717773,4196.538574,4061.025635,4111.410156,4246.794922,4034.871826,4255.128418,,,,,,,,,,,,,,,,,,,,,,,,,,,,,,,,,,,,,,,,,,,,,,,,,,,,,,,,,,,,,,,,,,,,,,
1720178501,102,0,4124.102539,4161.153809,4092.05127,4054.487061,4129.102539,4309.871582,4018.205078,4171.538574,4200.897461,4065.769287,4122.436035,4251.794922,4041.410156,4263.461426,,,,,,,,,,,,,,,,,,,,,,,,,,,,,,,,,,,,,,,,,,,,,,,,,,,,,,,,,,,,,,,,,,,,,,
1720178501,103,0,4131.922852,4173.205078,4091.281982,4065.256348,4147.820313,4312.179688,4023.846191,4170.384766,4201.282227,4074.487061,4122.179688,4260.256348,4049.871826,4267.179688,,,,,,,,,,,,,,,,,,,,,,,,,,,,,,,,,,,,,,,,,,,,,,,,,,,,,,,,,,,,,,,,,,,,,,
1720178501,104,0,4137.692383,4168.333496,4098.461426,4065.512939,4145.384766,4317.563965,4021.538574,4176.153809,4206.794922,4077.692383,4116.282227,4264.102539,4053.589844,4263.974121,,,,,,,,,,,,,,,,,,,,,,,,,,,,,,,,,,,,,,,,,,,,,,,,,,,,,,,,,,,,,,,,,,,,,,
1720178501,105,0,4137.05127,4164.358887,4102.307617,4061.153809,4136.410156,4318.333496,4020.384521,4177.692383,4215.512695,4074.230713,4112.820313,4262.563965,4047.820557,4262.179688,,,,,,,,,,,,,,,,,,,,,,,,,,,,,,,,,,,,,,,,,,,,,,,,,,,,,,,,,,,,,,,,,,,,,,
1720178501,106,0,4133.589844,4169.358887,4097.436035,4064.615479,4143.974121,4314.358887,4019.102539,4176.153809,4220.512695,4076.794922,4110.897461,4266.538574,4041.794922,4262.820313,,,,,,,,,,,,,,,,,,,,,,,,,,,,,,,,,,,,,,,,,,,,,,,,,,,,,,,,,,,,,,,,,,,,,,
1720178501,107,0,4123.461426,4159.871582,4095.512939,4059.358887,4144.358887,4312.05127,4020.512939,4177.692383,4215.384766,4081.794922,4103.717773,4265.384766,4042.564209,4253.846191,,,,,,,,,,,,,,,,,,,,,,,,,,,,,,,,,,,,,,,,,,,,,,,,,,,,,,,,,,,,,,,,,,,,,,
1720178501,108,0,4114.487305,4146.538574,4089.871826,4047.179443,4135.384766,4309.358887,4020.512939,4167.179688,4203.333496,4070.641113,4089.358887,4251.282227,4043.076904,4242.692383,,,,,,,,,,,,,,,,,,,,,,,,,,,,,,,,,,,,,,,,,,,,,,,,,,,,,,,,,,,,,,,,,,,,,,
1720178501,109,0,4117.436035,4149.871582,4084.743652,4051.794922,4135.256348,4309.487305,4017.692383,4157.94873,4195.641113,4060.897461,4081.538574,4244.102539,4040.512939,4241.410156,,,,,,,,,,,,,,,,,,,,,,,,,,,,,,,,,,,,,,,,,,,,,,,,,,,,,,,,,,,,,,,,,,,,,,
1720178501,110,0,4123.717773,4157.692383,4093.333252,4062.820557,4138.974121,4312.820313,4022.307617,4162.179688,4196.282227,4068.076904,4086.281982,4253.077148,4042.307617,4247.179688,,,,,,,,,,,,,,,,,,,,,,,,,,,,,,,,,,,,,,,,,,,,,,,,,,,,,,,,,,,,,,,,,,,,,,
1720178501,111,0,4130.897461,4155.384766,4105.769043,4061.410156,4138.461426,4314.615234,4029.615479,4167.307617,4200.897461,4070.384521,4091.538574,4266.282227,4048.589844,4256.538574,,,,,,,,,,,,,,,,,,,,,,,,,,,,,,,,,,,,,,,,,,,,,,,,,,,,,,,,,,,,,,,,,,,,,,
1720178501,112,0,4136.153809,4151.153809,4106.153809,4058.846191,4139.230957,4316.282227,4030,4165,4201.282227,4062.564209,4095.256348,4272.94873,4051.794922,4260.897461,5.250412,1.703255,1.577032,1.239599,0.170014,7.469295,3.578387,2.009553,0.664504,0.136682,5.909408,4.213243,2.656242,1.659058,0.182813,3.351643,2.495595,0.963404,0.85678,0.225086,2.1373,1.974745,0.681577,0.161617,0.123522,0.949893,0.489981,0.380037,0.201133,0.198149,4.247931,0.737859,1.040354,0.559461,0.176634,0.668437,0.329193,0.161147,0.15481,0.038024,14.194518,10.755177,3.181401,1.470173,0.521759,9.343584,3.062588,2.00964,0.848412,0.295176,4.648155,1.748645,2.158778,0.843605,0.213832,6.410877,1.713127,2.95135,1.769854,0.264654,5.528312,1.883603,2.643698,0.87855,0.210981,6.691743,1.642966,3.614108,1.335077,0.215419
1720178501,113,0,4136.282227,4159.487305,4108.333496,4067.94873,4147.436035,4320.769043,4028.846191,4161.538574,4195.641113,4068.076904,4104.358887,4276.025879,4055.256348,4263.589844,,,,,,,,,,,,,,,,,,,,,,,,,,,,,,,,,,,,,,,,,,,,,,,,,,,,,,,,,,,,,,,,,,,,,,
1720178501,114,0,4146.666504,4172.436035,4120,4078.461426,4155,4320.641113,4030.641113,4160.384766,4190.769043,4079.102539,4109.871582,4283.717773,4060.512939,4276.025879,,,,,,,,,,,,,,,,,,,,,,,,,,,,,,,,,,,,,,,,,,,,,,,,,,,,,,,,,,,,,,,,,,,,,,
1720178501,115,0,4154.358887,4173.717773,4124.358887,4082.94873,4154.615234,4314.358887,4029.615479,4160.641113,4195.256348,4074.230713,4103.974121,4288.077148,4062.94873,4280.641113,,,,,,,,,,,,,,,,,,,,,,,,,,,,,,,,,,,,,,,,,,,,,,,,,,,,,,,,,,,,,,,,,,,,,,
1720178501,116,0,4145,4168.077148,4123.974121,4083.076904,4150.512695,4312.05127,4029.230713,4164.102539,4207.179688,4076.153809,4097.820313,4289.230957,4068.589844,4271.025879,,,,,,,,,,,,,,,,,,,,,,,,,,,,,,,,,,,,,,,,,,,,,,,,,,,,,,,,,,,,,,,,,,,,,,
1720178501,117,0,4138.461426,4167.05127,4127.563965,4080.897461,4152.94873,4312.05127,4033.718018,4165.769043,4217.05127,4093.461426,4102.692383,4300.769043,4082.564209,4273.333496,,,,,,,,,,,,,,,,,,,,,,,,,,,,,,,,,,,,,,,,,,,,,,,,,,,,,,,,,,,,,,,,,,,,,,
1720178501,118,0,4143.589844,4168.205078,4131.666504,4083.461426,4160.897461,4312.307617,4037.820557,4167.563965,4220.128418,4094.743652,4107.692383,4308.717773,4088.205078,4284.358887,,,,,,,,,,,,,,,,,,,,,,,,,,,,,,,,,,,,,,,,,,,,,,,,,,,,,,,,,,,,,,,,,,,,,,
1720178501,119,0,4148.974121,4170.128418,4134.615234,4090.641113,4166.666504,4317.179688,4042.435791,4167.692383,4213.205078,4083.846191,4100.128418,4303.461426,4081.410156,4283.461426,,,,,,,,,,,,,,,,,,,,,,,,,,,,,,,,,,,,,,,,,,,,,,,,,,,,,,,,,,,,,,,,,,,,,,
1720178501,120,0,4149.230957,4166.025879,4138.333496,4092.564209,4166.922852,4320.384766,4044.743652,4162.94873,4205.384766,4086.281982,4090.512939,4301.282227,4074.487061,4277.820313,,,,,,,,,,,,,,,,,,,,,,,,,,,,,,,,,,,,,,,,,,,,,,,,,,,,,,,,,,,,,,,,,,,,,,
1720178501,121,0,4143.589844,4158.077148,4140,4086.666748,4165.256348,4318.333496,4042.94873,4157.692383,4202.179688,4091.153809,4092.94873,4302.94873,4070.769287,4276.153809,,,,,,,,,,,,,,,,,,,,,,,,,,,,,,,,,,,,,,,,,,,,,,,,,,,,,,,,,,,,,,,,,,,,,,
1720178501,122,0,4138.461426,4160.769043,4137.820313,4084.615479,4168.974121,4320.769043,4046.025635,4157.307617,4204.102539,4087.820557,4103.077148,4302.692383,4071.538574,4278.205078,,,,,,,,,,,,,,,,,,,,,,,,,,,,,,,,,,,,,,,,,,,,,,,,,,,,,,,,,,,,,,,,,,,,,,
1720178501,123,0,4140,4164.102539,4138.205078,4085.256348,4170,4327.692383,4053.846191,4167.436035,4210.256348,4091.410156,4110.769043,4310.641113,4078.589844,4284.615234,,,,,,,,,,,,,,,,,,,,,,,,,,,,,,,,,,,,,,,,,,,,,,,,,,,,,,,,,,,,,,,,,,,,,,
1720178501,124,0,4139.230957,4155.512695,4135.512695,4079.615479,4166.282227,4327.94873,4053.589844,4171.410156,4208.717773,4097.05127,4105.128418,4310,4076.281982,4280.384766,,,,,,,,,,,,,,,,,,,,,,,,,,,,,,,,,,,,,,,,,,,,,,,,,,,,,,,,,,,,,,,,,,,,,,
1720178501,125,0,4135.128418,4151.666504,4126.666504,4078.461426,4168.333496,4322.94873,4048.846191,4164.615234,4200.897461,4091.281982,4091.666748,4293.589844,4059.743652,4268.077148,,,,,,,,,,,,,,,,,,,,,,,,,,,,,,,,,,,,,,,,,,,,,,,,,,,,,,,,,,,,,,,,,,,,,,
1720178501,126,0,4130.256348,4155.641113,4121.666504,4082.564209,4173.077148,4320.384766,4050.512939,4166.538574,4198.589844,4087.307617,4090.897461,4291.153809,4057.307617,4263.461426,,,,,,,,,,,,,,,,,,,,,,,,,,,,,,,,,,,,,,,,,,,,,,,,,,,,,,,,,,,,,,,,,,,,,,
1720178501,127,0,4125.769043,4152.820313,4122.692383,4078.974365,4171.153809,4320,4055.512939,4171.410156,4204.102539,4093.718018,4095.769287,4300.641113,4071.538574,4265.128418,,,,,,,,,,,,,,,,,,,,,,,,,,,,,,,,,,,,,,,,,,,,,,,,,,,,,,,,,,,,,,,,,,,,,,
1720178501,0,0,4132.692383,4151.538574,4128.974121,4074.358887,4165.256348,4316.666504,4052.94873,4163.974121,4210.641113,4106.025879,4092.05127,4302.307617,4077.94873,4270.384766,5.043064,1.595787,1.577479,1.442285,0.171247,6.627525,3.068029,1.966065,0.767763,0.142137,4.943181,3.978086,2.479251,1.642047,0.186598,2.79721,2.420826,0.915196,0.976409,0.248192,1.644702,1.860698,0.729707,0.183314,0.123238,0.682523,0.482778,0.349399,0.192116,0.196539,3.502074,0.733321,0.891443,0.552027,0.181562,0.544136,0.386683,0.17343,0.141017,0.042843,13.112452,9.32256,2.617966,1.27859,0.510152,8.025825,3.442348,2.016477,0.886351,0.318221,3.953096,1.993623,2.102276,0.891846,0.229993,5.257283,1.780788,3.134434,1.819484,0.270915,5.070631,1.764305,2.720669,0.929168,0.234892,6.474239,1.552047,3.591641,1.470504,0.227877
1720178501,1,0,4140.769043,4156.794922,4139.487305,4080.512939,4165.256348,4311.410156,4042.564209,4161.153809,4217.05127,4112.692383,4091.153809,4304.358887,4074.615479,4278.974121,,,,,,,,,,,,,,,,,,,,,,,,,,,,,,,,,,,,,,,,,,,,,,,,,,,,,,,,,,,,,,,,,,,,,,
1720178501,2,0,4142.307617,4157.94873,4140.128418,4086.281982,4168.846191,4310.256348,4036.666748,4163.589844,4216.410156,4101.794922,4092.179443,4304.358887,4073.461426,4276.666504,,,,,,,,,,,,,,,,,,,,,,,,,,,,,,,,,,,,,,,,,,,,,,,,,,,,,,,,,,,,,,,,,,,,,,
1720178501,3,0,4141.025879,4155.256348,4129.743652,4081.538574,4171.025879,4311.666504,4039.102539,4156.794922,4206.282227,4094.615479,4086.794922,4301.538574,4074.230713,4266.538574,,,,,,,,,,,,,,,,,,,,,,,,,,,,,,,,,,,,,,,,,,,,,,,,,,,,,,,,,,,,,,,,,,,,,,
1720178501,4,0,4129.358887,4148.205078,4130.384766,4072.820557,4169.743652,4310.512695,4047.179443,4158.461426,4199.871582,4101.922852,4085.384521,4311.538574,4074.871826,4262.692383,,,,,,,,,,,,,,,,,,,,,,,,,,,,,,,,,,,,,,,,,,,,,,,,,,,,,,,,,,,,,,,,,,,,,,
1720178501,5,0,4121.666504,4142.563965,4135.128418,4071.153809,4168.846191,4311.666504,4053.846191,4165.384766,4199.102539,4102.692383,4090.384521,4319.871582,4076.025635,4261.922852,,,,,,,,,,,,,,,,,,,,,,,,,,,,,,,,,,,,,,,,,,,,,,,,,,,,,,,,,,,,,,,,,,,,,,
1720178501,6,0,4133.333496,4149.487305,4137.94873,4082.307617,4176.922852,4320.256348,4060.769287,4166.922852,4203.974121,4098.205078,4095.256348,4318.717773,4078.076904,4267.179688,,,,,,,,,,,,,,,,,,,,,,,,,,,,,,,,,,,,,,,,,,,,,,,,,,,,,,,,,,,,,,,,,,,,,,
1720178501,7,0,4144.230957,4156.922852,4147.692383,4092.179443,4181.282227,4322.436035,4065.641113,4173.717773,4213.333496,4109.871582,4096.922852,4325.512695,4082.05127,4274.615234,,,,,,,,,,,,,,,,,,,,,,,,,,,,,,,,,,,,,,,,,,,,,,,,,,,,,,,,,,,,,,,,,,,,,,
1720178501,8,0,4140.256348,4153.205078,4151.282227,4091.666748,4173.717773,4317.820313,4061.281982,4179.615234,4223.717773,4121.922852,4091.281982,4332.820313,4081.794922,4269.743652,,,,,,,,,,,,,,,,,,,,,,,,,,,,,,,,,,,,,,,,,,,,,,,,,,,,,,,,,,,,,,,,,,,,,,
1720178501,9,0,4136.282227,4150.897461,4147.692383,4089.615479,4174.230957,4320.384766,4056.923096,4176.666504,4221.025879,4113.461426,4087.820557,4330.897461,4076.666748,4259.230957,,,,,,,,,,,,,,,,,,,,,,,,,,,,,,,,,,,,,,,,,,,,,,,,,,,,,,,,,,,,,,,,,,,,,,
1720178501,10,0,4136.794922,4152.179688,4143.461426,4089.871826,4185.256348,4326.922852,4057.94873,4171.922852,4204.230957,4104.358887,4089.487061,4328.333496,4074.487061,4258.846191,,,,,,,,,,,,,,,,,,,,,,,,,,,,,,,,,,,,,,,,,,,,,,,,,,,,,,,,,,,,,,,,,,,,,,
1720178501,11,0,4136.794922,4149.230957,4139.358887,4089.487061,4187.05127,4325.384766,4062.94873,4171.922852,4199.487305,4104.102539,4088.589844,4329.358887,4073.846191,4268.589844,,,,,,,,,,,,,,,,,,,,,,,,,,,,,,,,,,,,,,,,,,,,,,,,,,,,,,,,,,,,,,,,,,,,,,
1720178501,12,0,4138.974121,4144.358887,4141.538574,4090.641113,4182.692383,4323.461426,4072.05127,4172.692383,4212.179688,4104.871582,4086.923096,4330.512695,4073.589844,4277.05127,,,,,,,,,,,,,,,,,,,,,,,,,,,,,,,,,,,,,,,,,,,,,,,,,,,,,,,,,,,,,,,,,,,,,,
1720178501,13,0,4142.94873,4141.538574,4148.077148,4089.615479,4183.846191,4325.512695,4077.05127,4172.05127,4217.307617,4097.94873,4087.05127,4334.743652,4073.589844,4277.94873,,,,,,,,,,,,,,,,,,,,,,,,,,,,,,,,,,,,,,,,,,,,,,,,,,,,,,,,,,,,,,,,,,,,,,
1720178501,14,0,4150.384766,4144.743652,4151.666504,4088.076904,4184.102539,4323.333496,4071.923096,4173.974121,4211.666504,4091.410156,4093.974365,4346.025879,4076.410156,4278.461426,,,,,,,,,,,,,,,,,,,,,,,,,,,,,,,,,,,,,,,,,,,,,,,,,,,,,,,,,,,,,,,,,,,,,,
1720178501,15,0,4162.05127,4153.589844,4158.846191,4097.563965,4188.589844,4324.102539,4067.179443,4178.461426,4215.256348,4100.128418,4103.461426,4356.922852,4085.384521,4288.077148,,,,,,,,,,,,,,,,,,,,,,,,,,,,,,,,,,,,,,,,,,,,,,,,,,,,,,,,,,,,,,,,,,,,,,
1720178501,16,0,4170,4159.743652,4170.897461,4110.512695,4194.871582,4329.615234,4072.179443,4177.692383,4218.589844,4111.538574,4101.538574,4354.615234,4091.281982,4294.358887,4.900763,1.437377,1.489697,1.635514,0.180543,5.625452,2.394032,1.846448,0.875245,0.158111,4.516391,3.323235,2.161108,1.571882,0.188028,2.791499,2.095288,0.839922,1.083387,0.269509,1.432217,1.661996,0.748854,0.226759,0.129388,0.517978,0.477134,0.348118,0.177235,0.188727,2.824162,0.695753,0.801097,0.536222,0.180637,0.447329,0.430013,0.202917,0.128953,0.049503,10.608053,7.266928,2.109073,1.056973,0.469219,6.346646,3.681316,1.980978,0.934828,0.345777,3.455502,2.206952,1.949908,0.9498,0.271588,4.64221,1.728403,3.116426,1.800014,0.269193,4.689339,1.6289,2.700173,0.972601,0.267687,6.340555,1.441954,3.34119,1.556657,0.247252
1720178501,17,0,4165.512695,4156.922852,4171.025879,4109.615234,4190.769043,4328.717773,4075.512939,4168.461426,4208.846191,4109.615234,4091.410156,4342.307617,4089.743652,4292.692383,,,,,,,,,,,,,,,,,,,,,,,,,,,,,,,,,,,,,,,,,,,,,,,,,,,,,,,,,,,,,,,,,,,,,,
1720178501,18,0,4155.256348,4147.436035,4163.717773,4097.436035,4183.589844,4325.256348,4074.871826,4170.769043,4202.692383,4107.436035,4095,4344.615234,4090.641113,4293.846191,,,,,,,,,,,,,,,,,,,,,,,,,,,,,,,,,,,,,,,,,,,,,,,,,,,,,,,,,,,,,,,,,,,,,,
1720178501,19,0,4153.589844,4139.615234,4160.384766,4092.307617,4183.461426,4325,4070.512939,4172.563965,4204.615234,4112.563965,4103.205078,4356.282227,4093.974365,4295.641113,,,,,,,,,,,,,,,,,,,,,,,,,,,,,,,,,,,,,,,,,,,,,,,,,,,,,,,,,,,,,,,,,,,,,,
1720178501,20,0,4153.974121,4139.487305,4154.871582,4092.179443,4186.153809,4324.743652,4060.897461,4165.256348,4205.128418,4114.615234,4102.563965,4357.436035,4092.564209,4294.743652,,,,,,,,,,,,,,,,,,,,,,,,,,,,,,,,,,,,,,,,,,,,,,,,,,,,,,,,,,,,,,,,,,,,,,
1720178501,21,0,4150.512695,4142.436035,4155.512695,4093.589844,4187.820313,4324.871582,4057.692383,4168.333496,4205,4118.077148,4107.307617,4357.563965,4092.564209,4295.384766,,,,,,,,,,,,,,,,,,,,,,,,,,,,,,,,,,,,,,,,,,,,,,,,,,,,,,,,,,,,,,,,,,,,,,
1720178501,22,0,4150.897461,4142.436035,4160.641113,4099.615234,4191.538574,4330.641113,4062.564209,4167.94873,4203.205078,4120.897461,4108.205078,4354.615234,4093.333252,4292.179688,,,,,,,,,,,,,,,,,,,,,,,,,,,,,,,,,,,,,,,,,,,,,,,,,,,,,,,,,,,,,,,,,,,,,,
1720178501,23,0,4146.922852,4138.333496,4153.589844,4097.05127,4190.769043,4332.692383,4064.230713,4162.94873,4201.410156,4117.05127,4096.025879,4343.589844,4089.102539,4282.179688,,,,,,,,,,,,,,,,,,,,,,,,,,,,,,,,,,,,,,,,,,,,,,,,,,,,,,,,,,,,,,,,,,,,,,
1720178501,24,0,4140.769043,4135.256348,4144.487305,4090.128174,4185.897461,4329.487305,4067.820557,4166.794922,4208.589844,4119.358887,4092.05127,4338.077148,4086.410156,4277.692383,,,,,,,,,,,,,,,,,,,,,,,,,,,,,,,,,,,,,,,,,,,,,,,,,,,,,,,,,,,,,,,,,,,,,,
1720178501,25,0,4143.589844,4134.487305,4146.025879,4088.205078,4185.384766,4330.512695,4076.025635,4170,4218.589844,4122.94873,4102.307617,4342.820313,4089.230713,4278.333496,,,,,,,,,,,,,,,,,,,,,,,,,,,,,,,,,,,,,,,,,,,,,,,,,,,,,,,,,,,,,,,,,,,,,,
1720178501,26,0,4148.077148,4133.461426,4151.153809,4090.128174,4185.641113,4332.563965,4083.333252,4173.333496,4225.128418,4126.922852,4108.846191,4351.025879,4096.794922,4281.153809,,,,,,,,,,,,,,,,,,,,,,,,,,,,,,,,,,,,,,,,,,,,,,,,,,,,,,,,,,,,,,,,,,,,,,
1720178501,27,0,4158.717773,4142.692383,4161.282227,4101.922852,4187.692383,4331.922852,4086.281982,4179.230957,4228.333496,4137.179688,4110.256348,4356.794922,4104.358887,4288.717773,,,,,,,,,,,,,,,,,,,,,,,,,,,,,,,,,,,,,,,,,,,,,,,,,,,,,,,,,,,,,,,,,,,,,,
1720178501,28,0,4177.692383,4162.05127,4178.589844,4121.538574,4203.846191,4335.512695,4089.871826,4183.205078,4228.717773,4136.410156,4117.94873,4365.897461,4107.436035,4300.128418,,,,,,,,,,,,,,,,,,,,,,,,,,,,,,,,,,,,,,,,,,,,,,,,,,,,,,,,,,,,,,,,,,,,,,
1720178501,29,0,4191.538574,4171.538574,4192.05127,4130.384766,4219.743652,4343.846191,4096.794922,4186.410156,4230.512695,4123.846191,4130.256348,4385.641113,4107.820313,4307.692383,,,,,,,,,,,,,,,,,,,,,,,,,,,,,,,,,,,,,,,,,,,,,,,,,,,,,,,,,,,,,,,,,,,,,,
1720178501,30,0,4198.205078,4166.025879,4196.153809,4128.717773,4211.666504,4343.974121,4097.820313,4184.871582,4230.256348,4125.256348,4137.307617,4398.461426,4110.512695,4324.102539,,,,,,,,,,,,,,,,,,,,,,,,,,,,,,,,,,,,,,,,,,,,,,,,,,,,,,,,,,,,,,,,,,,,,,
1720178501,31,0,4198.205078,4157.05127,4194.102539,4124.230957,4195,4331.410156,4087.05127,4173.589844,4221.922852,4137.307617,4139.487305,4384.487305,4112.436035,4336.666504,,,,,,,,,,,,,,,,,,,,,,,,,,,,,,,,,,,,,,,,,,,,,,,,,,,,,,,,,,,,,,,,,,,,,,
1720178501,32,0,4190.641113,4155,4187.692383,4117.94873,4193.205078,4323.974121,4081.153809,4166.794922,4215.769043,4140.641113,4141.666504,4371.538574,4110.641113,4284.102539,4.512614,1.270202,1.355396,1.774413,0.194061,4.7634,1.741212,1.686531,0.966001,0.178977,4.262082,2.453588,1.786408,1.474507,0.185391,2.668633,1.609127,0.777114,1.163071,0.283978,1.214049,1.454888,0.74764,0.284129,0.141568,0.439405,0.485094,0.374885,0.160997,0.176462,2.053235,0.638969,0.759903,0.500415,0.174777,0.332712,0.435066,0.249847,0.12293,0.057246,7.408809,5.152143,1.765823,0.886103,0.41543,4.560335,3.738771,1.941511,0.99311,0.375636,3.383367,2.339127,1.780649,1.004259,0.329262,4.384463,1.572667,2.907294,1.721062,0.261054,4.664054,1.534372,2.629257,1.012637,0.304658,6.040788,1.36983,2.949012,1.575205,0.26835
1720178501,33,0,4190.256348,4158.846191,4184.615234,4120.512695,4199.102539,4330.897461,4088.589844,4169.743652,4214.871582,4137.820313,4139.743652,4376.666504,4110.769043,4199.871582,,,,,,,,,,,,,,,,,,,,,,,,,,,,,,,,,,,,,,,,,,,,,,,,,,,,,,,,,,,,,,,,,,,,,,
1720178501,34,0,4196.153809,4159.615234,4189.358887,4125.128418,4200.256348,4337.436035,4095.384521,4169.871582,4205.256348,4130.384766,4137.563965,4376.410156,4113.589844,4176.410156,,,,,,,,,,,,,,,,,,,,,,,,,,,,,,,,,,,,,,,,,,,,,,,,,,,,,,,,,,,,,,,,,,,,,,
1720178501,35,0,4187.563965,4153.589844,4191.410156,4122.307617,4199.230957,4336.666504,4098.077148,4167.563965,4193.717773,4116.538574,4135.256348,4371.282227,4106.922852,4186.794922,,,,,,,,,,,,,,,,,,,,,,,,,,,,,,,,,,,,,,,,,,,,,,,,,,,,,,,,,,,,,,,,,,,,,,
1720178501,36,0,4173.589844,4149.102539,4185.641113,4124.358887,4201.922852,4340.256348,4105.897461,4168.205078,4194.743652,4109.615234,4135.128418,4377.436035,4091.025635,4168.589844,,,,,,,,,,,,,,,,,,,,,,,,,,,,,,,,,,,,,,,,,,,,,,,,,,,,,,,,,,,,,,,,,,,,,,
1720178501,37,0,4160.384766,4144.743652,4181.538574,4120.641113,4207.820313,4345.128418,4114.615234,4177.05127,4203.205078,4112.692383,4140.128418,4382.94873,4083.846191,4152.05127,,,,,,,,,,,,,,,,,,,,,,,,,,,,,,,,,,,,,,,,,,,,,,,,,,,,,,,,,,,,,,,,,,,,,,
1720178501,38,0,4137.436035,4123.589844,4165,4093.076904,4200.384766,4337.820313,4105.384766,4183.333496,4200.384766,4102.820313,4128.974121,4361.025879,4073.076904,4148.717773,,,,,,,,,,,,,,,,,,,,,,,,,,,,,,,,,,,,,,,,,,,,,,,,,,,,,,,,,,,,,,,,,,,,,,
1720178501,39,0,4115.897461,4094.487061,4131.025879,4061.153809,4175.641113,4323.974121,4080.641113,4172.307617,4187.436035,4088.205078,4100.256348,4327.436035,4048.718018,4128.589844,,,,,,,,,,,,,,,,,,,,,,,,,,,,,,,,,,,,,,,,,,,,,,,,,,,,,,,,,,,,,,,,,,,,,,
1720178501,40,0,4112.692383,4089.102539,4121.794922,4057.05127,4169.487305,4325.384766,4077.94873,4168.077148,4191.410156,4102.820313,4098.974121,4326.794922,4046.410156,4125.384766,,,,,,,,,,,,,,,,,,,,,,,,,,,,,,,,,,,,,,,,,,,,,,,,,,,,,,,,,,,,,,,,,,,,,,
1720178501,41,0,4126.025879,4109.871582,4147.820313,4077.307617,4191.410156,4342.179688,4104.230957,4182.820313,4217.436035,4134.102539,4133.846191,4360.769043,4077.692383,4153.333496,,,,,,,,,,,,,,,,,,,,,,,,,,,,,,,,,,,,,,,,,,,,,,,,,,,,,,,,,,,,,,,,,,,,,,
1720178501,42,0,4135.897461,4123.846191,4161.153809,4092.05127,4206.410156,4351.153809,4118.974121,4189.230957,4235.128418,4149.871582,4155.128418,4381.922852,4104.743652,4168.974121,,,,,,,,,,,,,,,,,,,,,,,,,,,,,,,,,,,,,,,,,,,,,,,,,,,,,,,,,,,,,,,,,,,,,,
1720178501,43,0,4144.743652,4126.922852,4154.743652,4096.666504,4202.692383,4341.794922,4110.384766,4181.922852,4233.974121,4155.641113,4154.230957,4377.563965,4113.846191,4171.922852,,,,,,,,,,,,,,,,,,,,,,,,,,,,,,,,,,,,,,,,,,,,,,,,,,,,,,,,,,,,,,,,,,,,,,
1720178501,44,0,4168.717773,4141.922852,4165.769043,4107.179688,4201.666504,4333.205078,4101.153809,4176.025879,4227.820313,4161.282227,4158.717773,4379.230957,4123.717773,4191.282227,,,,,,,,,,,,,,,,,,,,,,,,,,,,,,,,,,,,,,,,,,,,,,,,,,,,,,,,,,,,,,,,,,,,,,
1720178501,45,0,4191.666504,4158.077148,4183.846191,4120.641113,4209.743652,4332.820313,4095.128174,4169.487305,4220.256348,4156.410156,4164.615234,4388.077148,4134.487305,4215.641113,,,,,,,,,,,,,,,,,,,,,,,,,,,,,,,,,,,,,,,,,,,,,,,,,,,,,,,,,,,,,,,,,,,,,,
1720178501,46,0,4192.179688,4158.461426,4186.410156,4123.077148,4216.538574,4333.205078,4090.897461,4165.256348,4214.230957,4149.871582,4167.179688,4390.384766,4138.333496,4221.025879,,,,,,,,,,,,,,,,,,,,,,,,,,,,,,,,,,,,,,,,,,,,,,,,,,,,,,,,,,,,,,,,,,,,,,
1720178501,47,0,4187.692383,4153.589844,4191.922852,4122.05127,4219.358887,4334.871582,4096.410156,4172.692383,4217.692383,4158.077148,4175.128418,4394.230957,4138.205078,4218.333496,,,,,,,,,,,,,,,,,,,,,,,,,,,,,,,,,,,,,,,,,,,,,,,,,,,,,,,,,,,,,,,,,,,,,,
1720178501,48,0,4193.205078,4155.128418,4201.410156,4127.436035,4221.153809,4338.589844,4112.820313,4180.256348,4228.461426,4169.615234,4183.717773,4404.743652,4141.410156,4222.692383,4.120033,1.140805,1.205996,1.817064,0.207084,3.912586,1.242854,1.508801,1.01395,0.198092,4.435667,1.647679,1.431458,1.36637,0.178772,2.786414,1.11639,0.744618,1.198547,0.289143,1.1323,1.28729,0.731443,0.341363,0.157208,0.385482,0.518027,0.416513,0.147559,0.161325,1.556803,0.608684,0.765583,0.453092,0.166281,0.287584,0.400361,0.309451,0.125188,0.064855,4.49847,3.419946,1.594087,0.815272,0.362855,3.200524,3.614213,1.920985,1.042103,0.401843,3.466605,2.373017,1.654335,1.029849,0.385056,4.483533,1.379843,2.561965,1.592327,0.248652,4.517084,1.542463,2.531686,1.036725,0.335863,5.70467,1.388499,2.494855,1.512564,0.28345
1720178501,49,0,4201.282227,4162.436035,4206.153809,4136.794922,4223.974121,4342.563965,4135,4185.128418,4238.333496,4169.230957,4187.05127,4415.512695,4147.307617,4230.512695,,,,,,,,,,,,,,,,,,,,,,,,,,,,,,,,,,,,,,,,,,,,,,,,,,,,,,,,,,,,,,,,,,,,,,
1720178501,50,0,4211.794922,4170.897461,4217.307617,4150.384766,4226.538574,4348.846191,4152.179688,4194.743652,4247.436035,4167.692383,4187.436035,4417.307617,4145.384766,4234.230957,,,,,,,,,,,,,,,,,,,,,,,,,,,,,,,,,,,,,,,,,,,,,,,,,,,,,,,,,,,,,,,,,,,,,,
1720178501,51,0,4214.871582,4168.333496,4226.282227,4152.563965,4226.794922,4351.538574,4154.230957,4202.563965,4254.615234,4172.692383,4182.307617,4409.743652,4133.846191,4228.205078,,,,,,,,,,,,,,,,,,,,,,,,,,,,,,,,,,,,,,,,,,,,,,,,,,,,,,,,,,,,,,,,,,,,,,
1720178501,52,0,4198.589844,4154.487305,4213.461426,4140.897461,4221.538574,4348.461426,4145.512695,4198.717773,4248.974121,4167.307617,4177.436035,4402.820313,4123.717773,4216.666504,,,,,,,,,,,,,,,,,,,,,,,,,,,,,,,,,,,,,,,,,,,,,,,,,,,,,,,,,,,,,,,,,,,,,,
1720178501,53,0,4182.820313,4149.871582,4197.179688,4134.871582,4215.384766,4344.743652,4133.974121,4187.563965,4235.897461,4161.025879,4182.563965,4405.897461,4125.256348,4211.410156,,,,,,,,,,,,,,,,,,,,,,,,,,,,,,,,,,,,,,,,,,,,,,,,,,,,,,,,,,,,,,,,,,,,,,
1720178501,54,0,4184.487305,4155.384766,4198.717773,4132.820313,4221.922852,4345,4125.256348,4185.769043,4231.282227,4162.307617,4190.256348,4412.820313,4138.589844,4217.94873,,,,,,,,,,,,,,,,,,,,,,,,,,,,,,,,,,,,,,,,,,,,,,,,,,,,,,,,,,,,,,,,,,,,,,
1720178502,55,0,4188.205078,4156.153809,4201.922852,4130.128418,4227.94873,4343.333496,4119.487305,4184.871582,4227.692383,4159.102539,4188.461426,4410.256348,4144.358887,4219.358887,,,,,,,,,,,,,,,,,,,,,,,,,,,,,,,,,,,,,,,,,,,,,,,,,,,,,,,,,,,,,,,,,,,,,,
1720178502,56,0,4182.179688,4155.384766,4193.589844,4134.358887,4222.94873,4340.256348,4118.461426,4171.538574,4217.563965,4154.102539,4178.461426,4397.692383,4132.307617,4206.794922,,,,,,,,,,,,,,,,,,,,,,,,,,,,,,,,,,,,,,,,,,,,,,,,,,,,,,,,,,,,,,,,,,,,,,
1720178502,57,0,4179.487305,4156.922852,4185.512695,4134.230957,4217.307617,4340.128418,4119.358887,4165,4211.153809,4156.666504,4167.94873,4388.974121,4122.05127,4196.666504,,,,,,,,,,,,,,,,,,,,,,,,,,,,,,,,,,,,,,,,,,,,,,,,,,,,,,,,,,,,,,,,,,,,,,
1720178502,58,0,4181.666504,4154.487305,4185.897461,4121.538574,4214.615234,4344.487305,4125.256348,4175.769043,4215.897461,4161.922852,4165.128418,4390,4123.589844,4198.589844,,,,,,,,,,,,,,,,,,,,,,,,,,,,,,,,,,,,,,,,,,,,,,,,,,,,,,,,,,,,,,,,,,,,,,
1720178502,59,0,4182.820313,4151.538574,4188.974121,4124.743652,4216.153809,4346.410156,4144.102539,4187.94873,4225.769043,4166.410156,4173.077148,4395,4126.794922,4206.025879,,,,,,,,,,,,,,,,,,,,,,,,,,,,,,,,,,,,,,,,,,,,,,,,,,,,,,,,,,,,,,,,,,,,,,
1720178502,60,0,4182.820313,4152.692383,4191.794922,4139.358887,4215.897461,4344.871582,4158.205078,4195.384766,4235.769043,4176.922852,4184.743652,4402.94873,4131.153809,4214.615234,,,,,,,,,,,,,,,,,,,,,,,,,,,,,,,,,,,,,,,,,,,,,,,,,,,,,,,,,,,,,,,,,,,,,,
1720178502,61,0,4184.743652,4153.717773,4195.897461,4136.410156,4207.820313,4344.871582,4156.153809,4202.179688,4243.589844,4191.153809,4198.205078,4411.538574,4138.077148,4224.615234,,,,,,,,,,,,,,,,,,,,,,,,,,,,,,,,,,,,,,,,,,,,,,,,,,,,,,,,,,,,,,,,,,,,,,
1720178502,62,0,4191.282227,4151.922852,4201.922852,4127.179688,4200.512695,4346.666504,4154.487305,4205.256348,4250,4203.717773,4206.922852,4420.384766,4142.179688,4235.897461,,,,,,,,,,,,,,,,,,,,,,,,,,,,,,,,,,,,,,,,,,,,,,,,,,,,,,,,,,,,,,,,,,,,,,
1720178502,63,0,4197.94873,4151.282227,4207.436035,4126.025879,4196.666504,4346.794922,4153.589844,4206.153809,4254.615234,4205.512695,4203.846191,4427.179688,4143.333496,4242.94873,,,,,,,,,,,,,,,,,,,,,,,,,,,,,,,,,,,,,,,,,,,,,,,,,,,,,,,,,,,,,,,,,,,,,,
1720178502,64,0,4201.538574,4154.230957,4203.589844,4130.512695,4193.333496,4343.205078,4142.94873,4200.769043,4248.461426,4200.641113,4200.641113,4416.922852,4141.794922,4239.230957,3.667993,1.159564,1.065502,1.745471,0.214574,3.341368,0.964114,1.329839,1.006206,0.210268,4.609477,1.13339,1.141073,1.252715,0.168878,2.841985,0.759308,0.746653,1.183251,0.284966,1.17698,1.154252,0.697355,0.388072,0.173162,0.389686,0.570217,0.453373,0.140086,0.144861,1.272358,0.623592,0.798825,0.412975,0.157593,0.268895,0.351093,0.380326,0.135305,0.071286,2.461195,2.293535,1.509869,0.843275,0.318769,2.328403,3.342428,1.903708,1.056786,0.417079,4.011894,2.322774,1.57751,1.009949,0.420232,4.739456,1.237607,2.147786,1.433711,0.235599,4.903963,1.672982,2.386058,1.024835,0.349888,5.778485,1.656022,2.077499,1.39045,0.29363
1720178502,65,0,4203.461426,4156.922852,4198.077148,4135.384766,4196.153809,4341.922852,4135,4187.692383,4234.487305,4200.512695,4202.436035,4393.461426,4139.102539,4230.128418,,,,,,,,,,,,,,,,,,,,,,,,,,,,,,,,,,,,,,,,,,,,,,,,,,,,,,,,,,,,,,,,,,,,,,
1720178502,66,0,4196.794922,4157.436035,4193.974121,4135.897461,4199.615234,4345.256348,4138.589844,4181.025879,4223.974121,4193.717773,4196.282227,4381.282227,4140.256348,4227.820313,,,,,,,,,,,,,,,,,,,,,,,,,,,,,,,,,,,,,,,,,,,,,,,,,,,,,,,,,,,,,,,,,,,,,,
1720178502,67,0,4186.153809,4154.743652,4186.794922,4135,4199.358887,4344.487305,4137.307617,4181.153809,4215.256348,4184.743652,4185.641113,4380.512695,4139.230957,4226.538574,,,,,,,,,,,,,,,,,,,,,,,,,,,,,,,,,,,,,,,,,,,,,,,,,,,,,,,,,,,,,,,,,,,,,,
1720178502,68,0,4189.102539,4151.025879,4190.897461,4135.641113,4205.897461,4340.897461,4140.128418,4181.794922,4212.179688,4189.871582,4190.256348,4386.922852,4138.846191,4228.846191,,,,,,,,,,,,,,,,,,,,,,,,,,,,,,,,,,,,,,,,,,,,,,,,,,,,,,,,,,,,,,,,,,,,,,
1720178502,69,0,4199.102539,4154.871582,4210.384766,4137.179688,4207.179688,4342.692383,4148.974121,4185.512695,4223.589844,4201.153809,4200,4403.974121,4147.563965,4242.563965,,,,,,,,,,,,,,,,,,,,,,,,,,,,,,,,,,,,,,,,,,,,,,,,,,,,,,,,,,,,,,,,,,,,,,
1720178502,70,0,4202.94873,4164.487305,4223.461426,4144.102539,4200.641113,4344.487305,4143.205078,4184.871582,4231.282227,4204.487305,4204.743652,4416.922852,4155.769043,4247.94873,,,,,,,,,,,,,,,,,,,,,,,,,,,,,,,,,,,,,,,,,,,,,,,,,,,,,,,,,,,,,,,,,,,,,,
1720178502,71,0,4205.512695,4170.128418,4219.615234,4155.384766,4209.358887,4341.538574,4136.666504,4186.538574,4222.179688,4204.230957,4207.94873,4415,4157.179688,4231.282227,,,,,,,,,,,,,,,,,,,,,,,,,,,,,,,,,,,,,,,,,,,,,,,,,,,,,,,,,,,,,,,,,,,,,,
1720178502,72,0,4196.282227,4165.256348,4207.179688,4153.461426,4219.615234,4345.641113,4148.333496,4198.461426,4218.333496,4196.666504,4200.512695,4409.615234,4154.871582,4214.102539,,,,,,,,,,,,,,,,,,,,,,,,,,,,,,,,,,,,,,,,,,,,,,,,,,,,,,,,,,,,,,,,,,,,,,
1720178502,73,0,4184.358887,4162.436035,4201.666504,4145.128418,4216.666504,4355.769043,4164.615234,4203.205078,4233.461426,4193.077148,4202.307617,4417.05127,4156.025879,4220.384766,,,,,,,,,,,,,,,,,,,,,,,,,,,,,,,,,,,,,,,,,,,,,,,,,,,,,,,,,,,,,,,,,,,,,,
1720178502,74,0,4199.358887,4166.666504,4218.461426,4150.256348,4218.333496,4361.025879,4177.692383,4202.05127,4257.94873,4215.384766,4234.615234,4443.717773,4171.666504,4245.769043,,,,,,,,,,,,,,,,,,,,,,,,,,,,,,,,,,,,,,,,,,,,,,,,,,,,,,,,,,,,,,,,,,,,,,
1720178502,75,0,4222.436035,4170.897461,4241.153809,4162.563965,4220.384766,4359.230957,4189.358887,4206.794922,4278.974121,4238.589844,4258.461426,4468.205078,4188.461426,4268.205078,,,,,,,,,,,,,,,,,,,,,,,,,,,,,,,,,,,,,,,,,,,,,,,,,,,,,,,,,,,,,,,,,,,,,,
1720178502,76,0,4226.282227,4176.025879,4244.487305,4169.230957,4217.820313,4356.153809,4189.615234,4205.641113,4281.922852,4237.94873,4250,4462.179688,4187.307617,4279.230957,,,,,,,,,,,,,,,,,,,,,,,,,,,,,,,,,,,,,,,,,,,,,,,,,,,,,,,,,,,,,,,,,,,,,,
1720178502,77,0,4226.153809,4183.333496,4239.615234,4169.743652,4226.410156,4357.692383,4180.384766,4200.256348,4270.384766,4234.358887,4246.025879,4445.256348,4183.077148,4276.666504,,,,,,,,,,,,,,,,,,,,,,,,,,,,,,,,,,,,,,,,,,,,,,,,,,,,,,,,,,,,,,,,,,,,,,
1720178502,78,0,4233.461426,4187.436035,4235.897461,4169.102539,4232.179688,4360.256348,4179.615234,4200.641113,4269.743652,4235.384766,4248.205078,4440.641113,4182.94873,4267.307617,,,,,,,,,,,,,,,,,,,,,,,,,,,,,,,,,,,,,,,,,,,,,,,,,,,,,,,,,,,,,,,,,,,,,,
1720178502,79,0,4229.102539,4179.871582,4232.307617,4167.94873,4222.820313,4358.077148,4181.666504,4200.512695,4276.410156,4231.153809,4237.820313,4439.615234,4174.102539,4260.384766,,,,,,,,,,,,,,,,,,,,,,,,,,,,,,,,,,,,,,,,,,,,,,,,,,,,,,,,,,,,,,,,,,,,,,
1720178502,80,0,4219.230957,4173.205078,4232.94873,4165,4221.922852,4355.384766,4182.307617,4201.153809,4276.538574,4231.538574,4231.410156,4443.077148,4167.307617,4262.563965,3.622105,1.54438,0.942785,1.580727,0.214132,2.930521,0.961636,1.164619,0.953377,0.21436,4.849958,1.066327,0.917955,1.139246,0.160238,3.064091,0.663273,0.766721,1.134162,0.274077,1.266254,1.019842,0.639478,0.424902,0.188056,0.399598,0.618136,0.468777,0.144438,0.129586,1.192953,0.69657,0.848263,0.408355,0.151092,0.334987,0.339065,0.461398,0.151146,0.07687,1.540579,1.744048,1.435762,0.920698,0.282256,2.073485,2.998795,1.867403,1.018581,0.415722,4.107371,2.268884,1.50719,0.947438,0.42403,4.924816,1.260109,1.722715,1.282901,0.227684,4.936671,1.98042,2.164709,0.962753,0.33958,7.247117,2.468861,1.796042,1.276711,0.312714
1720178502,81,0,4222.05127,4176.538574,4232.563965,4162.179688,4230.128418,4358.846191,4187.94873,4205.384766,4277.307617,4233.717773,4233.333496,4443.717773,4174.743652,4270.128418,,,,,,,,,,,,,,,,,,,,,,,,,,,,,,,,,,,,,,,,,,,,,,,,,,,,,,,,,,,,,,,,,,,,,,
1720178502,82,0,4231.922852,4183.205078,4228.205078,4165.641113,4229.615234,4358.461426,4187.436035,4205.897461,4277.692383,4231.153809,4236.410156,4431.410156,4183.717773,4275.384766,,,,,,,,,,,,,,,,,,,,,,,,,,,,,,,,,,,,,,,,,,,,,,,,,,,,,,,,,,,,,,,,,,,,,,
1720178502,83,0,4240.512695,4193.589844,4236.794922,4176.282227,4227.820313,4348.333496,4176.538574,4202.179688,4268.974121,4236.794922,4237.692383,4421.538574,4186.282227,4277.179688,,,,,,,,,,,,,,,,,,,,,,,,,,,,,,,,,,,,,,,,,,,,,,,,,,,,,,,,,,,,,,,,,,,,,,
1720178502,84,0,4248.846191,4197.94873,4250.641113,4183.205078,4231.025879,4343.846191,4167.94873,4200.128418,4260.769043,4245.384766,4233.077148,4423.333496,4186.538574,4274.743652,,,,,,,,,,,,,,,,,,,,,,,,,,,,,,,,,,,,,,,,,,,,,,,,,,,,,,,,,,,,,,,,,,,,,,
1720178502,85,0,4254.487305,4190.384766,4248.205078,4178.589844,4232.179688,4350.641113,4169.615234,4201.410156,4268.974121,4243.205078,4235.641113,4431.538574,4188.974121,4275.897461,,,,,,,,,,,,,,,,,,,,,,,,,,,,,,,,,,,,,,,,,,,,,,,,,,,,,,,,,,,,,,,,,,,,,,
1720178502,86,0,4244.487305,4181.282227,4234.615234,4169.102539,4231.922852,4353.589844,4177.05127,4203.589844,4275.384766,4235.256348,4248.205078,4437.563965,4188.717773,4278.974121,,,,,,,,,,,,,,,,,,,,,,,,,,,,,,,,,,,,,,,,,,,,,,,,,,,,,,,,,,,,,,,,,,,,,,
1720178502,87,0,4228.333496,4180.641113,4223.717773,4162.307617,4230.897461,4347.307617,4178.461426,4201.153809,4266.025879,4231.410156,4245.641113,4426.922852,4182.307617,4272.563965,,,,,,,,,,,,,,,,,,,,,,,,,,,,,,,,,,,,,,,,,,,,,,,,,,,,,,,,,,,,,,,,,,,,,,
1720178502,88,0,4230.769043,4181.538574,4229.487305,4165.641113,4232.179688,4346.922852,4171.666504,4198.461426,4256.538574,4230.512695,4241.282227,4418.717773,4183.333496,4273.077148,,,,,,,,,,,,,,,,,,,,,,,,,,,,,,,,,,,,,,,,,,,,,,,,,,,,,,,,,,,,,,,,,,,,,,
1720178502,89,0,4245.897461,4184.102539,4246.410156,4178.717773,4236.153809,4351.794922,4167.820313,4199.487305,4259.615234,4236.666504,4258.589844,4435,4199.871582,4289.230957,,,,,,,,,,,,,,,,,,,,,,,,,,,,,,,,,,,,,,,,,,,,,,,,,,,,,,,,,,,,,,,,,,,,,,
1720178502,90,0,4248.846191,4192.820313,4243.717773,4185.256348,4233.846191,4348.461426,4171.025879,4200.769043,4270.256348,4250.897461,4268.717773,4448.333496,4212.820313,4300,,,,,,,,,,,,,,,,,,,,,,,,,,,,,,,,,,,,,,,,,,,,,,,,,,,,,,,,,,,,,,,,,,,,,,
1720178502,91,0,4244.230957,4198.974121,4234.871582,4181.410156,4228.077148,4344.871582,4175.641113,4209.487305,4278.589844,4264.358887,4266.282227,4447.05127,4213.077148,4301.794922,,,,,,,,,,,,,,,,,,,,,,,,,,,,,,,,,,,,,,,,,,,,,,,,,,,,,,,,,,,,,,,,,,,,,,
1720178502,92,0,4254.615234,4201.666504,4247.307617,4187.307617,4229.871582,4351.025879,4187.307617,4215.641113,4281.410156,4274.230957,4275.641113,4454.230957,4217.820313,4308.717773,,,,,,,,,,,,,,,,,,,,,,,,,,,,,,,,,,,,,,,,,,,,,,,,,,,,,,,,,,,,,,,,,,,,,,
1720178502,93,0,4264.871582,4202.94873,4267.307617,4198.717773,4234.358887,4359.358887,4201.666504,4213.974121,4281.538574,4277.692383,4283.717773,4471.410156,4227.436035,4316.538574,,,,,,,,,,,,,,,,,,,,,,,,,,,,,,,,,,,,,,,,,,,,,,,,,,,,,,,,,,,,,,,,,,,,,,
1720178502,94,0,4264.230957,4201.282227,4272.307617,4201.153809,4233.846191,4355.512695,4202.05127,4211.922852,4274.230957,4270.384766,4281.025879,4475.641113,4225.384766,4317.307617,,,,,,,,,,,,,,,,,,,,,,,,,,,,,,,,,,,,,,,,,,,,,,,,,,,,,,,,,,,,,,,,,,,,,,
1720178502,95,0,4264.230957,4202.179688,4269.230957,4195.256348,4237.692383,4345.769043,4195.769043,4207.94873,4256.153809,4256.025879,4281.153809,4465.256348,4218.589844,4315.384766,,,,,,,,,,,,,,,,,,,,,,,,,,,,,,,,,,,,,,,,,,,,,,,,,,,,,,,,,,,,,,,,,,,,,,
1720178502,96,0,4261.538574,4200.769043,4265.512695,4189.743652,4243.846191,4346.666504,4190.897461,4207.05127,4244.615234,4248.077148,4278.717773,4456.922852,4217.94873,4311.922852,4.522551,2.465908,0.83713,1.373176,0.207139,3.119283,1.244312,1.020977,0.886247,0.213093,5.388672,1.490643,0.751573,1.041304,0.159309,3.750061,0.866241,0.787816,1.083919,0.260918,1.539161,0.849892,0.55551,0.461271,0.202538,0.418771,0.640496,0.452969,0.166909,0.11806,1.248292,0.885925,0.942063,0.467562,0.148801,0.408156,0.441997,0.570533,0.170126,0.083168,1.552467,1.633053,1.3781,0.984981,0.248824,2.290152,2.682245,1.824224,0.929855,0.396367,4.299954,2.292576,1.405251,0.872369,0.398333,5.081284,1.522515,1.352142,1.190445,0.230283,5.437762,2.486799,1.876526,0.863154,0.307402,11.529851,4.016949,1.699139,1.251768,0.357216
1720178502,97,0,4249.102539,4191.153809,4254.743652,4188.077148,4239.743652,4351.282227,4186.538574,4207.94873,4249.615234,4246.922852,4272.436035,4456.794922,4216.794922,4305.256348,,,,,,,,,,,,,,,,,,,,,,,,,,,,,,,,,,,,,,,,,,,,,,,,,,,,,,,,,,,,,,,,,,,,,,
1720178502,98,0,4235.641113,4182.692383,4238.333496,4194.230957,4231.025879,4346.153809,4183.205078,4205.384766,4259.615234,4249.615234,4272.820313,4451.410156,4212.436035,4297.307617,,,,,,,,,,,,,,,,,,,,,,,,,,,,,,,,,,,,,,,,,,,,,,,,,,,,,,,,,,,,,,,,,,,,,,
1720178502,99,0,4230.641113,4178.077148,4225.897461,4217.05127,4230,4339.487305,4181.666504,4204.615234,4269.743652,4260.384766,4267.94873,4438.846191,4212.94873,4291.410156,,,,,,,,,,,,,,,,,,,,,,,,,,,,,,,,,,,,,,,,,,,,,,,,,,,,,,,,,,,,,,,,,,,,,,
1720178502,100,0,4227.820313,4174.230957,4228.205078,4246.153809,4232.563965,4342.692383,4183.461426,4211.025879,4276.794922,4267.94873,4260.641113,4440.897461,4215.128418,4292.179688,,,,,,,,,,,,,,,,,,,,,,,,,,,,,,,,,,,,,,,,,,,,,,,,,,,,,,,,,,,,,,,,,,,,,,
1720178502,101,0,4229.358887,4178.717773,4237.05127,4255.128418,4232.563965,4345.897461,4188.461426,4213.589844,4279.230957,4267.05127,4266.922852,4447.307617,4214.615234,4297.94873,,,,,,,,,,,,,,,,,,,,,,,,,,,,,,,,,,,,,,,,,,,,,,,,,,,,,,,,,,,,,,,,,,,,,,
1720178502,102,0,4239.230957,4187.692383,4240.769043,4247.436035,4235,4343.333496,4191.153809,4214.230957,4279.487305,4264.615234,4272.179688,4441.025879,4215.128418,4301.153809,,,,,,,,,,,,,,,,,,,,,,,,,,,,,,,,,,,,,,,,,,,,,,,,,,,,,,,,,,,,,,,,,,,,,,
1720178502,103,0,4248.077148,4188.333496,4247.692383,4261.282227,4240.128418,4339.230957,4182.692383,4217.179688,4271.922852,4262.179688,4263.333496,4433.974121,4212.307617,4300.384766,,,,,,,,,,,,,,,,,,,,,,,,,,,,,,,,,,,,,,,,,,,,,,,,,,,,,,,,,,,,,,,,,,,,,,
1720178502,104,0,4247.692383,4187.436035,4254.615234,4300.512695,4242.94873,4335.897461,4173.974121,4213.589844,4262.563965,4263.077148,4261.666504,4436.538574,4208.589844,4301.025879,,,,,,,,,,,,,,,,,,,,,,,,,,,,,,,,,,,,,,,,,,,,,,,,,,,,,,,,,,,,,,,,,,,,,,
1720178502,105,0,4248.205078,4191.794922,4256.282227,4324.743652,4242.563965,4340.641113,4180.128418,4213.077148,4264.743652,4262.307617,4275.769043,4445.128418,4212.563965,4308.846191,,,,,,,,,,,,,,,,,,,,,,,,,,,,,,,,,,,,,,,,,,,,,,,,,,,,,,,,,,,,,,,,,,,,,,
1720178502,106,0,4252.307617,4192.05127,4251.922852,4318.717773,4244.230957,4343.846191,4184.487305,4211.538574,4262.692383,4254.358887,4282.820313,4449.102539,4219.230957,4313.461426,,,,,,,,,,,,,,,,,,,,,,,,,,,,,,,,,,,,,,,,,,,,,,,,,,,,,,,,,,,,,,,,,,,,,,
1720178502,107,0,4248.589844,4189.358887,4243.717773,4295,4246.922852,4335.128418,4173.974121,4202.179688,4249.358887,4254.358887,4275.384766,4441.922852,4217.307617,4308.717773,,,,,,,,,,,,,,,,,,,,,,,,,,,,,,,,,,,,,,,,,,,,,,,,,,,,,,,,,,,,,,,,,,,,,,
1720178502,108,0,4242.179688,4184.871582,4237.05127,4271.666504,4243.846191,4330,4169.102539,4200.384766,4246.153809,4263.717773,4272.563965,4430.897461,4213.974121,4306.410156,,,,,,,,,,,,,,,,,,,,,,,,,,,,,,,,,,,,,,,,,,,,,,,,,,,,,,,,,,,,,,,,,,,,,,
1720178502,109,0,4241.538574,4183.205078,4239.615234,4260.128418,4242.692383,4337.820313,4178.205078,4204.871582,4251.794922,4264.102539,4277.820313,4431.922852,4215.641113,4308.333496,,,,,,,,,,,,,,,,,,,,,,,,,,,,,,,,,,,,,,,,,,,,,,,,,,,,,,,,,,,,,,,,,,,,,,
1720178502,110,0,4243.333496,4190.897461,4244.743652,4259.615234,4247.94873,4341.282227,4186.410156,4206.666504,4247.692383,4258.974121,4277.05127,4437.307617,4216.025879,4307.820313,,,,,,,,,,,,,,,,,,,,,,,,,,,,,,,,,,,,,,,,,,,,,,,,,,,,,,,,,,,,,,,,,,,,,,
1720178502,111,0,4244.487305,4198.461426,4250,4257.05127,4251.794922,4340,4195.512695,4212.820313,4243.461426,4261.153809,4279.102539,4441.666504,4220.897461,4310.512695,,,,,,,,,,,,,,,,,,,,,,,,,,,,,,,,,,,,,,,,,,,,,,,,,,,,,,,,,,,,,,,,,,,,,,
1720178502,112,0,4245.512695,4194.743652,4257.05127,4249.615234,4248.717773,4343.461426,4209.102539,4218.333496,4253.717773,4265.897461,4288.333496,4451.794922,4228.846191,4318.589844,6.532369,3.909264,0.752268,1.181284,0.200024,3.747216,1.765122,0.902378,0.836262,0.210093,6.343225,2.312449,0.643628,0.982534,0.172829,4.881485,1.307189,0.802521,1.063256,0.251565,1.90975,0.662183,0.456095,0.503998,0.217428,0.437246,0.628111,0.409198,0.208257,0.111638,1.449188,1.263818,1.122362,0.60268,0.15165,0.503825,0.727528,0.72226,0.189582,0.091582,2.161631,1.870803,1.377966,1.008805,0.217157,2.932917,2.479271,1.802343,0.822548,0.363153,4.036782,2.499193,1.259903,0.830214,0.3566,5.325627,2.07867,1.100297,1.207558,0.245477,5.86385,3.198623,1.588774,0.762812,0.264894,18.571356,6.236395,1.760287,1.377405,0.433133
1720178502,113,0,4246.922852,4190,4257.307617,4248.077148,4249.487305,4345.641113,4218.846191,4218.589844,4264.358887,4271.538574,4292.692383,4461.666504,4231.794922,4325.256348,,,,,,,,,,,,,,,,,,,,,,,,,,,,,,,,,,,,,,,,,,,,,,,,,,,,,,,,,,,,,,,,,,,,,,
1720178502,114,0,4248.333496,4195.769043,4260.128418,4251.282227,4256.282227,4346.922852,4219.230957,4225.897461,4267.692383,4280.256348,4298.077148,4467.692383,4238.846191,4331.410156,,,,,,,,,,,,,,,,,,,,,,,,,,,,,,,,,,,,,,,,,,,,,,,,,,,,,,,,,,,,,,,,,,,,,,
1720178502,115,0,4250.512695,4201.666504,4264.743652,4247.05127,4255,4344.743652,4207.94873,4227.05127,4268.717773,4276.025879,4301.538574,4462.436035,4244.358887,4336.153809,,,,,,,,,,,,,,,,,,,,,,,,,,,,,,,,,,,,,,,,,,,,,,,,,,,,,,,,,,,,,,,,,,,,,,
1720178502,116,0,4247.179688,4200.641113,4260,4236.922852,4246.153809,4333.077148,4188.974121,4217.436035,4262.94873,4267.307617,4294.871582,4447.05127,4236.666504,4335.128418,,,,,,,,,,,,,,,,,,,,,,,,,,,,,,,,,,,,,,,,,,,,,,,,,,,,,,,,,,,,,,,,,,,,,,
1720178502,117,0,4238.205078,4196.538574,4253.846191,4228.717773,4243.717773,4322.692383,4172.692383,4212.436035,4255.769043,4275.128418,4290.769043,4443.205078,4232.179688,4333.205078,,,,,,,,,,,,,,,,,,,,,,,,,,,,,,,,,,,,,,,,,,,,,,,,,,,,,,,,,,,,,,,,,,,,,,
1720178502,118,0,4228.974121,4189.358887,4245.256348,4222.05127,4247.436035,4324.102539,4166.282227,4207.94873,4259.230957,4287.820313,4295.769043,4447.179688,4237.94873,4331.538574,,,,,,,,,,,,,,,,,,,,,,,,,,,,,,,,,,,,,,,,,,,,,,,,,,,,,,,,,,,,,,,,,,,,,,
1720178502,119,0,4225,4182.179688,4237.94873,4215.512695,4247.05127,4327.05127,4169.743652,4208.205078,4267.05127,4287.692383,4294.615234,4443.846191,4234.871582,4325,,,,,,,,,,,,,,,,,,,,,,,,,,,,,,,,,,,,,,,,,,,,,,,,,,,,,,,,,,,,,,,,,,,,,,
1720178502,120,0,4225.384766,4180.256348,4236.922852,4209.871582,4247.692383,4323.846191,4177.436035,4214.871582,4259.615234,4274.487305,4282.94873,4440,4228.589844,4321.538574,,,,,,,,,,,,,,,,,,,,,,,,,,,,,,,,,,,,,,,,,,,,,,,,,,,,,,,,,,,,,,,,,,,,,,
1720178502,121,0,4228.205078,4183.974121,4236.153809,4209.102539,4250.769043,4326.025879,4190.769043,4218.205078,4246.794922,4264.487305,4278.974121,4443.589844,4229.871582,4324.358887,,,,,,,,,,,,,,,,,,,,,,,,,,,,,,,,,,,,,,,,,,,,,,,,,,,,,,,,,,,,,,,,,,,,,,
1720178502,122,0,4230.512695,4186.794922,4238.077148,4214.102539,4251.794922,4336.666504,4208.717773,4224.102539,4249.358887,4267.436035,4288.974121,4453.461426,4232.94873,4325.641113,,,,,,,,,,,,,,,,,,,,,,,,,,,,,,,,,,,,,,,,,,,,,,,,,,,,,,,,,,,,,,,,,,,,,,
1720178502,123,0,4231.922852,4184.102539,4248.461426,4216.538574,4257.563965,4340.897461,4217.436035,4227.820313,4262.179688,4277.179688,4296.922852,4463.333496,4232.05127,4326.282227,,,,,,,,,,,,,,,,,,,,,,,,,,,,,,,,,,,,,,,,,,,,,,,,,,,,,,,,,,,,,,,,,,,,,,
1720178502,124,0,4238.846191,4184.358887,4257.563965,4217.436035,4261.153809,4339.743652,4219.102539,4225.897461,4278.974121,4286.794922,4295.128418,4467.94873,4230.256348,4328.717773,,,,,,,,,,,,,,,,,,,,,,,,,,,,,,,,,,,,,,,,,,,,,,,,,,,,,,,,,,,,,,,,,,,,,,
1720178502,125,0,4246.922852,4195.256348,4261.025879,4223.717773,4260.769043,4341.153809,4221.282227,4228.717773,4283.846191,4294.871582,4302.179688,4470.897461,4237.692383,4335.256348,,,,,,,,,,,,,,,,,,,,,,,,,,,,,,,,,,,,,,,,,,,,,,,,,,,,,,,,,,,,,,,,,,,,,,
1720178502,126,0,4248.589844,4202.563965,4267.05127,4230.256348,4262.436035,4336.794922,4215.512695,4226.410156,4260.256348,4298.717773,4314.871582,4473.846191,4248.077148,4344.871582,,,,,,,,,,,,,,,,,,,,,,,,,,,,,,,,,,,,,,,,,,,,,,,,,,,,,,,,,,,,,,,,,,,,,,
1720178502,127,0,4252.94873,4203.717773,4270.641113,4230.256348,4268.974121,4329.358887,4209.743652,4214.358887,4229.102539,4293.589844,4316.538574,4471.666504,4249.230957,4353.846191,,,,,,,,,,,,,,,,,,,,,,,,,,,,,,,,,,,,,,,,,,,,,,,,,,,,,,,,,,,,,,,,,,,,,,
1720178502,0,0,4264.871582,4210.256348,4275.384766,4232.436035,4273.205078,4328.974121,4210.128418,4214.358887,4218.974121,4290.641113,4317.692383,4472.692383,4251.282227,4363.333496,9.325232,5.632391,0.716656,1.04742,0.199464,4.861631,2.408088,0.814747,0.819038,0.206802,7.633065,3.329684,0.628519,0.977181,0.204823,6.394817,1.8492,0.817445,1.088702,0.250796,2.429113,0.508778,0.361091,0.549161,0.231591,0.4703,0.590348,0.351483,0.261561,0.110487,1.799534,1.864393,1.42956,0.797727,0.158674,0.573767,1.191979,0.934141,0.206158,0.101654,3.197826,2.399056,1.498214,1.00383,0.191525,3.824311,2.467993,1.839099,0.739051,0.323941,3.966914,2.964271,1.109013,0.848736,0.317159,5.758514,2.923789,1.015175,1.349458,0.272199,6.67136,4.031112,1.378597,0.698167,0.225403,27.262924,8.766643,1.925436,1.649549,0.527239
1720178502,1,0,4275.641113,4217.563965,4292.05127,4240.897461,4273.974121,4329.102539,4207.94873,4223.077148,4220.384766,4291.666504,4331.153809,4490.128418,4267.563965,4378.846191,,,,,,,,,,,,,,,,,,,,,,,,,,,,,,,,,,,,,,,,,,,,,,,,,,,,,,,,,,,,,,,,,,,,,,
1720178502,2,0,4285.128418,4225.384766,4309.615234,4251.153809,4278.461426,4326.153809,4204.743652,4223.333496,4224.615234,4296.025879,4348.461426,4511.666504,4288.717773,4396.025879,,,,,,,,,,,,,,,,,,,,,,,,,,,,,,,,,,,,,,,,,,,,,,,,,,,,,,,,,,,,,,,,,,,,,,
1720178502,3,0,4291.922852,4233.205078,4314.871582,4256.153809,4279.487305,4328.717773,4209.102539,4225,4233.333496,4309.487305,4354.358887,4518.589844,4294.487305,4399.871582,,,,,,,,,,,,,,,,,,,,,,,,,,,,,,,,,,,,,,,,,,,,,,,,,,,,,,,,,,,,,,,,,,,,,,
1720178502,4,0,4279.871582,4220,4298.846191,4241.153809,4266.666504,4329.615234,4211.410156,4226.538574,4231.666504,4306.153809,4337.692383,4502.820313,4273.717773,4380.384766,,,,,,,,,,,,,,,,,,,,,,,,,,,,,,,,,,,,,,,,,,,,,,,,,,,,,,,,,,,,,,,,,,,,,,
1720178502,5,0,4239.358887,4182.05127,4260,4206.153809,4248.461426,4318.974121,4202.307617,4219.871582,4212.436035,4274.102539,4301.666504,4464.230957,4228.846191,4338.461426,,,,,,,,,,,,,,,,,,,,,,,,,,,,,,,,,,,,,,,,,,,,,,,,,,,,,,,,,,,,,,,,,,,,,,
1720178502,6,0,4197.692383,4152.307617,4225.769043,4176.538574,4241.666504,4310.769043,4196.538574,4216.025879,4196.538574,4248.846191,4271.922852,4428.589844,4195.641113,4303.205078,,,,,,,,,,,,,,,,,,,,,,,,,,,,,,,,,,,,,,,,,,,,,,,,,,,,,,,,,,,,,,,,,,,,,,
1720178502,7,0,4197.563965,4156.025879,4228.461426,4176.025879,4246.666504,4318.205078,4205.897461,4221.538574,4208.205078,4258.717773,4274.871582,4432.179688,4205.641113,4308.717773,,,,,,,,,,,,,,,,,,,,,,,,,,,,,,,,,,,,,,,,,,,,,,,,,,,,,,,,,,,,,,,,,,,,,,
1720178502,8,0,4229.615234,4180.128418,4252.563965,4199.230957,4257.307617,4329.102539,4214.487305,4224.358887,4230.897461,4286.282227,4304.102539,4456.666504,4240.384766,4339.487305,,,,,,,,,,,,,,,,,,,,,,,,,,,,,,,,,,,,,,,,,,,,,,,,,,,,,,,,,,,,,,,,,,,,,,
1720178502,9,0,4249.102539,4201.794922,4266.538574,4217.820313,4272.05127,4327.179688,4212.05127,4222.94873,4237.820313,4305.256348,4328.717773,4468.461426,4265.128418,4359.230957,,,,,,,,,,,,,,,,,,,,,,,,,,,,,,,,,,,,,,,,,,,,,,,,,,,,,,,,,,,,,,,,,,,,,,
1720178502,10,0,4252.563965,4211.410156,4270.769043,4227.820313,4281.794922,4324.230957,4212.563965,4223.717773,4237.820313,4309.743652,4338.461426,4477.563965,4276.025879,4367.820313,,,,,,,,,,,,,,,,,,,,,,,,,,,,,,,,,,,,,,,,,,,,,,,,,,,,,,,,,,,,,,,,,,,,,,
1720178502,11,0,4258.974121,4215,4272.179688,4230.641113,4283.333496,4328.846191,4221.410156,4229.102539,4240.256348,4310.897461,4341.666504,4492.436035,4281.922852,4376.922852,,,,,,,,,,,,,,,,,,,,,,,,,,,,,,,,,,,,,,,,,,,,,,,,,,,,,,,,,,,,,,,,,,,,,,
1720178502,12,0,4260.384766,4214.230957,4267.692383,4222.05127,4280.512695,4331.153809,4224.102539,4227.307617,4234.487305,4310.384766,4336.153809,4490,4278.077148,4375.128418,,,,,,,,,,,,,,,,,,,,,,,,,,,,,,,,,,,,,,,,,,,,,,,,,,,,,,,,,,,,,,,,,,,,,,
1720178502,13,0,4262.820313,4213.333496,4265.384766,4221.153809,4280.256348,4328.589844,4216.025879,4218.461426,4231.410156,4303.846191,4329.871582,4474.743652,4273.205078,4370.128418,,,,,,,,,,,,,,,,,,,,,,,,,,,,,,,,,,,,,,,,,,,,,,,,,,,,,,,,,,,,,,,,,,,,,,
1720178502,14,0,4278.846191,4223.205078,4281.025879,4233.077148,4282.05127,4324.871582,4206.794922,4221.025879,4235.641113,4301.025879,4341.794922,4483.461426,4279.871582,4381.666504,,,,,,,,,,,,,,,,,,,,,,,,,,,,,,,,,,,,,,,,,,,,,,,,,,,,,,,,,,,,,,,,,,,,,,
1720178502,15,0,4283.846191,4230.769043,4294.487305,4235,4281.538574,4323.846191,4205.512695,4227.94873,4233.077148,4306.410156,4356.410156,4501.538574,4290.512695,4394.743652,,,,,,,,,,,,,,,,,,,,,,,,,,,,,,,,,,,,,,,,,,,,,,,,,,,,,,,,,,,,,,,,,,,,,,
1720178502,16,0,4272.692383,4222.436035,4288.461426,4229.487305,4282.563965,4325.512695,4212.820313,4227.563965,4241.538574,4310.897461,4355.512695,4501.025879,4295.897461,4392.307617,12.120652,7.223933,0.781036,0.982805,0.208531,6.011032,3.020375,0.778342,0.826377,0.202277,9.050494,4.318102,0.765728,1.017666,0.252785,8.195361,2.419573,0.861556,1.164637,0.260286,3.032336,0.428344,0.292273,0.581625,0.241108,0.523206,0.544709,0.301195,0.313193,0.114022,2.308779,2.642923,1.87778,1.012489,0.167214,0.61377,1.739762,1.197929,0.216194,0.110814,4.408145,3.159624,1.757718,1.002759,0.178683,4.710144,2.6754,1.971783,0.710886,0.28689,4.001566,3.634343,1.001263,0.920999,0.293991,6.629924,3.922443,1.101767,1.571524,0.305715,7.56492,4.785459,1.300238,0.686972,0.197882,35.204533,10.972254,2.094273,1.983674,0.609132
1720178502,17,0,4271.666504,4213.461426,4288.461426,4232.05127,4283.077148,4328.077148,4223.077148,4231.025879,4248.846191,4311.153809,4352.05127,4496.410156,4289.102539,4381.025879,,,,,,,,,,,,,,,,,,,,,,,,,,,,,,,,,,,,,,,,,,,,,,,,,,,,,,,,,,,,,,,,,,,,,,
1720178502,18,0,4276.410156,4220.769043,4298.077148,4232.179688,4282.563965,4326.666504,4231.025879,4237.692383,4227.307617,4306.922852,4349.871582,4493.205078,4278.974121,4372.05127,,,,,,,,,,,,,,,,,,,,,,,,,,,,,,,,,,,,,,,,,,,,,,,,,,,,,,,,,,,,,,,,,,,,,,
1720178502,19,0,4274.487305,4230.641113,4303.589844,4234.871582,4285.897461,4321.794922,4232.94873,4234.615234,4206.153809,4303.974121,4352.05127,4490.641113,4284.102539,4377.563965,,,,,,,,,,,,,,,,,,,,,,,,,,,,,,,,,,,,,,,,,,,,,,,,,,,,,,,,,,,,,,,,,,,,,,
1720178502,20,0,4280.641113,4231.666504,4311.282227,4247.05127,4288.589844,4322.307617,4233.461426,4229.487305,4205,4310.128418,4361.153809,4501.538574,4295.128418,4393.589844,,,,,,,,,,,,,,,,,,,,,,,,,,,,,,,,,,,,,,,,,,,,,,,,,,,,,,,,,,,,,,,,,,,,,,
1720178502,21,0,4295.384766,4239.615234,4320.384766,4253.717773,4293.461426,4328.333496,4234.230957,4227.563965,4202.563965,4312.692383,4368.077148,4516.538574,4299.102539,4404.102539,,,,,,,,,,,,,,,,,,,,,,,,,,,,,,,,,,,,,,,,,,,,,,,,,,,,,,,,,,,,,,,,,,,,,,
1720178502,22,0,4295.641113,4246.410156,4321.282227,4251.282227,4295.641113,4326.922852,4229.358887,4227.179688,4199.487305,4308.333496,4375,4518.846191,4305.384766,4408.846191,,,,,,,,,,,,,,,,,,,,,,,,,,,,,,,,,,,,,,,,,,,,,,,,,,,,,,,,,,,,,,,,,,,,,,
1720178502,23,0,4284.358887,4238.461426,4315.769043,4248.974121,4287.307617,4321.538574,4226.282227,4232.179688,4212.692383,4313.589844,4380.256348,4518.846191,4308.461426,4412.05127,,,,,,,,,,,,,,,,,,,,,,,,,,,,,,,,,,,,,,,,,,,,,,,,,,,,,,,,,,,,,,,,,,,,,,
1720178502,24,0,4279.102539,4229.102539,4305.384766,4248.205078,4281.410156,4323.846191,4230.512695,4234.358887,4227.94873,4318.846191,4373.974121,4516.410156,4300.512695,4402.94873,,,,,,,,,,,,,,,,,,,,,,,,,,,,,,,,,,,,,,,,,,,,,,,,,,,,,,,,,,,,,,,,,,,,,,
1720178502,25,0,4273.974121,4228.846191,4291.282227,4241.410156,4285.512695,4328.333496,4231.666504,4235.128418,4234.230957,4315.769043,4364.743652,4503.589844,4292.307617,4392.307617,,,,,,,,,,,,,,,,,,,,,,,,,,,,,,,,,,,,,,,,,,,,,,,,,,,,,,,,,,,,,,,,,,,,,,
1720178502,26,0,4268.077148,4228.846191,4286.025879,4234.871582,4284.230957,4327.692383,4234.102539,4239.230957,4232.820313,4307.820313,4366.538574,4498.461426,4287.179688,4395.512695,,,,,,,,,,,,,,,,,,,,,,,,,,,,,,,,,,,,,,,,,,,,,,,,,,,,,,,,,,,,,,,,,,,,,,
1720178502,27,0,4272.820313,4228.205078,4287.563965,4237.692383,4278.205078,4326.282227,4241.282227,4235,4220.128418,4301.538574,4364.615234,4499.743652,4281.410156,4398.974121,,,,,,,,,,,,,,,,,,,,,,,,,,,,,,,,,,,,,,,,,,,,,,,,,,,,,,,,,,,,,,,,,,,,,,
1720178502,28,0,4277.820313,4228.589844,4284.230957,4239.615234,4278.974121,4330.512695,4251.794922,4229.871582,4213.461426,4305.897461,4357.436035,4495.256348,4279.487305,4396.538574,,,,,,,,,,,,,,,,,,,,,,,,,,,,,,,,,,,,,,,,,,,,,,,,,,,,,,,,,,,,,,,,,,,,,,
1720178502,29,0,4268.461426,4220.384766,4274.615234,4230.769043,4275.769043,4336.794922,4264.871582,4238.717773,4225.512695,4314.615234,4356.025879,4484.871582,4280.512695,4391.922852,,,,,,,,,,,,,,,,,,,,,,,,,,,,,,,,,,,,,,,,,,,,,,,,,,,,,,,,,,,,,,,,,,,,,,
1720178502,30,0,4258.333496,4211.794922,4265.512695,4221.922852,4266.922852,4337.563965,4265.384766,4246.153809,4235.769043,4313.077148,4354.487305,4471.025879,4272.94873,4380.512695,,,,,,,,,,,,,,,,,,,,,,,,,,,,,,,,,,,,,,,,,,,,,,,,,,,,,,,,,,,,,,,,,,,,,,
1720178502,31,0,4259.615234,4212.563965,4265.128418,4220.769043,4265.641113,4332.692383,4252.307617,4243.717773,4234.743652,4307.820313,4356.922852,4469.871582,4265.128418,4372.05127,,,,,,,,,,,,,,,,,,,,,,,,,,,,,,,,,,,,,,,,,,,,,,,,,,,,,,,,,,,,,,,,,,,,,,
1720178502,32,0,4260.512695,4216.282227,4270.512695,4222.05127,4266.410156,4327.307617,4245.897461,4243.589844,4230.641113,4305,4358.077148,4481.282227,4266.794922,4374.615234,14.054,8.33939,0.965635,0.978536,0.224574,6.89357,3.486304,0.794588,0.842447,0.194355,10.079568,5.110193,1.056816,1.081277,0.304967,10.391415,3.021067,0.948275,1.289442,0.276671,3.485375,0.421828,0.262778,0.582048,0.24048,0.589328,0.515599,0.274903,0.345742,0.120736,2.897063,3.508413,2.435285,1.187987,0.173333,0.621156,2.225091,1.482012,0.21632,0.115755,5.522779,4.044586,2.108785,1.041423,0.178766,5.276052,3.048035,2.185725,0.753816,0.256241,4.356127,4.371516,0.968614,1.018243,0.289988,7.595639,4.859601,1.305549,1.796014,0.337394,8.28005,5.28181,1.352095,0.737454,0.183905,39.732346,12.299966,2.143097,2.259737,0.645207
1720178502,33,0,4267.05127,4220.897461,4276.794922,4229.615234,4266.794922,4325,4244.487305,4241.794922,4221.410156,4294.487305,4353.205078,4488.077148,4274.102539,4384.487305,,,,,,,,,,,,,,,,,,,,,,,,,,,,,,,,,,,,,,,,,,,,,,,,,,,,,,,,,,,,,,,,,,,,,,
1720178502,34,0,4285.769043,4231.922852,4286.666504,4241.025879,4272.820313,4325.641113,4238.461426,4236.025879,4213.846191,4289.743652,4365.641113,4496.794922,4286.153809,4403.717773,,,,,,,,,,,,,,,,,,,,,,,,,,,,,,,,,,,,,,,,,,,,,,,,,,,,,,,,,,,,,,,,,,,,,,
1720178502,35,0,4297.307617,4242.692383,4297.436035,4247.05127,4275.897461,4325.512695,4233.461426,4235.897461,4222.820313,4306.538574,4386.922852,4512.563965,4297.820313,4423.205078,,,,,,,,,,,,,,,,,,,,,,,,,,,,,,,,,,,,,,,,,,,,,,,,,,,,,,,,,,,,,,,,,,,,,,
1720178502,36,0,4296.922852,4240.897461,4302.94873,4247.307617,4267.563965,4321.153809,4232.05127,4239.615234,4236.153809,4323.077148,4385,4513.333496,4300.641113,4419.743652,,,,,,,,,,,,,,,,,,,,,,,,,,,,,,,,,,,,,,,,,,,,,,,,,,,,,,,,,,,,,,,,,,,,,,
1720178502,37,0,4292.820313,4233.333496,4300.128418,4243.717773,4261.410156,4320,4229.743652,4233.974121,4239.487305,4318.205078,4373.077148,4495.128418,4296.153809,4402.307617,,,,,,,,,,,,,,,,,,,,,,,,,,,,,,,,,,,,,,,,,,,,,,,,,,,,,,,,,,,,,,,,,,,,,,
1720178502,38,0,4285.128418,4230.128418,4289.102539,4242.94873,4264.871582,4322.563965,4234.743652,4227.563965,4243.974121,4308.461426,4377.563965,4487.307617,4296.153809,4392.563965,,,,,,,,,,,,,,,,,,,,,,,,,,,,,,,,,,,,,,,,,,,,,,,,,,,,,,,,,,,,,,,,,,,,,,
1720178502,39,0,4281.410156,4232.436035,4285.769043,4243.589844,4271.025879,4324.487305,4242.563965,4233.974121,4248.333496,4311.922852,4380.897461,4497.436035,4295.384766,4391.794922,,,,,,,,,,,,,,,,,,,,,,,,,,,,,,,,,,,,,,,,,,,,,,,,,,,,,,,,,,,,,,,,,,,,,,
1720178502,40,0,4291.666504,4240.128418,4301.410156,4248.333496,4278.461426,4328.717773,4247.307617,4245.256348,4248.846191,4310.512695,4380,4513.205078,4292.307617,4400.384766,,,,,,,,,,,,,,,,,,,,,,,,,,,,,,,,,,,,,,,,,,,,,,,,,,,,,,,,,,,,,,,,,,,,,,
1720178502,41,0,4298.461426,4246.922852,4311.025879,4259.358887,4286.410156,4332.820313,4252.307617,4247.94873,4255,4304.487305,4389.743652,4521.025879,4298.846191,4411.666504,,,,,,,,,,,,,,,,,,,,,,,,,,,,,,,,,,,,,,,,,,,,,,,,,,,,,,,,,,,,,,,,,,,,,,
1720178502,42,0,4295.128418,4248.461426,4308.461426,4266.153809,4291.538574,4335,4261.410156,4248.589844,4262.179688,4314.230957,4399.743652,4522.94873,4311.153809,4420.897461,,,,,,,,,,,,,,,,,,,,,,,,,,,,,,,,,,,,,,,,,,,,,,,,,,,,,,,,,,,,,,,,,,,,,,
1720178502,43,0,4298.846191,4248.846191,4311.025879,4265.128418,4292.307617,4340,4275.512695,4254.230957,4264.487305,4326.538574,4401.410156,4527.820313,4318.205078,4424.743652,,,,,,,,,,,,,,,,,,,,,,,,,,,,,,,,,,,,,,,,,,,,,,,,,,,,,,,,,,,,,,,,,,,,,,
1720178502,44,0,4303.461426,4249.615234,4310.897461,4262.563965,4293.205078,4344.102539,4283.974121,4255.897461,4269.358887,4328.589844,4399.487305,4525.769043,4318.333496,4421.153809,,,,,,,,,,,,,,,,,,,,,,,,,,,,,,,,,,,,,,,,,,,,,,,,,,,,,,,,,,,,,,,,,,,,,,
1720178502,45,0,4301.410156,4250.769043,4306.025879,4267.94873,4298.333496,4343.589844,4284.615234,4256.922852,4276.282227,4333.077148,4401.153809,4519.230957,4321.538574,4414.871582,,,,,,,,,,,,,,,,,,,,,,,,,,,,,,,,,,,,,,,,,,,,,,,,,,,,,,,,,,,,,,,,,,,,,,
1720178502,46,0,4304.230957,4255.897461,4311.922852,4274.615234,4300.128418,4342.436035,4283.333496,4260.512695,4284.102539,4340,4403.333496,4521.410156,4324.743652,4417.692383,,,,,,,,,,,,,,,,,,,,,,,,,,,,,,,,,,,,,,,,,,,,,,,,,,,,,,,,,,,,,,,,,,,,,,
1720178502,47,0,4312.179688,4260.641113,4322.563965,4276.153809,4295.256348,4338.077148,4275,4263.846191,4288.589844,4339.615234,4405.384766,4527.05127,4325.512695,4430.384766,,,,,,,,,,,,,,,,,,,,,,,,,,,,,,,,,,,,,,,,,,,,,,,,,,,,,,,,,,,,,,,,,,,,,,
1720178502,48,0,4317.692383,4264.230957,4323.333496,4277.307617,4296.025879,4328.974121,4261.538574,4262.05127,4284.615234,4337.436035,4411.282227,4528.589844,4334.358887,4441.922852,14.630714,8.773365,1.267993,1.031696,0.241437,7.177504,3.768571,0.864768,0.868084,0.182728,10.635834,5.601427,1.471013,1.161273,0.344943,12.876205,3.669295,1.088397,1.463068,0.293013,3.7489,0.474267,0.282264,0.541521,0.225922,0.65777,0.529629,0.281966,0.346376,0.128837,3.452472,4.377636,3.028992,1.270517,0.173782,0.591642,2.501819,1.724298,0.206861,0.114265,6.334418,4.839211,2.430603,1.152636,0.186345,5.34778,3.437332,2.382774,0.872605,0.233464,4.908003,5.014149,1.019969,1.128271,0.297613,8.785549,5.521581,1.580312,1.970237,0.358433,8.626291,5.449781,1.508046,0.869951,0.179904,39.457199,12.511106,2.059326,2.406117,0.616562
1720178502,49,0,4325.128418,4267.436035,4319.358887,4279.743652,4299.102539,4323.717773,4255.641113,4255.256348,4276.794922,4338.205078,4417.436035,4528.846191,4346.282227,4447.05127,,,,,,,,,,,,,,,,,,,,,,,,,,,,,,,,,,,,,,,,,,,,,,,,,,,,,,,,,,,,,,,,,,,,,,
1720178502,50,0,4332.307617,4266.410156,4322.307617,4278.974121,4293.717773,4327.05127,4262.820313,4256.666504,4274.230957,4338.205078,4422.692383,4537.05127,4349.102539,4447.307617,,,,,,,,,,,,,,,,,,,,,,,,,,,,,,,,,,,,,,,,,,,,,,,,,,,,,,,,,,,,,,,,,,,,,,
1720178502,51,0,4331.153809,4272.179688,4329.615234,4279.871582,4288.333496,4330.512695,4266.410156,4259.487305,4275.128418,4339.871582,4427.563965,4550.897461,4350.128418,4453.333496,,,,,,,,,,,,,,,,,,,,,,,,,,,,,,,,,,,,,,,,,,,,,,,,,,,,,,,,,,,,,,,,,,,,,,
1720178502,52,0,4329.615234,4279.487305,4331.794922,4282.692383,4286.922852,4326.410156,4263.974121,4255.641113,4278.333496,4346.666504,4432.307617,4563.717773,4359.743652,4464.230957,,,,,,,,,,,,,,,,,,,,,,,,,,,,,,,,,,,,,,,,,,,,,,,,,,,,,,,,,,,,,,,,,,,,,,
1720178502,53,0,4330.384766,4271.410156,4329.871582,4280.769043,4281.794922,4321.666504,4269.102539,4256.410156,4285.641113,4353.461426,4435.128418,4566.666504,4360.897461,4463.717773,,,,,,,,,,,,,,,,,,,,,,,,,,,,,,,,,,,,,,,,,,,,,,,,,,,,,,,,,,,,,,,,,,,,,,
1720178502,54,0,4323.077148,4260.641113,4326.025879,4283.846191,4278.846191,4325.128418,4278.205078,4264.871582,4291.282227,4350.512695,4435.128418,4557.436035,4350.897461,4450.512695,,,,,,,,,,,,,,,,,,,,,,,,,,,,,,,,,,,,,,,,,,,,,,,,,,,,,,,,,,,,,,,,,,,,,,
1720178502,55,0,4315.256348,4261.794922,4323.205078,4299.358887,4287.179688,4332.307617,4281.025879,4265.256348,4292.307617,4342.307617,4430,4544.230957,4346.922852,4442.05127,,,,,,,,,,,,,,,,,,,,,,,,,,,,,,,,,,,,,,,,,,,,,,,,,,,,,,,,,,,,,,,,,,,,,,
1720178503,56,0,4319.743652,4263.205078,4324.230957,4320.769043,4295.128418,4331.538574,4276.666504,4260.897461,4293.589844,4341.153809,4429.487305,4536.922852,4348.974121,4446.153809,,,,,,,,,,,,,,,,,,,,,,,,,,,,,,,,,,,,,,,,,,,,,,,,,,,,,,,,,,,,,,,,,,,,,,
1720178503,57,0,4326.025879,4263.461426,4321.282227,4343.974121,4295.384766,4325.384766,4260.769043,4257.94873,4295.128418,4338.077148,4430.512695,4530,4348.077148,4443.974121,,,,,,,,,,,,,,,,,,,,,,,,,,,,,,,,,,,,,,,,,,,,,,,,,,,,,,,,,,,,,,,,,,,,,,
1720178503,58,0,4323.333496,4267.436035,4317.307617,4368.589844,4299.487305,4324.615234,4243.846191,4251.410156,4295.384766,4335,4423.461426,4520.384766,4345,4428.333496,,,,,,,,,,,,,,,,,,,,,,,,,,,,,,,,,,,,,,,,,,,,,,,,,,,,,,,,,,,,,,,,,,,,,,
1720178503,59,0,4313.974121,4262.436035,4316.922852,4379.102539,4304.743652,4330.128418,4250.384766,4251.666504,4295,4344.615234,4417.307617,4517.820313,4340.256348,4412.820313,,,,,,,,,,,,,,,,,,,,,,,,,,,,,,,,,,,,,,,,,,,,,,,,,,,,,,,,,,,,,,,,,,,,,,
1720178503,60,0,4299.871582,4251.538574,4311.282227,4369.615234,4300.256348,4335.512695,4270.897461,4259.615234,4295.769043,4351.410156,4417.05127,4515.384766,4338.333496,4404.487305,,,,,,,,,,,,,,,,,,,,,,,,,,,,,,,,,,,,,,,,,,,,,,,,,,,,,,,,,,,,,,,,,,,,,,
1720178503,61,0,4292.563965,4247.563965,4301.666504,4354.615234,4293.205078,4339.743652,4281.794922,4262.05127,4296.025879,4344.871582,4413.846191,4506.922852,4338.717773,4393.974121,,,,,,,,,,,,,,,,,,,,,,,,,,,,,,,,,,,,,,,,,,,,,,,,,,,,,,,,,,,,,,,,,,,,,,
1720178503,62,0,4301.025879,4250.897461,4304.487305,4345,4298.846191,4344.230957,4290.128418,4257.05127,4291.282227,4332.436035,4408.846191,4503.974121,4331.538574,4381.410156,,,,,,,,,,,,,,,,,,,,,,,,,,,,,,,,,,,,,,,,,,,,,,,,,,,,,,,,,,,,,,,,,,,,,,
1720178503,63,0,4309.615234,4256.794922,4314.743652,4338.333496,4305.256348,4344.487305,4295.769043,4255,4286.794922,4325.128418,4405.641113,4507.307617,4322.820313,4380.641113,,,,,,,,,,,,,,,,,,,,,,,,,,,,,,,,,,,,,,,,,,,,,,,,,,,,,,,,,,,,,,,,,,,,,,
1720178503,64,0,4308.974121,4260.128418,4318.974121,4331.025879,4300.769043,4340.769043,4292.692383,4259.871582,4288.461426,4327.692383,4406.282227,4516.282227,4327.307617,4394.615234,13.729083,8.604917,1.668715,1.140327,0.253876,6.86326,3.953848,1.004498,0.916552,0.169627,10.557035,5.793561,1.949856,1.262261,0.359711,15.333607,4.369828,1.289099,1.6735,0.301675,3.666566,0.587657,0.357882,0.46974,0.197937,0.706121,0.607034,0.313831,0.314185,0.136194,3.819593,5.181444,3.523,1.233465,0.167268,0.548648,2.495724,1.852508,0.19377,0.106651,6.736526,5.339837,2.602044,1.352781,0.196005,4.857508,3.709282,2.461686,1.057277,0.21869,5.409279,5.469317,1.161867,1.258359,0.304123,9.586505,5.804832,1.912407,2.083342,0.363716,8.299981,5.410867,1.761911,1.102644,0.180588,34.243629,11.841239,1.946877,2.423074,0.52852
1720178503,65,0,4318.333496,4269.358887,4323.974121,4332.94873,4299.615234,4340.128418,4292.179688,4265.769043,4295.512695,4335.897461,4424.358887,4534.102539,4344.615234,4414.871582,,,,,,,,,,,,,,,,,,,,,,,,,,,,,,,,,,,,,,,,,,,,,,,,,,,,,,,,,,,,,,,,,,,,,,
1720178503,66,0,4332.94873,4278.717773,4334.102539,4336.922852,4304.871582,4339.358887,4295,4266.794922,4307.307617,4346.666504,4452.436035,4552.94873,4363.846191,4435.769043,,,,,,,,,,,,,,,,,,,,,,,,,,,,,,,,,,,,,,,,,,,,,,,,,,,,,,,,,,,,,,,,,,,,,,
1720178503,67,0,4341.025879,4279.871582,4347.94873,4339.358887,4305.384766,4334.743652,4291.666504,4269.743652,4312.692383,4355.512695,4465.641113,4565.384766,4375.256348,4448.461426,,,,,,,,,,,,,,,,,,,,,,,,,,,,,,,,,,,,,,,,,,,,,,,,,,,,,,,,,,,,,,,,,,,,,,
1720178503,68,0,4350.897461,4286.153809,4355.897461,4346.282227,4305.641113,4334.871582,4291.666504,4272.692383,4303.589844,4352.820313,4461.794922,4567.436035,4377.436035,4449.487305,,,,,,,,,,,,,,,,,,,,,,,,,,,,,,,,,,,,,,,,,,,,,,,,,,,,,,,,,,,,,,,,,,,,,,
1720178503,69,0,4356.666504,4299.358887,4348.461426,4344.743652,4310.897461,4341.794922,4297.94873,4267.307617,4293.077148,4337.692383,4452.05127,4555.897461,4372.563965,4444.487305,,,,,,,,,,,,,,,,,,,,,,,,,,,,,,,,,,,,,,,,,,,,,,,,,,,,,,,,,,,,,,,,,,,,,,
1720178503,70,0,4345.769043,4298.846191,4336.666504,4333.589844,4311.025879,4344.230957,4300.769043,4267.307617,4288.461426,4326.153809,4447.94873,4545.384766,4361.410156,4435.512695,,,,,,,,,,,,,,,,,,,,,,,,,,,,,,,,,,,,,,,,,,,,,,,,,,,,,,,,,,,,,,,,,,,,,,
1720178503,71,0,4329.871582,4282.563965,4328.846191,4323.717773,4306.410156,4341.666504,4305.256348,4274.102539,4283.461426,4317.94873,4447.307617,4538.333496,4351.282227,4422.820313,,,,,,,,,,,,,,,,,,,,,,,,,,,,,,,,,,,,,,,,,,,,,,,,,,,,,,,,,,,,,,,,,,,,,,
1720178503,72,0,4319.487305,4270.384766,4315.769043,4311.666504,4306.666504,4343.077148,4309.871582,4270.641113,4278.846191,4311.025879,4440.384766,4521.153809,4344.230957,4412.436035,,,,,,,,,,,,,,,,,,,,,,,,,,,,,,,,,,,,,,,,,,,,,,,,,,,,,,,,,,,,,,,,,,,,,,
1720178503,73,0,4310.641113,4264.358887,4300.128418,4294.487305,4303.717773,4343.717773,4304.102539,4265.769043,4280.512695,4307.179688,4430.256348,4506.538574,4330.512695,4404.871582,,,,,,,,,,,,,,,,,,,,,,,,,,,,,,,,,,,,,,,,,,,,,,,,,,,,,,,,,,,,,,,,,,,,,,
1720178503,74,0,4307.436035,4258.974121,4297.563965,4290,4299.487305,4335.769043,4293.077148,4268.077148,4286.794922,4304.102539,4425.769043,4502.94873,4321.666504,4396.410156,,,,,,,,,,,,,,,,,,,,,,,,,,,,,,,,,,,,,,,,,,,,,,,,,,,,,,,,,,,,,,,,,,,,,,
1720178503,75,0,4310.256348,4264.102539,4303.333496,4297.179688,4302.05127,4328.589844,4276.794922,4266.666504,4294.487305,4312.820313,4428.589844,4498.589844,4328.333496,4390.641113,,,,,,,,,,,,,,,,,,,,,,,,,,,,,,,,,,,,,,,,,,,,,,,,,,,,,,,,,,,,,,,,,,,,,,
1720178503,76,0,4308.846191,4273.461426,4306.410156,4297.563965,4306.153809,4329.358887,4262.307617,4264.743652,4301.153809,4328.333496,4436.025879,4496.666504,4333.974121,4386.922852,,,,,,,,,,,,,,,,,,,,,,,,,,,,,,,,,,,,,,,,,,,,,,,,,,,,,,,,,,,,,,,,,,,,,,
1720178503,77,0,4305.897461,4271.666504,4306.794922,4294.230957,4309.487305,4335.512695,4270.641113,4267.179688,4305.256348,4329.487305,4438.077148,4500.641113,4333.974121,4382.179688,,,,,,,,,,,,,,,,,,,,,,,,,,,,,,,,,,,,,,,,,,,,,,,,,,,,,,,,,,,,,,,,,,,,,,
1720178503,78,0,4306.410156,4263.974121,4307.820313,4294.871582,4310.897461,4338.077148,4280.256348,4268.205078,4307.05127,4320.384766,4435.128418,4501.410156,4337.820313,4385.897461,,,,,,,,,,,,,,,,,,,,,,,,,,,,,,,,,,,,,,,,,,,,,,,,,,,,,,,,,,,,,,,,,,,,,,
1720178503,79,0,4307.692383,4264.487305,4309.230957,4294.102539,4304.487305,4335.641113,4274.358887,4268.717773,4308.717773,4320.512695,4435.897461,4502.692383,4341.922852,4394.230957,,,,,,,,,,,,,,,,,,,,,,,,,,,,,,,,,,,,,,,,,,,,,,,,,,,,,,,,,,,,,,,,,,,,,,
1720178503,80,0,4306.282227,4266.153809,4307.94873,4288.205078,4298.333496,4336.538574,4284.487305,4270.641113,4316.282227,4328.717773,4441.410156,4508.205078,4341.282227,4393.077148,12.099552,8.090479,2.114122,1.29971,0.258386,6.237197,4.146718,1.226277,1.00345,0.157785,10.464623,5.77414,2.406176,1.392695,0.345004,17.134256,5.069834,1.547358,1.894284,0.296945,3.460349,0.770204,0.488258,0.393383,0.161882,0.74009,0.751703,0.353193,0.260003,0.140667,4.03561,5.865622,3.796827,1.086458,0.155169,0.513558,2.223826,1.816379,0.185402,0.095852,6.863452,5.402641,2.559215,1.626572,0.204548,4.102308,3.78709,2.374168,1.286286,0.2112,5.852098,5.676255,1.379591,1.422164,0.299905,10.226301,5.686331,2.326598,2.16134,0.35333,7.752152,5.345617,2.118884,1.430349,0.181435,26.309971,10.722155,1.959154,2.388392,0.408848
1720178503,81,0,4305.512695,4262.563965,4307.179688,4290,4304.230957,4341.025879,4300.512695,4273.461426,4325.641113,4328.846191,4441.153809,4511.025879,4339.487305,4385.641113,,,,,,,,,,,,,,,,,,,,,,,,,,,,,,,,,,,,,,,,,,,,,,,,,,,,,,,,,,,,,,,,,,,,,,
1720178503,82,0,4307.436035,4263.589844,4310.384766,4293.717773,4312.436035,4340,4297.563965,4275.641113,4328.461426,4323.846191,4438.205078,4508.333496,4342.179688,4384.102539,,,,,,,,,,,,,,,,,,,,,,,,,,,,,,,,,,,,,,,,,,,,,,,,,,,,,,,,,,,,,,,,,,,,,,
1720178503,83,0,4304.615234,4262.307617,4309.743652,4283.589844,4311.025879,4339.615234,4294.487305,4275.256348,4331.282227,4328.333496,4440.512695,4504.102539,4343.461426,4381.922852,,,,,,,,,,,,,,,,,,,,,,,,,,,,,,,,,,,,,,,,,,,,,,,,,,,,,,,,,,,,,,,,,,,,,,
1720178503,84,0,4301.666504,4257.563965,4304.615234,4279.102539,4308.717773,4346.538574,4298.077148,4273.846191,4327.692383,4333.461426,4438.077148,4500.641113,4335.641113,4378.205078,,,,,,,,,,,,,,,,,,,,,,,,,,,,,,,,,,,,,,,,,,,,,,,,,,,,,,,,,,,,,,,,,,,,,,
1720178503,85,0,4312.307617,4264.102539,4308.589844,4293.461426,4315.512695,4347.692383,4296.666504,4273.589844,4316.794922,4326.794922,4433.333496,4506.410156,4330.769043,4388.717773,,,,,,,,,,,,,,,,,,,,,,,,,,,,,,,,,,,,,,,,,,,,,,,,,,,,,,,,,,,,,,,,,,,,,,
1720178503,86,0,4329.487305,4280.641113,4325.256348,4310.128418,4325.512695,4343.077148,4295.897461,4273.077148,4318.333496,4324.615234,4442.563965,4523.589844,4340.897461,4411.282227,,,,,,,,,,,,,,,,,,,,,,,,,,,,,,,,,,,,,,,,,,,,,,,,,,,,,,,,,,,,,,,,,,,,,,
1720178503,87,0,4340.769043,4293.077148,4338.333496,4319.743652,4322.563965,4338.205078,4296.410156,4277.05127,4325.384766,4332.94873,4466.410156,4541.538574,4357.820313,4427.307617,,,,,,,,,,,,,,,,,,,,,,,,,,,,,,,,,,,,,,,,,,,,,,,,,,,,,,,,,,,,,,,,,,,,,,
1720178503,88,0,4350.897461,4298.974121,4343.846191,4328.717773,4309.102539,4335.897461,4294.358887,4281.153809,4320.897461,4337.563965,4484.871582,4554.615234,4368.717773,4437.179688,,,,,,,,,,,,,,,,,,,,,,,,,,,,,,,,,,,,,,,,,,,,,,,,,,,,,,,,,,,,,,,,,,,,,,
1720178503,89,0,4360.512695,4302.820313,4353.333496,4333.717773,4308.333496,4337.179688,4293.333496,4277.436035,4319.358887,4341.282227,4488.846191,4559.487305,4375.897461,4446.666504,,,,,,,,,,,,,,,,,,,,,,,,,,,,,,,,,,,,,,,,,,,,,,,,,,,,,,,,,,,,,,,,,,,,,,
1720178503,90,0,4358.589844,4301.410156,4357.94873,4332.820313,4321.153809,4336.666504,4293.077148,4276.025879,4327.436035,4340.897461,4484.230957,4555.384766,4377.692383,4445.128418,,,,,,,,,,,,,,,,,,,,,,,,,,,,,,,,,,,,,,,,,,,,,,,,,,,,,,,,,,,,,,,,,,,,,,
1720178503,91,0,4346.538574,4298.205078,4347.563965,4325.641113,4324.358887,4337.563965,4298.205078,4279.358887,4329.102539,4332.563965,4476.538574,4548.461426,4371.410156,4433.077148,,,,,,,,,,,,,,,,,,,,,,,,,,,,,,,,,,,,,,,,,,,,,,,,,,,,,,,,,,,,,,,,,,,,,,
1720178503,92,0,4333.974121,4295.641113,4334.871582,4317.436035,4318.974121,4344.358887,4308.077148,4282.692383,4324.871582,4334.358887,4477.307617,4543.205078,4366.666504,4429.230957,,,,,,,,,,,,,,,,,,,,,,,,,,,,,,,,,,,,,,,,,,,,,,,,,,,,,,,,,,,,,,,,,,,,,,
1720178503,93,0,4322.820313,4285.769043,4324.743652,4309.487305,4317.179688,4346.282227,4312.436035,4283.333496,4322.692383,4345.512695,4481.410156,4533.846191,4368.846191,4429.743652,,,,,,,,,,,,,,,,,,,,,,,,,,,,,,,,,,,,,,,,,,,,,,,,,,,,,,,,,,,,,,,,,,,,,,
1720178503,94,0,4313.974121,4272.94873,4315.128418,4297.436035,4315.128418,4339.487305,4306.282227,4278.974121,4318.205078,4342.436035,4476.666504,4521.025879,4367.563965,4421.025879,,,,,,,,,,,,,,,,,,,,,,,,,,,,,,,,,,,,,,,,,,,,,,,,,,,,,,,,,,,,,,,,,,,,,,
1720178503,95,0,4310,4273.846191,4315.769043,4292.307617,4312.05127,4340.128418,4298.589844,4272.436035,4313.717773,4331.794922,4468.333496,4513.717773,4355.641113,4410.128418,,,,,,,,,,,,,,,,,,,,,,,,,,,,,,,,,,,,,,,,,,,,,,,,,,,,,,,,,,,,,,,,,,,,,,
1720178503,96,0,4308.846191,4279.615234,4320.897461,4295.256348,4311.538574,4346.025879,4297.563965,4271.282227,4310.641113,4328.589844,4460.128418,4507.05127,4341.410156,4397.820313,10.353004,7.451624,2.508161,1.489006,0.254013,5.597511,4.34868,1.498719,1.125491,0.149002,10.515219,5.619117,2.719678,1.543905,0.305843,17.804178,5.689886,1.845781,2.074465,0.275754,3.163959,1.001609,0.648678,0.340899,0.125753,0.766541,0.93699,0.385967,0.200907,0.140818,4.01697,6.353449,3.827113,0.872903,0.141164,0.491053,1.789604,1.613282,0.187464,0.086159,6.731396,5.023941,2.328668,1.915966,0.209609,3.213679,3.644219,2.153158,1.522568,0.209201,6.025936,5.615636,1.617226,1.612313,0.283137,10.350142,5.308237,2.7906,2.229174,0.330974,7.014119,5.377292,2.531142,1.797309,0.17999,18.073362,9.621408,2.168799,2.39359,0.293929
1720178503,97,0,4313.461426,4275.641113,4316.666504,4294.615234,4311.922852,4340.384766,4295.512695,4270.128418,4308.333496,4323.461426,4450.128418,4496.410156,4335.769043,4384.615234,,,,,,,,,,,,,,,,,,,,,,,,,,,,,,,,,,,,,,,,,,,,,,,,,,,,,,,,,,,,,,,,,,,,,,
1720178503,98,0,4321.794922,4278.717773,4316.666504,4296.153809,4312.179688,4332.05127,4287.307617,4267.820313,4310.641113,4323.589844,4448.077148,4495.897461,4342.307617,4384.358887,,,,,,,,,,,,,,,,,,,,,,,,,,,,,,,,,,,,,,,,,,,,,,,,,,,,,,,,,,,,,,,,,,,,,,
1720178503,99,0,4315.769043,4282.436035,4313.974121,4295,4308.333496,4328.589844,4280,4270.256348,4304.358887,4322.563965,4447.179688,4497.179688,4337.307617,4381.922852,,,,,,,,,,,,,,,,,,,,,,,,,,,,,,,,,,,,,,,,,,,,,,,,,,,,,,,,,,,,,,,,,,,,,,
1720178503,100,0,4293.974121,4262.94873,4291.282227,4280.256348,4292.820313,4322.94873,4273.717773,4268.974121,4283.589844,4295.897461,4425.256348,4473.333496,4304.743652,4358.333496,,,,,,,,,,,,,,,,,,,,,,,,,,,,,,,,,,,,,,,,,,,,,,,,,,,,,,,,,,,,,,,,,,,,,,
1720178503,101,0,4282.563965,4243.717773,4283.461426,4268.717773,4282.05127,4322.05127,4272.436035,4267.692383,4277.563965,4274.487305,4409.102539,4455.769043,4284.743652,4344.615234,,,,,,,,,,,,,,,,,,,,,,,,,,,,,,,,,,,,,,,,,,,,,,,,,,,,,,,,,,,,,,,,,,,,,,
1720178503,102,0,4298.077148,4257.692383,4307.563965,4281.922852,4296.025879,4334.871582,4286.666504,4275.256348,4302.692383,4300.384766,4432.692383,4480.512695,4306.282227,4367.692383,,,,,,,,,,,,,,,,,,,,,,,,,,,,,,,,,,,,,,,,,,,,,,,,,,,,,,,,,,,,,,,,,,,,,,
1720178503,103,0,4323.717773,4283.717773,4322.820313,4300.769043,4312.05127,4341.282227,4300.641113,4283.077148,4327.436035,4338.333496,4466.025879,4510.641113,4343.333496,4400.384766,,,,,,,,,,,,,,,,,,,,,,,,,,,,,,,,,,,,,,,,,,,,,,,,,,,,,,,,,,,,,,,,,,,,,,
1720178503,104,0,4338.333496,4291.410156,4326.153809,4307.563965,4309.871582,4336.153809,4295.641113,4282.692383,4327.436035,4344.743652,4483.461426,4524.871582,4364.102539,4419.871582,,,,,,,,,,,,,,,,,,,,,,,,,,,,,,,,,,,,,,,,,,,,,,,,,,,,,,,,,,,,,,,,,,,,,,
1720178503,105,0,4342.179688,4293.077148,4338.461426,4311.282227,4313.589844,4337.94873,4290.641113,4278.846191,4323.333496,4342.179688,4488.974121,4533.717773,4365.128418,4429.102539,,,,,,,,,,,,,,,,,,,,,,,,,,,,,,,,,,,,,,,,,,,,,,,,,,,,,,,,,,,,,,,,,,,,,,
1720178503,106,0,4352.820313,4305.897461,4346.153809,4323.717773,4325.512695,4342.436035,4301.410156,4276.922852,4326.153809,4339.358887,4485.128418,4532.179688,4362.307617,4432.692383,,,,,,,,,,,,,,,,,,,,,,,,,,,,,,,,,,,,,,,,,,,,,,,,,,,,,,,,,,,,,,,,,,,,,,
1720178503,107,0,4362.436035,4312.307617,4343.846191,4327.563965,4324.487305,4341.282227,4309.871582,4278.205078,4323.205078,4331.410156,4477.820313,4526.282227,4365.641113,4433.333496,,,,,,,,,,,,,,,,,,,,,,,,,,,,,,,,,,,,,,,,,,,,,,,,,,,,,,,,,,,,,,,,,,,,,,
1720178503,108,0,4352.94873,4300.384766,4339.358887,4315.256348,4319.487305,4340.641113,4302.563965,4284.615234,4320.897461,4337.179688,4482.05127,4532.307617,4368.077148,4435.256348,,,,,,,,,,,,,,,,,,,,,,,,,,,,,,,,,,,,,,,,,,,,,,,,,,,,,,,,,,,,,,,,,,,,,,
1720178503,109,0,4341.538574,4291.538574,4336.922852,4309.871582,4318.974121,4340.128418,4295,4288.333496,4330.256348,4352.692383,4498.077148,4540,4370.512695,4438.846191,,,,,,,,,,,,,,,,,,,,,,,,,,,,,,,,,,,,,,,,,,,,,,,,,,,,,,,,,,,,,,,,,,,,,,
1720178503,110,0,4343.333496,4293.846191,4338.205078,4311.922852,4314.102539,4337.94873,4292.563965,4287.692383,4335.256348,4351.794922,4502.692383,4538.717773,4372.820313,4437.436035,,,,,,,,,,,,,,,,,,,,,,,,,,,,,,,,,,,,,,,,,,,,,,,,,,,,,,,,,,,,,,,,,,,,,,
1720178503,111,0,4350.897461,4298.717773,4340.512695,4313.974121,4315.384766,4339.230957,4286.282227,4281.794922,4322.307617,4341.282227,4495.128418,4536.153809,4372.179688,4436.025879,,,,,,,,,,,,,,,,,,,,,,,,,,,,,,,,,,,,,,,,,,,,,,,,,,,,,,,,,,,,,,,,,,,,,,
1720178503,112,0,4359.871582,4309.615234,4341.410156,4322.820313,4320.641113,4337.307617,4285.128418,4274.743652,4309.230957,4343.205078,4496.153809,4535.512695,4376.153809,4438.974121,9.337401,6.785364,2.755099,1.661222,0.241031,5.331201,4.477191,1.754587,1.251518,0.142642,11.077494,5.355495,2.806758,1.673575,0.254293,17.142576,6.146339,2.174615,2.154,0.239782,3.052361,1.236076,0.794802,0.324493,0.097439,0.81672,1.110219,0.406964,0.153084,0.136169,3.993939,6.570007,3.714836,0.654982,0.129254,0.518312,1.337083,1.293275,0.199839,0.080678,6.542636,4.345729,1.997373,2.132581,0.208671,2.601532,3.331446,1.88276,1.712367,0.209557,6.255095,5.383715,1.802893,1.784851,0.25679,10.531546,4.98685,3.214594,2.278098,0.300582,6.795326,5.547412,2.897665,2.104404,0.17444,12.433003,8.911524,2.52618,2.463425,0.209859
1720178503,113,0,4357.179688,4312.94873,4340.769043,4324.230957,4316.922852,4332.692383,4295.256348,4276.153809,4306.922852,4345.256348,4500.769043,4534.743652,4381.538574,4436.153809,,,,,,,,,,,,,,,,,,,,,,,,,,,,,,,,,,,,,,,,,,,,,,,,,,,,,,,,,,,,,,,,,,,,,,
1720178503,114,0,4344.230957,4298.333496,4337.563965,4311.666504,4314.615234,4335.512695,4307.820313,4280,4310.128418,4339.487305,4494.102539,4529.230957,4375.641113,4428.974121,,,,,,,,,,,,,,,,,,,,,,,,,,,,,,,,,,,,,,,,,,,,,,,,,,,,,,,,,,,,,,,,,,,,,,
1720178503,115,0,4340.128418,4291.153809,4333.077148,4308.717773,4316.922852,4342.436035,4310.256348,4283.589844,4309.487305,4337.307617,4486.538574,4517.179688,4368.846191,4424.358887,,,,,,,,,,,,,,,,,,,,,,,,,,,,,,,,,,,,,,,,,,,,,,,,,,,,,,,,,,,,,,,,,,,,,,
1720178503,116,0,4337.94873,4294.230957,4324.358887,4310.769043,4313.846191,4344.358887,4303.846191,4282.307617,4299.871582,4333.461426,4476.025879,4500.128418,4362.05127,4410.256348,,,,,,,,,,,,,,,,,,,,,,,,,,,,,,,,,,,,,,,,,,,,,,,,,,,,,,,,,,,,,,,,,,,,,,
1720178503,117,0,4325.769043,4284.743652,4311.410156,4298.077148,4311.538574,4340.897461,4301.794922,4276.922852,4290.512695,4326.282227,4462.307617,4486.410156,4348.333496,4391.538574,,,,,,,,,,,,,,,,,,,,,,,,,,,,,,,,,,,,,,,,,,,,,,,,,,,,,,,,,,,,,,,,,,,,,,
1720178503,118,0,4321.538574,4277.05127,4311.282227,4292.05127,4311.794922,4341.153809,4306.922852,4278.846191,4292.307617,4322.94873,4468.077148,4488.717773,4341.410156,4390.256348,,,,,,,,,,,,,,,,,,,,,,,,,,,,,,,,,,,,,,,,,,,,,,,,,,,,,,,,,,,,,,,,,,,,,,
1720178503,119,0,4328.846191,4285.512695,4320.512695,4302.307617,4313.205078,4341.025879,4307.692383,4281.410156,4299.487305,4321.025879,4477.820313,4495.769043,4342.563965,4395.512695,,,,,,,,,,,,,,,,,,,,,,,,,,,,,,,,,,,,,,,,,,,,,,,,,,,,,,,,,,,,,,,,,,,,,,
1720178503,120,0,4330.128418,4293.717773,4321.153809,4307.179688,4310.897461,4339.743652,4301.153809,4277.563965,4303.974121,4325,4469.615234,4494.487305,4341.666504,4393.333496,,,,,,,,,,,,,,,,,,,,,,,,,,,,,,,,,,,,,,,,,,,,,,,,,,,,,,,,,,,,,,,,,,,,,,
1720178503,121,0,4332.179688,4294.487305,4320.512695,4306.153809,4300.769043,4342.05127,4298.589844,4278.589844,4309.871582,4339.743652,4466.922852,4495.256348,4341.025879,4393.461426,,,,,,,,,,,,,,,,,,,,,,,,,,,,,,,,,,,,,,,,,,,,,,,,,,,,,,,,,,,,,,,,,,,,,,
1720178503,122,0,4339.871582,4293.205078,4325.512695,4306.282227,4293.077148,4341.538574,4296.794922,4287.179688,4317.436035,4352.820313,4480.128418,4498.717773,4342.436035,4400,,,,,,,,,,,,,,,,,,,,,,,,,,,,,,,,,,,,,,,,,,,,,,,,,,,,,,,,,,,,,,,,,,,,,,
1720178503,123,0,4344.871582,4289.615234,4332.05127,4305.256348,4293.846191,4340.384766,4292.179688,4286.794922,4324.358887,4358.974121,4489.102539,4501.922852,4346.794922,4412.179688,,,,,,,,,,,,,,,,,,,,,,,,,,,,,,,,,,,,,,,,,,,,,,,,,,,,,,,,,,,,,,,,,,,,,,
1720178503,124,0,4355.256348,4292.820313,4340.128418,4310,4292.436035,4341.153809,4293.717773,4284.102539,4325.641113,4365.384766,4495.256348,4520.769043,4354.871582,4430.897461,,,,,,,,,,,,,,,,,,,,,,,,,,,,,,,,,,,,,,,,,,,,,,,,,,,,,,,,,,,,,,,,,,,,,,
1720178503,125,0,4371.794922,4308.333496,4352.94873,4325.384766,4291.794922,4342.436035,4307.307617,4286.025879,4317.563965,4368.589844,4502.436035,4545.256348,4359.871582,4446.410156,,,,,,,,,,,,,,,,,,,,,,,,,,,,,,,,,,,,,,,,,,,,,,,,,,,,,,,,,,,,,,,,,,,,,,
1720178503,126,0,4375.128418,4313.077148,4355.384766,4330.897461,4295.897461,4342.05127,4324.487305,4286.922852,4314.615234,4365.641113,4498.077148,4542.05127,4352.436035,4449.487305,,,,,,,,,,,,,,,,,,,,,,,,,,,,,,,,,,,,,,,,,,,,,,,,,,,,,,,,,,,,,,,,,,,,,,
1720178503,127,0,4356.538574,4299.615234,4345,4317.820313,4289.743652,4342.307617,4331.538574,4293.846191,4323.333496,4365.384766,4494.230957,4527.820313,4345.769043,4442.05127,,,,,,,,,,,,,,,,,,,,,,,,,,,,,,,,,,,,,,,,,,,,,,,,,,,,,,,,,,,,,,,,,,,,,,
1720178503,0,0,4341.794922,4291.922852,4337.820313,4309.615234,4279.230957,4341.794922,4323.461426,4294.230957,4328.717773,4368.077148,4503.589844,4528.205078,4348.333496,4433.461426,9.207377,6.139208,2.852005,1.76339,0.221783,5.4526,4.437168,1.945285,1.337105,0.13733,11.811647,5.027455,2.693654,1.726322,0.204253,15.520777,6.399642,2.554749,2.092174,0.195624,2.968931,1.418984,0.883089,0.337452,0.082442,0.900613,1.22357,0.419768,0.124949,0.127112,4.012289,6.453143,3.584668,0.487,0.121945,0.575574,0.975438,0.928591,0.216689,0.079484,6.189729,3.601072,1.650905,2.200221,0.20007,2.214113,2.964483,1.640745,1.806464,0.209023,6.435068,5.13619,1.913075,1.886474,0.225754,10.962454,5.020518,3.511806,2.274467,0.265187,6.874782,5.816574,3.134031,2.259356,0.165221,10.376312,8.676614,2.927782,2.548509,0.163655
1720178503,1,0,4344.230957,4293.589844,4338.974121,4313.589844,4285,4344.102539,4313.461426,4285.256348,4322.563965,4369.743652,4506.282227,4529.358887,4349.487305,4434.487305,,,,,,,,,,,,,,,,,,,,,,,,,,,,,,,,,,,,,,,,,,,,,,,,,,,,,,,,,,,,,,,,,,,,,,
1720178503,2,0,4354.615234,4294.487305,4344.230957,4315.769043,4296.025879,4351.922852,4314.743652,4279.615234,4311.025879,4361.666504,4493.846191,4527.436035,4347.436035,4441.538574,,,,,,,,,,,,,,,,,,,,,,,,,,,,,,,,,,,,,,,,,,,,,,,,,,,,,,,,,,,,,,,,,,,,,,
1720178503,3,0,4360.512695,4297.179688,4343.846191,4317.820313,4295.512695,4352.179688,4314.615234,4273.333496,4296.538574,4343.333496,4487.436035,4530.769043,4348.846191,4445.769043,,,,,,,,,,,,,,,,,,,,,,,,,,,,,,,,,,,,,,,,,,,,,,,,,,,,,,,,,,,,,,,,,,,,,,
1720178503,4,0,4353.333496,4298.974121,4340.384766,4322.94873,4294.871582,4351.025879,4310.641113,4271.025879,4285.769043,4339.102539,4487.692383,4533.717773,4349.615234,4441.025879,,,,,,,,,,,,,,,,,,,,,,,,,,,,,,,,,,,,,,,,,,,,,,,,,,,,,,,,,,,,,,,,,,,,,,
1720178503,5,0,4342.94873,4295.256348,4340.641113,4322.692383,4307.692383,4355.512695,4320.641113,4280.641113,4293.589844,4350.769043,4481.282227,4530.384766,4346.922852,4432.05127,,,,,,,,,,,,,,,,,,,,,,,,,,,,,,,,,,,,,,,,,,,,,,,,,,,,,,,,,,,,,,,,,,,,,,
1720178503,6,0,4338.846191,4292.692383,4338.589844,4315.128418,4311.922852,4356.282227,4335.897461,4292.820313,4312.692383,4357.820313,4480.641113,4527.436035,4348.077148,4425.512695,,,,,,,,,,,,,,,,,,,,,,,,,,,,,,,,,,,,,,,,,,,,,,,,,,,,,,,,,,,,,,,,,,,,,,
1720178503,7,0,4338.589844,4292.307617,4337.94873,4308.333496,4300.512695,4353.589844,4338.589844,4295.641113,4323.205078,4360.128418,4489.230957,4528.461426,4353.589844,4424.743652,,,,,,,,,,,,,,,,,,,,,,,,,,,,,,,,,,,,,,,,,,,,,,,,,,,,,,,,,,,,,,,,,,,,,,
1720178503,8,0,4336.922852,4290.512695,4339.487305,4308.717773,4298.846191,4350,4338.333496,4294.487305,4326.025879,4363.974121,4491.153809,4527.563965,4359.102539,4425.256348,,,,,,,,,,,,,,,,,,,,,,,,,,,,,,,,,,,,,,,,,,,,,,,,,,,,,,,,,,,,,,,,,,,,,,
1720178503,9,0,4343.461426,4295.256348,4343.205078,4318.333496,4309.102539,4347.307617,4344.487305,4292.05127,4325.897461,4366.794922,4491.922852,4533.077148,4370.128418,4430.769043,,,,,,,,,,,,,,,,,,,,,,,,,,,,,,,,,,,,,,,,,,,,,,,,,,,,,,,,,,,,,,,,,,,,,,
1720178503,10,0,4350.897461,4303.717773,4352.05127,4326.922852,4310.897461,4348.333496,4350.641113,4290.128418,4316.666504,4369.743652,4505.256348,4551.025879,4381.153809,4443.077148,,,,,,,,,,,,,,,,,,,,,,,,,,,,,,,,,,,,,,,,,,,,,,,,,,,,,,,,,,,,,,,,,,,,,,
1720178503,11,0,4346.410156,4304.102539,4358.077148,4326.410156,4304.102539,4348.846191,4353.717773,4290.384766,4311.666504,4375.256348,4513.461426,4560.128418,4384.102539,4447.563965,,,,,,,,,,,,,,,,,,,,,,,,,,,,,,,,,,,,,,,,,,,,,,,,,,,,,,,,,,,,,,,,,,,,,,
1720178503,12,0,4344.743652,4305.384766,4354.358887,4326.153809,4303.717773,4344.615234,4352.436035,4292.94873,4326.794922,4382.307617,4511.794922,4548.333496,4383.846191,4445.384766,,,,,,,,,,,,,,,,,,,,,,,,,,,,,,,,,,,,,,,,,,,,,,,,,,,,,,,,,,,,,,,,,,,,,,
1720178503,13,0,4347.94873,4308.077148,4349.487305,4328.205078,4309.358887,4346.538574,4351.794922,4301.025879,4344.615234,4389.615234,4510.512695,4536.922852,4379.871582,4441.025879,,,,,,,,,,,,,,,,,,,,,,,,,,,,,,,,,,,,,,,,,,,,,,,,,,,,,,,,,,,,,,,,,,,,,,
1720178503,14,0,4341.282227,4300.769043,4343.461426,4322.179688,4309.615234,4353.974121,4357.563965,4300.641113,4343.846191,4384.358887,4498.846191,4527.563965,4368.205078,4426.410156,,,,,,,,,,,,,,,,,,,,,,,,,,,,,,,,,,,,,,,,,,,,,,,,,,,,,,,,,,,,,,,,,,,,,,
1720178503,15,0,4325.769043,4290.641113,4330,4312.179688,4303.205078,4351.410156,4361.282227,4296.794922,4332.307617,4371.282227,4481.666504,4513.589844,4358.717773,4410.256348,,,,,,,,,,,,,,,,,,,,,,,,,,,,,,,,,,,,,,,,,,,,,,,,,,,,,,,,,,,,,,,,,,,,,,
1720178503,16,0,4320.641113,4291.153809,4324.871582,4308.589844,4295.256348,4343.589844,4359.358887,4300.384766,4326.025879,4373.333496,4480.641113,4511.794922,4361.153809,4408.077148,10.050642,5.48006,2.842399,1.762897,0.201438,6.006993,4.144044,2.040105,1.349015,0.134093,12.615979,4.677383,2.465392,1.666341,0.166744,13.915211,6.421377,2.972392,1.88903,0.153683,3.070431,1.493515,0.886203,0.360044,0.082174,1.005396,1.247729,0.431059,0.115638,0.115275,4.197192,6.016051,3.541211,0.393635,0.120102,0.679444,0.747036,0.597935,0.230399,0.079959,5.884061,3.026364,1.354123,2.097757,0.184911,2.307037,2.664058,1.469929,1.795215,0.209019,7.14332,4.942484,1.917709,1.88893,0.197506,12.303716,5.464764,3.579229,2.186841,0.229032,7.750451,6.040379,3.156971,2.228718,0.157977,11.87063,8.634521,3.194915,2.562454,0.147615
1720178503,17,0,4329.230957,4295.256348,4332.692383,4313.974121,4295.641113,4343.974121,4359.743652,4299.358887,4330,4385.256348,4488.589844,4520.384766,4370.769043,4417.05127,,,,,,,,,,,,,,,,,,,,,,,,,,,,,,,,,,,,,,,,,,,,,,,,,,,,,,,,,,,,,,,,,,,,,,
1720178503,18,0,4335.256348,4296.282227,4337.94873,4324.615234,4300.769043,4345.512695,4357.307617,4296.922852,4339.102539,4390,4493.974121,4525.256348,4378.846191,4425.769043,,,,,,,,,,,,,,,,,,,,,,,,,,,,,,,,,,,,,,,,,,,,,,,,,,,,,,,,,,,,,,,,,,,,,,
1720178503,19,0,4333.589844,4297.820313,4334.615234,4326.538574,4303.461426,4345,4346.282227,4298.717773,4343.974121,4389.102539,4500.384766,4530.128418,4381.153809,4428.846191,,,,,,,,,,,,,,,,,,,,,,,,,,,,,,,,,,,,,,,,,,,,,,,,,,,,,,,,,,,,,,,,,,,,,,
1720178503,20,0,4324.358887,4296.025879,4325.256348,4315.641113,4306.794922,4348.717773,4338.333496,4295.897461,4339.871582,4386.282227,4503.974121,4530.384766,4374.743652,4422.436035,,,,,,,,,,,,,,,,,,,,,,,,,,,,,,,,,,,,,,,,,,,,,,,,,,,,,,,,,,,,,,,,,,,,,,
1720178503,21,0,4315.512695,4290.128418,4320.256348,4307.436035,4308.333496,4353.077148,4341.410156,4288.333496,4324.871582,4375.512695,4495.512695,4519.615234,4362.94873,4411.410156,,,,,,,,,,,,,,,,,,,,,,,,,,,,,,,,,,,,,,,,,,,,,,,,,,,,,,,,,,,,,,,,,,,,,,
1720178503,22,0,4318.077148,4292.307617,4326.410156,4316.666504,4308.589844,4350.897461,4341.794922,4286.538574,4310.897461,4361.153809,4485.641113,4517.05127,4354.102539,4407.307617,,,,,,,,,,,,,,,,,,,,,,,,,,,,,,,,,,,,,,,,,,,,,,,,,,,,,,,,,,,,,,,,,,,,,,
1720178503,23,0,4331.538574,4304.615234,4337.820313,4332.179688,4315.512695,4347.563965,4338.333496,4289.871582,4313.461426,4359.871582,4494.487305,4529.487305,4359.743652,4416.666504,,,,,,,,,,,,,,,,,,,,,,,,,,,,,,,,,,,,,,,,,,,,,,,,,,,,,,,,,,,,,,,,,,,,,,
1720178503,24,0,4337.563965,4312.179688,4348.589844,4338.717773,4320.512695,4346.410156,4346.538574,4301.153809,4327.563965,4373.846191,4510.641113,4540.384766,4371.025879,4429.358887,,,,,,,,,,,,,,,,,,,,,,,,,,,,,,,,,,,,,,,,,,,,,,,,,,,,,,,,,,,,,,,,,,,,,,
1720178503,25,0,4333.461426,4308.846191,4352.05127,4335.641113,4312.307617,4343.333496,4357.563965,4312.692383,4333.077148,4374.743652,4511.666504,4539.487305,4373.333496,4431.025879,,,,,,,,,,,,,,,,,,,,,,,,,,,,,,,,,,,,,,,,,,,,,,,,,,,,,,,,,,,,,,,,,,,,,,
1720178503,26,0,4330.256348,4307.05127,4349.487305,4335.256348,4305.128418,4341.282227,4358.846191,4310.641113,4328.461426,4358.461426,4506.025879,4534.487305,4377.692383,4428.461426,,,,,,,,,,,,,,,,,,,,,,,,,,,,,,,,,,,,,,,,,,,,,,,,,,,,,,,,,,,,,,,,,,,,,,
1720178503,27,0,4326.922852,4306.410156,4350.641113,4338.974121,4309.230957,4343.461426,4358.461426,4309.358887,4324.615234,4353.974121,4505.384766,4538.589844,4381.282227,4429.615234,,,,,,,,,,,,,,,,,,,,,,,,,,,,,,,,,,,,,,,,,,,,,,,,,,,,,,,,,,,,,,,,,,,,,,
1720178503,28,0,4327.94873,4304.615234,4354.358887,4337.94873,4310.256348,4343.205078,4355.256348,4311.410156,4322.307617,4358.717773,4505.769043,4544.358887,4375.897461,4424.871582,,,,,,,,,,,,,,,,,,,,,,,,,,,,,,,,,,,,,,,,,,,,,,,,,,,,,,,,,,,,,,,,,,,,,,
1720178503,29,0,4336.153809,4304.230957,4353.974121,4336.410156,4307.820313,4343.205078,4349.102539,4312.307617,4320.256348,4355,4508.717773,4545.512695,4377.563965,4419.743652,,,,,,,,,,,,,,,,,,,,,,,,,,,,,,,,,,,,,,,,,,,,,,,,,,,,,,,,,,,,,,,,,,,,,,
1720178503,30,0,4338.333496,4303.333496,4351.922852,4333.717773,4309.230957,4347.692383,4351.922852,4313.974121,4319.743652,4352.05127,4512.94873,4546.922852,4384.487305,4422.307617,,,,,,,,,,,,,,,,,,,,,,,,,,,,,,,,,,,,,,,,,,,,,,,,,,,,,,,,,,,,,,,,,,,,,,
1720178503,31,0,4335,4303.333496,4349.615234,4326.794922,4310,4345.512695,4343.589844,4307.05127,4314.102539,4357.05127,4509.230957,4540,4385.769043,4423.077148,,,,,,,,,,,,,,,,,,,,,,,,,,,,,,,,,,,,,,,,,,,,,,,,,,,,,,,,,,,,,,,,,,,,,,
1720178503,32,0,4341.666504,4312.179688,4353.974121,4335.641113,4312.563965,4337.820313,4329.615234,4300.256348,4315.641113,4365.256348,4511.025879,4533.333496,4391.794922,4425.769043,11.292248,4.710366,2.836832,1.661995,0.185906,6.635162,3.573713,2.07065,1.283754,0.136436,12.962653,4.263185,2.257834,1.497212,0.145948,12.764848,6.171311,3.394022,1.592311,0.124699,3.126592,1.43996,0.810707,0.374081,0.094469,1.086492,1.182111,0.441921,0.118366,0.103018,4.438177,5.341301,3.577833,0.369403,0.123222,0.780506,0.622579,0.351335,0.236985,0.078736,5.533261,2.734106,1.122108,1.869365,0.167536,2.577334,2.517122,1.396533,1.707537,0.214408,8.100088,4.763314,1.868928,1.804134,0.180384,14.500328,6.035568,3.416548,2.016119,0.197456,8.935922,6.04642,3.008726,2.047521,0.159254,15.561124,8.3239,3.256226,2.439743,0.148571
1720178503,33,0,4352.307617,4318.717773,4363.077148,4351.922852,4319.743652,4338.846191,4357.820313,4304.102539,4328.333496,4373.077148,4522.179688,4541.666504,4400.128418,4431.282227,,,,,,,,,,,,,,,,,,,,,,,,,,,,,,,,,,,,,,,,,,,,,,,,,,,,,,,,,,,,,,,,,,,,,,
1720178503,34,0,4346.025879,4310.256348,4358.589844,4342.307617,4321.025879,4339.487305,4408.077148,4305.897461,4333.077148,4377.692383,4527.563965,4547.692383,4398.205078,4426.538574,,,,,,,,,,,,,,,,,,,,,,,,,,,,,,,,,,,,,,,,,,,,,,,,,,,,,,,,,,,,,,,,,,,,,,
1720178503,35,0,4330.384766,4298.461426,4348.333496,4324.615234,4314.615234,4339.102539,4433.205078,4309.230957,4333.461426,4379.358887,4523.205078,4541.538574,4394.743652,4415.128418,,,,,,,,,,,,,,,,,,,,,,,,,,,,,,,,,,,,,,,,,,,,,,,,,,,,,,,,,,,,,,,,,,,,,,
1720178503,36,0,4320.128418,4294.358887,4344.102539,4325.769043,4316.282227,4344.487305,4450.769043,4317.94873,4341.282227,4383.077148,4512.563965,4532.692383,4390.128418,4406.666504,,,,,,,,,,,,,,,,,,,,,,,,,,,,,,,,,,,,,,,,,,,,,,,,,,,,,,,,,,,,,,,,,,,,,,
1720178503,37,0,4319.487305,4291.666504,4339.743652,4327.563965,4324.871582,4345.897461,4473.846191,4315,4346.025879,4380.256348,4504.230957,4524.230957,4384.871582,4405,,,,,,,,,,,,,,,,,,,,,,,,,,,,,,,,,,,,,,,,,,,,,,,,,,,,,,,,,,,,,,,,,,,,,,
1720178503,38,0,4327.436035,4293.461426,4346.922852,4331.282227,4326.410156,4347.05127,4481.025879,4313.461426,4350.128418,4378.461426,4511.282227,4536.153809,4394.358887,4418.205078,,,,,,,,,,,,,,,,,,,,,,,,,,,,,,,,,,,,,,,,,,,,,,,,,,,,,,,,,,,,,,,,,,,,,,
1720178503,39,0,4337.436035,4302.179688,4365.128418,4346.282227,4327.563965,4353.333496,4477.436035,4323.205078,4364.487305,4394.102539,4532.94873,4569.743652,4411.282227,4439.487305,,,,,,,,,,,,,,,,,,,,,,,,,,,,,,,,,,,,,,,,,,,,,,,,,,,,,,,,,,,,,,,,,,,,,,
1720178503,40,0,4343.717773,4311.538574,4372.436035,4354.615234,4334.871582,4347.179688,4473.846191,4326.025879,4376.666504,4412.692383,4549.230957,4586.922852,4423.077148,4451.025879,,,,,,,,,,,,,,,,,,,,,,,,,,,,,,,,,,,,,,,,,,,,,,,,,,,,,,,,,,,,,,,,,,,,,,
1720178503,41,0,4353.077148,4316.922852,4379.102539,4358.077148,4338.077148,4339.102539,4473.205078,4328.589844,4381.538574,4420,4556.922852,4593.974121,4434.743652,4458.589844,,,,,,,,,,,,,,,,,,,,,,,,,,,,,,,,,,,,,,,,,,,,,,,,,,,,,,,,,,,,,,,,,,,,,,
1720178503,42,0,4367.94873,4328.717773,4396.153809,4369.743652,4334.871582,4343.974121,4477.94873,4335.641113,4387.94873,4419.743652,4567.05127,4614.102539,4447.05127,4470,,,,,,,,,,,,,,,,,,,,,,,,,,,,,,,,,,,,,,,,,,,,,,,,,,,,,,,,,,,,,,,,,,,,,,
1720178503,43,0,4379.102539,4334.615234,4405,4376.922852,4333.846191,4343.333496,4474.230957,4337.436035,4384.871582,4416.282227,4577.05127,4628.589844,4457.94873,4478.205078,,,,,,,,,,,,,,,,,,,,,,,,,,,,,,,,,,,,,,,,,,,,,,,,,,,,,,,,,,,,,,,,,,,,,,
1720178503,44,0,4378.077148,4310.128418,4402.820313,4376.025879,4336.538574,4338.717773,4462.563965,4337.05127,4374.615234,4413.974121,4576.538574,4623.461426,4462.692383,4481.153809,,,,,,,,,,,,,,,,,,,,,,,,,,,,,,,,,,,,,,,,,,,,,,,,,,,,,,,,,,,,,,,,,,,,,,
1720178503,45,0,4364.487305,4282.307617,4396.025879,4371.538574,4340.128418,4343.717773,4457.94873,4336.666504,4371.410156,4409.743652,4560.512695,4608.974121,4452.692383,4474.102539,,,,,,,,,,,,,,,,,,,,,,,,,,,,,,,,,,,,,,,,,,,,,,,,,,,,,,,,,,,,,,,,,,,,,,
1720178503,46,0,4348.077148,4273.974121,4384.358887,4362.05127,4340,4349.487305,4465,4334.743652,4370.256348,4397.94873,4543.333496,4594.358887,4435.128418,4453.846191,,,,,,,,,,,,,,,,,,,,,,,,,,,,,,,,,,,,,,,,,,,,,,,,,,,,,,,,,,,,,,,,,,,,,,
1720178503,47,0,4342.94873,4269.615234,4377.179688,4356.153809,4340.897461,4346.153809,4471.794922,4336.666504,4366.538574,4388.461426,4538.333496,4580.512695,4427.563965,4438.846191,,,,,,,,,,,,,,,,,,,,,,,,,,,,,,,,,,,,,,,,,,,,,,,,,,,,,,,,,,,,,,,,,,,,,,
1720178503,48,0,4341.666504,4267.179688,4376.538574,4355.128418,4344.871582,4341.666504,4467.692383,4338.077148,4363.461426,4390.641113,4536.153809,4573.461426,4425.512695,4438.461426,12.686675,3.822002,2.898967,1.499631,0.179046,7.261918,2.820836,2.079083,1.168516,0.148009,12.91682,3.765684,2.145403,1.266112,0.139096,12.603073,5.66262,3.734584,1.281901,0.115217,3.195201,1.290007,0.693811,0.374458,0.115681,1.103037,1.057407,0.45002,0.126159,0.092652,4.576342,4.545544,3.618222,0.391502,0.130814,0.880717,0.550292,0.211177,0.239597,0.07409,5.409566,2.688802,0.942272,1.606875,0.153235,3.262312,2.558463,1.394213,1.590315,0.228917,9.67985,4.5562,1.794928,1.672291,0.179181,17.445305,6.38765,3.06794,1.803306,0.175485,10.706616,5.784762,2.768459,1.79598,0.171673,20.236122,7.614926,3.16778,2.19101,0.155438
1720178503,49,0,4338.461426,4271.282227,4375.384766,4351.410156,4342.820313,4342.94873,4462.692383,4338.846191,4359.358887,4387.436035,4532.820313,4581.282227,4425.512695,4441.922852,,,,,,,,,,,,,,,,,,,,,,,,,,,,,,,,,,,,,,,,,,,,,,,,,,,,,,,,,,,,,,,,,,,,,,
1720178503,50,0,4349.102539,4273.333496,4381.794922,4353.333496,4340.512695,4342.820313,4462.436035,4341.282227,4358.077148,4381.282227,4540,4594.743652,4433.333496,4448.846191,,,,,,,,,,,,,,,,,,,,,,,,,,,,,,,,,,,,,,,,,,,,,,,,,,,,,,,,,,,,,,,,,,,,,,
1720178503,51,0,4363.974121,4280.128418,4395.641113,4365.897461,4347.436035,4335.128418,4454.487305,4333.333496,4365.512695,4395,4551.025879,4597.436035,4442.692383,4459.230957,,,,,,,,,,,,,,,,,,,,,,,,,,,,,,,,,,,,,,,,,,,,,,,,,,,,,,,,,,,,,,,,,,,,,,
1720178503,52,0,4364.871582,4292.436035,4403.077148,4373.589844,4355.256348,4334.230957,4448.461426,4330.897461,4378.846191,4418.717773,4552.179688,4594.487305,4452.436035,4456.153809,,,,,,,,,,,,,,,,,,,,,,,,,,,,,,,,,,,,,,,,,,,,,,,,,,,,,,,,,,,,,,,,,,,,,,
1720178503,53,0,4356.666504,4288.205078,4397.820313,4370.384766,4355.128418,4342.436035,4462.94873,4342.94873,4391.410156,4430.128418,4552.05127,4595.384766,4459.615234,4443.589844,,,,,,,,,,,,,,,,,,,,,,,,,,,,,,,,,,,,,,,,,,,,,,,,,,,,,,,,,,,,,,,,,,,,,,
1720178503,54,0,4350.897461,4276.922852,4390,4365.384766,4353.717773,4341.794922,4475.641113,4346.025879,4399.102539,4428.717773,4551.410156,4592.692383,4454.230957,4439.358887,,,,,,,,,,,,,,,,,,,,,,,,,,,,,,,,,,,,,,,,,,,,,,,,,,,,,,,,,,,,,,,,,,,,,,
1720178503,55,0,4352.820313,4277.692383,4390,4364.487305,4355,4340.384766,4475.256348,4343.589844,4399.102539,4415.256348,4543.974121,4591.538574,4449.230957,4441.153809,,,,,,,,,,,,,,,,,,,,,,,,,,,,,,,,,,,,,,,,,,,,,,,,,,,,,,,,,,,,,,,,,,,,,,
1720178504,56,0,4364.487305,4287.05127,4397.94873,4373.333496,4361.794922,4345.769043,4479.615234,4346.153809,4395.897461,4394.871582,4540.512695,4599.358887,4455.769043,4449.230957,,,,,,,,,,,,,,,,,,,,,,,,,,,,,,,,,,,,,,,,,,,,,,,,,,,,,,,,,,,,,,,,,,,,,,
1720178504,57,0,4370.384766,4295.897461,4403.589844,4382.307617,4369.230957,4344.230957,4483.589844,4347.563965,4394.358887,4386.282227,4544.615234,4606.666504,4460.769043,4462.436035,,,,,,,,,,,,,,,,,,,,,,,,,,,,,,,,,,,,,,,,,,,,,,,,,,,,,,,,,,,,,,,,,,,,,,
1720178504,58,0,4361.794922,4296.153809,4402.94873,4381.025879,4364.871582,4337.05127,4479.102539,4352.307617,4399.487305,4393.589844,4552.436035,4610.769043,4465.384766,4467.179688,,,,,,,,,,,,,,,,,,,,,,,,,,,,,,,,,,,,,,,,,,,,,,,,,,,,,,,,,,,,,,,,,,,,,,
1720178504,59,0,4358.461426,4294.230957,4402.563965,4378.333496,4361.153809,4335.641113,4475,4360.384766,4403.717773,4395.641113,4556.025879,4612.692383,4474.743652,4460.512695,,,,,,,,,,,,,,,,,,,,,,,,,,,,,,,,,,,,,,,,,,,,,,,,,,,,,,,,,,,,,,,,,,,,,,
1720178504,60,0,4365.384766,4300,4406.153809,4384.871582,4369.230957,4339.358887,4473.461426,4359.871582,4396.794922,4391.666504,4555.384766,4613.205078,4476.666504,4454.871582,,,,,,,,,,,,,,,,,,,,,,,,,,,,,,,,,,,,,,,,,,,,,,,,,,,,,,,,,,,,,,,,,,,,,,
1720178504,61,0,4375.256348,4312.05127,4415.256348,4397.307617,4377.563965,4343.333496,4477.307617,4357.179688,4392.820313,4398.846191,4565.769043,4624.487305,4478.589844,4460.128418,,,,,,,,,,,,,,,,,,,,,,,,,,,,,,,,,,,,,,,,,,,,,,,,,,,,,,,,,,,,,,,,,,,,,,
1720178504,62,0,4380.512695,4315.641113,4421.153809,4399.230957,4375,4340.384766,4479.871582,4355.769043,4389.615234,4394.358887,4570.641113,4636.666504,4480.256348,4461.666504,,,,,,,,,,,,,,,,,,,,,,,,,,,,,,,,,,,,,,,,,,,,,,,,,,,,,,,,,,,,,,,,,,,,,,
1720178504,63,0,4366.282227,4297.692383,4411.538574,4383.717773,4363.461426,4326.922852,4459.871582,4348.077148,4372.94873,4365.384766,4545.384766,4621.025879,4457.820313,4442.436035,,,,,,,,,,,,,,,,,,,,,,,,,,,,,,,,,,,,,,,,,,,,,,,,,,,,,,,,,,,,,,,,,,,,,,
1720178504,64,0,4342.179688,4272.94873,4394.487305,4364.871582,4352.692383,4319.230957,4435.384766,4345.897461,4371.153809,4359.102539,4527.05127,4598.205078,4434.230957,4419.871582,13.737875,2.944617,3.000578,1.337417,0.182264,7.542485,2.085129,2.082176,1.04825,0.169313,12.39532,3.251761,2.118085,1.042516,0.13948,12.850071,4.982344,3.862057,1.034527,0.125815,3.1589,1.113237,0.577034,0.364114,0.141547,1.033522,0.914418,0.44971,0.134912,0.085554,4.736053,3.79465,3.585675,0.435767,0.143401,0.932028,0.504974,0.172034,0.244886,0.06696,5.44698,2.794764,0.798325,1.410505,0.145497,4.048636,2.751707,1.41805,1.48675,0.251024,11.157764,4.372692,1.735141,1.541191,0.191737,20.251152,6.376971,2.628747,1.611245,0.165033,12.314894,5.363808,2.525807,1.564348,0.191059,24.432795,6.707061,3.010581,1.896583,0.161056
1720178504,65,0,4339.102539,4275.256348,4388.077148,4368.077148,4359.102539,4326.025879,4445.641113,4357.307617,4403.974121,4396.666504,4547.820313,4603.974121,4452.563965,4424.615234,,,,,,,,,,,,,,,,,,,,,,,,,,,,,,,,,,,,,,,,,,,,,,,,,,,,,,,,,,,,,,,,,,,,,,
