Timestamp,EEG.Counter,EEG.Interpolated,EEG.AF3,EEG.F7,EEG.F3,EEG.FC5,EEG.T7,EEG.P7,EEG.O1,EEG.O2,EEG.P8,EEG.T8,EEG.FC6,EEG.F4,EEG.F8,EEG.AF4,POW.AF3.Theta,POW.AF3.Alpha,POW.AF3.BetaL,POW.AF3.BetaH,POW.AF3.Gamma,POW.F7.Theta,POW.F7.Alpha,POW.F7.BetaL,POW.F7.BetaH,POW.F7.Gamma,POW.F3.Theta,POW.F3.Alpha,POW.F3.BetaL,POW.F3.BetaH,POW.F3.Gamma,POW.FC5.Theta,POW.FC5.Alpha,POW.FC5.BetaL,POW.FC5.BetaH,POW.FC5.Gamma,POW.T7.Theta,POW.T7.Alpha,POW.T7.BetaL,POW.T7.BetaH,POW.T7.Gamma,POW.P7.Theta,POW.P7.Alpha,POW.P7.BetaL,POW.P7.BetaH,POW.P7.Gamma,POW.O1.Theta,POW.O1.Alpha,POW.O1.BetaL,POW.O1.BetaH,POW.O1.Gamma,POW.O2.Theta,POW.O2.Alpha,POW.O2.BetaL,POW.O2.BetaH,POW.O2.Gamma,POW.P8.Theta,POW.P8.Alpha,POW.P8.BetaL,POW.P8.BetaH,POW.P8.Gamma,POW.T8.Theta,POW.T8.Alpha,POW.T8.BetaL,POW.T8.BetaH,POW.T8.Gamma,POW.FC6.Theta,POW.FC6.Alpha,POW.FC6.BetaL,POW.FC6.BetaH,POW.FC6.Gamma,POW.F4.Theta,POW.F4.Alpha,POW.F4.BetaL,POW.F4.BetaH,POW.F4.Gamma,POW.F8.Theta,POW.F8.Alpha,POW.F8.BetaL,POW.F8.BetaH,POW.F8.Gamma,POW.AF4.Theta,POW.AF4.Alpha,POW.AF4.BetaL,POW.AF4.BetaH,POW.AF4.Gamma
1720086474,21,0,4339.358887,4332.307617,4334.615234,4339.230957,4309.871582,4317.94873,4326.025879,4324.743652,4338.461426,4299.358887,4471.410156,4480.769043,4400.128418,4426.922852,,,,,,,,,,,,,,,,,,,,,,,,,,,,,,,,,,,,,,,,,,,,,,,,,,,,,,,,,,,,,,,,,,,,,,
1720086474,22,0,4344.615234,4330.384766,4341.538574,4338.205078,4312.436035,4309.871582,4323.974121,4328.589844,4336.025879,4293.205078,4486.282227,4483.717773,4404.615234,4439.358887,,,,,,,,,,,,,,,,,,,,,,,,,,,,,,,,,,,,,,,,,,,,,,,,,,,,,,,,,,,,,,,,,,,,,,
1720086474,23,0,4341.153809,4325.641113,4339.743652,4336.410156,4310.641113,4312.05127,4327.692383,4336.794922,4333.333496,4296.666504,4490.897461,4485.384766,4399.615234,4436.794922,,,,,,,,,,,,,,,,,,,,,,,,,,,,,,,,,,,,,,,,,,,,,,,,,,,,,,,,,,,,,,,,,,,,,,
1720086474,24,0,4342.563965,4328.333496,4342.820313,4340.897461,4311.025879,4317.820313,4332.563965,4340.256348,4336.794922,4304.102539,4484.358887,4491.922852,4401.025879,4432.307617,,,,,,,,,,,,,,,,,,,,,,,,,,,,,,,,,,,,,,,,,,,,,,,,,,,,,,,,,,,,,,,,,,,,,,
1720086474,25,0,4341.666504,4327.563965,4340.128418,4340.256348,4307.563965,4316.666504,4330.641113,4335.128418,4335,4299.230957,4478.333496,4481.282227,4402.307617,4428.077148,,,,,,,,,,,,,,,,,,,,,,,,,,,,,,,,,,,,,,,,,,,,,,,,,,,,,,,,,,,,,,,,,,,,,,
1720086474,26,0,4333.974121,4323.077148,4323.589844,4332.820313,4301.410156,4314.102539,4323.846191,4327.692383,4327.692383,4291.922852,4475.897461,4464.358887,4397.436035,4422.436035,,,,,,,,,,,,,,,,,,,,,,,,,,,,,,,,,,,,,,,,,,,,,,,,,,,,,,,,,,,,,,,,,,,,,,
1720086474,27,0,4329.615234,4320.897461,4313.589844,4333.974121,4301.282227,4315.512695,4321.025879,4323.333496,4325.384766,4289.743652,4476.538574,4471.153809,4394.487305,4418.205078,,,,,,,,,,,,,,,,,,,,,,,,,,,,,,,,,,,,,,,,,,,,,,,,,,,,,,,,,,,,,,,,,,,,,,
1720086474,28,0,4334.230957,4318.846191,4316.282227,4340.384766,4297.820313,4318.846191,4327.563965,4322.179688,4324.487305,4287.692383,4474.358887,4475.512695,4394.230957,4414.358887,,,,,,,,,,,,,,,,,,,,,,,,,,,,,,,,,,,,,,,,,,,,,,,,,,,,,,,,,,,,,,,,,,,,,,
1720086474,29,0,4340.641113,4321.666504,4318.589844,4335.256348,4295.128418,4322.307617,4322.563965,4320.769043,4324.871582,4284.871582,4469.743652,4469.487305,4391.794922,4414.102539,,,,,,,,,,,,,,,,,,,,,,,,,,,,,,,,,,,,,,,,,,,,,,,,,,,,,,,,,,,,,,,,,,,,,,
1720086474,30,0,4341.666504,4326.025879,4317.820313,4325.256348,4304.487305,4324.743652,4297.692383,4319.615234,4324.487305,4277.820313,4469.358887,4468.846191,4389.230957,4409.871582,,,,,,,,,,,,,,,,,,,,,,,,,,,,,,,,,,,,,,,,,,,,,,,,,,,,,,,,,,,,,,,,,,,,,,
1720086474,31,0,4335.897461,4317.820313,4313.974121,4325.128418,4313.205078,4325.641113,4291.410156,4322.94873,4324.615234,4278.333496,4472.05127,4467.179688,4390.769043,4404.102539,,,,,,,,,,,,,,,,,,,,,,,,,,,,,,,,,,,,,,,,,,,,,,,,,,,,,,,,,,,,,,,,,,,,,,
1720086474,32,0,4329.358887,4309.102539,4306.538574,4326.922852,4304.615234,4325.128418,4315.897461,4328.717773,4328.077148,4292.05127,4466.666504,4467.94873,4391.282227,4407.563965,,,,,,,,,,,,,,,,,,,,,,,,,,,,,,,,,,,,,,,,,,,,,,,,,,,,,,,,,,,,,,,,,,,,,,
1720086474,33,0,4325.641113,4312.436035,4301.666504,4320.769043,4293.077148,4326.410156,4331.025879,4324.487305,4320.769043,4293.333496,4458.589844,4468.717773,4388.589844,4410.641113,,,,,,,,,,,,,,,,,,,,,,,,,,,,,,,,,,,,,,,,,,,,,,,,,,,,,,,,,,,,,,,,,,,,,,
1720086474,34,0,4323.205078,4314.871582,4306.666504,4321.153809,4297.05127,4326.410156,4326.922852,4314.358887,4309.487305,4280.512695,4457.820313,4463.077148,4388.846191,4405.641113,,,,,,,,,,,,,,,,,,,,,,,,,,,,,,,,,,,,,,,,,,,,,,,,,,,,,,,,,,,,,,,,,,,,,,
1720086474,35,0,4327.692383,4315.128418,4313.974121,4332.179688,4307.179688,4326.282227,4325.512695,4312.05127,4308.974121,4275.128418,4457.179688,4459.230957,4390.256348,4403.333496,2.369588,0.9392,0.372266,0.237746,0.07919,1.176395,0.725669,0.375734,0.202858,0.0979,2.259449,0.724203,0.462636,0.22751,0.071707,1.596251,0.880133,0.397813,0.141494,0.096169,1.073374,1.076223,0.374549,0.14882,0.133922,0.539404,1.297344,0.641667,0.181769,0.047258,0.949043,0.988945,0.605568,0.424431,0.110952,1.305105,0.679715,0.516577,0.340779,0.060625,1.217903,0.371768,0.525393,0.212971,0.112502,1.201882,0.742968,0.867272,0.462801,0.531118,2.96116,1.16632,1.427546,0.377167,0.216289,1.510617,0.351244,0.403244,0.140285,0.154471,2.672765,0.76909,1.044154,0.350292,0.122266,2.812468,0.969878,0.725617,0.375701,0.102821
1720086474,36,0,4332.94873,4324.230957,4315.128418,4339.102539,4310.769043,4327.692383,4325.384766,4312.820313,4311.025879,4278.717773,4456.538574,4460.512695,4391.794922,4406.922852,,,,,,,,,,,,,,,,,,,,,,,,,,,,,,,,,,,,,,,,,,,,,,,,,,,,,,,,,,,,,,,,,,,,,,
1720086474,37,0,4334.871582,4334.871582,4316.922852,4340.384766,4308.077148,4327.179688,4324.743652,4314.102539,4313.846191,4286.410156,4466.666504,4465.128418,4400.641113,4410.769043,,,,,,,,,,,,,,,,,,,,,,,,,,,,,,,,,,,,,,,,,,,,,,,,,,,,,,,,,,,,,,,,,,,,,,
1720086474,38,0,4341.794922,4336.794922,4325,4342.94873,4308.846191,4325.897461,4329.358887,4321.922852,4325.512695,4306.666504,4477.436035,4475.641113,4411.794922,4418.846191,,,,,,,,,,,,,,,,,,,,,,,,,,,,,,,,,,,,,,,,,,,,,,,,,,,,,,,,,,,,,,,,,,,,,,
1720086474,39,0,4350.384766,4338.077148,4329.487305,4344.871582,4311.922852,4322.94873,4325.256348,4329.102539,4326.794922,4315.128418,4481.153809,4478.461426,4415.897461,4422.692383,,,,,,,,,,,,,,,,,,,,,,,,,,,,,,,,,,,,,,,,,,,,,,,,,,,,,,,,,,,,,,,,,,,,,,
1720086474,40,0,4349.230957,4340.512695,4329.871582,4346.025879,4310.384766,4319.230957,4313.205078,4325.641113,4315.256348,4297.436035,4484.487305,4475.769043,4416.153809,4421.410156,,,,,,,,,,,,,,,,,,,,,,,,,,,,,,,,,,,,,,,,,,,,,,,,,,,,,,,,,,,,,,,,,,,,,,
1720086474,41,0,4342.307617,4334.743652,4328.589844,4345.512695,4307.692383,4318.589844,4312.692383,4316.922852,4317.692383,4288.717773,4485.128418,4479.615234,4413.717773,4425.769043,,,,,,,,,,,,,,,,,,,,,,,,,,,,,,,,,,,,,,,,,,,,,,,,,,,,,,,,,,,,,,,,,,,,,,
1720086474,42,0,4336.666504,4321.153809,4319.871582,4334.230957,4304.487305,4320.128418,4320.769043,4314.358887,4318.589844,4300.256348,4475.512695,4468.077148,4402.05127,4418.846191,,,,,,,,,,,,,,,,,,,,,,,,,,,,,,,,,,,,,,,,,,,,,,,,,,,,,,,,,,,,,,,,,,,,,,
1720086474,43,0,4332.820313,4316.794922,4315.641113,4324.230957,4297.94873,4321.410156,4321.410156,4316.538574,4309.230957,4301.025879,4469.615234,4462.94873,4394.615234,4411.025879,,,,,,,,,,,,,,,,,,,,,,,,,,,,,,,,,,,,,,,,,,,,,,,,,,,,,,,,,,,,,,,,,,,,,,
1720086474,44,0,4331.666504,4324.743652,4318.589844,4326.666504,4293.717773,4322.820313,4319.230957,4314.487305,4303.333496,4288.333496,4476.282227,4474.871582,4398.974121,4416.922852,,,,,,,,,,,,,,,,,,,,,,,,,,,,,,,,,,,,,,,,,,,,,,,,,,,,,,,,,,,,,,,,,,,,,,
1720086474,45,0,4323.717773,4316.153809,4310.256348,4315.897461,4294.230957,4324.743652,4327.179688,4315.384766,4302.05127,4292.563965,4472.563965,4468.461426,4392.179688,4411.666504,,,,,,,,,,,,,,,,,,,,,,,,,,,,,,,,,,,,,,,,,,,,,,,,,,,,,,,,,,,,,,,,,,,,,,
1720086474,46,0,4314.871582,4301.410156,4305.384766,4294.871582,4293.974121,4328.333496,4335,4322.820313,4306.282227,4303.974121,4460.769043,4465.384766,4380.256348,4403.589844,,,,,,,,,,,,,,,,,,,,,,,,,,,,,,,,,,,,,,,,,,,,,,,,,,,,,,,,,,,,,,,,,,,,,,
1720086474,47,0,4321.282227,4316.282227,4312.94873,4300.769043,4293.717773,4328.461426,4330.256348,4320.641113,4304.871582,4294.230957,4459.871582,4471.282227,4387.179688,4410.128418,,,,,,,,,,,,,,,,,,,,,,,,,,,,,,,,,,,,,,,,,,,,,,,,,,,,,,,,,,,,,,,,,,,,,,
1720086474,48,0,4334.102539,4336.538574,4320.641113,4320.128418,4297.820313,4325.256348,4323.974121,4316.538574,4302.692383,4290.128418,4459.487305,4469.743652,4397.179688,4421.794922,,,,,,,,,,,,,,,,,,,,,,,,,,,,,,,,,,,,,,,,,,,,,,,,,,,,,,,,,,,,,,,,,,,,,,
1720086474,49,0,4343.205078,4333.461426,4327.179688,4321.794922,4300,4324.871582,4326.794922,4322.179688,4308.333496,4306.922852,4456.153809,4472.307617,4396.666504,4428.077148,,,,,,,,,,,,,,,,,,,,,,,,,,,,,,,,,,,,,,,,,,,,,,,,,,,,,,,,,,,,,,,,,,,,,,
1720086474,50,0,4346.410156,4326.922852,4330,4318.974121,4298.333496,4325.897461,4330.384766,4325.384766,4308.846191,4304.871582,4463.589844,4475.256348,4402.563965,4427.436035,,,,,,,,,,,,,,,,,,,,,,,,,,,,,,,,,,,,,,,,,,,,,,,,,,,,,,,,,,,,,,,,,,,,,,
1720086474,51,0,4341.282227,4330.384766,4323.589844,4316.922852,4299.743652,4327.05127,4328.333496,4324.358887,4305.128418,4285.769043,4471.282227,4477.307617,4409.871582,4429.230957,2.616309,1.111313,0.445635,0.265144,0.07081,1.332172,0.857974,0.501823,0.21017,0.090401,2.676959,0.963295,0.521067,0.256498,0.075467,1.800849,0.932923,0.48729,0.153654,0.091812,1.186739,1.194186,0.349389,0.127812,0.123551,0.54845,1.297005,0.673712,0.180335,0.0512,1.013084,1.048119,0.59264,0.377457,0.104646,1.564854,0.666789,0.580302,0.313667,0.058573,1.535132,0.329541,0.498323,0.22723,0.116752,1.354505,0.652167,0.875889,0.438931,0.467968,3.484565,1.154584,1.470494,0.480275,0.224802,1.695552,0.361793,0.436978,0.16358,0.157662,3.026441,0.863571,1.10147,0.446131,0.119081,3.263327,1.175442,0.816379,0.359321,0.093926
1720086474,52,0,4332.94873,4327.05127,4317.307617,4310.128418,4305.384766,4327.820313,4326.025879,4322.820313,4309.615234,4293.333496,4462.692383,4478.974121,4405.641113,4431.282227,,,,,,,,,,,,,,,,,,,,,,,,,,,,,,,,,,,,,,,,,,,,,,,,,,,,,,,,,,,,,,,,,,,,,,
1720086474,53,0,4331.153809,4320.641113,4318.333496,4311.794922,4309.358887,4326.794922,4325.512695,4314.871582,4308.333496,4305.128418,4455.897461,4468.461426,4403.846191,4421.538574,,,,,,,,,,,,,,,,,,,,,,,,,,,,,,,,,,,,,,,,,,,,,,,,,,,,,,,,,,,,,,,,,,,,,,
1720086474,54,0,4334.487305,4329.102539,4318.717773,4320,4309.102539,4326.538574,4323.846191,4307.94873,4300.897461,4294.230957,4461.153809,4462.820313,4411.282227,4414.230957,,,,,,,,,,,,,,,,,,,,,,,,,,,,,,,,,,,,,,,,,,,,,,,,,,,,,,,,,,,,,,,,,,,,,,
1720086474,55,0,4333.461426,4337.05127,4314.615234,4324.102539,4309.230957,4328.205078,4321.410156,4312.563965,4305.641113,4295.897461,4465.641113,4475.897461,4413.589844,4422.436035,,,,,,,,,,,,,,,,,,,,,,,,,,,,,,,,,,,,,,,,,,,,,,,,,,,,,,,,,,,,,,,,,,,,,,
1720086474,56,0,4329.358887,4329.358887,4313.974121,4321.794922,4307.692383,4327.179688,4321.538574,4317.563965,4307.179688,4310.897461,4467.179688,4477.563965,4409.743652,4426.153809,,,,,,,,,,,,,,,,,,,,,,,,,,,,,,,,,,,,,,,,,,,,,,,,,,,,,,,,,,,,,,,,,,,,,,
1720086474,57,0,4331.282227,4323.717773,4323.974121,4315.384766,4299.102539,4325.512695,4324.871582,4322.307617,4304.358887,4313.461426,4476.153809,4476.025879,4414.102539,4427.307617,,,,,,,,,,,,,,,,,,,,,,,,,,,,,,,,,,,,,,,,,,,,,,,,,,,,,,,,,,,,,,,,,,,,,,
1720086474,58,0,4343.974121,4333.846191,4337.307617,4315.897461,4292.692383,4327.436035,4330.256348,4333.461426,4311.538574,4312.94873,4488.589844,4490.641113,4425.512695,4438.717773,,,,,,,,,,,,,,,,,,,,,,,,,,,,,,,,,,,,,,,,,,,,,,,,,,,,,,,,,,,,,,,,,,,,,,
1720086474,59,0,4351.794922,4344.102539,4340.641113,4325.512695,4293.846191,4328.589844,4332.692383,4341.153809,4317.436035,4310,4497.307617,4494.871582,4429.102539,4446.666504,,,,,,,,,,,,,,,,,,,,,,,,,,,,,,,,,,,,,,,,,,,,,,,,,,,,,,,,,,,,,,,,,,,,,,
1720086474,60,0,4345.384766,4342.05127,4338.077148,4330.897461,4295.897461,4328.461426,4329.358887,4336.666504,4313.589844,4298.717773,4499.743652,4486.538574,4425.256348,4444.743652,,,,,,,,,,,,,,,,,,,,,,,,,,,,,,,,,,,,,,,,,,,,,,,,,,,,,,,,,,,,,,,,,,,,,,
1720086474,61,0,4337.820313,4334.871582,4332.307617,4324.358887,4296.922852,4324.871582,4324.102539,4327.692383,4311.538574,4297.820313,4496.410156,4483.205078,4426.410156,4443.717773,,,,,,,,,,,,,,,,,,,,,,,,,,,,,,,,,,,,,,,,,,,,,,,,,,,,,,,,,,,,,,,,,,,,,,
1720086474,62,0,4337.05127,4329.743652,4325.384766,4314.102539,4304.230957,4322.692383,4323.717773,4325,4315.512695,4310.128418,4495,4485.128418,4424.871582,4442.692383,,,,,,,,,,,,,,,,,,,,,,,,,,,,,,,,,,,,,,,,,,,,,,,,,,,,,,,,,,,,,,,,,,,,,,
1720086474,63,0,4335.897461,4325.256348,4324.358887,4311.410156,4309.871582,4326.666504,4326.153809,4323.846191,4315.128418,4313.077148,4489.487305,4482.05127,4413.205078,4433.974121,,,,,,,,,,,,,,,,,,,,,,,,,,,,,,,,,,,,,,,,,,,,,,,,,,,,,,,,,,,,,,,,,,,,,,
1720086474,64,0,4334.358887,4321.410156,4325.769043,4315.512695,4307.307617,4328.077148,4324.487305,4316.282227,4310.384766,4304.871582,4476.666504,4476.282227,4407.692383,4427.820313,,,,,,,,,,,,,,,,,,,,,,,,,,,,,,,,,,,,,,,,,,,,,,,,,,,,,,,,,,,,,,,,,,,,,,
1720086474,65,0,4333.974121,4322.05127,4326.410156,4313.717773,4309.230957,4330.641113,4324.615234,4311.794922,4308.717773,4295.384766,4475.897461,4476.794922,4410.641113,4428.846191,,,,,,,,,,,,,,,,,,,,,,,,,,,,,,,,,,,,,,,,,,,,,,,,,,,,,,,,,,,,,,,,,,,,,,
1720086474,66,0,4332.179688,4318.846191,4330.641113,4307.436035,4314.487305,4337.820313,4330.384766,4316.922852,4315,4296.153809,4490.256348,4485.512695,4412.179688,4430.256348,,,,,,,,,,,,,,,,,,,,,,,,,,,,,,,,,,,,,,,,,,,,,,,,,,,,,,,,,,,,,,,,,,,,,,
1720086474,67,0,4328.333496,4310.641113,4331.794922,4308.589844,4308.589844,4339.102539,4336.282227,4323.974121,4318.974121,4305.256348,4497.05127,4488.205078,4413.717773,4430.769043,2.897391,1.320508,0.484098,0.30082,0.068695,1.473014,0.994832,0.641356,0.237434,0.08241,3.106309,1.309663,0.552171,0.281469,0.08215,1.961947,1.005787,0.59304,0.178656,0.090057,1.190236,1.190047,0.3374,0.113037,0.117896,0.577501,1.254577,0.666836,0.172891,0.05734,1.03462,1.096227,0.589996,0.333256,0.103149,1.77047,0.646542,0.654289,0.31319,0.060178,1.73576,0.343269,0.444007,0.241756,0.121172,1.429234,0.709796,0.828534,0.444771,0.446511,3.860822,1.318389,1.387944,0.574898,0.241012,1.799473,0.415958,0.429354,0.188009,0.159125,3.335433,0.979751,1.042688,0.526456,0.118225,3.671615,1.470576,0.836282,0.328967,0.087715
1720086474,68,0,4325.256348,4312.307617,4326.282227,4309.487305,4293.461426,4333.589844,4335.512695,4324.230957,4315.897461,4306.794922,4490.769043,4481.538574,4411.794922,4432.820313,,,,,,,,,,,,,,,,,,,,,,,,,,,,,,,,,,,,,,,,,,,,,,,,,,,,,,,,,,,,,,,,,,,,,,
1720086474,69,0,4328.333496,4320,4331.666504,4309.358887,4291.282227,4329.871582,4333.974121,4325.897461,4324.358887,4307.436035,4491.282227,4490.384766,4408.205078,4442.307617,,,,,,,,,,,,,,,,,,,,,,,,,,,,,,,,,,,,,,,,,,,,,,,,,,,,,,,,,,,,,,,,,,,,,,
1720086474,70,0,4334.743652,4319.615234,4340.256348,4312.563965,4303.333496,4328.589844,4339.230957,4333.974121,4330,4306.025879,4500.897461,4490.256348,4418.846191,4444.358887,,,,,,,,,,,,,,,,,,,,,,,,,,,,,,,,,,,,,,,,,,,,,,,,,,,,,,,,,,,,,,,,,,,,,,
1720086474,71,0,4336.538574,4319.871582,4335.512695,4312.820313,4304.487305,4327.05127,4338.461426,4334.871582,4323.205078,4295.384766,4508.205078,4482.179688,4428.333496,4438.461426,,,,,,,,,,,,,,,,,,,,,,,,,,,,,,,,,,,,,,,,,,,,,,,,,,,,,,,,,,,,,,,,,,,,,,
1720086474,72,0,4330.512695,4324.487305,4324.743652,4309.871582,4294.102539,4324.230957,4328.717773,4326.794922,4323.333496,4298.461426,4504.230957,4489.615234,4421.282227,4435.897461,,,,,,,,,,,,,,,,,,,,,,,,,,,,,,,,,,,,,,,,,,,,,,,,,,,,,,,,,,,,,,,,,,,,,,
1720086474,73,0,4320.128418,4323.205078,4317.820313,4309.102539,4295.256348,4321.410156,4324.743652,4321.025879,4323.846191,4310.384766,4493.717773,4482.436035,4419.615234,4428.461426,,,,,,,,,,,,,,,,,,,,,,,,,,,,,,,,,,,,,,,,,,,,,,,,,,,,,,,,,,,,,,,,,,,,,,
1720086474,74,0,4322.94873,4323.589844,4322.05127,4311.666504,4305.769043,4324.487305,4325.897461,4322.820313,4320,4304.230957,4489.871582,4475.384766,4424.487305,4430.641113,,,,,,,,,,,,,,,,,,,,,,,,,,,,,,,,,,,,,,,,,,,,,,,,,,,,,,,,,,,,,,,,,,,,,,
1720086474,75,0,4330,4329.615234,4329.743652,4313.205078,4309.358887,4329.487305,4325.128418,4322.692383,4318.589844,4295.384766,4492.179688,4482.563965,4419.230957,4440.769043,,,,,,,,,,,,,,,,,,,,,,,,,,,,,,,,,,,,,,,,,,,,,,,,,,,,,,,,,,,,,,,,,,,,,,
1720086474,76,0,4326.538574,4324.743652,4326.025879,4310,4303.077148,4327.05127,4323.589844,4318.461426,4317.307617,4293.717773,4498.717773,4482.820313,4412.563965,4436.282227,,,,,,,,,,,,,,,,,,,,,,,,,,,,,,,,,,,,,,,,,,,,,,,,,,,,,,,,,,,,,,,,,,,,,,
1720086474,77,0,4325.128418,4313.333496,4318.974121,4307.05127,4296.153809,4323.974121,4323.333496,4320.512695,4319.615234,4293.205078,4502.436035,4482.820313,4418.333496,4431.666504,,,,,,,,,,,,,,,,,,,,,,,,,,,,,,,,,,,,,,,,,,,,,,,,,,,,,,,,,,,,,,,,,,,,,,
1720086474,78,0,4327.307617,4313.461426,4319.230957,4309.615234,4297.692383,4329.743652,4328.333496,4324.487305,4327.820313,4306.538574,4502.563965,4481.794922,4426.922852,4435.512695,,,,,,,,,,,,,,,,,,,,,,,,,,,,,,,,,,,,,,,,,,,,,,,,,,,,,,,,,,,,,,,,,,,,,,
1720086474,79,0,4325.128418,4320,4318.077148,4311.538574,4307.94873,4335.512695,4336.025879,4328.589844,4332.436035,4314.743652,4504.743652,4478.846191,4426.153809,4436.282227,,,,,,,,,,,,,,,,,,,,,,,,,,,,,,,,,,,,,,,,,,,,,,,,,,,,,,,,,,,,,,,,,,,,,,
1720086474,80,0,4325.384766,4325.897461,4314.102539,4313.077148,4308.333496,4331.410156,4332.820313,4328.589844,4332.05127,4300.128418,4500.512695,4484.743652,4419.871582,4436.922852,,,,,,,,,,,,,,,,,,,,,,,,,,,,,,,,,,,,,,,,,,,,,,,,,,,,,,,,,,,,,,,,,,,,,,
1720086474,81,0,4328.205078,4322.179688,4313.333496,4312.179688,4296.794922,4327.692383,4324.487305,4325,4329.230957,4291.922852,4495.256348,4489.487305,4421.794922,4439.487305,,,,,,,,,,,,,,,,,,,,,,,,,,,,,,,,,,,,,,,,,,,,,,,,,,,,,,,,,,,,,,,,,,,,,,
1720086474,82,0,4324.358887,4307.692383,4312.94873,4308.461426,4296.153809,4333.461426,4326.282227,4327.05127,4322.692383,4294.230957,4503.974121,4487.307617,4428.717773,4435.897461,,,,,,,,,,,,,,,,,,,,,,,,,,,,,,,,,,,,,,,,,,,,,,,,,,,,,,,,,,,,,,,,,,,,,,
1720086474,83,0,4327.692383,4312.94873,4318.974121,4315.128418,4306.794922,4338.717773,4327.436035,4327.94873,4323.333496,4291.282227,4507.179688,4493.717773,4422.94873,4439.615234,3.214693,1.506925,0.495116,0.339502,0.074043,1.59754,1.118297,0.77679,0.283215,0.078577,3.478253,1.691571,0.566458,0.297999,0.091325,2.095025,1.104138,0.69098,0.219551,0.094106,1.09371,1.081089,0.336189,0.107589,0.117847,0.617236,1.160053,0.60803,0.157456,0.064656,0.978798,1.101053,0.608041,0.30143,0.10919,1.862409,0.609875,0.728677,0.340686,0.06458,1.801119,0.411495,0.394157,0.254632,0.123125,1.381788,0.865867,0.73752,0.478582,0.456753,3.998966,1.640326,1.213578,0.637445,0.255731,1.813747,0.497811,0.396025,0.207229,0.159949,3.521348,1.139742,0.903236,0.568073,0.118641,3.998682,1.770682,0.794465,0.293618,0.084495
1720086474,84,0,4337.692383,4333.461426,4325.769043,4327.436035,4311.794922,4334.102539,4324.743652,4322.820313,4325.769043,4291.666504,4492.307617,4492.179688,4411.410156,4444.615234,,,,,,,,,,,,,,,,,,,,,,,,,,,,,,,,,,,,,,,,,,,,,,,,,,,,,,,,,,,,,,,,,,,,,,
1720086474,85,0,4336.410156,4334.102539,4322.307617,4328.974121,4308.205078,4330.769043,4326.922852,4323.974121,4322.94873,4297.179688,4488.846191,4483.846191,4409.615234,4434.615234,,,,,,,,,,,,,,,,,,,,,,,,,,,,,,,,,,,,,,,,,,,,,,,,,,,,,,,,,,,,,,,,,,,,,,
1720086474,86,0,4327.563965,4324.615234,4311.666504,4325.897461,4304.743652,4333.717773,4329.230957,4327.436035,4321.025879,4293.077148,4493.974121,4485.512695,4407.563965,4423.974121,,,,,,,,,,,,,,,,,,,,,,,,,,,,,,,,,,,,,,,,,,,,,,,,,,,,,,,,,,,,,,,,,,,,,,
1720086474,87,0,4318.717773,4322.563965,4299.743652,4324.743652,4307.436035,4333.205078,4328.846191,4323.333496,4319.615234,4286.666504,4483.205078,4479.230957,4400.384766,4417.307617,,,,,,,,,,,,,,,,,,,,,,,,,,,,,,,,,,,,,,,,,,,,,,,,,,,,,,,,,,,,,,,,,,,,,,
1720086474,88,0,4309.102539,4315,4295.256348,4320.512695,4311.410156,4330.256348,4328.333496,4322.179688,4319.615234,4285.128418,4470.512695,4470.897461,4397.179688,4410.128418,,,,,,,,,,,,,,,,,,,,,,,,,,,,,,,,,,,,,,,,,,,,,,,,,,,,,,,,,,,,,,,,,,,,,,
1720086474,89,0,4304.743652,4308.717773,4296.922852,4320.897461,4306.282227,4330.641113,4328.077148,4323.333496,4319.230957,4276.410156,4471.666504,4472.94873,4397.692383,4408.077148,,,,,,,,,,,,,,,,,,,,,,,,,,,,,,,,,,,,,,,,,,,,,,,,,,,,,,,,,,,,,,,,,,,,,,
1720086474,90,0,4309.615234,4311.153809,4298.717773,4324.615234,4295.769043,4330.512695,4326.922852,4317.307617,4315.769043,4275.512695,4471.794922,4473.974121,4394.743652,4408.974121,,,,,,,,,,,,,,,,,,,,,,,,,,,,,,,,,,,,,,,,,,,,,,,,,,,,,,,,,,,,,,,,,,,,,,
1720086474,91,0,4314.102539,4313.717773,4304.743652,4325.897461,4297.94873,4326.922852,4323.333496,4316.282227,4318.846191,4294.615234,4471.153809,4475.128418,4395,4411.666504,,,,,,,,,,,,,,,,,,,,,,,,,,,,,,,,,,,,,,,,,,,,,,,,,,,,,,,,,,,,,,,,,,,,,,
1720086474,92,0,4315.769043,4319.615234,4312.436035,4329.743652,4306.410156,4324.615234,4316.025879,4319.102539,4328.717773,4303.589844,4483.077148,4481.282227,4399.871582,4419.871582,,,,,,,,,,,,,,,,,,,,,,,,,,,,,,,,,,,,,,,,,,,,,,,,,,,,,,,,,,,,,,,,,,,,,,
1720086474,93,0,4323.077148,4328.717773,4315.641113,4337.563965,4307.94873,4323.974121,4311.666504,4316.922852,4329.615234,4297.563965,4491.794922,4483.077148,4399.615234,4420.641113,,,,,,,,,,,,,,,,,,,,,,,,,,,,,,,,,,,,,,,,,,,,,,,,,,,,,,,,,,,,,,,,,,,,,,
1720086474,94,0,4331.153809,4331.025879,4318.846191,4341.794922,4305.641113,4325.897461,4315.897461,4319.358887,4326.922852,4299.358887,4489.615234,4485.128418,4397.94873,4419.230957,,,,,,,,,,,,,,,,,,,,,,,,,,,,,,,,,,,,,,,,,,,,,,,,,,,,,,,,,,,,,,,,,,,,,,
1720086474,95,0,4329.487305,4327.692383,4319.743652,4335.128418,4306.282227,4328.333496,4323.333496,4327.820313,4331.794922,4296.025879,4492.563965,4488.205078,4401.666504,4428.846191,,,,,,,,,,,,,,,,,,,,,,,,,,,,,,,,,,,,,,,,,,,,,,,,,,,,,,,,,,,,,,,,,,,,,,
1720086474,96,0,4323.717773,4323.974121,4312.179688,4328.589844,4305.128418,4325.897461,4325.897461,4330.128418,4327.692383,4287.94873,4498.589844,4480.512695,4404.487305,4427.563965,,,,,,,,,,,,,,,,,,,,,,,,,,,,,,,,,,,,,,,,,,,,,,,,,,,,,,,,,,,,,,,,,,,,,,
1720086474,97,0,4321.922852,4325.512695,4312.179688,4335,4305.384766,4322.05127,4318.333496,4327.179688,4318.461426,4298.205078,4494.102539,4485.256348,4402.820313,4422.179688,,,,,,,,,,,,,,,,,,,,,,,,,,,,,,,,,,,,,,,,,,,,,,,,,,,,,,,,,,,,,,,,,,,,,,
1720086474,98,0,4318.974121,4328.333496,4316.025879,4338.589844,4306.794922,4319.743652,4313.333496,4326.282227,4313.846191,4302.692383,4487.563965,4489.743652,4400.769043,4426.794922,,,,,,,,,,,,,,,,,,,,,,,,,,,,,,,,,,,,,,,,,,,,,,,,,,,,,,,,,,,,,,,,,,,,,,
1720086474,99,0,4314.743652,4327.05127,4310.256348,4330,4300.641113,4320.384766,4318.974121,4325.384766,4315.128418,4290.769043,4492.05127,4479.871582,4399.743652,4425.769043,3.5194,1.640096,0.522616,0.373075,0.086059,1.72655,1.235365,0.896288,0.338745,0.085468,3.731418,2.028705,0.602954,0.304422,0.102542,2.240587,1.241714,0.759904,0.27487,0.106649,0.93389,0.933211,0.341472,0.111457,0.122408,0.65299,1.015237,0.5075,0.135706,0.071208,0.892574,1.064605,0.644632,0.286785,0.124061,1.776999,0.573852,0.81029,0.384329,0.07042,1.658783,0.506601,0.380514,0.262638,0.121193,1.247847,1.04358,0.636401,0.53419,0.481978,3.975172,2.045394,1.041255,0.65464,0.26067,1.752865,0.593628,0.375595,0.217119,0.160806,3.625962,1.3507,0.759991,0.56072,0.119437,4.200193,1.999135,0.748535,0.261167,0.084154
1720086474,100,0,4313.461426,4323.077148,4307.436035,4325,4298.077148,4324.358887,4323.589844,4325.384766,4318.846191,4293.205078,4491.025879,4480.769043,4399.230957,4423.205078,,,,,,,,,,,,,,,,,,,,,,,,,,,,,,,,,,,,,,,,,,,,,,,,,,,,,,,,,,,,,,,,,,,,,,
1720086474,101,0,4312.05127,4319.487305,4306.282227,4325.512695,4308.077148,4325.897461,4322.692383,4326.666504,4313.717773,4299.487305,4479.102539,4478.589844,4396.282227,4415.641113,,,,,,,,,,,,,,,,,,,,,,,,,,,,,,,,,,,,,,,,,,,,,,,,,,,,,,,,,,,,,,,,,,,,,,
1720086474,102,0,4308.846191,4316.153809,4301.025879,4322.436035,4313.461426,4325.641113,4323.589844,4324.743652,4309.230957,4292.05127,4473.846191,4475,4391.282227,4405.384766,,,,,,,,,,,,,,,,,,,,,,,,,,,,,,,,,,,,,,,,,,,,,,,,,,,,,,,,,,,,,,,,,,,,,,
1720086474,103,0,4305.128418,4312.307617,4296.666504,4319.615234,4309.743652,4325.769043,4323.974121,4316.538574,4307.179688,4285.769043,4471.025879,4478.205078,4384.358887,4403.974121,,,,,,,,,,,,,,,,,,,,,,,,,,,,,,,,,,,,,,,,,,,,,,,,,,,,,,,,,,,,,,,,,,,,,,
1720086475,104,0,4299.615234,4307.05127,4292.692383,4317.820313,4305.512695,4325.897461,4321.410156,4310.384766,4297.436035,4280.769043,4456.922852,4470,4372.05127,4402.307617,,,,,,,,,,,,,,,,,,,,,,,,,,,,,,,,,,,,,,,,,,,,,,,,,,,,,,,,,,,,,,,,,,,,,,
1720086475,105,0,4301.153809,4307.563965,4293.589844,4318.205078,4299.358887,4326.538574,4321.794922,4317.436035,4294.871582,4274.871582,4456.922852,4466.282227,4367.436035,4402.436035,,,,,,,,,,,,,,,,,,,,,,,,,,,,,,,,,,,,,,,,,,,,,,,,,,,,,,,,,,,,,,,,,,,,,,
1720086475,106,0,4308.461426,4312.94873,4297.179688,4323.717773,4296.794922,4327.05127,4324.102539,4325.641113,4305.128418,4281.410156,4474.615234,4475.641113,4378.077148,4408.846191,,,,,,,,,,,,,,,,,,,,,,,,,,,,,,,,,,,,,,,,,,,,,,,,,,,,,,,,,,,,,,,,,,,,,,
1720086475,107,0,4306.153809,4313.717773,4295.128418,4327.05127,4297.563965,4325.128418,4322.307617,4324.102539,4307.436035,4293.846191,4470.641113,4471.282227,4379.102539,4404.102539,,,,,,,,,,,,,,,,,,,,,,,,,,,,,,,,,,,,,,,,,,,,,,,,,,,,,,,,,,,,,,,,,,,,,,
1720086475,108,0,4300.897461,4306.794922,4294.743652,4325.769043,4294.358887,4322.436035,4317.563965,4324.102539,4304.358887,4294.743652,4454.358887,4467.820313,4368.077148,4399.102539,,,,,,,,,,,,,,,,,,,,,,,,,,,,,,,,,,,,,,,,,,,,,,,,,,,,,,,,,,,,,,,,,,,,,,
1720086475,109,0,4307.307617,4310,4303.461426,4331.410156,4297.820313,4321.282227,4320.512695,4327.307617,4308.589844,4288.846191,4468.846191,4483.589844,4377.94873,4413.974121,,,,,,,,,,,,,,,,,,,,,,,,,,,,,,,,,,,,,,,,,,,,,,,,,,,,,,,,,,,,,,,,,,,,,,
1720086475,110,0,4317.820313,4324.230957,4311.538574,4339.230957,4300.897461,4320,4327.436035,4327.820313,4311.153809,4287.94873,4493.205078,4486.025879,4399.615234,4422.94873,,,,,,,,,,,,,,,,,,,,,,,,,,,,,,,,,,,,,,,,,,,,,,,,,,,,,,,,,,,,,,,,,,,,,,
1720086475,111,0,4315,4319.487305,4310.641113,4332.179688,4297.820313,4320.256348,4327.05127,4332.179688,4311.538574,4293.205078,4490,4479.743652,4394.230957,4418.461426,,,,,,,,,,,,,,,,,,,,,,,,,,,,,,,,,,,,,,,,,,,,,,,,,,,,,,,,,,,,,,,,,,,,,,
1720086475,112,0,4308.461426,4307.563965,4302.94873,4324.102539,4299.615234,4316.410156,4324.487305,4333.333496,4310.384766,4296.666504,4474.102539,4480.256348,4378.974121,4417.692383,,,,,,,,,,,,,,,,,,,,,,,,,,,,,,,,,,,,,,,,,,,,,,,,,,,,,,,,,,,,,,,,,,,,,,
1720086475,113,0,4311.153809,4319.230957,4295.128418,4331.922852,4304.230957,4311.153809,4324.743652,4326.282227,4303.461426,4286.410156,4468.974121,4475.512695,4379.871582,4411.922852,,,,,,,,,,,,,,,,,,,,,,,,,,,,,,,,,,,,,,,,,,,,,,,,,,,,,,,,,,,,,,,,,,,,,,
1720086475,114,0,4313.461426,4329.102539,4297.563965,4337.94873,4303.461426,4316.666504,4326.666504,4328.717773,4301.410156,4277.307617,4473.333496,4476.794922,4382.692383,4403.461426,,,,,,,,,,,,,,,,,,,,,,,,,,,,,,,,,,,,,,,,,,,,,,,,,,,,,,,,,,,,,,,,,,,,,,
1720086475,115,0,4309.358887,4315.641113,4300.641113,4329.743652,4300.641113,4323.077148,4327.563965,4335.512695,4307.436035,4284.615234,4471.922852,4481.410156,4377.94873,4405.897461,3.70395,1.718375,0.6044,0.394821,0.102292,1.856253,1.356946,0.986259,0.391452,0.108003,3.789542,2.25263,0.69364,0.302896,0.115044,2.429627,1.419543,0.782981,0.33637,0.127517,0.757724,0.825864,0.347355,0.122408,0.130948,0.6625,0.833702,0.393645,0.112462,0.075295,0.768828,1.011039,0.688972,0.28645,0.145648,1.554637,0.571518,0.906506,0.423271,0.076326,1.372885,0.589218,0.414962,0.260392,0.115484,1.071353,1.1697,0.544252,0.601177,0.506578,3.846582,2.415959,0.953633,0.626589,0.251738,1.629205,0.69011,0.398615,0.215986,0.161501,3.610577,1.588182,0.680977,0.509215,0.120855,4.221469,2.116465,0.759371,0.23441,0.086407
1720086475,116,0,4306.282227,4306.538574,4296.922852,4323.205078,4297.05127,4320.897461,4326.794922,4329.102539,4310.641113,4289.615234,4461.025879,4476.794922,4374.871582,4409.230957,,,,,,,,,,,,,,,,,,,,,,,,,,,,,,,,,,,,,,,,,,,,,,,,,,,,,,,,,,,,,,,,,,,,,,
1720086475,117,0,4310,4311.922852,4297.692383,4325.769043,4293.333496,4319.230957,4324.871582,4325.384766,4307.94873,4288.589844,4459.487305,4474.230957,4378.589844,4407.179688,,,,,,,,,,,,,,,,,,,,,,,,,,,,,,,,,,,,,,,,,,,,,,,,,,,,,,,,,,,,,,,,,,,,,,
1720086475,118,0,4312.05127,4310.384766,4300.512695,4329.615234,4291.922852,4322.436035,4322.436035,4329.871582,4303.077148,4285.384766,4471.922852,4478.077148,4381.538574,4411.282227,,,,,,,,,,,,,,,,,,,,,,,,,,,,,,,,,,,,,,,,,,,,,,,,,,,,,,,,,,,,,,,,,,,,,,
1720086475,119,0,4311.538574,4308.589844,4299.743652,4327.307617,4293.589844,4324.358887,4321.922852,4327.563965,4301.922852,4284.871582,4470,4477.05127,4376.282227,4416.410156,,,,,,,,,,,,,,,,,,,,,,,,,,,,,,,,,,,,,,,,,,,,,,,,,,,,,,,,,,,,,,,,,,,,,,
1720086475,120,0,4318.974121,4319.102539,4303.077148,4321.282227,4301.922852,4322.563965,4320.897461,4321.922852,4300,4289.230957,4460.128418,4475,4372.692383,4415.512695,,,,,,,,,,,,,,,,,,,,,,,,,,,,,,,,,,,,,,,,,,,,,,,,,,,,,,,,,,,,,,,,,,,,,,
1720086475,121,0,4329.487305,4330.641113,4311.282227,4330.897461,4308.461426,4321.922852,4322.436035,4325.512695,4297.179688,4294.487305,4471.025879,4479.871582,4383.077148,4418.461426,,,,,,,,,,,,,,,,,,,,,,,,,,,,,,,,,,,,,,,,,,,,,,,,,,,,,,,,,,,,,,,,,,,,,,
1720086475,122,0,4331.025879,4330.897461,4316.666504,4345.384766,4307.692383,4322.692383,4320.384766,4332.307617,4301.282227,4293.077148,4482.692383,4486.794922,4392.307617,4423.717773,,,,,,,,,,,,,,,,,,,,,,,,,,,,,,,,,,,,,,,,,,,,,,,,,,,,,,,,,,,,,,,,,,,,,,
1720086475,123,0,4326.666504,4326.922852,4317.563965,4337.307617,4308.205078,4316.538574,4313.333496,4329.615234,4301.025879,4282.307617,4473.974121,4487.307617,4386.025879,4419.871582,,,,,,,,,,,,,,,,,,,,,,,,,,,,,,,,,,,,,,,,,,,,,,,,,,,,,,,,,,,,,,,,,,,,,,
1720086475,124,0,4324.743652,4324.743652,4311.153809,4326.025879,4304.358887,4310,4316.282227,4322.692383,4289.615234,4278.077148,4464.102539,4473.974121,4379.102539,4405.512695,,,,,,,,,,,,,,,,,,,,,,,,,,,,,,,,,,,,,,,,,,,,,,,,,,,,,,,,,,,,,,,,,,,,,,
1720086475,125,0,4321.153809,4317.179688,4307.05127,4329.615234,4302.05127,4315.256348,4327.563965,4326.025879,4295.769043,4290.641113,4466.025879,4477.436035,4379.358887,4404.230957,,,,,,,,,,,,,,,,,,,,,,,,,,,,,,,,,,,,,,,,,,,,,,,,,,,,,,,,,,,,,,,,,,,,,,
1720086475,126,0,4317.820313,4311.025879,4310.769043,4332.94873,4305,4320,4327.94873,4330.384766,4314.102539,4298.461426,4467.820313,4489.102539,4377.692383,4413.077148,,,,,,,,,,,,,,,,,,,,,,,,,,,,,,,,,,,,,,,,,,,,,,,,,,,,,,,,,,,,,,,,,,,,,,
1720086475,127,0,4317.563965,4310.897461,4305.897461,4324.358887,4298.205078,4315.641113,4319.230957,4326.666504,4308.205078,4285.769043,4463.333496,4474.871582,4369.615234,4407.820313,,,,,,,,,,,,,,,,,,,,,,,,,,,,,,,,,,,,,,,,,,,,,,,,,,,,,,,,,,,,,,,,,,,,,,
1720086475,0,0,4312.307617,4310.128418,4296.282227,4314.102539,4290.256348,4316.282227,4320.384766,4322.307617,4297.05127,4283.205078,4456.794922,4468.333496,4363.717773,4402.94873,,,,,,,,,,,,,,,,,,,,,,,,,,,,,,,,,,,,,,,,,,,,,,,,,,,,,,,,,,,,,,,,,,,,,,
1720086475,1,0,4303.461426,4309.102539,4294.871582,4315.128418,4295.641113,4317.307617,4320.512695,4318.077148,4296.025879,4287.94873,4452.563965,4468.974121,4363.205078,4404.615234,,,,,,,,,,,,,,,,,,,,,,,,,,,,,,,,,,,,,,,,,,,,,,,,,,,,,,,,,,,,,,,,,,,,,,
1720086475,2,0,4307.307617,4310.769043,4300.128418,4321.794922,4299.230957,4312.179688,4311.794922,4313.717773,4295.769043,4280.384766,4458.974121,4470.769043,4368.205078,4408.589844,,,,,,,,,,,,,,,,,,,,,,,,,,,,,,,,,,,,,,,,,,,,,,,,,,,,,,,,,,,,,,,,,,,,,,
1720086475,3,0,4314.615234,4310,4302.05127,4319.102539,4295.512695,4311.538574,4309.358887,4315,4298.333496,4285.128418,4463.461426,4482.563965,4369.871582,4417.692383,3.659781,1.7527,0.753199,0.401598,0.119253,1.957824,1.475946,1.0316,0.429455,0.145759,3.612468,2.323558,0.849301,0.297453,0.127505,2.639176,1.59402,0.756034,0.389916,0.152681,0.606278,0.802041,0.355577,0.135562,0.143897,0.652172,0.641884,0.295201,0.092848,0.076107,0.651497,0.970647,0.726714,0.290472,0.168352,1.245001,0.618505,1.006518,0.435105,0.081229,0.996409,0.630955,0.482756,0.246102,0.107175,0.910602,1.19714,0.467437,0.66637,0.518067,3.703585,2.629859,0.983036,0.565605,0.232733,1.457303,0.772359,0.469241,0.20421,0.160906,3.502507,1.785901,0.691706,0.429364,0.124086,4.017706,2.122944,0.853412,0.212121,0.090665
1720086475,4,0,4307.307617,4305.769043,4293.589844,4308.717773,4291.410156,4312.436035,4312.563965,4311.410156,4296.794922,4297.692383,4450.897461,4476.794922,4360,4412.436035,,,,,,,,,,,,,,,,,,,,,,,,,,,,,,,,,,,,,,,,,,,,,,,,,,,,,,,,,,,,,,,,,,,,,,
1720086475,5,0,4301.410156,4305.128418,4288.077148,4304.615234,4290.128418,4311.794922,4311.922852,4307.307617,4290.769043,4294.487305,4438.846191,4465.384766,4352.307617,4398.974121,,,,,,,,,,,,,,,,,,,,,,,,,,,,,,,,,,,,,,,,,,,,,,,,,,,,,,,,,,,,,,,,,,,,,,
1720086475,6,0,4309.743652,4306.666504,4293.333496,4304.871582,4291.794922,4312.692383,4309.358887,4316.538574,4298.077148,4286.153809,4445.512695,4477.563965,4358.461426,4404.102539,,,,,,,,,,,,,,,,,,,,,,,,,,,,,,,,,,,,,,,,,,,,,,,,,,,,,,,,,,,,,,,,,,,,,,
1720086475,7,0,4313.077148,4308.846191,4294.487305,4306.153809,4286.153809,4311.538574,4314.615234,4324.615234,4307.436035,4290.256348,4455.128418,4481.538574,4366.153809,4412.307617,,,,,,,,,,,,,,,,,,,,,,,,,,,,,,,,,,,,,,,,,,,,,,,,,,,,,,,,,,,,,,,,,,,,,,
1720086475,8,0,4304.615234,4311.666504,4290.512695,4303.589844,4277.563965,4313.589844,4321.666504,4324.230957,4300.897461,4294.102539,4457.563965,4469.615234,4367.436035,4408.974121,,,,,,,,,,,,,,,,,,,,,,,,,,,,,,,,,,,,,,,,,,,,,,,,,,,,,,,,,,,,,,,,,,,,,,
1720086475,9,0,4299.230957,4306.025879,4292.563965,4295.769043,4282.820313,4317.179688,4322.307617,4325.897461,4293.846191,4285.641113,4460.769043,4475,4368.589844,4415.769043,,,,,,,,,,,,,,,,,,,,,,,,,,,,,,,,,,,,,,,,,,,,,,,,,,,,,,,,,,,,,,,,,,,,,,
1720086475,10,0,4299.743652,4296.666504,4292.94873,4293.461426,4288.461426,4314.102539,4321.410156,4325.512695,4291.922852,4271.922852,4457.307617,4474.102539,4365.512695,4421.153809,,,,,,,,,,,,,,,,,,,,,,,,,,,,,,,,,,,,,,,,,,,,,,,,,,,,,,,,,,,,,,,,,,,,,,
1720086475,11,0,4303.205078,4298.205078,4290.512695,4293.589844,4284.615234,4313.205078,4323.205078,4325.512695,4292.692383,4278.461426,4448.717773,4467.94873,4359.102539,4413.589844,,,,,,,,,,,,,,,,,,,,,,,,,,,,,,,,,,,,,,,,,,,,,,,,,,,,,,,,,,,,,,,,,,,,,,
1720086475,12,0,4306.025879,4307.436035,4293.717773,4292.692383,4288.717773,4322.563965,4325.384766,4325.769043,4295.256348,4296.153809,4451.922852,4476.794922,4361.410156,4414.743652,,,,,,,,,,,,,,,,,,,,,,,,,,,,,,,,,,,,,,,,,,,,,,,,,,,,,,,,,,,,,,,,,,,,,,
1720086475,13,0,4306.410156,4310.897461,4292.820313,4292.94873,4292.05127,4326.282227,4322.05127,4315,4287.94873,4291.282227,4455.384766,4473.717773,4366.025879,4418.461426,,,,,,,,,,,,,,,,,,,,,,,,,,,,,,,,,,,,,,,,,,,,,,,,,,,,,,,,,,,,,,,,,,,,,,
1720086475,14,0,4313.589844,4309.487305,4291.410156,4292.563965,4282.05127,4320.769043,4318.333496,4309.230957,4282.307617,4276.153809,4451.025879,4468.589844,4368.717773,4418.077148,,,,,,,,,,,,,,,,,,,,,,,,,,,,,,,,,,,,,,,,,,,,,,,,,,,,,,,,,,,,,,,,,,,,,,
1720086475,15,0,4333.077148,4316.153809,4300.256348,4298.589844,4283.077148,4320.128418,4320.128418,4321.282227,4286.410156,4278.077148,4455.512695,4475.769043,4377.05127,4431.922852,,,,,,,,,,,,,,,,,,,,,,,,,,,,,,,,,,,,,,,,,,,,,,,,,,,,,,,,,,,,,,,,,,,,,,
1720086475,16,0,4356.282227,4335.256348,4315.128418,4316.282227,4293.589844,4323.717773,4322.179688,4325.128418,4285.897461,4286.282227,4462.820313,4480.769043,4382.692383,4452.179688,,,,,,,,,,,,,,,,,,,,,,,,,,,,,,,,,,,,,,,,,,,,,,,,,,,,,,,,,,,,,,,,,,,,,,
1720086475,17,0,4376.538574,4354.102539,4326.282227,4330.897461,4294.743652,4326.153809,4321.538574,4317.563965,4279.358887,4279.487305,4461.282227,4479.743652,4383.974121,4461.922852,,,,,,,,,,,,,,,,,,,,,,,,,,,,,,,,,,,,,,,,,,,,,,,,,,,,,,,,,,,,,,,,,,,,,,
1720086475,18,0,4396.153809,4361.666504,4329.871582,4333.589844,4299.102539,4326.794922,4323.974121,4323.461426,4281.410156,4278.717773,4468.205078,4485.641113,4395,4474.358887,,,,,,,,,,,,,,,,,,,,,,,,,,,,,,,,,,,,,,,,,,,,,,,,,,,,,,,,,,,,,,,,,,,,,,
1720086475,19,0,4410,4366.794922,4336.282227,4337.307617,4305,4326.794922,4326.666504,4330.384766,4285.769043,4287.563965,4479.102539,4490.384766,4405,4487.94873,3.345528,1.759863,0.941308,0.392592,0.133474,1.992314,1.5757,1.022803,0.444875,0.192556,3.21908,2.253616,1.042825,0.291611,0.137942,2.799402,1.700404,0.688174,0.420441,0.176492,0.495271,0.84463,0.376115,0.143998,0.160571,0.629977,0.467842,0.225563,0.079512,0.073837,0.549191,0.947627,0.739655,0.288656,0.185356,0.925693,0.706815,1.080301,0.409236,0.084778,0.657052,0.625236,0.556253,0.225314,0.098551,0.795721,1.117417,0.407823,0.715621,0.510614,3.578915,2.655759,1.088096,0.488646,0.21632,1.247682,0.835675,0.560172,0.183865,0.158037,3.301859,1.886019,0.761747,0.340327,0.131648,3.605108,2.066116,0.998295,0.192377,0.096382
1720086475,20,0,4416.538574,4376.794922,4343.077148,4344.102539,4300.641113,4328.589844,4323.077148,4319.871582,4281.538574,4282.563965,4476.410156,4488.333496,4396.538574,4486.410156,,,,,,,,,,,,,,,,,,,,,,,,,,,,,,,,,,,,,,,,,,,,,,,,,,,,,,,,,,,,,,,,,,,,,,
1720086475,21,0,4413.333496,4377.692383,4337.307617,4341.282227,4296.153809,4323.461426,4316.794922,4313.589844,4280,4280.897461,4472.563965,4486.538574,4389.743652,4481.025879,,,,,,,,,,,,,,,,,,,,,,,,,,,,,,,,,,,,,,,,,,,,,,,,,,,,,,,,,,,,,,,,,,,,,,
1720086475,22,0,4398.077148,4366.922852,4329.230957,4329.102539,4297.94873,4312.436035,4312.692383,4320.256348,4282.94873,4288.077148,4474.871582,4482.692383,4397.05127,4477.94873,,,,,,,,,,,,,,,,,,,,,,,,,,,,,,,,,,,,,,,,,,,,,,,,,,,,,,,,,,,,,,,,,,,,,,
1720086475,23,0,4381.922852,4356.538574,4327.820313,4318.589844,4293.846191,4311.538574,4308.333496,4320.128418,4284.871582,4286.153809,4477.436035,4483.717773,4398.589844,4469.871582,,,,,,,,,,,,,,,,,,,,,,,,,,,,,,,,,,,,,,,,,,,,,,,,,,,,,,,,,,,,,,,,,,,,,,
1720086475,24,0,4368.077148,4348.205078,4319.743652,4313.974121,4284.871582,4311.666504,4305.641113,4314.102539,4281.025879,4282.05127,4473.461426,4475.384766,4387.563965,4453.077148,,,,,,,,,,,,,,,,,,,,,,,,,,,,,,,,,,,,,,,,,,,,,,,,,,,,,,,,,,,,,,,,,,,,,,
1720086475,25,0,4349.487305,4336.410156,4305,4307.563965,4279.487305,4302.307617,4306.538574,4316.025879,4278.974121,4284.871582,4459.615234,4466.538574,4373.205078,4436.794922,,,,,,,,,,,,,,,,,,,,,,,,,,,,,,,,,,,,,,,,,,,,,,,,,,,,,,,,,,,,,,,,,,,,,,
1720086475,26,0,4331.794922,4323.717773,4298.717773,4296.282227,4277.307617,4301.282227,4309.871582,4321.153809,4281.538574,4274.102539,4452.94873,4474.230957,4365.512695,4431.538574,,,,,,,,,,,,,,,,,,,,,,,,,,,,,,,,,,,,,,,,,,,,,,,,,,,,,,,,,,,,,,,,,,,,,,
1720086475,27,0,4323.589844,4316.538574,4297.05127,4292.436035,4280.128418,4310.256348,4311.153809,4321.410156,4278.974121,4260,4462.179688,4473.974121,4360.384766,4429.615234,,,,,,,,,,,,,,,,,,,,,,,,,,,,,,,,,,,,,,,,,,,,,,,,,,,,,,,,,,,,,,,,,,,,,,
1720086475,28,0,4314.487305,4312.436035,4294.743652,4293.333496,4281.025879,4312.692383,4310.641113,4318.461426,4277.820313,4268.461426,4458.589844,4469.743652,4348.846191,4420,,,,,,,,,,,,,,,,,,,,,,,,,,,,,,,,,,,,,,,,,,,,,,,,,,,,,,,,,,,,,,,,,,,,,,
1720086475,29,0,4299.871582,4307.563965,4287.94873,4285.769043,4277.820313,4311.922852,4307.820313,4312.94873,4277.94873,4279.743652,4442.820313,4479.615234,4339.102539,4402.436035,,,,,,,,,,,,,,,,,,,,,,,,,,,,,,,,,,,,,,,,,,,,,,,,,,,,,,,,,,,,,,,,,,,,,,
1720086475,30,0,4294.487305,4302.563965,4279.358887,4278.461426,4278.333496,4313.205078,4300.512695,4311.410156,4275.128418,4283.717773,4441.666504,4492.820313,4340,4394.487305,,,,,,,,,,,,,,,,,,,,,,,,,,,,,,,,,,,,,,,,,,,,,,,,,,,,,,,,,,,,,,,,,,,,,,
1720086475,31,0,4292.820313,4297.436035,4279.615234,4279.871582,4280.897461,4311.922852,4291.153809,4310.256348,4271.025879,4279.102539,4446.538574,4500.256348,4341.666504,4398.333496,,,,,,,,,,,,,,,,,,,,,,,,,,,,,,,,,,,,,,,,,,,,,,,,,,,,,,,,,,,,,,,,,,,,,,
1720086475,32,0,4279.743652,4291.794922,4278.717773,4274.743652,4281.410156,4308.333496,4288.846191,4303.077148,4265.128418,4267.436035,4443.717773,4506.666504,4334.615234,4392.820313,,,,,,,,,,,,,,,,,,,,,,,,,,,,,,,,,,,,,,,,,,,,,,,,,,,,,,,,,,,,,,,,,,,,,,
1720086475,33,0,4274.871582,4295,4274.230957,4271.538574,4277.692383,4307.563965,4293.333496,4301.025879,4264.743652,4269.615234,4442.94873,4513.205078,4332.820313,4388.205078,,,,,,,,,,,,,,,,,,,,,,,,,,,,,,,,,,,,,,,,,,,,,,,,,,,,,,,,,,,,,,,,,,,,,,
1720086475,34,0,4292.563965,4308.974121,4283.717773,4283.333496,4278.461426,4310.128418,4296.153809,4308.333496,4275.384766,4280.128418,4450.641113,4520.256348,4343.589844,4403.589844,,,,,,,,,,,,,,,,,,,,,,,,,,,,,,,,,,,,,,,,,,,,,,,,,,,,,,,,,,,,,,,,,,,,,,
1720086475,35,0,4297.179688,4310,4292.436035,4286.666504,4284.743652,4310.769043,4293.077148,4309.871582,4278.461426,4278.589844,4453.333496,4516.153809,4348.589844,4411.410156,2.890009,1.765996,1.110928,0.368601,0.142662,1.962888,1.642915,0.961831,0.438349,0.238486,2.716891,2.098995,1.210456,0.287,0.144332,2.869336,1.688215,0.595381,0.418381,0.194817,0.42963,0.903065,0.413355,0.143617,0.17834,0.612582,0.339133,0.182904,0.071993,0.069572,0.478932,0.921812,0.713525,0.27457,0.190857,0.667602,0.809853,1.095314,0.352191,0.087609,0.440872,0.591996,0.608594,0.206826,0.093514,0.740967,0.958291,0.366537,0.739455,0.488071,3.468309,2.539886,1.187225,0.412281,0.217953,1.028084,0.882874,0.628219,0.159332,0.154159,3.065941,1.86904,0.833734,0.260007,0.145977,3.086661,1.996567,1.121197,0.176837,0.103794
1720086475,36,0,4283.205078,4298.333496,4286.922852,4277.05127,4286.282227,4307.820313,4291.666504,4306.666504,4270.641113,4280.128418,4447.820313,4499.743652,4344.487305,4399.871582,,,,,,,,,,,,,,,,,,,,,,,,,,,,,,,,,,,,,,,,,,,,,,,,,,,,,,,,,,,,,,,,,,,,,,
1720086475,37,0,4286.794922,4296.794922,4288.974121,4278.077148,4281.922852,4309.871582,4297.179688,4314.358887,4272.307617,4282.05127,4451.153809,4501.153809,4346.282227,4401.025879,,,,,,,,,,,,,,,,,,,,,,,,,,,,,,,,,,,,,,,,,,,,,,,,,,,,,,,,,,,,,,,,,,,,,,
1720086475,38,0,4294.358887,4298.077148,4297.563965,4281.922852,4276.666504,4310.256348,4297.94873,4320.384766,4272.179688,4267.307617,4461.153809,4506.538574,4353.717773,4409.743652,,,,,,,,,,,,,,,,,,,,,,,,,,,,,,,,,,,,,,,,,,,,,,,,,,,,,,,,,,,,,,,,,,,,,,
1720086475,39,0,4287.179688,4293.205078,4296.153809,4276.025879,4276.153809,4305.128418,4294.487305,4316.153809,4268.461426,4265,4457.563965,4502.563965,4351.922852,4409.615234,,,,,,,,,,,,,,,,,,,,,,,,,,,,,,,,,,,,,,,,,,,,,,,,,,,,,,,,,,,,,,,,,,,,,,
1720086475,40,0,4287.563965,4292.307617,4296.666504,4273.589844,4277.436035,4306.538574,4302.94873,4321.410156,4276.153809,4286.282227,4446.666504,4503.717773,4346.153809,4412.179688,,,,,,,,,,,,,,,,,,,,,,,,,,,,,,,,,,,,,,,,,,,,,,,,,,,,,,,,,,,,,,,,,,,,,,
1720086475,41,0,4292.692383,4290.256348,4297.820313,4272.179688,4276.538574,4311.282227,4313.974121,4326.282227,4278.846191,4289.102539,4445.512695,4499.102539,4341.025879,4409.743652,,,,,,,,,,,,,,,,,,,,,,,,,,,,,,,,,,,,,,,,,,,,,,,,,,,,,,,,,,,,,,,,,,,,,,
1720086475,42,0,4282.820313,4282.05127,4286.666504,4265.128418,4281.538574,4309.871582,4309.871582,4314.743652,4273.717773,4279.743652,4447.563965,4486.025879,4337.179688,4398.205078,,,,,,,,,,,,,,,,,,,,,,,,,,,,,,,,,,,,,,,,,,,,,,,,,,,,,,,,,,,,,,,,,,,,,,
1720086475,43,0,4273.589844,4276.538574,4275.384766,4263.205078,4292.563965,4309.487305,4301.922852,4306.666504,4274.871582,4282.05127,4440.384766,4479.230957,4335.897461,4387.436035,,,,,,,,,,,,,,,,,,,,,,,,,,,,,,,,,,,,,,,,,,,,,,,,,,,,,,,,,,,,,,,,,,,,,,
1720086475,44,0,4276.794922,4277.563965,4277.05127,4266.153809,4299.358887,4312.307617,4302.563965,4310.256348,4270.897461,4276.922852,4435.256348,4478.974121,4331.922852,4381.794922,,,,,,,,,,,,,,,,,,,,,,,,,,,,,,,,,,,,,,,,,,,,,,,,,,,,,,,,,,,,,,,,,,,,,,
1720086475,45,0,4279.230957,4287.179688,4286.153809,4269.358887,4294.102539,4311.666504,4298.717773,4307.94873,4260.641113,4264.487305,4435.641113,4477.436035,4328.717773,4383.077148,,,,,,,,,,,,,,,,,,,,,,,,,,,,,,,,,,,,,,,,,,,,,,,,,,,,,,,,,,,,,,,,,,,,,,
1720086475,46,0,4279.102539,4293.077148,4288.846191,4269.871582,4284.358887,4310,4291.538574,4303.974121,4261.410156,4262.94873,4429.615234,4474.743652,4330.641113,4386.922852,,,,,,,,,,,,,,,,,,,,,,,,,,,,,,,,,,,,,,,,,,,,,,,,,,,,,,,,,,,,,,,,,,,,,,
1720086475,47,0,4277.94873,4288.333496,4287.307617,4265.512695,4280.384766,4310.256348,4297.94873,4309.358887,4263.717773,4270.641113,4422.820313,4474.871582,4330.256348,4387.692383,,,,,,,,,,,,,,,,,,,,,,,,,,,,,,,,,,,,,,,,,,,,,,,,,,,,,,,,,,,,,,,,,,,,,,
1720086475,48,0,4275.128418,4284.487305,4289.358887,4261.922852,4282.563965,4311.538574,4310.769043,4317.05127,4262.692383,4273.589844,4426.153809,4479.615234,4325.256348,4386.282227,,,,,,,,,,,,,,,,,,,,,,,,,,,,,,,,,,,,,,,,,,,,,,,,,,,,,,,,,,,,,,,,,,,,,,
1720086475,49,0,4275,4282.307617,4287.820313,4264.358887,4280.769043,4311.410156,4314.102539,4321.794922,4264.487305,4270.384766,4430.641113,4481.794922,4324.102539,4386.025879,,,,,,,,,,,,,,,,,,,,,,,,,,,,,,,,,,,,,,,,,,,,,,,,,,,,,,,,,,,,,,,,,,,,,,
1720086475,50,0,4272.05127,4276.410156,4279.358887,4263.461426,4276.666504,4308.589844,4312.820313,4322.820313,4260.897461,4259.615234,4424.871582,4472.05127,4326.282227,4383.077148,,,,,,,,,,,,,,,,,,,,,,,,,,,,,,,,,,,,,,,,,,,,,,,,,,,,,,,,,,,,,,,,,,,,,,
1720086475,51,0,4274.102539,4279.487305,4282.179688,4261.922852,4283.717773,4308.846191,4312.820313,4323.333496,4258.461426,4248.589844,4423.333496,4476.153809,4329.487305,4387.179688,2.890629,1.857568,1.199283,0.332888,0.146667,2.063807,1.700825,0.855591,0.416938,0.272973,2.3349,1.93846,1.287353,0.28264,0.145521,2.927202,1.575475,0.492568,0.38432,0.206515,0.422675,0.922114,0.464845,0.134812,0.192918,0.60833,0.262637,0.158518,0.068758,0.06511,0.451338,0.864185,0.646493,0.247933,0.182624,0.503811,0.897515,1.041084,0.279263,0.091388,0.386457,0.552796,0.620583,0.196242,0.095217,0.73078,0.770075,0.348828,0.732939,0.458653,3.326092,2.367367,1.212929,0.348062,0.245356,0.833132,0.919415,0.636723,0.135614,0.152539,2.896376,1.76353,0.857471,0.200635,0.167503,2.767169,1.969272,1.168484,0.170114,0.113276
1720086475,52,0,4294.102539,4293.974121,4299.871582,4272.307617,4293.205078,4310.384766,4311.666504,4324.615234,4261.153809,4253.205078,4434.102539,4484.230957,4339.102539,4397.563965,,,,,,,,,,,,,,,,,,,,,,,,,,,,,,,,,,,,,,,,,,,,,,,,,,,,,,,,,,,,,,,,,,,,,,
1720086475,53,0,4320.641113,4308.461426,4313.205078,4288.461426,4297.05127,4309.487305,4313.333496,4324.615234,4265.769043,4265.256348,4441.410156,4483.589844,4344.102539,4406.410156,,,,,,,,,,,,,,,,,,,,,,,,,,,,,,,,,,,,,,,,,,,,,,,,,,,,,,,,,,,,,,,,,,,,,,
1720086475,54,0,4343.846191,4326.666504,4319.102539,4297.05127,4297.436035,4310,4320.128418,4326.410156,4274.871582,4275,4447.692383,4492.820313,4350.128418,4426.794922,,,,,,,,,,,,,,,,,,,,,,,,,,,,,,,,,,,,,,,,,,,,,,,,,,,,,,,,,,,,,,,,,,,,,,
1720086475,55,0,4370,4343.846191,4323.205078,4295.641113,4296.922852,4312.05127,4324.358887,4326.025879,4282.692383,4282.307617,4461.410156,4490,4372.436035,4450.512695,,,,,,,,,,,,,,,,,,,,,,,,,,,,,,,,,,,,,,,,,,,,,,,,,,,,,,,,,,,,,,,,,,,,,,
1720086475,56,0,4402.05127,4355.897461,4336.282227,4302.05127,4300,4311.410156,4323.846191,4326.410156,4289.230957,4293.717773,4476.282227,4487.692383,4396.282227,4471.538574,,,,,,,,,,,,,,,,,,,,,,,,,,,,,,,,,,,,,,,,,,,,,,,,,,,,,,,,,,,,,,,,,,,,,,
1720086475,57,0,4431.282227,4374.743652,4353.717773,4321.538574,4304.230957,4307.05127,4321.794922,4333.333496,4293.077148,4295.641113,4487.05127,4502.05127,4408.846191,4494.615234,,,,,,,,,,,,,,,,,,,,,,,,,,,,,,,,,,,,,,,,,,,,,,,,,,,,,,,,,,,,,,,,,,,,,,
1720086475,58,0,4449.358887,4390.897461,4360.512695,4330.256348,4307.05127,4305.641113,4319.871582,4335.897461,4290.384766,4283.077148,4499.358887,4509.102539,4418.205078,4512.179688,,,,,,,,,,,,,,,,,,,,,,,,,,,,,,,,,,,,,,,,,,,,,,,,,,,,,,,,,,,,,,,,,,,,,,
1720086475,59,0,4460.512695,4390.769043,4365.769043,4328.717773,4311.025879,4310.897461,4322.94873,4333.333496,4292.05127,4288.461426,4510,4509.871582,4430.512695,4527.05127,,,,,,,,,,,,,,,,,,,,,,,,,,,,,,,,,,,,,,,,,,,,,,,,,,,,,,,,,,,,,,,,,,,,,,
1720086475,60,0,4472.05127,4391.666504,4375.897461,4336.794922,4314.487305,4313.333496,4323.461426,4333.461426,4295.769043,4299.102539,4510.769043,4510.897461,4440.384766,4537.692383,,,,,,,,,,,,,,,,,,,,,,,,,,,,,,,,,,,,,,,,,,,,,,,,,,,,,,,,,,,,,,,,,,,,,,
1720086475,61,0,4478.974121,4402.05127,4379.743652,4346.153809,4311.666504,4309.358887,4312.692383,4327.563965,4285.897461,4288.077148,4510,4508.717773,4443.077148,4536.538574,,,,,,,,,,,,,,,,,,,,,,,,,,,,,,,,,,,,,,,,,,,,,,,,,,,,,,,,,,,,,,,,,,,,,,
1720086475,62,0,4477.05127,4403.333496,4375.897461,4344.358887,4310.769043,4308.717773,4308.077148,4321.153809,4281.282227,4283.589844,4510.384766,4508.077148,4443.205078,4535.769043,,,,,,,,,,,,,,,,,,,,,,,,,,,,,,,,,,,,,,,,,,,,,,,,,,,,,,,,,,,,,,,,,,,,,,
1720086475,63,0,4470.641113,4393.205078,4371.025879,4335,4311.538574,4304.871582,4308.846191,4322.436035,4282.820313,4290.897461,4508.077148,4506.153809,4440.384766,4537.05127,,,,,,,,,,,,,,,,,,,,,,,,,,,,,,,,,,,,,,,,,,,,,,,,,,,,,,,,,,,,,,,,,,,,,,
1720086475,64,0,4457.179688,4380.512695,4362.307617,4320.769043,4303.077148,4295.128418,4301.153809,4317.436035,4269.871582,4279.871582,4506.538574,4491.282227,4436.794922,4529.871582,,,,,,,,,,,,,,,,,,,,,,,,,,,,,,,,,,,,,,,,,,,,,,,,,,,,,,,,,,,,,,,,,,,,,,
1720086475,65,0,4446.410156,4368.974121,4354.871582,4312.563965,4292.820313,4293.333496,4297.179688,4315.128418,4270.641113,4276.410156,4504.487305,4492.436035,4435.256348,4526.922852,,,,,,,,,,,,,,,,,,,,,,,,,,,,,,,,,,,,,,,,,,,,,,,,,,,,,,,,,,,,,,,,,,,,,,
1720086475,66,0,4452.692383,4373.589844,4360.641113,4323.205078,4293.461426,4297.307617,4308.589844,4327.563965,4284.230957,4290.897461,4505.256348,4501.794922,4438.717773,4528.589844,,,,,,,,,,,,,,,,,,,,,,,,,,,,,,,,,,,,,,,,,,,,,,,,,,,,,,,,,,,,,,,,,,,,,,
1720086475,67,0,4461.153809,4389.871582,4371.922852,4338.589844,4301.153809,4295.256348,4314.871582,4335,4286.282227,4298.589844,4513.589844,4498.205078,4449.102539,4533.333496,4.419002,2.110924,1.17432,0.289732,0.14752,2.672998,1.785866,0.722577,0.38945,0.288865,2.365058,1.813407,1.24381,0.274403,0.141862,3.231357,1.418821,0.39593,0.328123,0.213036,0.498726,0.866882,0.518797,0.121698,0.199568,0.627519,0.229319,0.144231,0.068456,0.062222,0.471262,0.760721,0.554726,0.214968,0.163278,0.427747,0.950403,0.935341,0.208134,0.098147,0.433086,0.520319,0.586731,0.194324,0.104613,0.726267,0.602027,0.35754,0.699399,0.430881,3.154853,2.222592,1.13598,0.299746,0.294097,0.730474,0.96896,0.579238,0.116313,0.156319,2.966902,1.62377,0.811138,0.167947,0.193619,3.108924,2.006613,1.12914,0.17568,0.125206
1720086475,68,0,4458.974121,4389.615234,4373.846191,4335.512695,4305,4293.589844,4307.563965,4327.563965,4286.538574,4302.307617,4517.820313,4504.871582,4461.666504,4545.128418,,,,,,,,,,,,,,,,,,,,,,,,,,,,,,,,,,,,,,,,,,,,,,,,,,,,,,,,,,,,,,,,,,,,,,
1720086475,69,0,4458.333496,4377.94873,4371.410156,4327.820313,4307.692383,4296.666504,4303.717773,4324.487305,4285.128418,4293.717773,4511.153809,4509.615234,4464.871582,4542.436035,,,,,,,,,,,,,,,,,,,,,,,,,,,,,,,,,,,,,,,,,,,,,,,,,,,,,,,,,,,,,,,,,,,,,,
1720086475,70,0,4460.128418,4382.436035,4375.641113,4332.436035,4312.05127,4296.538574,4307.436035,4331.538574,4280.897461,4283.717773,4505.256348,4505,4449.743652,4532.563965,,,,,,,,,,,,,,,,,,,,,,,,,,,,,,,,,,,,,,,,,,,,,,,,,,,,,,,,,,,,,,,,,,,,,,
1720086475,71,0,4457.05127,4390.641113,4378.846191,4337.94873,4312.307617,4294.743652,4308.077148,4335,4283.077148,4297.563965,4503.717773,4500.256348,4442.692383,4541.153809,,,,,,,,,,,,,,,,,,,,,,,,,,,,,,,,,,,,,,,,,,,,,,,,,,,,,,,,,,,,,,,,,,,,,,
1720086475,72,0,4456.153809,4384.615234,4377.94873,4336.794922,4307.94873,4295.384766,4304.871582,4331.666504,4288.205078,4304.487305,4503.589844,4500,4455.641113,4550.641113,,,,,,,,,,,,,,,,,,,,,,,,,,,,,,,,,,,,,,,,,,,,,,,,,,,,,,,,,,,,,,,,,,,,,,
1720086475,73,0,4458.717773,4381.025879,4379.230957,4339.487305,4309.358887,4296.153809,4308.717773,4336.538574,4288.333496,4295.384766,4514.230957,4509.615234,4464.358887,4550.512695,,,,,,,,,,,,,,,,,,,,,,,,,,,,,,,,,,,,,,,,,,,,,,,,,,,,,,,,,,,,,,,,,,,,,,
1720086475,74,0,4456.794922,4388.333496,4382.436035,4344.102539,4317.563965,4295.384766,4309.230957,4347.94873,4289.615234,4302.692383,4525.128418,4512.692383,4463.589844,4557.307617,,,,,,,,,,,,,,,,,,,,,,,,,,,,,,,,,,,,,,,,,,,,,,,,,,,,,,,,,,,,,,,,,,,,,,
1720086475,75,0,4456.282227,4392.563965,4381.794922,4343.077148,4321.538574,4294.230957,4298.589844,4345.769043,4289.615234,4310.769043,4520.256348,4502.436035,4460.769043,4559.743652,,,,,,,,,,,,,,,,,,,,,,,,,,,,,,,,,,,,,,,,,,,,,,,,,,,,,,,,,,,,,,,,,,,,,,
1720086475,76,0,4456.666504,4389.871582,4378.589844,4342.436035,4323.333496,4293.589844,4298.974121,4342.94873,4288.205078,4304.230957,4516.666504,4503.974121,4460.641113,4554.743652,,,,,,,,,,,,,,,,,,,,,,,,,,,,,,,,,,,,,,,,,,,,,,,,,,,,,,,,,,,,,,,,,,,,,,
1720086475,77,0,4450.128418,4387.436035,4378.974121,4340.769043,4328.717773,4294.230957,4312.179688,4355.256348,4293.077148,4307.563965,4525.641113,4517.307617,4461.794922,4554.358887,,,,,,,,,,,,,,,,,,,,,,,,,,,,,,,,,,,,,,,,,,,,,,,,,,,,,,,,,,,,,,,,,,,,,,
1720086475,78,0,4442.692383,4387.179688,4381.025879,4336.922852,4326.922852,4296.025879,4313.589844,4361.410156,4295.512695,4313.205078,4522.94873,4507.436035,4454.230957,4546.538574,,,,,,,,,,,,,,,,,,,,,,,,,,,,,,,,,,,,,,,,,,,,,,,,,,,,,,,,,,,,,,,,,,,,,,
1720086475,79,0,4445.897461,4388.333496,4380.897461,4340.641113,4316.282227,4291.282227,4302.94873,4357.94873,4297.307617,4311.410156,4507.436035,4503.846191,4443.846191,4540,,,,,,,,,,,,,,,,,,,,,,,,,,,,,,,,,,,,,,,,,,,,,,,,,,,,,,,,,,,,,,,,,,,,,,
1720086475,80,0,4445.641113,4386.410156,4377.692383,4343.589844,4310.384766,4281.666504,4296.282227,4355.256348,4297.563965,4310.128418,4508.205078,4522.820313,4446.666504,4543.589844,,,,,,,,,,,,,,,,,,,,,,,,,,,,,,,,,,,,,,,,,,,,,,,,,,,,,,,,,,,,,,,,,,,,,,
1720086475,81,0,4430,4377.179688,4371.025879,4335.641113,4309.615234,4278.461426,4293.333496,4348.461426,4291.282227,4303.846191,4507.820313,4516.153809,4442.692383,4534.743652,,,,,,,,,,,,,,,,,,,,,,,,,,,,,,,,,,,,,,,,,,,,,,,,,,,,,,,,,,,,,,,,,,,,,,
1720086475,82,0,4422.692383,4374.102539,4370.256348,4328.205078,4310.897461,4282.179688,4292.436035,4341.282227,4290.641113,4293.589844,4492.436035,4493.461426,4426.794922,4525.769043,,,,,,,,,,,,,,,,,,,,,,,,,,,,,,,,,,,,,,,,,,,,,,,,,,,,,,,,,,,,,,,,,,,,,,
1720086475,83,0,4429.230957,4377.307617,4374.358887,4328.717773,4312.94873,4284.743652,4290.128418,4341.666504,4292.05127,4298.589844,4493.205078,4513.846191,4432.563965,4532.94873,8.218431,2.526372,1.06686,0.24407,0.148321,4.069498,1.924789,0.601873,0.361885,0.284553,3.015396,1.723907,1.107192,0.261299,0.13522,3.966019,1.296001,0.332707,0.264093,0.216573,0.659344,0.755123,0.563219,0.110413,0.195262,0.670862,0.224091,0.139751,0.0704,0.061732,0.528176,0.633763,0.473226,0.186364,0.138903,0.406694,0.969184,0.815703,0.150141,0.108722,0.521222,0.495479,0.513882,0.196774,0.119372,0.716807,0.48491,0.382654,0.652197,0.409374,3.038507,2.136316,0.968478,0.2636,0.34902,0.84319,1.050451,0.479341,0.104432,0.166153,3.424021,1.504,0.703858,0.159362,0.218676,4.448517,2.069848,1.034842,0.193584,0.13943
1720086475,84,0,4425.769043,4374.358887,4370.384766,4327.179688,4312.179688,4288.717773,4288.589844,4342.820313,4286.794922,4305,4506.282227,4513.333496,4444.615234,4537.436035,,,,,,,,,,,,,,,,,,,,,,,,,,,,,,,,,,,,,,,,,,,,,,,,,,,,,,,,,,,,,,,,,,,,,,
1720086475,85,0,4416.282227,4372.179688,4360.512695,4324.743652,4310.897461,4289.871582,4292.820313,4341.666504,4282.05127,4288.717773,4499.615234,4373.974121,4437.307617,4529.615234,,,,,,,,,,,,,,,,,,,,,,,,,,,,,,,,,,,,,,,,,,,,,,,,,,,,,,,,,,,,,,,,,,,,,,
1720086475,86,0,4412.436035,4376.794922,4355,4327.692383,4309.615234,4280.897461,4291.153809,4337.94873,4288.077148,4277.179688,4480.384766,4210.897461,4425.384766,4517.820313,,,,,,,,,,,,,,,,,,,,,,,,,,,,,,,,,,,,,,,,,,,,,,,,,,,,,,,,,,,,,,,,,,,,,,
1720086475,87,0,4406.025879,4375.641113,4352.820313,4327.692383,4308.717773,4275.128418,4282.179688,4333.077148,4296.794922,4284.871582,4473.846191,4179.871582,4418.205078,4510.897461,,,,,,,,,,,,,,,,,,,,,,,,,,,,,,,,,,,,,,,,,,,,,,,,,,,,,,,,,,,,,,,,,,,,,,
1720086475,88,0,4398.333496,4366.666504,4352.692383,4319.487305,4307.05127,4277.94873,4280.512695,4337.179688,4297.94873,4292.436035,4475.512695,4179.102539,4417.436035,4509.102539,,,,,,,,,,,,,,,,,,,,,,,,,,,,,,,,,,,,,,,,,,,,,,,,,,,,,,,,,,,,,,,,,,,,,,
1720086475,89,0,4398.077148,4363.205078,4352.820313,4318.205078,4306.410156,4278.077148,4284.615234,4342.820313,4296.153809,4295.769043,4475.641113,4119.615234,4429.358887,4506.153809,,,,,,,,,,,,,,,,,,,,,,,,,,,,,,,,,,,,,,,,,,,,,,,,,,,,,,,,,,,,,,,,,,,,,,
1720086475,90,0,4400.256348,4367.94873,4356.410156,4324.871582,4307.179688,4276.666504,4277.436035,4334.230957,4296.025879,4290.512695,4476.153809,4106.282227,4438.077148,4508.205078,,,,,,,,,,,,,,,,,,,,,,,,,,,,,,,,,,,,,,,,,,,,,,,,,,,,,,,,,,,,,,,,,,,,,,
1720086475,91,0,4398.589844,4376.025879,4367.436035,4327.179688,4310.897461,4278.589844,4266.794922,4327.563965,4292.563965,4274.102539,4475.769043,4139.871582,4429.358887,4514.487305,,,,,,,,,,,,,,,,,,,,,,,,,,,,,,,,,,,,,,,,,,,,,,,,,,,,,,,,,,,,,,,,,,,,,,
1720086475,92,0,4391.410156,4375.641113,4365.641113,4325.128418,4308.333496,4279.615234,4267.94873,4326.282227,4285.641113,4276.410156,4467.563965,4129.230957,4422.307617,4510.384766,,,,,,,,,,,,,,,,,,,,,,,,,,,,,,,,,,,,,,,,,,,,,,,,,,,,,,,,,,,,,,,,,,,,,,
1720086475,93,0,4378.077148,4360.769043,4349.102539,4318.974121,4298.846191,4283.077148,4272.179688,4317.692383,4288.205078,4293.717773,4454.358887,4116.666504,4418.589844,4500.128418,,,,,,,,,,,,,,,,,,,,,,,,,,,,,,,,,,,,,,,,,,,,,,,,,,,,,,,,,,,,,,,,,,,,,,
1720086475,94,0,4369.230957,4354.358887,4346.025879,4310.256348,4299.871582,4290.256348,4272.692383,4312.307617,4289.487305,4284.230957,4454.615234,4130.512695,4411.153809,4494.615234,,,,,,,,,,,,,,,,,,,,,,,,,,,,,,,,,,,,,,,,,,,,,,,,,,,,,,,,,,,,,,,,,,,,,,
1720086475,95,0,4375.769043,4364.871582,4358.333496,4313.589844,4302.307617,4293.333496,4273.077148,4316.153809,4283.717773,4269.102539,4461.666504,4141.410156,4416.025879,4498.589844,,,,,,,,,,,,,,,,,,,,,,,,,,,,,,,,,,,,,,,,,,,,,,,,,,,,,,,,,,,,,,,,,,,,,,
1720086475,96,0,4383.205078,4371.410156,4365,4324.871582,4296.666504,4291.794922,4272.05127,4314.102539,4287.179688,4277.179688,4459.102539,4149.230957,4425.897461,4506.282227,,,,,,,,,,,,,,,,,,,,,,,,,,,,,,,,,,,,,,,,,,,,,,,,,,,,,,,,,,,,,,,,,,,,,,
1720086475,97,0,4375.256348,4362.179688,4360.256348,4322.94873,4297.563965,4286.922852,4265.128418,4307.820313,4290.769043,4284.615234,4454.487305,4150.512695,4419.102539,4500.641113,,,,,,,,,,,,,,,,,,,,,,,,,,,,,,,,,,,,,,,,,,,,,,,,,,,,,,,,,,,,,,,,,,,,,,
1720086475,98,0,4364.358887,4352.820313,4354.743652,4315.384766,4305,4287.692383,4261.922852,4312.307617,4288.717773,4279.487305,4457.179688,4151.282227,4414.102539,4494.487305,,,,,,,,,,,,,,,,,,,,,,,,,,,,,,,,,,,,,,,,,,,,,,,,,,,,,,,,,,,,,,,,,,,,,,
1720086475,99,0,4366.922852,4362.05127,4354.230957,4322.563965,4307.94873,4294.358887,4270.512695,4321.025879,4289.358887,4278.846191,4461.410156,4159.102539,4425.256348,4501.538574,14.336034,3.071905,0.942846,0.204662,0.152045,6.296448,2.130837,0.525073,0.339955,0.264849,4.303427,1.650204,0.931416,0.249446,0.128744,5.153164,1.250332,0.31603,0.209016,0.219389,0.888013,0.640088,0.597965,0.106461,0.18025,0.72562,0.234297,0.145751,0.074211,0.063072,0.60619,0.525257,0.425346,0.170894,0.116798,0.432371,0.956908,0.721446,0.108551,0.122145,0.637453,0.478051,0.424404,0.198411,0.13458,0.735091,0.433951,0.411193,0.611092,0.394815,3.151329,2.046751,0.762703,0.232607,0.391044,1.280426,1.214884,0.398743,0.105528,0.181623,4.366661,1.427897,0.573848,0.167641,0.235951,6.914704,2.111021,0.941403,0.219653,0.154043
1720086475,100,0,4370.384766,4371.410156,4359.487305,4331.538574,4308.461426,4295.769043,4274.743652,4324.871582,4287.307617,4278.974121,4461.922852,4167.307617,4424.743652,4502.307617,,,,,,,,,,,,,,,,,,,,,,,,,,,,,,,,,,,,,,,,,,,,,,,,,,,,,,,,,,,,,,,,,,,,,,
1720086475,101,0,4369.102539,4367.820313,4366.025879,4329.743652,4310.384766,4294.102539,4268.846191,4322.820313,4282.05127,4272.05127,4463.205078,4172.94873,4416.410156,4496.794922,,,,,,,,,,,,,,,,,,,,,,,,,,,,,,,,,,,,,,,,,,,,,,,,,,,,,,,,,,,,,,,,,,,,,,
1720086475,102,0,4371.666504,4369.743652,4367.692383,4324.871582,4309.358887,4293.846191,4259.230957,4313.974121,4282.179688,4274.871582,4464.102539,4172.05127,4421.666504,4499.615234,,,,,,,,,,,,,,,,,,,,,,,,,,,,,,,,,,,,,,,,,,,,,,,,,,,,,,,,,,,,,,,,,,,,,,
1720086475,103,0,4374.743652,4379.230957,4365.256348,4328.205078,4309.487305,4293.846191,4251.794922,4306.153809,4287.05127,4291.410156,4461.282227,4164.102539,4422.692383,4498.589844,,,,,,,,,,,,,,,,,,,,,,,,,,,,,,,,,,,,,,,,,,,,,,,,,,,,,,,,,,,,,,,,,,,,,,
1720086476,104,0,4365.128418,4367.563965,4356.153809,4326.666504,4310.128418,4292.563965,4252.94873,4304.487305,4289.358887,4296.410156,4458.205078,4166.153809,4413.717773,4487.436035,,,,,,,,,,,,,,,,,,,,,,,,,,,,,,,,,,,,,,,,,,,,,,,,,,,,,,,,,,,,,,,,,,,,,,
1720086476,105,0,4351.794922,4347.05127,4345.897461,4313.846191,4308.589844,4292.436035,4259.871582,4308.846191,4286.282227,4281.025879,4458.077148,4177.94873,4413.974121,4481.538574,,,,,,,,,,,,,,,,,,,,,,,,,,,,,,,,,,,,,,,,,,,,,,,,,,,,,,,,,,,,,,,,,,,,,,
1720086476,106,0,4349.871582,4353.717773,4342.820313,4310.769043,4308.333496,4293.333496,4264.615234,4311.922852,4275.384766,4270,4460.256348,4176.666504,4413.846191,4482.820313,,,,,,,,,,,,,,,,,,,,,,,,,,,,,,,,,,,,,,,,,,,,,,,,,,,,,,,,,,,,,,,,,,,,,,
1720086476,107,0,4355,4364.615234,4348.717773,4321.410156,4310.641113,4294.871582,4264.358887,4312.563965,4276.410156,4278.333496,4458.461426,4179.871582,4402.692383,4485,,,,,,,,,,,,,,,,,,,,,,,,,,,,,,,,,,,,,,,,,,,,,,,,,,,,,,,,,,,,,,,,,,,,,,
1720086476,108,0,4355,4358.846191,4353.461426,4321.282227,4310.769043,4298.846191,4264.230957,4311.666504,4284.487305,4291.153809,4452.436035,4191.666504,4398.333496,4482.436035,,,,,,,,,,,,,,,,,,,,,,,,,,,,,,,,,,,,,,,,,,,,,,,,,,,,,,,,,,,,,,,,,,,,,,
1720086476,109,0,4346.922852,4354.487305,4347.563965,4312.05127,4311.025879,4304.358887,4266.025879,4312.05127,4280.641113,4294.487305,4450.897461,4195.641113,4404.102539,4475.384766,,,,,,,,,,,,,,,,,,,,,,,,,,,,,,,,,,,,,,,,,,,,,,,,,,,,,,,,,,,,,,,,,,,,,,
1720086476,110,0,4343.974121,4358.589844,4342.179688,4315.641113,4316.922852,4304.871582,4267.307617,4310.769043,4279.102539,4284.743652,4449.615234,4186.153809,4398.077148,4472.94873,,,,,,,,,,,,,,,,,,,,,,,,,,,,,,,,,,,,,,,,,,,,,,,,,,,,,,,,,,,,,,,,,,,,,,
1720086476,111,0,4347.820313,4362.307617,4340.256348,4321.794922,4320.128418,4298.333496,4262.94873,4299.230957,4278.589844,4268.077148,4439.487305,4129.487305,4378.974121,4465.128418,,,,,,,,,,,,,,,,,,,,,,,,,,,,,,,,,,,,,,,,,,,,,,,,,,,,,,,,,,,,,,,,,,,,,,
1720086476,112,0,4346.282227,4355.769043,4341.025879,4315.128418,4313.974121,4294.230957,4257.692383,4293.974121,4276.025879,4262.05127,4437.692383,4066.153809,4371.922852,4458.205078,,,,,,,,,,,,,,,,,,,,,,,,,,,,,,,,,,,,,,,,,,,,,,,,,,,,,,,,,,,,,,,,,,,,,,
1720086476,113,0,4342.307617,4346.282227,4343.717773,4307.820313,4306.153809,4293.077148,4259.615234,4298.974121,4278.461426,4272.05127,4443.589844,4063.461426,4374.358887,4462.05127,,,,,,,,,,,,,,,,,,,,,,,,,,,,,,,,,,,,,,,,,,,,,,,,,,,,,,,,,,,,,,,,,,,,,,
1720086476,114,0,4341.538574,4343.589844,4336.666504,4304.102539,4305.769043,4291.025879,4260.128418,4295,4280,4278.589844,4433.077148,4072.692383,4368.589844,4460.128418,,,,,,,,,,,,,,,,,,,,,,,,,,,,,,,,,,,,,,,,,,,,,,,,,,,,,,,,,,,,,,,,,,,,,,
1720086476,115,0,4337.307617,4345.769043,4327.563965,4303.077148,4309.743652,4294.230957,4265.769043,4297.563965,4278.846191,4270.897461,4415.641113,4059.615479,4356.153809,4454.615234,22.093185,3.688934,0.856101,0.179814,0.159446,9.120598,2.39782,0.497416,0.327009,0.238795,5.974422,1.572846,0.77178,0.247263,0.125161,6.534981,1.27683,0.340833,0.176328,0.222241,1.150762,0.574745,0.628732,0.114302,0.158252,0.774791,0.255677,0.1603,0.080243,0.064722,0.730135,0.471173,0.419105,0.17397,0.103284,0.560208,0.916299,0.677082,0.083097,0.136033,0.79517,0.479187,0.344857,0.197695,0.144581,0.823382,0.450163,0.43396,0.592675,0.385866,3.618742,1.887918,0.584573,0.207371,0.406527,3.348487,1.928492,0.520454,0.172233,0.224252,5.75758,1.398144,0.467286,0.189666,0.241527,10.372922,2.122514,0.89514,0.248283,0.165886
1720086476,116,0,4330.512695,4345,4329.102539,4307.563965,4310.512695,4296.282227,4280.512695,4316.794922,4278.589844,4261.025879,4410.897461,4063.205078,4342.179688,4455.128418,,,,,,,,,,,,,,,,,,,,,,,,,,,,,,,,,,,,,,,,,,,,,,,,,,,,,,,,,,,,,,,,,,,,,,
1720086476,117,0,4331.666504,4341.794922,4334.358887,4310.128418,4307.179688,4292.563965,4281.282227,4320.384766,4276.922852,4260,4420.384766,4071.538574,4342.05127,4451.666504,,,,,,,,,,,,,,,,,,,,,,,,,,,,,,,,,,,,,,,,,,,,,,,,,,,,,,,,,,,,,,,,,,,,,,
1720086476,118,0,4338.717773,4341.666504,4336.025879,4307.820313,4306.538574,4290,4266.025879,4309.615234,4276.282227,4265.512695,4429.230957,4069.615479,4358.333496,4450.128418,,,,,,,,,,,,,,,,,,,,,,,,,,,,,,,,,,,,,,,,,,,,,,,,,,,,,,,,,,,,,,,,,,,,,,
1720086476,119,0,4339.615234,4346.666504,4337.436035,4308.974121,4309.743652,4291.282227,4258.077148,4306.922852,4279.871582,4268.589844,4417.820313,4072.820557,4357.563965,4451.153809,,,,,,,,,,,,,,,,,,,,,,,,,,,,,,,,,,,,,,,,,,,,,,,,,,,,,,,,,,,,,,,,,,,,,,
1720086476,120,0,4332.820313,4346.794922,4332.05127,4305.641113,4309.230957,4291.153809,4258.846191,4300.128418,4272.179688,4264.487305,4400.128418,4066.153809,4339.102539,4434.487305,,,,,,,,,,,,,,,,,,,,,,,,,,,,,,,,,,,,,,,,,,,,,,,,,,,,,,,,,,,,,,,,,,,,,,
1720086476,121,0,4323.974121,4330.897461,4324.871582,4295.897461,4307.692383,4293.205078,4262.563965,4296.410156,4269.230957,4261.538574,4407.307617,4068.718018,4340.897461,4425.384766,,,,,,,,,,,,,,,,,,,,,,,,,,,,,,,,,,,,,,,,,,,,,,,,,,,,,,,,,,,,,,,,,,,,,,
1720086476,122,0,4316.153809,4315.384766,4320.641113,4290.897461,4308.846191,4300.384766,4271.025879,4306.153809,4275.641113,4260.897461,4416.025879,4081.025635,4347.307617,4434.102539,,,,,,,,,,,,,,,,,,,,,,,,,,,,,,,,,,,,,,,,,,,,,,,,,,,,,,,,,,,,,,,,,,,,,,
1720086476,123,0,4314.358887,4322.820313,4315.769043,4292.307617,4311.025879,4306.666504,4278.974121,4309.871582,4270.128418,4260,4398.717773,4076.025635,4332.692383,4429.358887,,,,,,,,,,,,,,,,,,,,,,,,,,,,,,,,,,,,,,,,,,,,,,,,,,,,,,,,,,,,,,,,,,,,,,
1720086476,124,0,4320.128418,4335.512695,4324.615234,4300,4308.846191,4311.025879,4281.666504,4308.333496,4268.077148,4257.563965,4386.410156,4081.153809,4319.871582,4419.487305,,,,,,,,,,,,,,,,,,,,,,,,,,,,,,,,,,,,,,,,,,,,,,,,,,,,,,,,,,,,,,,,,,,,,,
1720086476,125,0,4325.897461,4331.538574,4341.410156,4308.077148,4306.666504,4307.94873,4282.05127,4312.307617,4272.307617,4253.974121,4400,4097.179688,4325,4425,,,,,,,,,,,,,,,,,,,,,,,,,,,,,,,,,,,,,,,,,,,,,,,,,,,,,,,,,,,,,,,,,,,,,,
1720086476,126,0,4326.666504,4325,4342.94873,4304.102539,4315.384766,4302.05127,4280.641113,4313.077148,4273.333496,4254.615234,4417.307617,4099.358887,4338.717773,4436.410156,,,,,,,,,,,,,,,,,,,,,,,,,,,,,,,,,,,,,,,,,,,,,,,,,,,,,,,,,,,,,,,,,,,,,,
1720086476,127,0,4329.743652,4339.358887,4339.871582,4305.128418,4321.666504,4295.769043,4273.461426,4307.436035,4273.846191,4260.769043,4419.230957,4097.307617,4344.102539,4440.256348,,,,,,,,,,,,,,,,,,,,,,,,,,,,,,,,,,,,,,,,,,,,,,,,,,,,,,,,,,,,,,,,,,,,,,
1720086476,0,0,4336.153809,4355.897461,4348.461426,4317.820313,4313.077148,4285.897461,4265,4303.846191,4273.077148,4268.589844,4418.589844,4104.358887,4338.717773,4440.897461,,,,,,,,,,,,,,,,,,,,,,,,,,,,,,,,,,,,,,,,,,,,,,,,,,,,,,,,,,,,,,,,,,,,,,
1720086476,1,0,4338.974121,4347.820313,4346.153809,4317.692383,4307.436035,4281.282227,4265.384766,4305.897461,4273.974121,4278.333496,4427.436035,4114.871582,4341.025879,4446.282227,,,,,,,,,,,,,,,,,,,,,,,,,,,,,,,,,,,,,,,,,,,,,,,,,,,,,,,,,,,,,,,,,,,,,,
1720086476,2,0,4340.128418,4339.230957,4325,4310.384766,4312.436035,4286.666504,4274.615234,4310.384766,4284.102539,4283.846191,4434.871582,4124.102539,4355,4454.487305,,,,,,,,,,,,,,,,,,,,,,,,,,,,,,,,,,,,,,,,,,,,,,,,,,,,,,,,,,,,,,,,,,,,,,
1720086476,3,0,4335.512695,4344.615234,4309.102539,4312.436035,4310.256348,4290.641113,4279.743652,4311.538574,4288.846191,4277.563965,4427.179688,4122.179688,4348.717773,4447.563965,29.667725,4.276151,0.820766,0.17567,0.168226,11.83475,2.672512,0.505494,0.324085,0.216488,7.537088,1.472961,0.660484,0.260598,0.12515,7.699956,1.326935,0.391441,0.171122,0.224472,1.402206,0.583851,0.661061,0.135537,0.134759,0.803085,0.281585,0.181612,0.089922,0.06493,0.907041,0.466052,0.444709,0.195929,0.100104,0.824706,0.849238,0.689864,0.071863,0.147135,1.006052,0.508991,0.295198,0.196394,0.145189,1.004136,0.520031,0.447275,0.60377,0.38209,4.423725,1.628462,0.476514,0.195443,0.392131,10.974671,4.125037,1.139199,0.413696,0.34932,7.286127,1.393252,0.413695,0.227839,0.236285,14.015482,2.11417,0.903631,0.274205,0.171705
1720086476,4,0,4323.333496,4336.282227,4307.307617,4310.384766,4309.487305,4290.128418,4278.205078,4307.307617,4273.974121,4266.410156,4406.794922,4110.897461,4318.589844,4426.794922,,,,,,,,,,,,,,,,,,,,,,,,,,,,,,,,,,,,,,,,,,,,,,,,,,,,,,,,,,,,,,,,,,,,,,
1720086476,5,0,4319.487305,4326.922852,4310,4306.922852,4320.897461,4296.153809,4279.102539,4304.487305,4266.410156,4254.871582,4399.871582,4118.461426,4309.230957,4422.307617,,,,,,,,,,,,,,,,,,,,,,,,,,,,,,,,,,,,,,,,,,,,,,,,,,,,,,,,,,,,,,,,,,,,,,
1720086476,6,0,4325.769043,4331.922852,4309.230957,4308.461426,4321.666504,4298.205078,4280,4303.846191,4270.128418,4249.230957,4411.282227,4128.333496,4325.384766,4428.589844,,,,,,,,,,,,,,,,,,,,,,,,,,,,,,,,,,,,,,,,,,,,,,,,,,,,,,,,,,,,,,,,,,,,,,
1720086476,7,0,4324.871582,4328.974121,4305.769043,4306.794922,4311.282227,4292.820313,4280.384766,4306.025879,4271.794922,4259.871582,4413.333496,4124.487305,4327.94873,4426.153809,,,,,,,,,,,,,,,,,,,,,,,,,,,,,,,,,,,,,,,,,,,,,,,,,,,,,,,,,,,,,,,,,,,,,,
1720086476,8,0,4325.769043,4327.179688,4308.333496,4306.025879,4310.897461,4296.538574,4279.871582,4308.205078,4269.358887,4263.077148,4404.358887,4114.743652,4316.410156,4424.487305,,,,,,,,,,,,,,,,,,,,,,,,,,,,,,,,,,,,,,,,,,,,,,,,,,,,,,,,,,,,,,,,,,,,,,
1720086476,9,0,4337.436035,4338.589844,4320.128418,4311.410156,4313.589844,4300.512695,4278.846191,4305.641113,4263.205078,4249.102539,4405.897461,4096.025879,4317.563965,4426.025879,,,,,,,,,,,,,,,,,,,,,,,,,,,,,,,,,,,,,,,,,,,,,,,,,,,,,,,,,,,,,,,,,,,,,,
1720086476,10,0,4340.384766,4338.461426,4327.436035,4315.128418,4308.205078,4296.922852,4280.128418,4307.179688,4263.846191,4245.897461,4418.077148,4090,4328.333496,4430.384766,,,,,,,,,,,,,,,,,,,,,,,,,,,,,,,,,,,,,,,,,,,,,,,,,,,,,,,,,,,,,,,,,,,,,,
1720086476,11,0,4340.384766,4334.358887,4329.230957,4319.487305,4312.436035,4299.871582,4282.820313,4313.333496,4264.102539,4247.179688,4427.436035,4100.897461,4326.025879,4439.102539,,,,,,,,,,,,,,,,,,,,,,,,,,,,,,,,,,,,,,,,,,,,,,,,,,,,,,,,,,,,,,,,,,,,,,
1720086476,12,0,4345.256348,4344.102539,4333.974121,4322.692383,4323.205078,4303.974121,4282.820313,4309.615234,4261.922852,4244.487305,4433.077148,4099.871582,4317.179688,4440.256348,,,,,,,,,,,,,,,,,,,,,,,,,,,,,,,,,,,,,,,,,,,,,,,,,,,,,,,,,,,,,,,,,,,,,,
1720086476,13,0,4337.94873,4340.512695,4327.436035,4318.589844,4321.666504,4298.461426,4281.794922,4295.769043,4267.563965,4257.563965,4427.05127,4084.487061,4310.769043,4429.615234,,,,,,,,,,,,,,,,,,,,,,,,,,,,,,,,,,,,,,,,,,,,,,,,,,,,,,,,,,,,,,,,,,,,,,
1720086476,14,0,4322.179688,4325.256348,4309.102539,4308.333496,4320.512695,4301.282227,4277.179688,4291.666504,4269.230957,4266.282227,4414.102539,4073.718018,4301.025879,4413.589844,,,,,,,,,,,,,,,,,,,,,,,,,,,,,,,,,,,,,,,,,,,,,,,,,,,,,,,,,,,,,,,,,,,,,,
1720086476,15,0,4313.077148,4323.974121,4299.615234,4297.692383,4325.641113,4307.179688,4268.589844,4295.897461,4265.384766,4260,4412.307617,4072.05127,4292.307617,4401.153809,,,,,,,,,,,,,,,,,,,,,,,,,,,,,,,,,,,,,,,,,,,,,,,,,,,,,,,,,,,,,,,,,,,,,,
1720086476,16,0,4311.922852,4328.205078,4304.487305,4298.974121,4320.641113,4299.230957,4264.615234,4292.94873,4268.077148,4259.615234,4418.333496,4080.512939,4294.102539,4399.487305,,,,,,,,,,,,,,,,,,,,,,,,,,,,,,,,,,,,,,,,,,,,,,,,,,,,,,,,,,,,,,,,,,,,,,
1720086476,17,0,4317.94873,4330.641113,4310.384766,4314.743652,4309.102539,4297.05127,4264.871582,4287.820313,4266.025879,4253.205078,4424.487305,4090.512939,4301.922852,4401.025879,,,,,,,,,,,,,,,,,,,,,,,,,,,,,,,,,,,,,,,,,,,,,,,,,,,,,,,,,,,,,,,,,,,,,,
1720086476,18,0,4327.94873,4338.846191,4320.512695,4324.487305,4312.820313,4308.717773,4264.615234,4289.615234,4258.846191,4241.153809,4433.205078,4101.025879,4310.897461,4404.743652,,,,,,,,,,,,,,,,,,,,,,,,,,,,,,,,,,,,,,,,,,,,,,,,,,,,,,,,,,,,,,,,,,,,,,
1720086476,19,0,4337.692383,4346.538574,4335.641113,4325.769043,4322.94873,4311.666504,4266.282227,4296.666504,4271.282227,4256.794922,4444.743652,4123.205078,4325.256348,4423.077148,35.055817,4.70057,0.812494,0.195681,0.174434,13.703862,2.859679,0.53669,0.331638,0.20678,8.514134,1.340191,0.59992,0.292026,0.127681,8.184525,1.341223,0.449362,0.18934,0.225056,1.590384,0.65135,0.690567,0.165413,0.114443,0.794502,0.30835,0.207952,0.105799,0.062677,1.072487,0.479035,0.489727,0.235081,0.104185,1.197353,0.765153,0.757444,0.07528,0.152839,1.232962,0.565236,0.279952,0.1973,0.135733,1.280422,0.614444,0.447407,0.639898,0.384825,5.343787,1.299623,0.442251,0.20236,0.355453,29.856737,8.6898,2.513386,0.91997,0.609537,8.552752,1.381947,0.41611,0.28432,0.227072,16.94009,2.102788,0.932838,0.293795,0.170183
1720086476,20,0,4340.512695,4343.717773,4337.307617,4329.743652,4324.615234,4306.025879,4266.666504,4295,4278.846191,4273.846191,4450,4124.743652,4337.179688,4430.769043,,,,,,,,,,,,,,,,,,,,,,,,,,,,,,,,,,,,,,,,,,,,,,,,,,,,,,,,,,,,,,,,,,,,,,
1720086476,21,0,4333.461426,4337.94873,4326.282227,4327.563965,4324.743652,4305.641113,4267.179688,4281.794922,4265.256348,4248.846191,4439.871582,4107.05127,4326.922852,4412.436035,,,,,,,,,,,,,,,,,,,,,,,,,,,,,,,,,,,,,,,,,,,,,,,,,,,,,,,,,,,,,,,,,,,,,,
1720086476,22,0,4326.410156,4335.384766,4321.282227,4318.461426,4327.179688,4307.563965,4272.820313,4280.897461,4261.282227,4222.179688,4426.538574,4108.974121,4310.384766,4400,,,,,,,,,,,,,,,,,,,,,,,,,,,,,,,,,,,,,,,,,,,,,,,,,,,,,,,,,,,,,,,,,,,,,,
1720086476,23,0,4329.487305,4332.436035,4326.538574,4319.230957,4327.563965,4309.230957,4279.487305,4293.846191,4270.256348,4237.820313,4431.538574,4118.333496,4316.794922,4401.666504,,,,,,,,,,,,,,,,,,,,,,,,,,,,,,,,,,,,,,,,,,,,,,,,,,,,,,,,,,,,,,,,,,,,,,
1720086476,24,0,4329.358887,4326.922852,4329.358887,4323.333496,4325.897461,4316.538574,4285.897461,4302.563965,4280.641113,4266.794922,4445.641113,4123.974121,4338.077148,4406.025879,,,,,,,,,,,,,,,,,,,,,,,,,,,,,,,,,,,,,,,,,,,,,,,,,,,,,,,,,,,,,,,,,,,,,,
1720086476,25,0,4326.282227,4322.94873,4326.282227,4319.102539,4324.743652,4322.307617,4293.717773,4304.871582,4288.077148,4269.102539,4445.384766,4132.307617,4343.589844,4405.512695,,,,,,,,,,,,,,,,,,,,,,,,,,,,,,,,,,,,,,,,,,,,,,,,,,,,,,,,,,,,,,,,,,,,,,
1720086476,26,0,4326.282227,4322.307617,4321.922852,4310.128418,4322.436035,4321.025879,4296.794922,4308.205078,4288.077148,4257.94873,4448.333496,4136.794922,4344.487305,4402.179688,,,,,,,,,,,,,,,,,,,,,,,,,,,,,,,,,,,,,,,,,,,,,,,,,,,,,,,,,,,,,,,,,,,,,,
1720086476,27,0,4323.974121,4322.563965,4321.794922,4307.436035,4321.538574,4321.153809,4292.563965,4309.871582,4288.717773,4265.769043,4460.256348,4140,4354.102539,4403.077148,,,,,,,,,,,,,,,,,,,,,,,,,,,,,,,,,,,,,,,,,,,,,,,,,,,,,,,,,,,,,,,,,,,,,,
1720086476,28,0,4326.282227,4324.743652,4327.179688,4315.897461,4323.461426,4320.897461,4286.410156,4304.102539,4295,4280,4456.025879,4146.282227,4357.820313,4403.461426,,,,,,,,,,,,,,,,,,,,,,,,,,,,,,,,,,,,,,,,,,,,,,,,,,,,,,,,,,,,,,,,,,,,,,
1720086476,29,0,4333.205078,4328.205078,4329.743652,4325.641113,4325.897461,4312.179688,4279.230957,4296.922852,4296.922852,4277.563965,4443.717773,4145.897461,4355.641113,4399.230957,,,,,,,,,,,,,,,,,,,,,,,,,,,,,,,,,,,,,,,,,,,,,,,,,,,,,,,,,,,,,,,,,,,,,,
1720086476,30,0,4333.717773,4329.230957,4330.641113,4327.307617,4327.692383,4306.025879,4271.410156,4290.641113,4290.256348,4255.897461,4441.153809,4144.102539,4355.256348,4398.077148,,,,,,,,,,,,,,,,,,,,,,,,,,,,,,,,,,,,,,,,,,,,,,,,,,,,,,,,,,,,,,,,,,,,,,
1720086476,31,0,4337.179688,4329.358887,4338.717773,4327.436035,4328.205078,4309.487305,4271.666504,4285.256348,4282.820313,4244.743652,4447.820313,4155.769043,4359.615234,4409.230957,,,,,,,,,,,,,,,,,,,,,,,,,,,,,,,,,,,,,,,,,,,,,,,,,,,,,,,,,,,,,,,,,,,,,,
1720086476,32,0,4343.974121,4328.589844,4346.410156,4329.230957,4326.922852,4310.769043,4275.512695,4280.641113,4281.538574,4264.871582,4454.743652,4166.538574,4371.538574,4418.846191,,,,,,,,,,,,,,,,,,,,,,,,,,,,,,,,,,,,,,,,,,,,,,,,,,,,,,,,,,,,,,,,,,,,,,
1720086476,33,0,4338.333496,4323.717773,4345.769043,4323.846191,4326.282227,4308.077148,4272.94873,4277.05127,4283.974121,4270.641113,4452.820313,4171.410156,4374.230957,4415.769043,,,,,,,,,,,,,,,,,,,,,,,,,,,,,,,,,,,,,,,,,,,,,,,,,,,,,,,,,,,,,,,,,,,,,,
1720086476,34,0,4330.512695,4321.410156,4342.692383,4320.641113,4328.589844,4308.589844,4272.307617,4282.307617,4281.794922,4251.025879,4442.436035,4173.589844,4364.230957,4407.563965,,,,,,,,,,,,,,,,,,,,,,,,,,,,,,,,,,,,,,,,,,,,,,,,,,,,,,,,,,,,,,,,,,,,,,
1720086476,35,0,4329.615234,4324.615234,4338.077148,4326.410156,4329.743652,4310.512695,4280.256348,4288.717773,4276.282227,4245.384766,4428.846191,4170.897461,4356.282227,4397.436035,36.595284,4.824594,0.797235,0.238032,0.175205,14.094666,2.867767,0.585169,0.347499,0.215583,8.604836,1.198953,0.584005,0.341674,0.13144,7.805587,1.282104,0.500991,0.223742,0.223555,1.675631,0.728946,0.707301,0.195797,0.099497,0.753253,0.344558,0.23822,0.130679,0.058268,1.187338,0.478144,0.543502,0.291257,0.110617,1.581291,0.677499,0.861875,0.097125,0.152347,1.415561,0.632135,0.291045,0.201432,0.119202,1.585981,0.706382,0.439304,0.692755,0.393251,6.090885,0.988933,0.47575,0.229173,0.314106,60.642887,15.610592,4.656186,1.69094,1.008898,9.256835,1.35059,0.473586,0.355817,0.226011,18.165934,2.086444,0.946792,0.308126,0.163379
1720086476,36,0,4324.230957,4324.487305,4326.666504,4323.589844,4327.94873,4311.025879,4283.077148,4286.666504,4271.025879,4242.179688,4418.205078,4169.743652,4350.769043,4385.897461,,,,,,,,,,,,,,,,,,,,,,,,,,,,,,,,,,,,,,,,,,,,,,,,,,,,,,,,,,,,,,,,,,,,,,
1720086476,37,0,4313.846191,4317.563965,4314.358887,4312.436035,4327.179688,4310,4277.307617,4285.384766,4267.94873,4229.871582,4409.487305,4161.538574,4338.589844,4372.94873,,,,,,,,,,,,,,,,,,,,,,,,,,,,,,,,,,,,,,,,,,,,,,,,,,,,,,,,,,,,,,,,,,,,,,
1720086476,38,0,4310.384766,4313.974121,4309.102539,4308.205078,4326.922852,4309.871582,4278.077148,4291.025879,4274.358887,4241.282227,4400.641113,4157.692383,4332.179688,4366.153809,,,,,,,,,,,,,,,,,,,,,,,,,,,,,,,,,,,,,,,,,,,,,,,,,,,,,,,,,,,,,,,,,,,,,,
1720086476,39,0,4312.94873,4313.589844,4310.512695,4310.256348,4322.179688,4308.461426,4279.487305,4288.333496,4281.025879,4263.846191,4398.974121,4168.589844,4340.641113,4368.846191,,,,,,,,,,,,,,,,,,,,,,,,,,,,,,,,,,,,,,,,,,,,,,,,,,,,,,,,,,,,,,,,,,,,,,
1720086476,40,0,4316.282227,4311.025879,4318.205078,4316.794922,4319.487305,4304.487305,4272.820313,4277.179688,4278.974121,4265.641113,4407.436035,4174.358887,4353.974121,4372.820313,,,,,,,,,,,,,,,,,,,,,,,,,,,,,,,,,,,,,,,,,,,,,,,,,,,,,,,,,,,,,,,,,,,,,,
1720086476,41,0,4322.563965,4317.692383,4327.563965,4326.153809,4321.538574,4302.94873,4269.230957,4275.769043,4282.179688,4261.153809,4414.102539,4176.794922,4359.871582,4374.871582,,,,,,,,,,,,,,,,,,,,,,,,,,,,,,,,,,,,,,,,,,,,,,,,,,,,,,,,,,,,,,,,,,,,,,
1720086476,42,0,4326.666504,4325.641113,4328.717773,4326.922852,4321.922852,4308.077148,4276.153809,4279.487305,4287.307617,4265.128418,4416.282227,4185,4360,4378.205078,,,,,,,,,,,,,,,,,,,,,,,,,,,,,,,,,,,,,,,,,,,,,,,,,,,,,,,,,,,,,,,,,,,,,,
1720086476,43,0,4325,4316.538574,4324.487305,4320.384766,4321.666504,4310.128418,4281.922852,4277.307617,4285.897461,4274.487305,4415.641113,4188.077148,4358.333496,4379.743652,,,,,,,,,,,,,,,,,,,,,,,,,,,,,,,,,,,,,,,,,,,,,,,,,,,,,,,,,,,,,,,,,,,,,,
1720086476,44,0,4321.794922,4308.461426,4325.769043,4318.717773,4325.512695,4303.077148,4276.538574,4273.974121,4281.538574,4270.384766,4400.641113,4191.282227,4347.179688,4375.256348,,,,,,,,,,,,,,,,,,,,,,,,,,,,,,,,,,,,,,,,,,,,,,,,,,,,,,,,,,,,,,,,,,,,,,
1720086476,45,0,4324.230957,4315.897461,4331.538574,4322.692383,4325.769043,4302.820313,4276.410156,4275.769043,4275.384766,4252.179688,4388.077148,4199.102539,4336.538574,4368.717773,,,,,,,,,,,,,,,,,,,,,,,,,,,,,,,,,,,,,,,,,,,,,,,,,,,,,,,,,,,,,,,,,,,,,,
1720086476,46,0,4326.794922,4317.94873,4333.717773,4327.563965,4322.692383,4308.589844,4286.410156,4282.820313,4274.871582,4248.589844,4400.256348,4197.820313,4344.230957,4371.538574,,,,,,,,,,,,,,,,,,,,,,,,,,,,,,,,,,,,,,,,,,,,,,,,,,,,,,,,,,,,,,,,,,,,,,
1720086476,47,0,4324.615234,4309.615234,4332.05127,4325.769043,4325.384766,4302.692383,4286.538574,4283.846191,4281.794922,4249.743652,4415.769043,4204.358887,4353.461426,4384.615234,,,,,,,,,,,,,,,,,,,,,,,,,,,,,,,,,,,,,,,,,,,,,,,,,,,,,,,,,,,,,,,,,,,,,,
1720086476,48,0,4321.153809,4309.743652,4327.307617,4317.692383,4328.589844,4294.358887,4278.717773,4280,4282.94873,4245.769043,4410.641113,4212.692383,4348.461426,4386.666504,,,,,,,,,,,,,,,,,,,,,,,,,,,,,,,,,,,,,,,,,,,,,,,,,,,,,,,,,,,,,,,,,,,,,,
1720086476,49,0,4318.974121,4313.205078,4325.512695,4319.230957,4322.307617,4296.666504,4278.717773,4279.615234,4281.794922,4248.589844,4398.461426,4204.743652,4340.128418,4377.307617,,,,,,,,,,,,,,,,,,,,,,,,,,,,,,,,,,,,,,,,,,,,,,,,,,,,,,,,,,,,,,,,,,,,,,
1720086476,50,0,4321.410156,4312.563965,4325.128418,4326.410156,4316.410156,4297.436035,4279.102539,4274.615234,4285.384766,4251.666504,4393.717773,4206.922852,4332.179688,4376.153809,,,,,,,,,,,,,,,,,,,,,,,,,,,,,,,,,,,,,,,,,,,,,,,,,,,,,,,,,,,,,,,,,,,,,,
1720086476,51,0,4323.589844,4311.794922,4320.512695,4321.922852,4320.769043,4293.461426,4276.282227,4266.025879,4283.846191,4255.256348,4395.384766,4214.615234,4326.153809,4376.410156,33.849804,4.579534,0.777129,0.292917,0.169137,12.919899,2.656194,0.656331,0.362511,0.242603,7.845043,1.112053,0.621534,0.404138,0.135709,6.661525,1.150254,0.545173,0.262918,0.219903,1.641886,0.763011,0.701027,0.221191,0.090237,0.688928,0.402129,0.270391,0.164643,0.053194,1.185712,0.45987,0.604743,0.362084,0.115616,1.869797,0.603058,0.972545,0.142281,0.147278,1.499303,0.684657,0.312577,0.20734,0.1019,1.874631,0.790099,0.424912,0.754725,0.406815,6.43541,0.766939,0.576652,0.275816,0.287545,100.811516,23.618296,7.198122,2.606967,1.477623,9.311398,1.278976,0.60246,0.433808,0.244982,17.343939,2.037905,0.947751,0.324139,0.156189
1720086476,52,0,4323.333496,4311.666504,4320.769043,4321.025879,4324.102539,4294.102539,4280.384766,4264.871582,4286.538574,4267.307617,4401.922852,4214.230957,4332.05127,4375.256348,,,,,,,,,,,,,,,,,,,,,,,,,,,,,,,,,,,,,,,,,,,,,,,,,,,,,,,,,,,,,,,,,,,,,,
1720086476,53,0,4317.820313,4312.563965,4320.256348,4327.692383,4320.384766,4297.563965,4281.666504,4265.384766,4288.974121,4266.922852,4397.05127,4211.666504,4328.846191,4371.282227,,,,,,,,,,,,,,,,,,,,,,,,,,,,,,,,,,,,,,,,,,,,,,,,,,,,,,,,,,,,,,,,,,,,,,
1720086476,54,0,4310.256348,4310.256348,4310.769043,4319.871582,4320.128418,4297.94873,4279.871582,4266.025879,4281.282227,4257.307617,4385,4210,4313.974121,4363.974121,,,,,,,,,,,,,,,,,,,,,,,,,,,,,,,,,,,,,,,,,,,,,,,,,,,,,,,,,,,,,,,,,,,,,,
1720086476,55,0,4308.589844,4305,4308.077148,4309.358887,4323.717773,4294.358887,4289.358887,4273.974121,4284.230957,4262.692383,4389.102539,4214.743652,4318.077148,4364.743652,,,,,,,,,,,,,,,,,,,,,,,,,,,,,,,,,,,,,,,,,,,,,,,,,,,,,,,,,,,,,,,,,,,,,,
1720086476,56,0,4316.410156,4309.871582,4320.897461,4318.589844,4325.769043,4293.077148,4295.641113,4280.641113,4294.102539,4264.487305,4398.077148,4225.769043,4328.717773,4370,,,,,,,,,,,,,,,,,,,,,,,,,,,,,,,,,,,,,,,,,,,,,,,,,,,,,,,,,,,,,,,,,,,,,,
1720086476,57,0,4329.743652,4324.871582,4332.436035,4334.102539,4327.179688,4296.538574,4290.641113,4280.384766,4290.384766,4261.025879,4400.384766,4234.358887,4327.820313,4376.410156,,,,,,,,,,,,,,,,,,,,,,,,,,,,,,,,,,,,,,,,,,,,,,,,,,,,,,,,,,,,,,,,,,,,,,
1720086476,58,0,4336.153809,4328.077148,4336.794922,4339.615234,4325.641113,4291.538574,4287.692383,4281.666504,4286.025879,4271.410156,4408.333496,4241.538574,4336.025879,4386.794922,,,,,,,,,,,,,,,,,,,,,,,,,,,,,,,,,,,,,,,,,,,,,,,,,,,,,,,,,,,,,,,,,,,,,,
1720086476,59,0,4341.666504,4322.94873,4344.102539,4340.256348,4326.410156,4283.077148,4286.922852,4282.820313,4294.615234,4275.769043,4417.05127,4253.589844,4348.717773,4395.128418,,,,,,,,,,,,,,,,,,,,,,,,,,,,,,,,,,,,,,,,,,,,,,,,,,,,,,,,,,,,,,,,,,,,,,
1720086476,60,0,4351.922852,4329.871582,4348.974121,4346.794922,4332.820313,4282.179688,4281.922852,4280.769043,4295.128418,4264.487305,4412.820313,4253.333496,4342.692383,4392.563965,,,,,,,,,,,,,,,,,,,,,,,,,,,,,,,,,,,,,,,,,,,,,,,,,,,,,,,,,,,,,,,,,,,,,,
1720086476,61,0,4355,4337.820313,4342.820313,4351.794922,4333.333496,4283.974121,4277.563965,4281.025879,4286.025879,4258.846191,4405.641113,4247.820313,4334.871582,4388.974121,,,,,,,,,,,,,,,,,,,,,,,,,,,,,,,,,,,,,,,,,,,,,,,,,,,,,,,,,,,,,,,,,,,,,,
1720086476,62,0,4348.077148,4329.230957,4335.897461,4345.512695,4326.922852,4287.179688,4279.743652,4278.589844,4282.563965,4262.05127,4401.153809,4251.666504,4340.128418,4387.436035,,,,,,,,,,,,,,,,,,,,,,,,,,,,,,,,,,,,,,,,,,,,,,,,,,,,,,,,,,,,,,,,,,,,,,
1720086476,63,0,4343.461426,4320.769043,4336.794922,4339.871582,4323.717773,4292.307617,4287.563965,4273.846191,4286.538574,4265.256348,4397.05127,4252.692383,4339.358887,4381.153809,,,,,,,,,,,,,,,,,,,,,,,,,,,,,,,,,,,,,,,,,,,,,,,,,,,,,,,,,,,,,,,,,,,,,,
1720086476,64,0,4349.871582,4330.256348,4343.846191,4345.256348,4326.794922,4294.615234,4295,4276.666504,4294.358887,4272.820313,4397.307617,4258.717773,4332.692383,4382.692383,,,,,,,,,,,,,,,,,,,,,,,,,,,,,,,,,,,,,,,,,,,,,,,,,,,,,,,,,,,,,,,,,,,,,,
1720086476,65,0,4356.410156,4339.871582,4348.717773,4348.846191,4330.128418,4294.743652,4296.025879,4280.897461,4294.102539,4273.077148,4398.333496,4265.512695,4333.974121,4381.025879,,,,,,,,,,,,,,,,,,,,,,,,,,,,,,,,,,,,,,,,,,,,,,,,,,,,,,,,,,,,,,,,,,,,,,
1720086476,66,0,4350.512695,4327.563965,4341.666504,4340.769043,4327.692383,4293.717773,4295.128418,4277.563965,4291.282227,4269.487305,4398.589844,4263.333496,4341.282227,4368.974121,,,,,,,,,,,,,,,,,,,,,,,,,,,,,,,,,,,,,,,,,,,,,,,,,,,,,,,,,,,,,,,,,,,,,,
1720086476,67,0,4341.153809,4308.589844,4328.846191,4329.102539,4322.05127,4294.102539,4296.410156,4280.256348,4296.025879,4282.692383,4399.230957,4263.077148,4344.230957,4366.025879,27.735525,4.004471,0.792399,0.347806,0.156649,10.546069,2.259829,0.763666,0.36638,0.27996,6.518903,1.152587,0.730009,0.471986,0.139969,5.104189,0.979787,0.599631,0.301259,0.213609,1.492385,0.724492,0.669631,0.238429,0.085657,0.620157,0.488947,0.305371,0.203466,0.049551,1.126237,0.455773,0.674852,0.4383,0.116837,1.999728,0.559078,1.060733,0.208253,0.14084,1.469887,0.705154,0.326796,0.212886,0.090803,2.055994,0.902903,0.414204,0.822765,0.430796,6.283881,0.66428,0.747757,0.344834,0.287187,138.669861,30.512646,9.447671,3.450805,1.888588,8.922729,1.159728,0.828208,0.511584,0.288214,14.810093,1.949573,0.975619,0.354664,0.153743
1720086476,68,0,4343.205078,4308.974121,4329.871582,4327.563965,4322.94873,4294.358887,4293.205078,4288.974121,4301.153809,4288.205078,4397.563965,4267.820313,4339.615234,4373.974121,,,,,,,,,,,,,,,,,,,,,,,,,,,,,,,,,,,,,,,,,,,,,,,,,,,,,,,,,,,,,,,,,,,,,,
1720086476,69,0,4351.410156,4323.333496,4341.025879,4336.922852,4325.897461,4286.922852,4285.256348,4287.05127,4296.282227,4272.692383,4393.205078,4272.820313,4335.128418,4376.922852,,,,,,,,,,,,,,,,,,,,,,,,,,,,,,,,,,,,,,,,,,,,,,,,,,,,,,,,,,,,,,,,,,,,,,
1720086476,70,0,4350,4325.897461,4341.282227,4338.077148,4322.179688,4275.769043,4272.436035,4276.153809,4288.589844,4260.769043,4389.743652,4278.205078,4339.487305,4377.05127,,,,,,,,,,,,,,,,,,,,,,,,,,,,,,,,,,,,,,,,,,,,,,,,,,,,,,,,,,,,,,,,,,,,,,
1720086476,71,0,4349.615234,4323.846191,4338.846191,4333.846191,4321.410156,4274.358887,4268.077148,4269.230957,4289.102539,4263.205078,4401.025879,4280.512695,4354.871582,4381.666504,,,,,,,,,,,,,,,,,,,,,,,,,,,,,,,,,,,,,,,,,,,,,,,,,,,,,,,,,,,,,,,,,,,,,,
1720086476,72,0,4357.94873,4332.94873,4343.974121,4342.436035,4328.205078,4275.641113,4272.436035,4267.563965,4297.436035,4278.846191,4412.692383,4278.077148,4365.384766,4383.333496,,,,,,,,,,,,,,,,,,,,,,,,,,,,,,,,,,,,,,,,,,,,,,,,,,,,,,,,,,,,,,,,,,,,,,
1720086476,73,0,4358.333496,4339.487305,4342.563965,4347.436035,4329.358887,4275.128418,4271.025879,4266.025879,4303.717773,4296.153809,4402.94873,4280.128418,4360.256348,4379.615234,,,,,,,,,,,,,,,,,,,,,,,,,,,,,,,,,,,,,,,,,,,,,,,,,,,,,,,,,,,,,,,,,,,,,,
1720086476,74,0,4346.538574,4330.384766,4331.794922,4336.282227,4317.179688,4276.666504,4271.410156,4262.692383,4293.205078,4286.666504,4390.128418,4276.282227,4347.692383,4367.94873,,,,,,,,,,,,,,,,,,,,,,,,,,,,,,,,,,,,,,,,,,,,,,,,,,,,,,,,,,,,,,,,,,,,,,
1720086476,75,0,4340.641113,4320,4330.256348,4329.358887,4310.256348,4280.128418,4280.641113,4262.94873,4285.769043,4260.897461,4395.641113,4277.563965,4341.666504,4363.461426,,,,,,,,,,,,,,,,,,,,,,,,,,,,,,,,,,,,,,,,,,,,,,,,,,,,,,,,,,,,,,,,,,,,,,
1720086476,76,0,4339.102539,4315.641113,4331.282227,4333.717773,4316.538574,4287.94873,4291.538574,4271.922852,4292.307617,4259.358887,4397.563965,4288.077148,4344.615234,4368.205078,,,,,,,,,,,,,,,,,,,,,,,,,,,,,,,,,,,,,,,,,,,,,,,,,,,,,,,,,,,,,,,,,,,,,,
1720086476,77,0,4332.820313,4311.025879,4322.563965,4333.974121,4322.05127,4296.666504,4298.846191,4282.820313,4291.538574,4267.692383,4381.025879,4284.871582,4338.077148,4358.717773,,,,,,,,,,,,,,,,,,,,,,,,,,,,,,,,,,,,,,,,,,,,,,,,,,,,,,,,,,,,,,,,,,,,,,
1720086476,78,0,4330.769043,4308.461426,4315.384766,4325.128418,4323.846191,4295.897461,4295.769043,4283.846191,4286.410156,4262.820313,4368.205078,4283.333496,4325,4347.692383,,,,,,,,,,,,,,,,,,,,,,,,,,,,,,,,,,,,,,,,,,,,,,,,,,,,,,,,,,,,,,,,,,,,,,
1720086476,79,0,4329.615234,4307.05127,4313.077148,4321.410156,4326.538574,4287.179688,4284.487305,4277.436035,4286.025879,4262.563965,4372.692383,4289.487305,4330.128418,4349.615234,,,,,,,,,,,,,,,,,,,,,,,,,,,,,,,,,,,,,,,,,,,,,,,,,,,,,,,,,,,,,,,,,,,,,,
1720086476,80,0,4330.512695,4305.897461,4315.769043,4327.436035,4326.282227,4282.05127,4278.205078,4276.282227,4288.461426,4266.153809,4387.692383,4296.538574,4353.589844,4362.307617,,,,,,,,,,,,,,,,,,,,,,,,,,,,,,,,,,,,,,,,,,,,,,,,,,,,,,,,,,,,,,,,,,,,,,
1720086476,81,0,4346.282227,4313.974121,4329.487305,4335.641113,4325.641113,4281.794922,4282.94873,4280.769043,4294.487305,4270.897461,4397.94873,4305,4365.641113,4376.153809,,,,,,,,,,,,,,,,,,,,,,,,,,,,,,,,,,,,,,,,,,,,,,,,,,,,,,,,,,,,,,,,,,,,,,
1720086476,82,0,4366.538574,4334.487305,4346.538574,4349.102539,4329.102539,4278.846191,4278.974121,4272.820313,4299.102539,4276.538574,4400.384766,4313.333496,4367.179688,4384.102539,,,,,,,,,,,,,,,,,,,,,,,,,,,,,,,,,,,,,,,,,,,,,,,,,,,,,,,,,,,,,,,,,,,,,,
1720086476,83,0,4371.922852,4348.205078,4352.307617,4361.794922,4325.897461,4273.846191,4256.538574,4260.128418,4296.538574,4268.461426,4410.128418,4313.974121,4378.333496,4388.205078,20.046001,3.262347,0.89235,0.390973,0.139862,7.645153,1.782162,0.90688,0.352675,0.31471,5.03547,1.392167,0.926659,0.536449,0.143513,3.555933,0.832736,0.687397,0.337449,0.203823,1.258987,0.623333,0.616734,0.24605,0.084527,0.557221,0.594258,0.343779,0.237955,0.049341,1.024485,0.502091,0.75317,0.501822,0.113488,1.933464,0.561558,1.115597,0.281008,0.136085,1.360901,0.699032,0.321836,0.215834,0.090401,2.118501,1.106359,0.421211,0.89404,0.471604,5.71049,0.684108,0.981427,0.440248,0.312204,164.017731,34.06089,10.690531,3.98384,2.108946,8.344009,1.017282,1.155556,0.590007,0.348328,11.344574,1.867404,1.082603,0.409216,0.1585
1720086476,84,0,4361.153809,4338.461426,4343.717773,4356.025879,4320.641113,4275.128418,4234.615234,4262.179688,4295.128418,4261.025879,4414.615234,4291.282227,4387.307617,4386.153809,,,,,,,,,,,,,,,,,,,,,,,,,,,,,,,,,,,,,,,,,,,,,,,,,,,,,,,,,,,,,,,,,,,,,,
1720086476,85,0,4346.282227,4324.230957,4330.256348,4338.717773,4322.05127,4277.307617,4239.102539,4268.333496,4289.743652,4262.436035,4398.333496,4257.307617,4379.615234,4372.94873,,,,,,,,,,,,,,,,,,,,,,,,,,,,,,,,,,,,,,,,,,,,,,,,,,,,,,,,,,,,,,,,,,,,,,
1720086476,86,0,4336.922852,4323.077148,4320.641113,4333.077148,4321.410156,4277.179688,4262.820313,4267.05127,4276.153809,4247.563965,4382.563965,4240.641113,4361.282227,4353.717773,,,,,,,,,,,,,,,,,,,,,,,,,,,,,,,,,,,,,,,,,,,,,,,,,,,,,,,,,,,,,,,,,,,,,,
1720086476,87,0,4331.666504,4319.615234,4319.102539,4332.692383,4318.974121,4288.205078,4280.641113,4269.615234,4279.230957,4235.256348,4376.410156,4248.077148,4347.179688,4345.384766,,,,,,,,,,,,,,,,,,,,,,,,,,,,,,,,,,,,,,,,,,,,,,,,,,,,,,,,,,,,,,,,,,,,,,
1720086476,88,0,4323.974121,4308.077148,4319.743652,4326.922852,4324.102539,4299.615234,4292.436035,4277.05127,4288.974121,4244.230957,4367.94873,4250.512695,4343.333496,4343.589844,,,,,,,,,,,,,,,,,,,,,,,,,,,,,,,,,,,,,,,,,,,,,,,,,,,,,,,,,,,,,,,,,,,,,,
1720086476,89,0,4319.743652,4306.922852,4316.410156,4325.641113,4326.410156,4297.436035,4300.769043,4282.179688,4284.615234,4235.256348,4361.538574,4247.307617,4340.897461,4336.282227,,,,,,,,,,,,,,,,,,,,,,,,,,,,,,,,,,,,,,,,,,,,,,,,,,,,,,,,,,,,,,,,,,,,,,
1720086476,90,0,4320.512695,4310,4313.589844,4326.794922,4313.846191,4293.717773,4293.974121,4279.487305,4279.230957,4215.769043,4358.077148,4252.05127,4336.282227,4330.641113,,,,,,,,,,,,,,,,,,,,,,,,,,,,,,,,,,,,,,,,,,,,,,,,,,,,,,,,,,,,,,,,,,,,,,
1720086476,91,0,4320.641113,4306.538574,4314.102539,4325.769043,4307.692383,4290.641113,4281.922852,4269.102539,4280.897461,4225.512695,4354.102539,4250.384766,4338.717773,4331.025879,,,,,,,,,,,,,,,,,,,,,,,,,,,,,,,,,,,,,,,,,,,,,,,,,,,,,,,,,,,,,,,,,,,,,,
1720086476,92,0,4322.692383,4304.102539,4313.717773,4326.410156,4314.487305,4282.563965,4278.333496,4264.230957,4281.794922,4242.179688,4358.461426,4253.589844,4347.436035,4336.282227,,,,,,,,,,,,,,,,,,,,,,,,,,,,,,,,,,,,,,,,,,,,,,,,,,,,,,,,,,,,,,,,,,,,,,
1720086476,93,0,4328.589844,4305.384766,4316.153809,4325.769043,4315,4277.692383,4274.487305,4264.871582,4283.974121,4247.436035,4370.256348,4264.743652,4355.897461,4344.615234,,,,,,,,,,,,,,,,,,,,,,,,,,,,,,,,,,,,,,,,,,,,,,,,,,,,,,,,,,,,,,,,,,,,,,
1720086476,94,0,4337.436035,4312.05127,4327.563965,4326.282227,4311.282227,4278.333496,4265.641113,4263.589844,4291.282227,4250.256348,4385.641113,4273.974121,4370.769043,4356.538574,,,,,,,,,,,,,,,,,,,,,,,,,,,,,,,,,,,,,,,,,,,,,,,,,,,,,,,,,,,,,,,,,,,,,,
1720086476,95,0,4348.333496,4325.641113,4335.256348,4339.743652,4317.563965,4278.205078,4263.717773,4265.512695,4295.641113,4247.307617,4400.128418,4282.94873,4381.794922,4368.461426,,,,,,,,,,,,,,,,,,,,,,,,,,,,,,,,,,,,,,,,,,,,,,,,,,,,,,,,,,,,,,,,,,,,,,
1720086476,96,0,4351.666504,4329.102539,4328.846191,4347.692383,4322.179688,4279.102539,4266.410156,4262.307617,4292.179688,4246.025879,4398.333496,4282.94873,4376.538574,4368.205078,,,,,,,,,,,,,,,,,,,,,,,,,,,,,,,,,,,,,,,,,,,,,,,,,,,,,,,,,,,,,,,,,,,,,,
1720086476,97,0,4338.846191,4316.922852,4318.589844,4332.436035,4312.820313,4276.922852,4260.256348,4249.615234,4288.077148,4253.205078,4379.743652,4274.358887,4365.512695,4355.769043,,,,,,,,,,,,,,,,,,,,,,,,,,,,,,,,,,,,,,,,,,,,,,,,,,,,,,,,,,,,,,,,,,,,,,
1720086476,98,0,4327.307617,4309.743652,4312.436035,4322.05127,4309.102539,4279.102539,4259.615234,4252.820313,4291.282227,4248.589844,4368.589844,4278.077148,4358.974121,4346.666504,,,,,,,,,,,,,,,,,,,,,,,,,,,,,,,,,,,,,,,,,,,,,,,,,,,,,,,,,,,,,,,,,,,,,,
1720086476,99,0,4326.794922,4306.794922,4307.692383,4326.410156,4315.897461,4287.307617,4275,4271.666504,4290.897461,4236.538574,4370.897461,4282.692383,4356.153809,4341.922852,12.737487,2.550498,1.09884,0.415278,0.122113,4.928351,1.343497,1.065079,0.323082,0.335423,3.753485,1.833678,1.201342,0.590009,0.145643,2.312654,0.765191,0.816544,0.37181,0.19061,0.976838,0.489499,0.547887,0.242704,0.086088,0.515387,0.695836,0.386415,0.257766,0.053541,0.978521,0.625322,0.845598,0.532525,0.106598,1.750849,0.612618,1.148295,0.340019,0.134141,1.252881,0.683479,0.294511,0.215127,0.10119,2.034052,1.433608,0.45563,0.963602,0.530423,4.88069,0.799009,1.254737,0.561876,0.350278,167.136017,33.067394,10.517056,4.051475,2.060675,7.731548,0.889764,1.549857,0.672826,0.408572,7.932028,1.848143,1.294206,0.488757,0.168519
1720086476,100,0,4318.717773,4295,4300.128418,4315.256348,4314.102539,4287.820313,4285.384766,4278.205078,4284.230957,4234.743652,4370.769043,4277.179688,4351.282227,4337.05127,,,,,,,,,,,,,,,,,,,,,,,,,,,,,,,,,,,,,,,,,,,,,,,,,,,,,,,,,,,,,,,,,,,,,,
1720086476,101,0,4308.333496,4286.153809,4294.487305,4295.897461,4303.846191,4285.897461,4282.307617,4277.820313,4286.922852,4237.436035,4364.487305,4285.641113,4344.743652,4341.025879,,,,,,,,,,,,,,,,,,,,,,,,,,,,,,,,,,,,,,,,,,,,,,,,,,,,,,,,,,,,,,,,,,,,,,
1720086476,102,0,4306.282227,4287.179688,4293.077148,4296.794922,4301.025879,4288.846191,4279.743652,4277.692383,4288.205078,4240.384766,4358.461426,4285.256348,4337.307617,4336.666504,,,,,,,,,,,,,,,,,,,,,,,,,,,,,,,,,,,,,,,,,,,,,,,,,,,,,,,,,,,,,,,,,,,,,,
1720086476,103,0,4308.846191,4288.717773,4297.179688,4306.666504,4308.205078,4294.102539,4282.692383,4271.794922,4283.461426,4249.871582,4356.410156,4276.025879,4336.794922,4324.358887,,,,,,,,,,,,,,,,,,,,,,,,,,,,,,,,,,,,,,,,,,,,,,,,,,,,,,,,,,,,,,,,,,,,,,
1720086477,104,0,4315.256348,4290.897461,4305,4313.974121,4309.871582,4296.282227,4279.743652,4263.846191,4284.102539,4247.820313,4355.897461,4284.871582,4342.820313,4327.563965,,,,,,,,,,,,,,,,,,,,,,,,,,,,,,,,,,,,,,,,,,,,,,,,,,,,,,,,,,,,,,,,,,,,,,
1720086477,105,0,4317.820313,4296.538574,4304.358887,4318.589844,4306.538574,4289.743652,4272.820313,4256.794922,4278.974121,4223.205078,4349.358887,4283.077148,4335.769043,4328.846191,,,,,,,,,,,,,,,,,,,,,,,,,,,,,,,,,,,,,,,,,,,,,,,,,,,,,,,,,,,,,,,,,,,,,,
1720086477,106,0,4313.846191,4296.666504,4300.256348,4313.589844,4308.974121,4280.897461,4263.589844,4248.205078,4271.153809,4213.333496,4340.128418,4276.282227,4328.333496,4322.307617,,,,,,,,,,,,,,,,,,,,,,,,,,,,,,,,,,,,,,,,,,,,,,,,,,,,,,,,,,,,,,,,,,,,,,
1720086477,107,0,4314.487305,4295,4298.461426,4310.769043,4310.512695,4277.94873,4251.410156,4239.102539,4273.974121,4230.512695,4337.820313,4281.025879,4335.769043,4320.641113,,,,,,,,,,,,,,,,,,,,,,,,,,,,,,,,,,,,,,,,,,,,,,,,,,,,,,,,,,,,,,,,,,,,,,
1720086477,108,0,4316.666504,4301.282227,4298.589844,4323.333496,4307.05127,4282.692383,4251.922852,4236.794922,4279.102539,4238.846191,4338.717773,4284.743652,4336.538574,4320.641113,,,,,,,,,,,,,,,,,,,,,,,,,,,,,,,,,,,,,,,,,,,,,,,,,,,,,,,,,,,,,,,,,,,,,,
1720086477,109,0,4311.538574,4302.179688,4301.282227,4328.205078,4308.589844,4290.256348,4263.974121,4243.974121,4276.794922,4225.384766,4338.717773,4289.102539,4328.333496,4321.922852,,,,,,,,,,,,,,,,,,,,,,,,,,,,,,,,,,,,,,,,,,,,,,,,,,,,,,,,,,,,,,,,,,,,,,
1720086477,110,0,4308.461426,4296.153809,4302.94873,4318.333496,4311.282227,4291.282227,4266.666504,4249.743652,4271.538574,4215.512695,4340.128418,4292.179688,4331.922852,4324.230957,,,,,,,,,,,,,,,,,,,,,,,,,,,,,,,,,,,,,,,,,,,,,,,,,,,,,,,,,,,,,,,,,,,,,,
1720086477,111,0,4313.077148,4298.974121,4300.641113,4315.769043,4309.102539,4282.820313,4260.769043,4248.589844,4273.717773,4223.461426,4335.128418,4291.794922,4333.717773,4324.487305,,,,,,,,,,,,,,,,,,,,,,,,,,,,,,,,,,,,,,,,,,,,,,,,,,,,,,,,,,,,,,,,,,,,,,
1720086477,112,0,4313.461426,4302.307617,4299.102539,4315.897461,4307.05127,4279.358887,4260.384766,4249.358887,4283.333496,4229.871582,4333.205078,4298.205078,4323.717773,4323.333496,,,,,,,,,,,,,,,,,,,,,,,,,,,,,,,,,,,,,,,,,,,,,,,,,,,,,,,,,,,,,,,,,,,,,,
1720086477,113,0,4308.461426,4295.256348,4297.820313,4306.794922,4302.307617,4280.512695,4262.820313,4250.769043,4289.487305,4233.333496,4344.871582,4305.384766,4327.692383,4322.692383,,,,,,,,,,,,,,,,,,,,,,,,,,,,,,,,,,,,,,,,,,,,,,,,,,,,,,,,,,,,,,,,,,,,,,
1720086477,114,0,4307.692383,4292.692383,4294.102539,4302.692383,4295.897461,4277.179688,4260.769043,4250.128418,4287.307617,4241.153809,4348.205078,4297.94873,4337.179688,4320.897461,,,,,,,,,,,,,,,,,,,,,,,,,,,,,,,,,,,,,,,,,,,,,,,,,,,,,,,,,,,,,,,,,,,,,,
1720086477,115,0,4311.922852,4297.563965,4295.128418,4310.256348,4295.128418,4278.077148,4259.615234,4251.922852,4288.846191,4240.897461,4335.256348,4299.230957,4333.077148,4321.794922,7.173576,2.050192,1.386805,0.422732,0.107176,2.849222,1.063429,1.211646,0.288871,0.337799,2.855131,2.407887,1.502261,0.630921,0.145485,1.489929,0.814865,0.971591,0.406252,0.176316,0.700588,0.361153,0.471904,0.2282,0.089579,0.479781,0.790791,0.432637,0.255555,0.061377,0.985812,0.896992,0.960254,0.52223,0.099919,1.51426,0.715858,1.185503,0.366856,0.134446,1.187056,0.677897,0.254472,0.212141,0.120083,1.847578,1.859107,0.524857,1.02118,0.60081,4.078718,1.013694,1.524635,0.69571,0.384656,148.146652,27.950686,9.003458,3.657194,1.759243,7.193702,0.878741,1.947404,0.755522,0.451019,5.288791,1.970865,1.579028,0.578886,0.178452
1720086477,116,0,4309.487305,4294.615234,4298.461426,4313.461426,4293.205078,4281.538574,4260.384766,4247.05127,4289.871582,4229.230957,4323.205078,4307.820313,4324.743652,4320.897461,,,,,,,,,,,,,,,,,,,,,,,,,,,,,,,,,,,,,,,,,,,,,,,,,,,,,,,,,,,,,,,,,,,,,,
1720086477,117,0,4305.769043,4293.589844,4304.102539,4312.563965,4295.641113,4283.205078,4264.102539,4246.538574,4291.666504,4235.897461,4322.436035,4309.102539,4323.846191,4319.102539,,,,,,,,,,,,,,,,,,,,,,,,,,,,,,,,,,,,,,,,,,,,,,,,,,,,,,,,,,,,,,,,,,,,,,
1720086477,118,0,4311.666504,4303.717773,4314.358887,4322.05127,4306.025879,4290.897461,4265,4256.282227,4298.333496,4249.102539,4331.794922,4319.102539,4328.589844,4323.846191,,,,,,,,,,,,,,,,,,,,,,,,,,,,,,,,,,,,,,,,,,,,,,,,,,,,,,,,,,,,,,,,,,,,,,
1720086477,119,0,4312.820313,4306.538574,4313.205078,4327.692383,4306.282227,4296.282227,4262.692383,4255,4295.512695,4239.487305,4334.871582,4322.307617,4327.820313,4321.153809,,,,,,,,,,,,,,,,,,,,,,,,,,,,,,,,,,,,,,,,,,,,,,,,,,,,,,,,,,,,,,,,,,,,,,
1720086477,120,0,4303.461426,4296.025879,4303.461426,4316.282227,4301.922852,4295.256348,4268.461426,4250.641113,4291.794922,4230,4326.666504,4319.102539,4321.282227,4314.743652,,,,,,,,,,,,,,,,,,,,,,,,,,,,,,,,,,,,,,,,,,,,,,,,,,,,,,,,,,,,,,,,,,,,,,
1720086477,121,0,4297.563965,4289.487305,4298.077148,4310.128418,4308.717773,4298.077148,4280,4260.128418,4294.102539,4234.358887,4325,4327.307617,4318.333496,4320,,,,,,,,,,,,,,,,,,,,,,,,,,,,,,,,,,,,,,,,,,,,,,,,,,,,,,,,,,,,,,,,,,,,,,
1720086477,122,0,4294.230957,4291.153809,4290.128418,4313.333496,4309.743652,4300.384766,4281.922852,4265,4289.102539,4232.820313,4322.820313,4327.307617,4316.538574,4319.871582,,,,,,,,,,,,,,,,,,,,,,,,,,,,,,,,,,,,,,,,,,,,,,,,,,,,,,,,,,,,,,,,,,,,,,
1720086477,123,0,4291.153809,4289.871582,4278.333496,4304.743652,4298.077148,4297.05127,4276.666504,4257.94873,4284.615234,4228.846191,4311.794922,4318.077148,4313.205078,4309.615234,,,,,,,,,,,,,,,,,,,,,,,,,,,,,,,,,,,,,,,,,,,,,,,,,,,,,,,,,,,,,,,,,,,,,,
1720086477,124,0,4293.205078,4287.563965,4278.974121,4295.769043,4290,4289.743652,4273.846191,4258.974121,4287.05127,4232.307617,4313.846191,4322.307617,4313.589844,4305.384766,,,,,,,,,,,,,,,,,,,,,,,,,,,,,,,,,,,,,,,,,,,,,,,,,,,,,,,,,,,,,,,,,,,,,,
1720086477,125,0,4299.358887,4295,4289.743652,4305.384766,4289.871582,4280.512695,4269.358887,4258.077148,4284.102539,4232.436035,4326.025879,4329.358887,4318.717773,4307.05127,,,,,,,,,,,,,,,,,,,,,,,,,,,,,,,,,,,,,,,,,,,,,,,,,,,,,,,,,,,,,,,,,,,,,,
1720086477,126,0,4312.179688,4314.487305,4302.692383,4324.487305,4291.410156,4279.615234,4262.563965,4250.897461,4286.025879,4234.615234,4332.692383,4337.307617,4322.94873,4320,,,,,,,,,,,,,,,,,,,,,,,,,,,,,,,,,,,,,,,,,,,,,,,,,,,,,,,,,,,,,,,,,,,,,,
1720086477,127,0,4322.563965,4327.05127,4311.282227,4335.256348,4294.230957,4282.307617,4260.897461,4251.025879,4293.205078,4243.205078,4335.128418,4346.666504,4323.205078,4332.179688,,,,,,,,,,,,,,,,,,,,,,,,,,,,,,,,,,,,,,,,,,,,,,,,,,,,,,,,,,,,,,,,,,,,,,
1720086477,0,0,4318.205078,4321.153809,4304.615234,4334.487305,4296.153809,4279.358887,4260.256348,4251.538574,4286.153809,4244.102539,4332.563965,4336.410156,4313.333496,4319.230957,,,,,,,,,,,,,,,,,,,,,,,,,,,,,,,,,,,,,,,,,,,,,,,,,,,,,,,,,,,,,,,,,,,,,,
1720086477,1,0,4309.743652,4313.205078,4292.820313,4324.743652,4294.615234,4285.384766,4262.436035,4255,4285.897461,4245.512695,4325.641113,4336.153809,4300.128418,4308.333496,,,,,,,,,,,,,,,,,,,,,,,,,,,,,,,,,,,,,,,,,,,,,,,,,,,,,,,,,,,,,,,,,,,,,,
1720086477,2,0,4299.102539,4306.666504,4288.846191,4313.077148,4293.205078,4297.179688,4270.384766,4257.820313,4291.538574,4248.077148,4317.436035,4347.692383,4292.820313,4310.641113,,,,,,,,,,,,,,,,,,,,,,,,,,,,,,,,,,,,,,,,,,,,,,,,,,,,,,,,,,,,,,,,,,,,,,
1720086477,3,0,4287.05127,4301.410156,4284.871582,4308.589844,4294.743652,4295.384766,4275.128418,4254.358887,4281.025879,4234.102539,4310.769043,4341.410156,4285.256348,4302.179688,3.775127,1.916236,1.691862,0.422888,0.098144,1.542765,1.052741,1.326929,0.267003,0.325675,2.322089,3.007573,1.756441,0.662748,0.1423,1.06088,1.02168,1.117198,0.443878,0.165846,0.473527,0.272081,0.401399,0.207141,0.093858,0.446251,0.905164,0.483593,0.233148,0.070551,1.065119,1.430254,1.10455,0.484652,0.09873,1.337262,0.876424,1.24172,0.353608,0.13571,1.176842,0.690045,0.217648,0.209467,0.142018,1.594047,2.303562,0.629551,1.05044,0.670765,3.42967,1.388777,1.753121,0.81986,0.402669,112.98027,20.508604,6.687292,2.956754,1.30513,6.567793,1.166439,2.284352,0.8257,0.464607,3.618857,2.329432,1.864868,0.657762,0.182416
1720086477,4,0,4285.897461,4301.794922,4276.666504,4315.641113,4293.974121,4291.153809,4273.077148,4251.153809,4271.794922,4217.436035,4308.461426,4338.077148,4277.692383,4294.230957,,,,,,,,,,,,,,,,,,,,,,,,,,,,,,,,,,,,,,,,,,,,,,,,,,,,,,,,,,,,,,,,,,,,,,
1720086477,5,0,4288.589844,4299.487305,4270.897461,4318.205078,4292.563965,4295.256348,4273.589844,4253.846191,4274.102539,4220.512695,4310.384766,4339.871582,4279.230957,4297.820313,,,,,,,,,,,,,,,,,,,,,,,,,,,,,,,,,,,,,,,,,,,,,,,,,,,,,,,,,,,,,,,,,,,,,,
1720086477,6,0,4285,4296.538574,4273.846191,4310.256348,4295.128418,4295.769043,4274.871582,4255.769043,4276.922852,4234.230957,4314.487305,4342.563965,4286.153809,4305,,,,,,,,,,,,,,,,,,,,,,,,,,,,,,,,,,,,,,,,,,,,,,,,,,,,,,,,,,,,,,,,,,,,,,
1720086477,7,0,4289.230957,4305.256348,4280.897461,4314.102539,4297.94873,4291.282227,4272.563965,4253.461426,4280.897461,4247.436035,4321.410156,4350,4292.563965,4306.025879,,,,,,,,,,,,,,,,,,,,,,,,,,,,,,,,,,,,,,,,,,,,,,,,,,,,,,,,,,,,,,,,,,,,,,
1720086477,8,0,4298.461426,4313.589844,4282.563965,4325,4296.538574,4293.205078,4272.05127,4253.077148,4284.487305,4252.94873,4326.282227,4350.769043,4298.077148,4300.384766,,,,,,,,,,,,,,,,,,,,,,,,,,,,,,,,,,,,,,,,,,,,,,,,,,,,,,,,,,,,,,,,,,,,,,
1720086477,9,0,4293.461426,4306.025879,4278.589844,4316.282227,4295.384766,4293.333496,4268.717773,4248.333496,4280.769043,4238.974121,4326.666504,4347.563965,4298.077148,4301.025879,,,,,,,,,,,,,,,,,,,,,,,,,,,,,,,,,,,,,,,,,,,,,,,,,,,,,,,,,,,,,,,,,,,,,,
1720086477,10,0,4285.897461,4298.333496,4273.205078,4305.128418,4292.563965,4285.512695,4262.820313,4246.410156,4278.461426,4226.153809,4324.358887,4350,4284.871582,4303.077148,,,,,,,,,,,,,,,,,,,,,,,,,,,,,,,,,,,,,,,,,,,,,,,,,,,,,,,,,,,,,,,,,,,,,,
1720086477,11,0,4289.743652,4298.589844,4273.717773,4315.641113,4288.717773,4286.666504,4270.128418,4256.922852,4284.615234,4244.102539,4327.436035,4358.077148,4279.871582,4302.05127,,,,,,,,,,,,,,,,,,,,,,,,,,,,,,,,,,,,,,,,,,,,,,,,,,,,,,,,,,,,,,,,,,,,,,
1720086477,12,0,4289.230957,4294.743652,4274.230957,4319.487305,4292.179688,4291.538574,4280.128418,4266.922852,4291.666504,4264.871582,4337.820313,4356.538574,4290.641113,4303.974121,,,,,,,,,,,,,,,,,,,,,,,,,,,,,,,,,,,,,,,,,,,,,,,,,,,,,,,,,,,,,,,,,,,,,,
1720086477,13,0,4287.94873,4294.871582,4270,4308.077148,4294.230957,4283.974121,4278.077148,4265.769043,4287.179688,4255.897461,4332.820313,4340.384766,4289.487305,4305.128418,,,,,,,,,,,,,,,,,,,,,,,,,,,,,,,,,,,,,,,,,,,,,,,,,,,,,,,,,,,,,,,,,,,,,,
1720086477,14,0,4295.897461,4306.410156,4270.384766,4314.230957,4287.94873,4281.282227,4276.410156,4262.307617,4276.025879,4243.205078,4318.846191,4332.692383,4273.717773,4302.436035,,,,,,,,,,,,,,,,,,,,,,,,,,,,,,,,,,,,,,,,,,,,,,,,,,,,,,,,,,,,,,,,,,,,,,
1720086477,15,0,4302.05127,4308.461426,4274.230957,4324.871582,4287.692383,4294.230957,4282.692383,4266.666504,4275.641113,4246.282227,4326.153809,4349.358887,4272.307617,4305.384766,,,,,,,,,,,,,,,,,,,,,,,,,,,,,,,,,,,,,,,,,,,,,,,,,,,,,,,,,,,,,,,,,,,,,,
1720086477,16,0,4294.230957,4294.230957,4271.282227,4316.922852,4296.410156,4297.692383,4283.974121,4267.179688,4277.820313,4244.743652,4337.05127,4353.589844,4283.333496,4306.282227,,,,,,,,,,,,,,,,,,,,,,,,,,,,,,,,,,,,,,,,,,,,,,,,,,,,,,,,,,,,,,,,,,,,,,
1720086477,17,0,4288.846191,4294.871582,4270.512695,4314.358887,4297.436035,4290.384766,4279.487305,4261.794922,4273.589844,4238.974121,4325.897461,4339.743652,4278.589844,4300.769043,,,,,,,,,,,,,,,,,,,,,,,,,,,,,,,,,,,,,,,,,,,,,,,,,,,,,,,,,,,,,,,,,,,,,,
1720086477,18,0,4297.563965,4310.384766,4279.358887,4327.436035,4293.846191,4292.179688,4278.974121,4254.487305,4272.05127,4243.461426,4315.384766,4348.461426,4263.846191,4308.846191,,,,,,,,,,,,,,,,,,,,,,,,,,,,,,,,,,,,,,,,,,,,,,,,,,,,,,,,,,,,,,,,,,,,,,
1720086477,19,0,4303.461426,4311.282227,4280.128418,4330,4300.641113,4297.436035,4279.487305,4248.333496,4269.358887,4245.128418,4324.358887,4357.563965,4267.436035,4317.179688,2.174829,2.223369,1.937805,0.424487,0.096356,0.904904,1.372277,1.401787,0.269933,0.307222,2.028591,3.526221,1.894766,0.68917,0.135899,0.925286,1.40759,1.214533,0.484421,0.165111,0.328442,0.23365,0.345623,0.18537,0.098266,0.404196,1.077237,0.540183,0.200247,0.078437,1.139218,2.315801,1.281701,0.447151,0.1066,1.222387,1.105426,1.322375,0.309099,0.136953,1.199994,0.713039,0.196955,0.208966,0.161972,1.374819,2.666384,0.75954,1.039525,0.726398,3.02207,1.980198,1.913616,0.9086,0.400015,73.458839,13.092198,4.29442,2.182963,0.837556,5.779345,1.881631,2.503383,0.860862,0.448567,2.832575,2.962284,2.066661,0.702188,0.17723
1720086477,20,0,4300.512695,4306.282227,4277.307617,4324.487305,4308.589844,4297.307617,4278.333496,4252.307617,4265.128418,4239.871582,4340.512695,4354.871582,4286.922852,4318.717773,,,,,,,,,,,,,,,,,,,,,,,,,,,,,,,,,,,,,,,,,,,,,,,,,,,,,,,,,,,,,,,,,,,,,,
1720086477,21,0,4301.282227,4308.846191,4281.666504,4325.641113,4307.179688,4297.820313,4280.256348,4261.666504,4269.230957,4246.282227,4347.436035,4358.205078,4290.512695,4320.897461,,,,,,,,,,,,,,,,,,,,,,,,,,,,,,,,,,,,,,,,,,,,,,,,,,,,,,,,,,,,,,,,,,,,,,
1720086477,22,0,4301.666504,4310,4278.589844,4325.897461,4300.769043,4300,4284.743652,4264.871582,4271.794922,4256.922852,4339.487305,4358.846191,4277.05127,4311.922852,,,,,,,,,,,,,,,,,,,,,,,,,,,,,,,,,,,,,,,,,,,,,,,,,,,,,,,,,,,,,,,,,,,,,,
1720086477,23,0,4292.307617,4305.641113,4271.922852,4317.436035,4297.436035,4301.922852,4284.102539,4262.94873,4269.615234,4261.922852,4335.512695,4359.871582,4276.410156,4305.641113,,,,,,,,,,,,,,,,,,,,,,,,,,,,,,,,,,,,,,,,,,,,,,,,,,,,,,,,,,,,,,,,,,,,,,
1720086477,24,0,4288.205078,4299.487305,4275.128418,4309.487305,4296.922852,4300.256348,4278.205078,4263.333496,4273.974121,4258.205078,4341.538574,4364.743652,4282.563965,4313.461426,,,,,,,,,,,,,,,,,,,,,,,,,,,,,,,,,,,,,,,,,,,,,,,,,,,,,,,,,,,,,,,,,,,,,,
1720086477,25,0,4295.384766,4296.410156,4279.871582,4312.692383,4293.589844,4294.487305,4276.794922,4263.717773,4274.615234,4248.589844,4342.436035,4361.922852,4277.563965,4316.410156,,,,,,,,,,,,,,,,,,,,,,,,,,,,,,,,,,,,,,,,,,,,,,,,,,,,,,,,,,,,,,,,,,,,,,
1720086477,26,0,4300.128418,4298.589844,4279.615234,4319.871582,4293.846191,4298.717773,4280.769043,4263.717773,4273.974121,4255.897461,4341.538574,4366.794922,4275.128418,4316.153809,,,,,,,,,,,,,,,,,,,,,,,,,,,,,,,,,,,,,,,,,,,,,,,,,,,,,,,,,,,,,,,,,,,,,,
1720086477,27,0,4300.897461,4302.179688,4277.179688,4317.563965,4298.333496,4307.692383,4282.307617,4264.102539,4280.512695,4267.179688,4345.384766,4379.615234,4276.794922,4322.179688,,,,,,,,,,,,,,,,,,,,,,,,,,,,,,,,,,,,,,,,,,,,,,,,,,,,,,,,,,,,,,,,,,,,,,
1720086477,28,0,4298.589844,4301.794922,4272.820313,4311.794922,4299.358887,4303.974121,4280.641113,4262.820313,4277.94873,4253.846191,4350.256348,4369.230957,4272.307617,4317.563965,,,,,,,,,,,,,,,,,,,,,,,,,,,,,,,,,,,,,,,,,,,,,,,,,,,,,,,,,,,,,,,,,,,,,,
1720086477,29,0,4296.153809,4295.769043,4276.538574,4310.897461,4295.769043,4301.538574,4285,4263.077148,4273.974121,4243.077148,4353.333496,4370.384766,4266.794922,4317.179688,,,,,,,,,,,,,,,,,,,,,,,,,,,,,,,,,,,,,,,,,,,,,,,,,,,,,,,,,,,,,,,,,,,,,,
1720086477,30,0,4296.153809,4293.461426,4282.820313,4309.743652,4295.128418,4310.256348,4288.333496,4264.358887,4276.410156,4251.282227,4347.820313,4389.230957,4262.563965,4324.615234,,,,,,,,,,,,,,,,,,,,,,,,,,,,,,,,,,,,,,,,,,,,,,,,,,,,,,,,,,,,,,,,,,,,,,
1720086477,31,0,4298.461426,4302.563965,4279.487305,4313.974121,4302.820313,4313.077148,4284.230957,4262.436035,4274.615234,4248.717773,4343.589844,4383.077148,4264.102539,4319.871582,,,,,,,,,,,,,,,,,,,,,,,,,,,,,,,,,,,,,,,,,,,,,,,,,,,,,,,,,,,,,,,,,,,,,,
1720086477,32,0,4302.94873,4310.641113,4277.563965,4321.282227,4309.487305,4309.487305,4282.05127,4262.179688,4279.871582,4247.179688,4351.025879,4377.436035,4274.102539,4322.307617,,,,,,,,,,,,,,,,,,,,,,,,,,,,,,,,,,,,,,,,,,,,,,,,,,,,,,,,,,,,,,,,,,,,,,
1720086477,33,0,4299.871582,4304.743652,4277.563965,4317.05127,4303.589844,4310.641113,4285.128418,4265.384766,4287.692383,4257.307617,4354.358887,4380.641113,4280.769043,4326.025879,,,,,,,,,,,,,,,,,,,,,,,,,,,,,,,,,,,,,,,,,,,,,,,,,,,,,,,,,,,,,,,,,,,,,,
1720086477,34,0,4291.538574,4295.384766,4272.820313,4309.102539,4294.487305,4311.666504,4279.230957,4264.487305,4283.974121,4256.410156,4353.077148,4381.538574,4284.230957,4318.333496,,,,,,,,,,,,,,,,,,,,,,,,,,,,,,,,,,,,,,,,,,,,,,,,,,,,,,,,,,,,,,,,,,,,,,
1720086477,35,0,4288.717773,4293.974121,4267.94873,4307.436035,4292.820313,4307.179688,4267.179688,4259.743652,4283.333496,4257.436035,4356.410156,4381.410156,4292.05127,4316.794922,1.75956,2.9195,2.062235,0.431753,0.100832,0.733383,1.974375,1.438975,0.298171,0.289992,1.883677,3.883456,1.892624,0.710564,0.126892,0.981566,1.938837,1.252709,0.524008,0.177362,0.265619,0.242603,0.310307,0.167642,0.102822,0.367308,1.328341,0.598252,0.170335,0.083508,1.177989,3.505631,1.480029,0.434035,0.122805,1.201339,1.393381,1.424684,0.253018,0.138169,1.220934,0.725969,0.194238,0.210575,0.175725,1.240247,2.867497,0.887973,0.995231,0.755017,2.77316,2.763492,1.993536,0.943499,0.380262,40.038586,7.526223,2.433152,1.540457,0.471626,4.782214,2.98539,2.575655,0.840886,0.411164,2.532032,3.776077,2.11893,0.699723,0.164162
1720086477,36,0,4289.615234,4293.974121,4269.102539,4308.717773,4292.563965,4302.436035,4265.256348,4258.974121,4287.307617,4264.615234,4357.692383,4366.922852,4294.743652,4319.102539,,,,,,,,,,,,,,,,,,,,,,,,,,,,,,,,,,,,,,,,,,,,,,,,,,,,,,,,,,,,,,,,,,,,,,
1720086477,37,0,4295,4294.487305,4278.205078,4314.743652,4295.897461,4301.410156,4271.153809,4260.641113,4285.256348,4266.025879,4359.615234,4349.358887,4292.05127,4318.333496,,,,,,,,,,,,,,,,,,,,,,,,,,,,,,,,,,,,,,,,,,,,,,,,,,,,,,,,,,,,,,,,,,,,,,
1720086477,38,0,4303.205078,4301.153809,4287.94873,4323.974121,4303.333496,4301.538574,4275.897461,4257.820313,4280.897461,4261.922852,4365.769043,4352.436035,4294.230957,4323.717773,,,,,,,,,,,,,,,,,,,,,,,,,,,,,,,,,,,,,,,,,,,,,,,,,,,,,,,,,,,,,,,,,,,,,,
1720086477,39,0,4307.436035,4307.307617,4288.846191,4325.641113,4302.179688,4305,4276.153809,4254.230957,4275.384766,4256.153809,4362.692383,4355.128418,4293.461426,4328.077148,,,,,,,,,,,,,,,,,,,,,,,,,,,,,,,,,,,,,,,,,,,,,,,,,,,,,,,,,,,,,,,,,,,,,,
1720086477,40,0,4308.717773,4310.641113,4287.94873,4324.102539,4303.333496,4315.641113,4279.871582,4258.205078,4271.410156,4253.333496,4352.692383,4348.077148,4288.077148,4326.410156,,,,,,,,,,,,,,,,,,,,,,,,,,,,,,,,,,,,,,,,,,,,,,,,,,,,,,,,,,,,,,,,,,,,,,
1720086477,41,0,4307.307617,4308.077148,4290,4326.666504,4308.717773,4319.102539,4286.410156,4264.487305,4272.436035,4256.794922,4352.307617,4357.692383,4284.743652,4329.358887,,,,,,,,,,,,,,,,,,,,,,,,,,,,,,,,,,,,,,,,,,,,,,,,,,,,,,,,,,,,,,,,,,,,,,
1720086477,42,0,4297.820313,4299.871582,4283.205078,4320.769043,4301.922852,4311.794922,4283.589844,4262.307617,4271.922852,4259.487305,4353.589844,4359.615234,4282.436035,4323.974121,,,,,,,,,,,,,,,,,,,,,,,,,,,,,,,,,,,,,,,,,,,,,,,,,,,,,,,,,,,,,,,,,,,,,,
1720086477,43,0,4291.794922,4293.717773,4274.487305,4308.717773,4296.538574,4312.563965,4279.743652,4260,4273.717773,4260.897461,4349.871582,4349.743652,4285.128418,4315.256348,,,,,,,,,,,,,,,,,,,,,,,,,,,,,,,,,,,,,,,,,,,,,,,,,,,,,,,,,,,,,,,,,,,,,,
1720086477,44,0,4299.487305,4293.846191,4276.153809,4312.05127,4308.589844,4322.05127,4284.358887,4265.128418,4276.794922,4266.922852,4351.282227,4353.717773,4293.846191,4318.589844,,,,,,,,,,,,,,,,,,,,,,,,,,,,,,,,,,,,,,,,,,,,,,,,,,,,,,,,,,,,,,,,,,,,,,
1720086477,45,0,4303.205078,4296.794922,4276.153809,4320,4314.102539,4321.666504,4285.128418,4267.563965,4270.128418,4263.974121,4361.153809,4361.922852,4299.230957,4322.05127,,,,,,,,,,,,,,,,,,,,,,,,,,,,,,,,,,,,,,,,,,,,,,,,,,,,,,,,,,,,,,,,,,,,,,
1720086477,46,0,4295.384766,4296.410156,4272.307617,4313.461426,4302.307617,4312.94873,4272.307617,4264.743652,4269.871582,4259.615234,4365.641113,4367.05127,4299.487305,4326.410156,,,,,,,,,,,,,,,,,,,,,,,,,,,,,,,,,,,,,,,,,,,,,,,,,,,,,,,,,,,,,,,,,,,,,,
1720086477,47,0,4292.307617,4296.153809,4274.102539,4311.282227,4292.94873,4309.487305,4264.871582,4262.436035,4277.05127,4270.384766,4360.641113,4366.794922,4305.897461,4334.102539,,,,,,,,,,,,,,,,,,,,,,,,,,,,,,,,,,,,,,,,,,,,,,,,,,,,,,,,,,,,,,,,,,,,,,
1720086477,48,0,4296.666504,4295.256348,4276.538574,4318.333496,4295.769043,4306.922852,4266.410156,4262.563965,4275.128418,4278.846191,4357.94873,4362.436035,4308.589844,4328.846191,,,,,,,,,,,,,,,,,,,,,,,,,,,,,,,,,,,,,,,,,,,,,,,,,,,,,,,,,,,,,,,,,,,,,,
1720086477,49,0,4294.615234,4293.333496,4271.153809,4315.384766,4297.563965,4299.871582,4265.512695,4263.333496,4270.128418,4272.820313,4355.897461,4361.666504,4298.205078,4321.666504,,,,,,,,,,,,,,,,,,,,,,,,,,,,,,,,,,,,,,,,,,,,,,,,,,,,,,,,,,,,,,,,,,,,,,
1720086477,50,0,4290.512695,4294.102539,4270.769043,4311.153809,4295,4300.384766,4269.358887,4262.692383,4269.743652,4267.307617,4355.128418,4364.871582,4293.077148,4319.230957,,,,,,,,,,,,,,,,,,,,,,,,,,,,,,,,,,,,,,,,,,,,,,,,,,,,,,,,,,,,,,,,,,,,,,
1720086477,51,0,4290.256348,4294.743652,4275.128418,4314.358887,4295.641113,4307.820313,4277.179688,4260.256348,4270.769043,4261.922852,4357.179688,4367.436035,4294.230957,4280.384766,1.855162,3.772018,2.049249,0.445266,0.108904,0.791027,2.683717,1.45141,0.343871,0.27784,1.821388,4.028528,1.788882,0.723821,0.116737,1.122289,2.503346,1.250128,0.557705,0.201526,0.257877,0.289238,0.297279,0.156514,0.107527,0.349592,1.640444,0.649605,0.152759,0.086241,1.154154,4.766525,1.659998,0.451858,0.142344,1.217156,1.693236,1.525625,0.204542,0.139698,1.22732,0.709876,0.200679,0.213302,0.180609,1.225326,2.864293,0.976817,0.946791,0.749898,2.578001,3.595996,1.988119,0.920209,0.352481,18.758844,4.430246,1.347273,1.119938,0.255905,3.817602,4.229303,2.503537,0.760603,0.366636,2.480551,4.549343,2.008355,0.655615,0.147623
1720086477,52,0,4289.230957,4291.153809,4273.974121,4311.025879,4297.563965,4308.461426,4279.230957,4260.256348,4264.871582,4250.641113,4352.692383,4368.974121,4289.102539,4221.282227,,,,,,,,,,,,,,,,,,,,,,,,,,,,,,,,,,,,,,,,,,,,,,,,,,,,,,,,,,,,,,,,,,,,,,
