Timestamp,EEG.Counter,EEG.Interpolated,EEG.AF3,EEG.F7,EEG.F3,EEG.FC5,EEG.T7,EEG.P7,EEG.O1,EEG.O2,EEG.P8,EEG.T8,EEG.FC6,EEG.F4,EEG.F8,EEG.AF4,POW.AF3.Theta,POW.AF3.Alpha,POW.AF3.BetaL,POW.AF3.BetaH,POW.AF3.Gamma,POW.F7.Theta,POW.F7.Alpha,POW.F7.BetaL,POW.F7.BetaH,POW.F7.Gamma,POW.F3.Theta,POW.F3.Alpha,POW.F3.BetaL,POW.F3.BetaH,POW.F3.Gamma,POW.FC5.Theta,POW.FC5.Alpha,POW.FC5.BetaL,POW.FC5.BetaH,POW.FC5.Gamma,POW.T7.Theta,POW.T7.Alpha,POW.T7.BetaL,POW.T7.BetaH,POW.T7.Gamma,POW.P7.Theta,POW.P7.Alpha,POW.P7.BetaL,POW.P7.BetaH,POW.P7.Gamma,POW.O1.Theta,POW.O1.Alpha,POW.O1.BetaL,POW.O1.BetaH,POW.O1.Gamma,POW.O2.Theta,POW.O2.Alpha,POW.O2.BetaL,POW.O2.BetaH,POW.O2.Gamma,POW.P8.Theta,POW.P8.Alpha,POW.P8.BetaL,POW.P8.BetaH,POW.P8.Gamma,POW.T8.Theta,POW.T8.Alpha,POW.T8.BetaL,POW.T8.BetaH,POW.T8.Gamma,POW.FC6.Theta,POW.FC6.Alpha,POW.FC6.BetaL,POW.FC6.BetaH,POW.FC6.Gamma,POW.F4.Theta,POW.F4.Alpha,POW.F4.BetaL,POW.F4.BetaH,POW.F4.Gamma,POW.F8.Theta,POW.F8.Alpha,POW.F8.BetaL,POW.F8.BetaH,POW.F8.Gamma,POW.AF4.Theta,POW.AF4.Alpha,POW.AF4.BetaL,POW.AF4.BetaH,POW.AF4.Gamma
1720525777,33,0,4302.436035,4293.717773,4297.94873,4309.615234,4296.282227,4235.128418,4269.743652,4290.256348,4263.077148,4297.179688,4387.179688,4456.282227,4352.820313,4410.512695,,,,,,,,,,,,,,,,,,,,,,,,,,,,,,,,,,,,,,,,,,,,,,,,,,,,,,,,,,,,,,,,,,,,,,
1720525777,34,0,4297.820313,4296.538574,4297.820313,4306.922852,4298.461426,4240.384766,4279.487305,4296.282227,4273.077148,4302.05127,4390,4471.282227,4361.922852,4418.333496,,,,,,,,,,,,,,,,,,,,,,,,,,,,,,,,,,,,,,,,,,,,,,,,,,,,,,,,,,,,,,,,,,,,,,
1720525777,35,0,4287.436035,4291.282227,4291.153809,4309.230957,4302.307617,4242.436035,4280.897461,4287.692383,4278.589844,4296.282227,4379.230957,4459.743652,4349.615234,4403.333496,,,,,,,,,,,,,,,,,,,,,,,,,,,,,,,,,,,,,,,,,,,,,,,,,,,,,,,,,,,,,,,,,,,,,,
1720525777,36,0,4296.794922,4280.128418,4296.922852,4302.05127,4299.358887,4243.333496,4280.512695,4297.692383,4277.436035,4306.025879,4390.641113,4470.769043,4355.128418,4409.615234,,,,,,,,,,,,,,,,,,,,,,,,,,,,,,,,,,,,,,,,,,,,,,,,,,,,,,,,,,,,,,,,,,,,,,
1720525777,37,0,4301.282227,4273.717773,4294.871582,4294.487305,4294.358887,4235.256348,4272.94873,4295.512695,4266.922852,4302.692383,4389.743652,4469.230957,4365.384766,4411.025879,,,,,,,,,,,,,,,,,,,,,,,,,,,,,,,,,,,,,,,,,,,,,,,,,,,,,,,,,,,,,,,,,,,,,,
1720525777,38,0,4285.641113,4277.436035,4285,4301.153809,4297.436035,4226.410156,4263.974121,4278.461426,4262.692383,4288.974121,4375,4450.512695,4354.743652,4389.871582,,,,,,,,,,,,,,,,,,,,,,,,,,,,,,,,,,,,,,,,,,,,,,,,,,,,,,,,,,,,,,,,,,,,,,
1720525777,39,0,4292.179688,4283.589844,4301.666504,4309.743652,4297.05127,4230.512695,4270.384766,4295.641113,4264.743652,4306.282227,4392.94873,4478.717773,4360.384766,4401.282227,,,,,,,,,,,,,,,,,,,,,,,,,,,,,,,,,,,,,,,,,,,,,,,,,,,,,,,,,,,,,,,,,,,,,,
1720525777,40,0,4310.128418,4283.974121,4314.615234,4308.205078,4296.025879,4230.897461,4279.358887,4302.05127,4261.794922,4310.641113,4399.102539,4492.692383,4379.615234,4417.05127,,,,,,,,,,,,,,,,,,,,,,,,,,,,,,,,,,,,,,,,,,,,,,,,,,,,,,,,,,,,,,,,,,,,,,
1720525777,41,0,4307.94873,4285.384766,4307.94873,4310.769043,4298.205078,4227.307617,4280.256348,4286.025879,4261.794922,4295.897461,4385.512695,4472.94873,4371.410156,4403.077148,,,,,,,,,,,,,,,,,,,,,,,,,,,,,,,,,,,,,,,,,,,,,,,,,,,,,,,,,,,,,,,,,,,,,,
1720525777,42,0,4303.333496,4282.05127,4308.333496,4312.94873,4295.256348,4229.230957,4279.230957,4294.358887,4263.974121,4303.205078,4390.512695,4478.717773,4365.384766,4401.794922,1.453593,1.769656,0.954167,0.808501,0.213361,1.160951,1.68336,0.957171,0.392756,0.315554,0.700022,0.533535,0.538394,0.498135,0.217578,0.467399,1.258431,0.982874,0.46698,0.31209,0.266606,0.436664,0.176369,0.220829,0.120914,0.175766,0.166019,0.110795,0.086196,0.13309,0.443187,0.477518,0.132439,0.143532,0.176477,0.113202,0.098994,0.039736,0.091472,0.499794,0.55902,0.978301,0.409333,0.339114,0.272063,0.12943,0.143109,0.070695,0.117134,0.334929,0.033941,0.075434,0.024549,0.075357,0.334963,0.810063,1.586933,0.458294,0.616393,0.800759,0.964703,4.323266,0.621333,0.914309,0.266945,1.252655,2.559117,0.920868,1.163153,0.343977
1720525777,43,0,4300.128418,4270.641113,4303.974121,4302.436035,4288.461426,4228.461426,4271.794922,4293.974121,4264.230957,4302.307617,4391.666504,4473.205078,4379.743652,4410.512695,,,,,,,,,,,,,,,,,,,,,,,,,,,,,,,,,,,,,,,,,,,,,,,,,,,,,,,,,,,,,,,,,,,,,,
1720525777,44,0,4282.563965,4261.410156,4289.871582,4292.436035,4281.538574,4228.589844,4263.461426,4287.307617,4263.077148,4298.077148,4387.563965,4456.410156,4370.128418,4401.153809,,,,,,,,,,,,,,,,,,,,,,,,,,,,,,,,,,,,,,,,,,,,,,,,,,,,,,,,,,,,,,,,,,,,,,
1720525777,45,0,4269.230957,4262.820313,4278.974121,4293.205078,4279.230957,4230.769043,4261.410156,4287.692383,4260.897461,4301.282227,4383.589844,4448.717773,4349.615234,4385.512695,,,,,,,,,,,,,,,,,,,,,,,,,,,,,,,,,,,,,,,,,,,,,,,,,,,,,,,,,,,,,,,,,,,,,,
1720525777,46,0,4273.205078,4264.487305,4278.717773,4295.256348,4281.410156,4229.871582,4263.974121,4288.461426,4262.436035,4300.384766,4383.846191,4447.692383,4355,4387.179688,,,,,,,,,,,,,,,,,,,,,,,,,,,,,,,,,,,,,,,,,,,,,,,,,,,,,,,,,,,,,,,,,,,,,,
1720525777,47,0,4276.153809,4262.820313,4285.128418,4292.692383,4279.615234,4228.077148,4268.717773,4295.128418,4267.436035,4298.846191,4388.974121,4457.05127,4362.94873,4394.487305,,,,,,,,,,,,,,,,,,,,,,,,,,,,,,,,,,,,,,,,,,,,,,,,,,,,,,,,,,,,,,,,,,,,,,
1720525777,48,0,4279.358887,4269.743652,4289.230957,4294.487305,4276.153809,4225.384766,4272.179688,4295.128418,4267.436035,4298.846191,4389.358887,4465.512695,4360.512695,4396.282227,,,,,,,,,,,,,,,,,,,,,,,,,,,,,,,,,,,,,,,,,,,,,,,,,,,,,,,,,,,,,,,,,,,,,,
1720525777,49,0,4291.025879,4278.333496,4294.102539,4298.077148,4281.922852,4227.94873,4273.205078,4292.307617,4266.025879,4301.666504,4390.128418,4476.153809,4366.666504,4405.897461,,,,,,,,,,,,,,,,,,,,,,,,,,,,,,,,,,,,,,,,,,,,,,,,,,,,,,,,,,,,,,,,,,,,,,
1720525777,50,0,4296.538574,4278.846191,4298.333496,4297.692383,4288.461426,4231.153809,4270,4291.922852,4263.333496,4298.717773,4388.077148,4477.05127,4372.436035,4414.615234,,,,,,,,,,,,,,,,,,,,,,,,,,,,,,,,,,,,,,,,,,,,,,,,,,,,,,,,,,,,,,,,,,,,,,
1720525777,51,0,4290.512695,4276.410156,4293.461426,4295.897461,4283.461426,4229.871582,4264.358887,4290.512695,4251.794922,4295.512695,4386.025879,4466.025879,4363.333496,4408.077148,,,,,,,,,,,,,,,,,,,,,,,,,,,,,,,,,,,,,,,,,,,,,,,,,,,,,,,,,,,,,,,,,,,,,,
1720525777,52,0,4281.282227,4272.05127,4282.307617,4291.666504,4276.794922,4227.436035,4261.794922,4287.94873,4241.410156,4296.538574,4383.974121,4456.922852,4349.487305,4391.282227,,,,,,,,,,,,,,,,,,,,,,,,,,,,,,,,,,,,,,,,,,,,,,,,,,,,,,,,,,,,,,,,,,,,,,
1720525777,53,0,4284.487305,4272.05127,4286.794922,4296.794922,4279.871582,4226.153809,4265.641113,4289.230957,4246.410156,4296.410156,4382.94873,4463.333496,4352.692383,4388.717773,,,,,,,,,,,,,,,,,,,,,,,,,,,,,,,,,,,,,,,,,,,,,,,,,,,,,,,,,,,,,,,,,,,,,,
1720525777,54,0,4301.666504,4277.05127,4302.94873,4309.230957,4283.205078,4228.205078,4266.922852,4292.94873,4253.461426,4296.794922,4389.743652,4476.153809,4368.717773,4408.717773,,,,,,,,,,,,,,,,,,,,,,,,,,,,,,,,,,,,,,,,,,,,,,,,,,,,,,,,,,,,,,,,,,,,,,
1720525777,55,0,4309.871582,4279.871582,4307.692383,4306.538574,4280.641113,4230.897461,4264.358887,4297.692383,4248.846191,4302.692383,4396.025879,4478.974121,4372.307617,4419.743652,,,,,,,,,,,,,,,,,,,,,,,,,,,,,,,,,,,,,,,,,,,,,,,,,,,,,,,,,,,,,,,,,,,,,,
1720525777,56,0,4300.384766,4279.230957,4299.743652,4297.05127,4281.410156,4225.256348,4264.615234,4294.358887,4247.692383,4301.794922,4388.717773,4467.94873,4365.384766,4408.333496,,,,,,,,,,,,,,,,,,,,,,,,,,,,,,,,,,,,,,,,,,,,,,,,,,,,,,,,,,,,,,,,,,,,,,
1720525777,57,0,4283.974121,4271.025879,4287.563965,4296.025879,4281.666504,4220,4261.922852,4279.743652,4257.179688,4289.102539,4374.358887,4447.307617,4358.077148,4390,,,,,,,,,,,,,,,,,,,,,,,,,,,,,,,,,,,,,,,,,,,,,,,,,,,,,,,,,,,,,,,,,,,,,,
1720525777,58,0,4274.743652,4257.436035,4285.769043,4291.922852,4275.256348,4232.692383,4265.769043,4297.94873,4265.769043,4300.256348,4388.333496,4463.205078,4347.307617,4381.922852,1.263888,1.919253,1.094797,0.850702,0.215702,1.289194,2.112834,1.097907,0.451017,0.321315,0.596914,0.516241,0.627019,0.490401,0.225246,0.428527,1.428361,1.142233,0.51352,0.325816,0.2069,0.417506,0.193746,0.232373,0.135108,0.219073,0.188921,0.151688,0.101916,0.152184,0.441584,0.5436,0.123297,0.175122,0.197195,0.099259,0.112478,0.038268,0.097032,0.493459,0.549864,1.309459,0.396766,0.393857,0.257096,0.127508,0.169136,0.063201,0.125364,0.323439,0.031908,0.074117,0.020858,0.068403,0.342152,0.550343,1.884557,0.51296,0.586968,0.790066,0.852005,4.815679,0.700357,0.983885,0.281335,0.99297,2.170999,0.983354,1.249291,0.332428
1720525777,59,0,4275.128418,4263.333496,4287.307617,4287.05127,4280.769043,4236.794922,4272.94873,4309.102539,4268.461426,4308.077148,4397.436035,4473.333496,4334.615234,4373.333496,,,,,,,,,,,,,,,,,,,,,,,,,,,,,,,,,,,,,,,,,,,,,,,,,,,,,,,,,,,,,,,,,,,,,,
1720525777,60,0,4274.358887,4274.102539,4279.871582,4294.102539,4292.179688,4229.230957,4268.461426,4283.846191,4266.025879,4290.512695,4379.230957,4442.820313,4328.717773,4362.179688,,,,,,,,,,,,,,,,,,,,,,,,,,,,,,,,,,,,,,,,,,,,,,,,,,,,,,,,,,,,,,,,,,,,,,
1720525777,61,0,4276.410156,4266.794922,4282.820313,4297.05127,4288.205078,4236.922852,4261.666504,4291.153809,4262.05127,4296.282227,4385.384766,4451.794922,4336.153809,4371.922852,,,,,,,,,,,,,,,,,,,,,,,,,,,,,,,,,,,,,,,,,,,,,,,,,,,,,,,,,,,,,,,,,,,,,,
1720525777,62,0,4282.692383,4266.538574,4291.666504,4294.102539,4285.769043,4242.692383,4264.230957,4302.307617,4263.077148,4302.563965,4393.077148,4473.846191,4346.922852,4380.512695,,,,,,,,,,,,,,,,,,,,,,,,,,,,,,,,,,,,,,,,,,,,,,,,,,,,,,,,,,,,,,,,,,,,,,
1720525777,63,0,4287.436035,4280.384766,4290.256348,4307.307617,4293.974121,4237.820313,4267.563965,4289.743652,4265.128418,4292.179688,4383.205078,4466.153809,4352.820313,4378.205078,,,,,,,,,,,,,,,,,,,,,,,,,,,,,,,,,,,,,,,,,,,,,,,,,,,,,,,,,,,,,,,,,,,,,,
1720525777,64,0,4295.897461,4282.820313,4292.436035,4312.820313,4293.077148,4234.487305,4264.230957,4291.410156,4261.666504,4298.717773,4388.077148,4473.846191,4355.769043,4385.256348,,,,,,,,,,,,,,,,,,,,,,,,,,,,,,,,,,,,,,,,,,,,,,,,,,,,,,,,,,,,,,,,,,,,,,
1720525777,65,0,4304.615234,4276.410156,4300,4297.94873,4288.589844,4231.794922,4263.205078,4293.717773,4261.282227,4302.307617,4388.589844,4478.205078,4361.794922,4386.410156,,,,,,,,,,,,,,,,,,,,,,,,,,,,,,,,,,,,,,,,,,,,,,,,,,,,,,,,,,,,,,,,,,,,,,
1720525777,66,0,4298.333496,4275.128418,4297.692383,4298.461426,4293.077148,4231.794922,4270.256348,4286.538574,4267.05127,4291.666504,4378.846191,4456.794922,4364.487305,4379.230957,,,,,,,,,,,,,,,,,,,,,,,,,,,,,,,,,,,,,,,,,,,,,,,,,,,,,,,,,,,,,,,,,,,,,,
1720525777,67,0,4290.897461,4279.230957,4296.794922,4313.717773,4293.461426,4240.128418,4277.94873,4300.641113,4267.05127,4303.974121,4393.717773,4466.153809,4360.512695,4386.794922,,,,,,,,,,,,,,,,,,,,,,,,,,,,,,,,,,,,,,,,,,,,,,,,,,,,,,,,,,,,,,,,,,,,,,
1720525777,68,0,4300.897461,4286.538574,4301.153809,4313.461426,4290.512695,4239.615234,4278.205078,4301.794922,4263.205078,4309.358887,4394.230957,4474.230957,4362.563965,4392.436035,,,,,,,,,,,,,,,,,,,,,,,,,,,,,,,,,,,,,,,,,,,,,,,,,,,,,,,,,,,,,,,,,,,,,,
1720525777,69,0,4307.692383,4288.333496,4302.436035,4306.666504,4292.307617,4233.589844,4274.871582,4286.538574,4264.487305,4297.436035,4380.769043,4462.179688,4368.717773,4388.461426,,,,,,,,,,,,,,,,,,,,,,,,,,,,,,,,,,,,,,,,,,,,,,,,,,,,,,,,,,,,,,,,,,,,,,
1720525777,70,0,4295.769043,4279.615234,4301.922852,4307.563965,4291.282227,4238.077148,4273.077148,4302.05127,4263.974121,4305,4392.307617,4475.256348,4365.128418,4390.384766,,,,,,,,,,,,,,,,,,,,,,,,,,,,,,,,,,,,,,,,,,,,,,,,,,,,,,,,,,,,,,,,,,,,,,
1720525777,71,0,4282.563965,4276.666504,4291.538574,4309.743652,4290.769043,4240.128418,4266.538574,4300.256348,4262.820313,4300.512695,4388.717773,4471.282227,4358.333496,4379.487305,,,,,,,,,,,,,,,,,,,,,,,,,,,,,,,,,,,,,,,,,,,,,,,,,,,,,,,,,,,,,,,,,,,,,,
1720525777,72,0,4283.846191,4280.897461,4287.05127,4310.641113,4292.179688,4239.615234,4266.153809,4291.666504,4267.563965,4297.307617,4386.666504,4468.974121,4364.102539,4374.871582,,,,,,,,,,,,,,,,,,,,,,,,,,,,,,,,,,,,,,,,,,,,,,,,,,,,,,,,,,,,,,,,,,,,,,
1720525777,73,0,4282.05127,4278.974121,4286.410156,4303.846191,4287.820313,4242.05127,4265.769043,4297.436035,4263.461426,4301.025879,4389.487305,4469.358887,4358.461426,4371.282227,,,,,,,,,,,,,,,,,,,,,,,,,,,,,,,,,,,,,,,,,,,,,,,,,,,,,,,,,,,,,,,,,,,,,,
1720525777,74,0,4266.538574,4270.769043,4277.820313,4293.077148,4279.102539,4239.230957,4252.563965,4289.615234,4247.436035,4290.128418,4383.333496,4447.563965,4332.436035,4344.871582,1.119958,2.20029,1.155143,0.894648,0.215141,1.335496,2.461423,1.116322,0.53582,0.315569,0.524682,0.570699,0.673599,0.499106,0.226032,0.396764,1.547816,1.1815,0.565842,0.327356,0.174696,0.379273,0.213527,0.251118,0.143511,0.300246,0.264544,0.220739,0.125254,0.168616,0.470586,0.777472,0.153747,0.224726,0.21422,0.091501,0.165148,0.043809,0.100951,0.482956,0.532734,1.950151,0.434751,0.470934,0.243118,0.122606,0.187848,0.058068,0.1296,0.318173,0.033337,0.072451,0.020841,0.059679,0.350416,0.426622,2.30913,0.578018,0.571916,0.778254,0.882565,4.913859,0.788762,1.030597,0.29638,0.916154,1.942935,0.995366,1.293732,0.327351
1720525777,75,0,4269.743652,4271.794922,4283.333496,4302.179688,4279.102539,4240.512695,4253.589844,4296.153809,4245.384766,4296.025879,4395.897461,4457.05127,4332.94873,4348.205078,,,,,,,,,,,,,,,,,,,,,,,,,,,,,,,,,,,,,,,,,,,,,,,,,,,,,,,,,,,,,,,,,,,,,,
1720525777,76,0,4295.897461,4285.769043,4295.128418,4318.205078,4289.230957,4250.384766,4269.230957,4300.897461,4261.666504,4299.615234,4390.256348,4467.307617,4359.230957,4372.436035,,,,,,,,,,,,,,,,,,,,,,,,,,,,,,,,,,,,,,,,,,,,,,,,,,,,,,,,,,,,,,,,,,,,,,
1720525777,77,0,4305.641113,4290.641113,4299.230957,4315.384766,4295.256348,4254.743652,4277.05127,4295.769043,4267.436035,4296.282227,4381.922852,4466.538574,4365.512695,4378.717773,,,,,,,,,,,,,,,,,,,,,,,,,,,,,,,,,,,,,,,,,,,,,,,,,,,,,,,,,,,,,,,,,,,,,,
1720525777,78,0,4293.974121,4286.922852,4297.179688,4308.846191,4292.436035,4250.897461,4272.94873,4297.179688,4262.179688,4298.589844,4390,4467.05127,4350.128418,4377.436035,,,,,,,,,,,,,,,,,,,,,,,,,,,,,,,,,,,,,,,,,,,,,,,,,,,,,,,,,,,,,,,,,,,,,,
1720525777,79,0,4286.666504,4289.615234,4290.897461,4313.974121,4289.615234,4250.128418,4268.846191,4294.743652,4261.666504,4291.538574,4384.871582,4451.282227,4340.128418,4371.538574,,,,,,,,,,,,,,,,,,,,,,,,,,,,,,,,,,,,,,,,,,,,,,,,,,,,,,,,,,,,,,,,,,,,,,
1720525777,80,0,4288.077148,4288.077148,4288.589844,4313.077148,4289.743652,4253.717773,4272.05127,4295.256348,4257.05127,4290.897461,4385.512695,4449.743652,4339.743652,4363.717773,,,,,,,,,,,,,,,,,,,,,,,,,,,,,,,,,,,,,,,,,,,,,,,,,,,,,,,,,,,,,,,,,,,,,,
1720525777,81,0,4281.922852,4275.256348,4284.615234,4299.615234,4286.153809,4249.615234,4270.128418,4296.410156,4247.94873,4291.410156,4390.128418,4457.692383,4337.94873,4361.153809,,,,,,,,,,,,,,,,,,,,,,,,,,,,,,,,,,,,,,,,,,,,,,,,,,,,,,,,,,,,,,,,,,,,,,
1720525777,82,0,4272.94873,4264.871582,4280.641113,4290.897461,4281.410156,4243.461426,4264.358887,4294.487305,4250.769043,4284.615234,4388.333496,4456.538574,4339.102539,4366.153809,,,,,,,,,,,,,,,,,,,,,,,,,,,,,,,,,,,,,,,,,,,,,,,,,,,,,,,,,,,,,,,,,,,,,,
1720525777,83,0,4272.05127,4263.077148,4283.717773,4292.563965,4285.128418,4248.589844,4266.666504,4301.538574,4261.153809,4289.615234,4389.358887,4463.077148,4343.461426,4369.358887,,,,,,,,,,,,,,,,,,,,,,,,,,,,,,,,,,,,,,,,,,,,,,,,,,,,,,,,,,,,,,,,,,,,,,
1720525777,84,0,4271.794922,4261.153809,4282.692383,4293.333496,4292.692383,4250.769043,4271.153809,4301.666504,4262.692383,4292.563965,4385.256348,4463.077148,4337.820313,4361.153809,,,,,,,,,,,,,,,,,,,,,,,,,,,,,,,,,,,,,,,,,,,,,,,,,,,,,,,,,,,,,,,,,,,,,,
1720525777,85,0,4271.153809,4264.358887,4280,4293.077148,4292.94873,4252.563965,4268.589844,4288.589844,4263.333496,4281.922852,4380.128418,4449.487305,4328.077148,4353.461426,,,,,,,,,,,,,,,,,,,,,,,,,,,,,,,,,,,,,,,,,,,,,,,,,,,,,,,,,,,,,,,,,,,,,,
1720525777,86,0,4274.743652,4275.384766,4290.897461,4300.256348,4293.077148,4262.436035,4270,4302.436035,4268.717773,4292.05127,4394.230957,4463.846191,4327.436035,4360.256348,,,,,,,,,,,,,,,,,,,,,,,,,,,,,,,,,,,,,,,,,,,,,,,,,,,,,,,,,,,,,,,,,,,,,,
1720525777,87,0,4274.102539,4278.717773,4290.512695,4304.230957,4297.692383,4257.692383,4268.974121,4309.743652,4263.717773,4298.205078,4396.153809,4466.922852,4327.94873,4358.974121,,,,,,,,,,,,,,,,,,,,,,,,,,,,,,,,,,,,,,,,,,,,,,,,,,,,,,,,,,,,,,,,,,,,,,
1720525777,88,0,4268.846191,4275.897461,4270.256348,4297.563965,4296.025879,4242.05127,4259.358887,4279.743652,4250.769043,4271.282227,4372.820313,4425,4325.897461,4342.05127,,,,,,,,,,,,,,,,,,,,,,,,,,,,,,,,,,,,,,,,,,,,,,,,,,,,,,,,,,,,,,,,,,,,,,
1720525777,89,0,4275.769043,4277.94873,4277.692383,4298.205078,4293.205078,4250.641113,4262.94873,4287.692383,4245.641113,4274.358887,4383.461426,4432.05127,4333.461426,4349.615234,,,,,,,,,,,,,,,,,,,,,,,,,,,,,,,,,,,,,,,,,,,,,,,,,,,,,,,,,,,,,,,,,,,,,,
1720525777,90,0,4289.358887,4280.128418,4294.487305,4304.487305,4298.077148,4261.538574,4270,4308.461426,4254.743652,4290.641113,4396.538574,4459.487305,4338.461426,4366.922852,0.984649,2.547873,1.137995,0.94353,0.213994,1.288671,2.615272,1.021337,0.640553,0.3,0.468812,0.706175,0.675247,0.534253,0.220813,0.366706,1.573234,1.090999,0.62377,0.314025,0.189506,0.329001,0.230326,0.266491,0.143764,0.384455,0.382886,0.30374,0.14931,0.17784,0.515306,1.214123,0.242876,0.281038,0.222287,0.084545,0.255072,0.054239,0.102639,0.46961,0.516665,2.909667,0.528039,0.540396,0.227952,0.11529,0.194509,0.054907,0.127027,0.318654,0.036507,0.069453,0.023985,0.052203,0.360256,0.420767,2.810855,0.642817,0.58243,0.76933,0.991814,4.581338,0.870619,1.050697,0.309403,0.969998,1.862384,0.970015,1.294404,0.330678
1720525777,91,0,4290.128418,4276.794922,4287.436035,4299.358887,4298.846191,4253.461426,4266.025879,4293.333496,4261.794922,4277.563965,4380.128418,4445.897461,4330.512695,4361.538574,,,,,,,,,,,,,,,,,,,,,,,,,,,,,,,,,,,,,,,,,,,,,,,,,,,,,,,,,,,,,,,,,,,,,,
1720525777,92,0,4284.871582,4275.512695,4282.179688,4293.333496,4295.897461,4254.358887,4259.615234,4292.94873,4253.589844,4276.153809,4383.846191,4445.769043,4327.820313,4361.282227,,,,,,,,,,,,,,,,,,,,,,,,,,,,,,,,,,,,,,,,,,,,,,,,,,,,,,,,,,,,,,,,,,,,,,
1720525777,93,0,4279.358887,4276.794922,4282.692383,4294.487305,4300.512695,4260.128418,4259.615234,4300.769043,4249.230957,4286.794922,4394.743652,4452.563965,4334.871582,4371.025879,,,,,,,,,,,,,,,,,,,,,,,,,,,,,,,,,,,,,,,,,,,,,,,,,,,,,,,,,,,,,,,,,,,,,,
1720525777,94,0,4275,4273.461426,4280.384766,4294.487305,4309.230957,4257.692383,4263.846191,4290,4260.641113,4281.538574,4383.205078,4437.05127,4341.666504,4370,,,,,,,,,,,,,,,,,,,,,,,,,,,,,,,,,,,,,,,,,,,,,,,,,,,,,,,,,,,,,,,,,,,,,,
1720525777,95,0,4273.077148,4266.410156,4283.333496,4290.897461,4321.025879,4258.333496,4255,4297.05127,4267.05127,4282.820313,4390.384766,4444.230957,4338.461426,4368.205078,,,,,,,,,,,,,,,,,,,,,,,,,,,,,,,,,,,,,,,,,,,,,,,,,,,,,,,,,,,,,,,,,,,,,,
1720525777,96,0,4274.102539,4264.230957,4284.487305,4292.179688,4338.717773,4262.05127,4245.256348,4306.666504,4263.205078,4286.410156,4402.436035,4459.743652,4337.820313,4372.436035,,,,,,,,,,,,,,,,,,,,,,,,,,,,,,,,,,,,,,,,,,,,,,,,,,,,,,,,,,,,,,,,,,,,,,
1720525777,97,0,4280.128418,4264.743652,4282.05127,4295.256348,4345.641113,4261.922852,4252.307617,4287.820313,4263.717773,4275,4386.282227,4451.025879,4349.871582,4377.692383,,,,,,,,,,,,,,,,,,,,,,,,,,,,,,,,,,,,,,,,,,,,,,,,,,,,,,,,,,,,,,,,,,,,,,
1720525777,98,0,4285.897461,4262.05127,4291.538574,4291.794922,4333.974121,4268.461426,4263.846191,4294.487305,4264.487305,4281.025879,4387.179688,4463.461426,4358.461426,4388.461426,,,,,,,,,,,,,,,,,,,,,,,,,,,,,,,,,,,,,,,,,,,,,,,,,,,,,,,,,,,,,,,,,,,,,,
1720525777,99,0,4283.717773,4268.846191,4295.384766,4296.794922,4313.333496,4274.743652,4267.179688,4307.179688,4261.922852,4286.282227,4391.666504,4470.384766,4353.974121,4390.512695,,,,,,,,,,,,,,,,,,,,,,,,,,,,,,,,,,,,,,,,,,,,,,,,,,,,,,,,,,,,,,,,,,,,,,
1720525777,100,0,4280.897461,4281.153809,4291.025879,4305.384766,4291.282227,4266.410156,4265,4294.102539,4258.205078,4278.974121,4388.205078,4457.94873,4343.974121,4380.512695,,,,,,,,,,,,,,,,,,,,,,,,,,,,,,,,,,,,,,,,,,,,,,,,,,,,,,,,,,,,,,,,,,,,,,
1720525777,101,0,4284.615234,4280.769043,4294.615234,4302.436035,4286.538574,4261.025879,4257.692383,4291.153809,4248.974121,4278.461426,4390.384766,4457.94873,4333.461426,4371.666504,,,,,,,,,,,,,,,,,,,,,,,,,,,,,,,,,,,,,,,,,,,,,,,,,,,,,,,,,,,,,,,,,,,,,,
1720525777,102,0,4289.487305,4277.563965,4294.358887,4298.077148,4295.769043,4264.487305,4254.102539,4293.077148,4244.871582,4273.077148,4383.461426,4455.641113,4335,4365.256348,,,,,,,,,,,,,,,,,,,,,,,,,,,,,,,,,,,,,,,,,,,,,,,,,,,,,,,,,,,,,,,,,,,,,,
1720525777,103,0,4288.461426,4279.487305,4293.589844,4299.743652,4292.94873,4268.205078,4260,4295.897461,4247.563965,4272.94873,4386.025879,4460.256348,4342.307617,4368.846191,,,,,,,,,,,,,,,,,,,,,,,,,,,,,,,,,,,,,,,,,,,,,,,,,,,,,,,,,,,,,,,,,,,,,,
1720525777,104,0,4278.205078,4278.205078,4288.846191,4296.153809,4288.333496,4265.641113,4255.128418,4297.179688,4244.487305,4272.563965,4391.666504,4455.897461,4332.94873,4365.769043,,,,,,,,,,,,,,,,,,,,,,,,,,,,,,,,,,,,,,,,,,,,,,,,,,,,,,,,,,,,,,,,,,,,,,
1720525777,105,0,4272.05127,4269.615234,4281.922852,4290.897461,4282.820313,4262.563965,4247.436035,4296.153809,4237.94873,4268.333496,4388.974121,4442.692383,4322.307617,4352.05127,,,,,,,,,,,,,,,,,,,,,,,,,,,,,,,,,,,,,,,,,,,,,,,,,,,,,,,,,,,,,,,,,,,,,,
1720525777,106,0,4279.487305,4264.743652,4285.256348,4295,4254.358887,4265.128418,4251.922852,4297.179688,4246.794922,4272.692383,4388.205078,4447.179688,4330.384766,4355,0.843305,2.904053,1.064528,0.998045,0.216148,1.167995,2.535257,0.859873,0.74628,0.277541,0.417233,0.91699,0.638449,0.595314,0.211782,0.341035,1.495655,0.901843,0.679076,0.288626,0.26541,0.277102,0.237385,0.267852,0.136296,0.444272,0.514692,0.38208,0.166771,0.177889,0.541134,1.788637,0.389532,0.330782,0.218676,0.075238,0.361273,0.066898,0.102464,0.455557,0.521401,4.021903,0.655085,0.57265,0.210219,0.110031,0.186693,0.052904,0.1165,0.320658,0.039885,0.064387,0.029203,0.048631,0.369462,0.493918,3.276871,0.683796,0.621791,0.763341,1.121283,3.942518,0.92003,1.051081,0.318702,1.05692,1.876864,0.915308,1.268105,0.341756
1720525777,107,0,4284.102539,4269.871582,4289.358887,4299.743652,4227.179688,4267.563965,4254.102539,4295.128418,4258.589844,4276.794922,4387.820313,4455.128418,4340.641113,4366.666504,,,,,,,,,,,,,,,,,,,,,,,,,,,,,,,,,,,,,,,,,,,,,,,,,,,,,,,,,,,,,,,,,,,,,,
1720525777,108,0,4279.358887,4276.025879,4289.871582,4303.717773,4232.307617,4272.179688,4254.871582,4295.512695,4255.128418,4276.025879,4388.974121,4455.897461,4340,4369.230957,,,,,,,,,,,,,,,,,,,,,,,,,,,,,,,,,,,,,,,,,,,,,,,,,,,,,,,,,,,,,,,,,,,,,,
1720525777,109,0,4287.436035,4283.846191,4298.589844,4311.282227,4246.538574,4273.333496,4261.538574,4295.384766,4255.256348,4273.717773,4390.641113,4462.05127,4338.333496,4370.641113,,,,,,,,,,,,,,,,,,,,,,,,,,,,,,,,,,,,,,,,,,,,,,,,,,,,,,,,,,,,,,,,,,,,,,
1720525777,110,0,4313.589844,4295.769043,4314.487305,4318.717773,4248.589844,4271.794922,4268.717773,4293.974121,4264.615234,4274.102539,4388.205078,4475.641113,4349.358887,4388.077148,,,,,,,,,,,,,,,,,,,,,,,,,,,,,,,,,,,,,,,,,,,,,,,,,,,,,,,,,,,,,,,,,,,,,,
1720525777,111,0,4324.230957,4291.922852,4318.589844,4318.846191,4246.794922,4273.717773,4271.666504,4297.820313,4261.153809,4276.410156,4386.922852,4482.563965,4362.179688,4405.769043,,,,,,,,,,,,,,,,,,,,,,,,,,,,,,,,,,,,,,,,,,,,,,,,,,,,,,,,,,,,,,,,,,,,,,
1720525777,112,0,4313.333496,4276.538574,4311.794922,4308.717773,4245.512695,4274.230957,4276.025879,4304.358887,4260.641113,4276.153809,4392.05127,4480.128418,4361.025879,4404.871582,,,,,,,,,,,,,,,,,,,,,,,,,,,,,,,,,,,,,,,,,,,,,,,,,,,,,,,,,,,,,,,,,,,,,,
1720525777,113,0,4302.307617,4277.563965,4302.820313,4303.333496,4247.307617,4270,4278.461426,4296.410156,4274.358887,4269.743652,4387.692383,4467.563965,4359.487305,4396.794922,,,,,,,,,,,,,,,,,,,,,,,,,,,,,,,,,,,,,,,,,,,,,,,,,,,,,,,,,,,,,,,,,,,,,,
1720525777,114,0,4293.077148,4280.897461,4300.641113,4308.589844,4250.384766,4276.666504,4277.179688,4301.282227,4273.846191,4278.974121,4390.384766,4471.794922,4362.307617,4397.307617,,,,,,,,,,,,,,,,,,,,,,,,,,,,,,,,,,,,,,,,,,,,,,,,,,,,,,,,,,,,,,,,,,,,,,
1720525777,115,0,4288.974121,4272.307617,4303.846191,4308.205078,4250.641113,4284.871582,4279.102539,4313.589844,4259.743652,4287.436035,4400.128418,4478.717773,4351.794922,4401.153809,,,,,,,,,,,,,,,,,,,,,,,,,,,,,,,,,,,,,,,,,,,,,,,,,,,,,,,,,,,,,,,,,,,,,,
1720525777,116,0,4292.563965,4275.128418,4295.769043,4298.077148,4254.102539,4276.025879,4276.922852,4288.846191,4260.512695,4263.974121,4381.282227,4451.282227,4341.153809,4388.974121,,,,,,,,,,,,,,,,,,,,,,,,,,,,,,,,,,,,,,,,,,,,,,,,,,,,,,,,,,,,,,,,,,,,,,
1720525777,117,0,4291.538574,4281.410156,4294.487305,4295.512695,4259.102539,4275.641113,4272.563965,4288.205078,4263.974121,4265.512695,4377.563965,4450.384766,4341.666504,4380.384766,,,,,,,,,,,,,,,,,,,,,,,,,,,,,,,,,,,,,,,,,,,,,,,,,,,,,,,,,,,,,,,,,,,,,,
1720525778,118,0,4290.897461,4282.94873,4302.563965,4306.666504,4261.153809,4281.282227,4268.077148,4307.179688,4259.230957,4284.615234,4393.974121,4456.538574,4340.769043,4391.282227,,,,,,,,,,,,,,,,,,,,,,,,,,,,,,,,,,,,,,,,,,,,,,,,,,,,,,,,,,,,,,,,,,,,,,
1720525778,119,0,4296.666504,4287.179688,4300.512695,4313.461426,4262.436035,4273.077148,4264.487305,4293.205078,4257.307617,4271.794922,4387.436035,4424.102539,4343.461426,4397.820313,,,,,,,,,,,,,,,,,,,,,,,,,,,,,,,,,,,,,,,,,,,,,,,,,,,,,,,,,,,,,,,,,,,,,,
1720525778,120,0,4294.102539,4283.333496,4298.589844,4306.153809,4263.717773,4270.128418,4263.205078,4289.871582,4262.179688,4267.05127,4385.128418,4421.025879,4349.230957,4394.230957,,,,,,,,,,,,,,,,,,,,,,,,,,,,,,,,,,,,,,,,,,,,,,,,,,,,,,,,,,,,,,,,,,,,,,
1720525778,121,0,4290.641113,4273.846191,4305.512695,4301.538574,4262.563965,4276.282227,4260.897461,4298.846191,4264.871582,4275.769043,4390.769043,4440.512695,4350,4394.871582,,,,,,,,,,,,,,,,,,,,,,,,,,,,,,,,,,,,,,,,,,,,,,,,,,,,,,,,,,,,,,,,,,,,,,
1720525778,122,0,4300.512695,4279.743652,4307.563965,4312.563965,4262.05127,4276.153809,4260.641113,4290.384766,4260.128418,4267.05127,4383.205078,4430.769043,4356.153809,4401.794922,0.685856,3.228614,0.956395,1.054726,0.224835,1.001699,2.268609,0.690539,0.825875,0.251919,0.360248,1.176549,0.577133,0.670795,0.201991,0.317187,1.342718,0.671336,0.715949,0.259067,0.454065,0.239436,0.242833,0.255699,0.123977,0.459067,0.618529,0.438344,0.173528,0.169938,0.525575,2.348757,0.569857,0.363411,0.204824,0.06181,0.451496,0.079835,0.101442,0.444918,0.567298,4.977791,0.786472,0.556185,0.191418,0.107853,0.166594,0.052331,0.099869,0.320303,0.042811,0.057861,0.035345,0.05038,0.375315,0.585444,3.583176,0.681101,0.68699,0.759294,1.261392,3.226463,0.916825,1.047978,0.324697,1.116323,1.960933,0.832698,1.243631,0.357392
1720525778,123,0,4312.05127,4297.820313,4307.820313,4325.256348,4270.256348,4277.94873,4263.077148,4293.589844,4258.846191,4266.666504,4390,4432.563965,4368.846191,4409.615234,,,,,,,,,,,,,,,,,,,,,,,,,,,,,,,,,,,,,,,,,,,,,,,,,,,,,,,,,,,,,,,,,,,,,,
1720525778,124,0,4309.102539,4297.820313,4307.563965,4321.538574,4274.487305,4280.769043,4264.358887,4303.205078,4263.205078,4273.846191,4399.615234,4439.871582,4364.743652,4402.307617,,,,,,,,,,,,,,,,,,,,,,,,,,,,,,,,,,,,,,,,,,,,,,,,,,,,,,,,,,,,,,,,,,,,,,
1720525778,125,0,4297.05127,4283.205078,4300.641113,4310.384766,4266.538574,4273.846191,4265.769043,4285.512695,4263.077148,4258.333496,4381.282227,4415.512695,4351.794922,4385.384766,,,,,,,,,,,,,,,,,,,,,,,,,,,,,,,,,,,,,,,,,,,,,,,,,,,,,,,,,,,,,,,,,,,,,,
1720525778,126,0,4300.641113,4278.974121,4304.615234,4306.025879,4262.94873,4277.307617,4274.358887,4292.179688,4260.641113,4263.589844,4383.205078,4431.025879,4363.333496,4402.307617,,,,,,,,,,,,,,,,,,,,,,,,,,,,,,,,,,,,,,,,,,,,,,,,,,,,,,,,,,,,,,,,,,,,,,
1720525778,127,0,4315.128418,4282.563965,4314.358887,4307.692383,4268.077148,4287.820313,4280.769043,4308.461426,4261.922852,4279.230957,4395.897461,4463.205078,4385.769043,4435.897461,,,,,,,,,,,,,,,,,,,,,,,,,,,,,,,,,,,,,,,,,,,,,,,,,,,,,,,,,,,,,,,,,,,,,,
1720525778,0,0,4310.256348,4280.897461,4314.871582,4308.589844,4266.410156,4284.743652,4277.179688,4294.743652,4263.974121,4267.692383,4390.128418,4453.717773,4382.05127,4433.589844,,,,,,,,,,,,,,,,,,,,,,,,,,,,,,,,,,,,,,,,,,,,,,,,,,,,,,,,,,,,,,,,,,,,,,
1720525778,1,0,4297.179688,4272.692383,4312.436035,4301.153809,4261.282227,4282.436035,4276.666504,4295.128418,4262.307617,4262.563965,4392.820313,4448.461426,4359.615234,4407.563965,,,,,,,,,,,,,,,,,,,,,,,,,,,,,,,,,,,,,,,,,,,,,,,,,,,,,,,,,,,,,,,,,,,,,,
1720525778,2,0,4297.94873,4272.179688,4305.512695,4293.461426,4264.487305,4284.615234,4273.077148,4298.589844,4260.384766,4265.384766,4389.487305,4447.307617,4356.153809,4395.512695,,,,,,,,,,,,,,,,,,,,,,,,,,,,,,,,,,,,,,,,,,,,,,,,,,,,,,,,,,,,,,,,,,,,,,
1720525778,3,0,4292.436035,4277.563965,4297.307617,4297.94873,4267.563965,4279.871582,4264.230957,4293.717773,4262.820313,4264.743652,4387.820313,4442.436035,4358.717773,4395.256348,,,,,,,,,,,,,,,,,,,,,,,,,,,,,,,,,,,,,,,,,,,,,,,,,,,,,,,,,,,,,,,,,,,,,,
1720525778,4,0,4276.153809,4278.461426,4291.538574,4306.666504,4264.871582,4276.025879,4258.461426,4290.256348,4265.641113,4264.615234,4392.307617,4433.333496,4346.282227,4383.974121,,,,,,,,,,,,,,,,,,,,,,,,,,,,,,,,,,,,,,,,,,,,,,,,,,,,,,,,,,,,,,,,,,,,,,
1720525778,5,0,4277.692383,4275.641113,4293.333496,4306.794922,4264.230957,4279.230957,4257.563965,4287.05127,4260,4263.974121,4387.307617,4427.94873,4342.05127,4375.897461,,,,,,,,,,,,,,,,,,,,,,,,,,,,,,,,,,,,,,,,,,,,,,,,,,,,,,,,,,,,,,,,,,,,,,
1720525778,6,0,4293.717773,4276.153809,4305.769043,4305.512695,4268.333496,4282.94873,4264.487305,4293.461426,4259.230957,4265,4385.128418,4437.563965,4349.871582,4386.666504,,,,,,,,,,,,,,,,,,,,,,,,,,,,,,,,,,,,,,,,,,,,,,,,,,,,,,,,,,,,,,,,,,,,,,
1720525778,7,0,4296.282227,4278.846191,4309.102539,4308.077148,4269.871582,4283.205078,4272.307617,4299.358887,4267.820313,4263.589844,4389.358887,4440.512695,4346.666504,4390,,,,,,,,,,,,,,,,,,,,,,,,,,,,,,,,,,,,,,,,,,,,,,,,,,,,,,,,,,,,,,,,,,,,,,
1720525778,8,0,4287.307617,4276.410156,4300.897461,4311.410156,4261.538574,4285.769043,4273.717773,4298.077148,4262.692383,4261.538574,4391.282227,4436.538574,4339.230957,4382.05127,,,,,,,,,,,,,,,,,,,,,,,,,,,,,,,,,,,,,,,,,,,,,,,,,,,,,,,,,,,,,,,,,,,,,,
1720525778,9,0,4282.307617,4274.743652,4301.282227,4314.487305,4256.922852,4286.666504,4276.538574,4297.94873,4255.128418,4261.794922,4386.794922,4440.384766,4345.769043,4388.205078,,,,,,,,,,,,,,,,,,,,,,,,,,,,,,,,,,,,,,,,,,,,,,,,,,,,,,,,,,,,,,,,,,,,,,
1720525778,10,0,4285,4271.922852,4306.153809,4305.641113,4261.794922,4286.922852,4281.025879,4299.230957,4262.820313,4265.128418,4386.666504,4445.256348,4355.769043,4400.384766,0.522421,3.507076,0.836892,1.101635,0.241078,0.830671,1.93455,0.560408,0.856523,0.226641,0.298948,1.443089,0.510916,0.739143,0.194542,0.295449,1.173952,0.463148,0.718413,0.234755,0.950418,0.239674,0.283652,0.252715,0.11138,0.430926,0.660225,0.460026,0.170035,0.158204,0.464982,2.716611,0.739451,0.374175,0.185761,0.047146,0.495087,0.089056,0.099906,0.440959,0.662469,5.468238,0.886915,0.502215,0.175704,0.109897,0.140968,0.055117,0.08149,0.315601,0.045902,0.051815,0.04106,0.056432,0.37601,0.656499,3.653236,0.623942,0.767372,0.755718,1.445724,2.668407,0.849823,1.053114,0.330127,1.190153,2.143566,0.72788,1.239252,0.373516
1720525778,11,0,4289.615234,4265.512695,4305.512695,4296.666504,4264.358887,4291.025879,4280,4300,4269.102539,4267.94873,4392.179688,4446.666504,4355.897461,4402.05127,,,,,,,,,,,,,,,,,,,,,,,,,,,,,,,,,,,,,,,,,,,,,,,,,,,,,,,,,,,,,,,,,,,,,,
1720525778,12,0,4291.153809,4264.230957,4305.769043,4301.922852,4258.974121,4287.179688,4276.153809,4299.615234,4264.230957,4264.358887,4390.128418,4446.410156,4345.256348,4391.922852,,,,,,,,,,,,,,,,,,,,,,,,,,,,,,,,,,,,,,,,,,,,,,,,,,,,,,,,,,,,,,,,,,,,,,
1720525778,13,0,4296.922852,4274.871582,4311.538574,4310,4260.897461,4286.153809,4274.743652,4296.153809,4259.615234,4259.743652,4386.410156,4445.384766,4341.153809,4390.128418,,,,,,,,,,,,,,,,,,,,,,,,,,,,,,,,,,,,,,,,,,,,,,,,,,,,,,,,,,,,,,,,,,,,,,
1720525778,14,0,4305,4285.384766,4315.769043,4314.358887,4270.769043,4298.077148,4281.025879,4300.384766,4261.153809,4265.512695,4393.461426,4454.615234,4357.436035,4406.153809,,,,,,,,,,,,,,,,,,,,,,,,,,,,,,,,,,,,,,,,,,,,,,,,,,,,,,,,,,,,,,,,,,,,,,
1720525778,15,0,4302.94873,4280.641113,4313.205078,4314.871582,4270.256348,4293.846191,4278.846191,4301.538574,4263.717773,4267.436035,4393.461426,4455.384766,4361.282227,4409.487305,,,,,,,,,,,,,,,,,,,,,,,,,,,,,,,,,,,,,,,,,,,,,,,,,,,,,,,,,,,,,,,,,,,,,,
1720525778,16,0,4298.461426,4280.256348,4307.307617,4311.922852,4264.487305,4276.794922,4263.846191,4282.820313,4263.717773,4254.615234,4376.025879,4429.871582,4342.692383,4392.692383,,,,,,,,,,,,,,,,,,,,,,,,,,,,,,,,,,,,,,,,,,,,,,,,,,,,,,,,,,,,,,,,,,,,,,
1720525778,17,0,4300,4291.538574,4311.538574,4310,4263.974121,4285.897461,4267.563965,4291.922852,4261.922852,4262.820313,4386.794922,4436.153809,4334.487305,4391.666504,,,,,,,,,,,,,,,,,,,,,,,,,,,,,,,,,,,,,,,,,,,,,,,,,,,,,,,,,,,,,,,,,,,,,,
1720525778,18,0,4297.94873,4296.025879,4315.512695,4313.461426,4267.436035,4297.692383,4282.307617,4310.769043,4263.461426,4276.282227,4404.358887,4452.05127,4340,4397.179688,,,,,,,,,,,,,,,,,,,,,,,,,,,,,,,,,,,,,,,,,,,,,,,,,,,,,,,,,,,,,,,,,,,,,,
1720525778,19,0,4290.384766,4291.025879,4303.846191,4313.846191,4271.025879,4286.666504,4276.410156,4291.025879,4264.230957,4259.102539,4384.358887,4423.461426,4335.897461,4382.692383,,,,,,,,,,,,,,,,,,,,,,,,,,,,,,,,,,,,,,,,,,,,,,,,,,,,,,,,,,,,,,,,,,,,,,
1720525778,20,0,4287.94873,4286.666504,4300.384766,4312.05127,4270.256348,4285.128418,4269.487305,4284.743652,4260.897461,4251.410156,4379.102539,4416.282227,4334.102539,4380.128418,,,,,,,,,,,,,,,,,,,,,,,,,,,,,,,,,,,,,,,,,,,,,,,,,,,,,,,,,,,,,,,,,,,,,,
1720525778,21,0,4289.615234,4283.846191,4310.641113,4313.461426,4264.358887,4294.615234,4278.205078,4307.94873,4264.615234,4268.717773,4399.871582,4446.794922,4345.897461,4395.641113,,,,,,,,,,,,,,,,,,,,,,,,,,,,,,,,,,,,,,,,,,,,,,,,,,,,,,,,,,,,,,,,,,,,,,
1720525778,22,0,4288.974121,4275.769043,4309.230957,4308.846191,4262.820313,4291.794922,4278.717773,4303.205078,4269.743652,4269.615234,4392.307617,4443.205078,4352.563965,4397.05127,,,,,,,,,,,,,,,,,,,,,,,,,,,,,,,,,,,,,,,,,,,,,,,,,,,,,,,,,,,,,,,,,,,,,,
1720525778,23,0,4291.538574,4272.820313,4306.025879,4305.769043,4266.410156,4291.538574,4274.358887,4287.94873,4264.615234,4258.974121,4379.487305,4433.333496,4351.538574,4396.410156,,,,,,,,,,,,,,,,,,,,,,,,,,,,,,,,,,,,,,,,,,,,,,,,,,,,,,,,,,,,,,,,,,,,,,
1720525778,24,0,4291.153809,4274.102539,4311.025879,4304.358887,4263.077148,4298.205078,4274.615234,4299.615234,4257.05127,4264.102539,4391.538574,4453.846191,4347.436035,4398.846191,,,,,,,,,,,,,,,,,,,,,,,,,,,,,,,,,,,,,,,,,,,,,,,,,,,,,,,,,,,,,,,,,,,,,,
1720525778,25,0,4283.461426,4272.94873,4308.333496,4303.461426,4261.153809,4293.333496,4271.282227,4303.589844,4260.256348,4263.974121,4390.897461,4450.384766,4345.256348,4391.794922,,,,,,,,,,,,,,,,,,,,,,,,,,,,,,,,,,,,,,,,,,,,,,,,,,,,,,,,,,,,,,,,,,,,,,
1720525778,26,0,4286.025879,4275.769043,4309.743652,4306.922852,4263.205078,4290.641113,4274.487305,4298.589844,4268.461426,4262.436035,4385.384766,4444.358887,4353.589844,4392.307617,0.388385,3.73418,0.731528,1.124584,0.263419,0.68391,1.658602,0.495185,0.833034,0.205749,0.244045,1.664676,0.460799,0.777224,0.191254,0.276294,1.055078,0.320229,0.679783,0.222776,2.010476,0.294492,0.395669,0.296505,0.103123,0.369704,0.628267,0.443744,0.160339,0.148391,0.393267,2.788751,0.852393,0.364379,0.167405,0.034843,0.477731,0.091629,0.097288,0.44558,0.797407,5.328244,0.932227,0.435961,0.167885,0.115133,0.118539,0.062659,0.066531,0.309386,0.049427,0.048273,0.045536,0.06388,0.372578,0.733464,3.516961,0.525223,0.845913,0.753333,1.683923,2.408747,0.732847,1.064541,0.339087,1.31601,2.479936,0.618896,1.2517,0.388821
1720525778,27,0,4289.358887,4277.563965,4314.102539,4304.871582,4262.563965,4295.384766,4275.512695,4301.025879,4266.282227,4264.230957,4390.128418,4455,4356.538574,4399.230957,,,,,,,,,,,,,,,,,,,,,,,,,,,,,,,,,,,,,,,,,,,,,,,,,,,,,,,,,,,,,,,,,,,,,,
1720525778,28,0,4278.974121,4271.666504,4302.820313,4295.512695,4262.436035,4290.769043,4263.461426,4293.974121,4260.641113,4259.102539,4387.820313,4444.230957,4346.025879,4388.974121,,,,,,,,,,,,,,,,,,,,,,,,,,,,,,,,,,,,,,,,,,,,,,,,,,,,,,,,,,,,,,,,,,,,,,
1720525778,29,0,4266.666504,4263.077148,4292.692383,4295.769043,4262.307617,4286.538574,4259.230957,4291.922852,4261.794922,4262.436035,4387.307617,4431.153809,4338.589844,4374.743652,,,,,,,,,,,,,,,,,,,,,,,,,,,,,,,,,,,,,,,,,,,,,,,,,,,,,,,,,,,,,,,,,,,,,,
1720525778,30,0,4270.769043,4265.384766,4296.410156,4304.615234,4262.307617,4293.333496,4271.922852,4294.871582,4266.153809,4265.641113,4385.769043,4428.589844,4342.179688,4373.974121,,,,,,,,,,,,,,,,,,,,,,,,,,,,,,,,,,,,,,,,,,,,,,,,,,,,,,,,,,,,,,,,,,,,,,
1720525778,31,0,4279.615234,4271.538574,4300.897461,4302.436035,4262.307617,4295.256348,4280.897461,4294.487305,4266.153809,4265,4385.512695,4430.128418,4344.102539,4378.589844,,,,,,,,,,,,,,,,,,,,,,,,,,,,,,,,,,,,,,,,,,,,,,,,,,,,,,,,,,,,,,,,,,,,,,
1720525778,32,0,4271.666504,4272.307617,4295.769043,4296.153809,4262.05127,4293.077148,4273.717773,4292.563965,4262.563965,4263.717773,4388.205078,4427.436035,4343.205078,4377.179688,,,,,,,,,,,,,,,,,,,,,,,,,,,,,,,,,,,,,,,,,,,,,,,,,,,,,,,,,,,,,,,,,,,,,,
1720525778,33,0,4262.436035,4275.256348,4289.871582,4299.487305,4262.820313,4295.641113,4266.538574,4293.846191,4264.743652,4263.461426,4388.589844,4428.077148,4346.153809,4378.077148,,,,,,,,,,,,,,,,,,,,,,,,,,,,,,,,,,,,,,,,,,,,,,,,,,,,,,,,,,,,,,,,,,,,,,
1720525778,34,0,4268.205078,4276.538574,4292.820313,4305.384766,4266.410156,4294.743652,4270.256348,4298.461426,4261.410156,4263.333496,4388.205078,4435.384766,4346.922852,4382.307617,,,,,,,,,,,,,,,,,,,,,,,,,,,,,,,,,,,,,,,,,,,,,,,,,,,,,,,,,,,,,,,,,,,,,,
1720525778,35,0,4275.897461,4276.666504,4299.230957,4307.820313,4272.692383,4292.307617,4276.153809,4298.205078,4252.563965,4263.461426,4386.025879,4435.641113,4344.102539,4380.128418,,,,,,,,,,,,,,,,,,,,,,,,,,,,,,,,,,,,,,,,,,,,,,,,,,,,,,,,,,,,,,,,,,,,,,
1720525778,36,0,4277.563965,4278.077148,4303.205078,4304.102539,4278.077148,4296.666504,4275.641113,4294.487305,4254.230957,4265.897461,4386.922852,4439.743652,4342.05127,4381.410156,,,,,,,,,,,,,,,,,,,,,,,,,,,,,,,,,,,,,,,,,,,,,,,,,,,,,,,,,,,,,,,,,,,,,,
1720525778,37,0,4285.256348,4278.589844,4307.436035,4300.641113,4281.666504,4298.461426,4274.615234,4293.077148,4261.153809,4265.512695,4388.974121,4450.769043,4345.897461,4396.922852,,,,,,,,,,,,,,,,,,,,,,,,,,,,,,,,,,,,,,,,,,,,,,,,,,,,,,,,,,,,,,,,,,,,,,
1720525778,38,0,4288.717773,4275.256348,4303.589844,4301.922852,4277.05127,4288.846191,4269.743652,4293.205078,4259.871582,4263.077148,4386.666504,4448.205078,4349.487305,4403.717773,,,,,,,,,,,,,,,,,,,,,,,,,,,,,,,,,,,,,,,,,,,,,,,,,,,,,,,,,,,,,,,,,,,,,,
1720525778,39,0,4286.025879,4274.358887,4300.384766,4302.307617,4270.128418,4287.436035,4262.05127,4293.846191,4260.769043,4265.256348,4387.563965,4443.589844,4353.077148,4396.794922,,,,,,,,,,,,,,,,,,,,,,,,,,,,,,,,,,,,,,,,,,,,,,,,,,,,,,,,,,,,,,,,,,,,,,
1720525778,40,0,4288.717773,4283.333496,4302.563965,4301.922852,4271.922852,4296.794922,4265,4290.897461,4265.769043,4268.589844,4390.256348,4449.615234,4359.487305,4396.794922,,,,,,,,,,,,,,,,,,,,,,,,,,,,,,,,,,,,,,,,,,,,,,,,,,,,,,,,,,,,,,,,,,,,,,
1720525778,41,0,4275.769043,4273.589844,4290.897461,4292.692383,4271.538574,4291.794922,4264.615234,4283.077148,4256.794922,4261.410156,4385.641113,4437.436035,4342.307617,4386.666504,,,,,,,,,,,,,,,,,,,,,,,,,,,,,,,,,,,,,,,,,,,,,,,,,,,,,,,,,,,,,,,,,,,,,,
1720525778,42,0,4251.538574,4246.666504,4278.974121,4277.820313,4263.333496,4286.282227,4258.717773,4286.282227,4244.102539,4257.307617,4383.846191,4417.94873,4312.94873,4360.641113,0.318418,3.896636,0.672883,1.112002,0.287879,0.568198,1.514425,0.49365,0.76606,0.193054,0.2004,1.804358,0.44642,0.767585,0.191326,0.258171,1.03001,0.252819,0.603066,0.224679,3.710571,0.399389,0.584408,0.411716,0.102195,0.304154,0.538769,0.396731,0.149557,0.144856,0.355242,2.589888,0.878582,0.33856,0.153717,0.028522,0.409704,0.087166,0.092963,0.45813,0.939839,4.60764,0.903808,0.379252,0.169518,0.122709,0.105396,0.073835,0.058357,0.307222,0.053316,0.048232,0.048683,0.069321,0.368086,0.884674,3.299306,0.414973,0.900011,0.753382,1.936994,2.449301,0.594869,1.064204,0.355244,1.522658,2.984403,0.547654,1.259989,0.405449
1720525778,43,0,4248.974121,4244.358887,4286.282227,4280,4261.666504,4296.410156,4268.333496,4298.974121,4246.922852,4263.205078,4389.230957,4420.128418,4311.922852,4353.846191,,,,,,,,,,,,,,,,,,,,,,,,,,,,,,,,,,,,,,,,,,,,,,,,,,,,,,,,,,,,,,,,,,,,,,
1720525778,44,0,4262.820313,4265.512695,4289.102539,4296.410156,4272.05127,4301.538574,4280,4289.358887,4261.922852,4256.922852,4380.384766,4414.871582,4332.436035,4366.282227,,,,,,,,,,,,,,,,,,,,,,,,,,,,,,,,,,,,,,,,,,,,,,,,,,,,,,,,,,,,,,,,,,,,,,
1720525778,45,0,4271.666504,4267.820313,4292.05127,4299.487305,4277.179688,4299.102539,4280,4291.410156,4273.077148,4260.641113,4381.794922,4426.794922,4340.512695,4376.025879,,,,,,,,,,,,,,,,,,,,,,,,,,,,,,,,,,,,,,,,,,,,,,,,,,,,,,,,,,,,,,,,,,,,,,
1720525778,46,0,4277.179688,4257.94873,4305.384766,4293.846191,4273.974121,4300.641113,4280.256348,4311.025879,4263.717773,4274.871582,4401.794922,4459.487305,4339.230957,4381.922852,,,,,,,,,,,,,,,,,,,,,,,,,,,,,,,,,,,,,,,,,,,,,,,,,,,,,,,,,,,,,,,,,,,,,,
1720525778,47,0,4286.794922,4267.307617,4303.846191,4297.563965,4277.307617,4301.282227,4280,4295.256348,4255.512695,4263.077148,4396.153809,4447.94873,4345,4382.692383,,,,,,,,,,,,,,,,,,,,,,,,,,,,,,,,,,,,,,,,,,,,,,,,,,,,,,,,,,,,,,,,,,,,,,
1720525778,48,0,4282.436035,4271.410156,4299.487305,4297.94873,4277.436035,4302.179688,4272.05127,4285.384766,4257.307617,4254.615234,4385.256348,4436.282227,4347.179688,4376.282227,,,,,,,,,,,,,,,,,,,,,,,,,,,,,,,,,,,,,,,,,,,,,,,,,,,,,,,,,,,,,,,,,,,,,,
1720525778,49,0,4270.641113,4264.102539,4303.077148,4294.743652,4268.974121,4298.974121,4264.871582,4299.871582,4254.102539,4265.769043,4393.717773,4457.179688,4337.94873,4370.256348,,,,,,,,,,,,,,,,,,,,,,,,,,,,,,,,,,,,,,,,,,,,,,,,,,,,,,,,,,,,,,,,,,,,,,
1720525778,50,0,4266.282227,4266.794922,4295.897461,4296.794922,4263.974121,4292.820313,4263.205078,4293.846191,4254.102539,4262.179688,4390.641113,4452.179688,4330.128418,4364.615234,,,,,,,,,,,,,,,,,,,,,,,,,,,,,,,,,,,,,,,,,,,,,,,,,,,,,,,,,,,,,,,,,,,,,,
1720525778,51,0,4189.871582,4267.94873,4290,4296.282227,4263.974121,4292.563965,4261.794922,4285.897461,4260.256348,4253.589844,4381.666504,4434.871582,4332.179688,4362.179688,,,,,,,,,,,,,,,,,,,,,,,,,,,,,,,,,,,,,,,,,,,,,,,,,,,,,,,,,,,,,,,,,,,,,,
1720525778,52,0,4027.307617,4264.615234,4295.897461,4292.307617,4263.846191,4296.410156,4260.641113,4301.153809,4255.384766,4264.743652,4388.846191,4443.205078,4335.256348,4367.307617,,,,,,,,,,,,,,,,,,,,,,,,,,,,,,,,,,,,,,,,,,,,,,,,,,,,,,,,,,,,,,,,,,,,,,
1720525778,53,0,3935,4273.974121,4296.538574,4294.871582,4271.025879,4296.666504,4261.666504,4299.615234,4248.589844,4265.769043,4386.666504,4436.410156,4338.205078,4367.820313,,,,,,,,,,,,,,,,,,,,,,,,,,,,,,,,,,,,,,,,,,,,,,,,,,,,,,,,,,,,,,,,,,,,,,
1720525778,54,0,3952.94873,4278.077148,4295.641113,4301.025879,4278.589844,4298.205078,4263.589844,4288.333496,4251.666504,4254.358887,4380.641113,4425.641113,4341.666504,4367.436035,,,,,,,,,,,,,,,,,,,,,,,,,,,,,,,,,,,,,,,,,,,,,,,,,,,,,,,,,,,,,,,,,,,,,,
1720525778,55,0,3957.564209,4263.333496,4297.692383,4297.692383,4277.436035,4302.05127,4265.128418,4296.282227,4248.333496,4254.615234,4386.282227,4434.743652,4333.717773,4368.974121,,,,,,,,,,,,,,,,,,,,,,,,,,,,,,,,,,,,,,,,,,,,,,,,,,,,,,,,,,,,,,,,,,,,,,
1720525778,56,0,3934.743652,4259.743652,4292.563965,4292.692383,4279.102539,4304.230957,4265.128418,4297.94873,4243.589844,4255.641113,4384.358887,4426.025879,4325.641113,4363.589844,,,,,,,,,,,,,,,,,,,,,,,,,,,,,,,,,,,,,,,,,,,,,,,,,,,,,,,,,,,,,,,,,,,,,,
1720525778,57,0,3935.256348,4266.282227,4289.102539,4291.794922,4278.717773,4306.282227,4265.769043,4298.461426,4250.256348,4257.692383,4384.230957,4418.589844,4323.333496,4358.589844,,,,,,,,,,,,,,,,,,,,,,,,,,,,,,,,,,,,,,,,,,,,,,,,,,,,,,,,,,,,,,,,,,,,,,
1720525778,58,0,3939.358887,4263.846191,4288.846191,4292.179688,4272.94873,4302.820313,4271.153809,4300.769043,4259.743652,4257.563965,4385.769043,4428.461426,4323.717773,4358.205078,0.361533,3.980279,0.693651,1.059282,0.309475,0.508263,1.500021,0.537983,0.673936,0.19019,0.176587,1.850145,0.476121,0.70683,0.191999,0.246325,1.097983,0.24966,0.50105,0.236151,5.847001,0.52429,0.811589,0.587788,0.108611,0.243998,0.427751,0.332559,0.140913,0.149526,0.385572,2.254517,0.819295,0.302539,0.146741,0.028659,0.321101,0.078248,0.087253,0.475592,1.054063,3.548439,0.800697,0.339623,0.178279,0.129914,0.102325,0.08508,0.057246,0.312948,0.056309,0.050847,0.050672,0.070267,0.366114,1.157639,3.156723,0.322884,0.911133,0.756242,2.135757,2.691004,0.462655,1.033348,0.379235,1.777443,3.597857,0.546381,1.242946,0.426561
1720525778,59,0,3944.230713,4260.897461,4299.230957,4293.205078,4275.769043,4300.128418,4278.333496,4303.205078,4269.743652,4258.461426,4387.05127,4447.307617,4336.282227,4368.077148,,,,,,,,,,,,,,,,,,,,,,,,,,,,,,,,,,,,,,,,,,,,,,,,,,,,,,,,,,,,,,,,,,,,,,
1720525778,60,0,3952.564209,4263.974121,4311.666504,4292.94873,4280.384766,4303.589844,4282.692383,4308.205078,4271.666504,4263.461426,4391.666504,4466.025879,4350.769043,4386.794922,,,,,,,,,,,,,,,,,,,,,,,,,,,,,,,,,,,,,,,,,,,,,,,,,,,,,,,,,,,,,,,,,,,,,,
1720525778,61,0,3956.538574,4266.538574,4306.922852,4293.717773,4274.358887,4302.307617,4281.794922,4302.94873,4268.205078,4260,4388.846191,4467.307617,4354.615234,4396.025879,,,,,,,,,,,,,,,,,,,,,,,,,,,,,,,,,,,,,,,,,,,,,,,,,,,,,,,,,,,,,,,,,,,,,,
1720525778,62,0,3968.333252,4265.256348,4306.025879,4298.205078,4269.487305,4296.025879,4273.717773,4299.102539,4264.358887,4258.846191,4386.922852,4460.512695,4354.487305,4393.974121,,,,,,,,,,,,,,,,,,,,,,,,,,,,,,,,,,,,,,,,,,,,,,,,,,,,,,,,,,,,,,,,,,,,,,
1720525778,63,0,3971.538574,4263.461426,4308.205078,4297.307617,4268.333496,4291.794922,4260.384766,4296.282227,4252.436035,4257.179688,4388.717773,4449.230957,4349.230957,4386.794922,,,,,,,,,,,,,,,,,,,,,,,,,,,,,,,,,,,,,,,,,,,,,,,,,,,,,,,,,,,,,,,,,,,,,,
1720525778,64,0,3962.05127,4267.179688,4298.205078,4291.538574,4266.794922,4293.974121,4258.333496,4292.179688,4244.615234,4255.128418,4389.871582,4444.358887,4344.743652,4380.641113,,,,,,,,,,,,,,,,,,,,,,,,,,,,,,,,,,,,,,,,,,,,,,,,,,,,,,,,,,,,,,,,,,,,,,
1720525778,65,0,3963.974365,4267.307617,4295.384766,4291.153809,4270.641113,4299.615234,4272.563965,4296.538574,4258.846191,4260,4388.974121,4449.358887,4348.974121,4379.487305,,,,,,,,,,,,,,,,,,,,,,,,,,,,,,,,,,,,,,,,,,,,,,,,,,,,,,,,,,,,,,,,,,,,,,
1720525778,66,0,3968.846191,4254.230957,4299.871582,4290.512695,4275.384766,4301.282227,4277.692383,4300.384766,4271.282227,4260.897461,4385.512695,4443.974121,4344.743652,4373.205078,,,,,,,,,,,,,,,,,,,,,,,,,,,,,,,,,,,,,,,,,,,,,,,,,,,,,,,,,,,,,,,,,,,,,,
1720525778,67,0,3966.025635,4246.282227,4293.974121,4290.256348,4275.769043,4302.563965,4272.179688,4298.717773,4267.692383,4257.94873,4388.333496,4440.512695,4337.820313,4368.974121,,,,,,,,,,,,,,,,,,,,,,,,,,,,,,,,,,,,,,,,,,,,,,,,,,,,,,,,,,,,,,,,,,,,,,
1720525778,68,0,3962.435791,4253.205078,4289.743652,4294.743652,4277.179688,4308.974121,4275.256348,4300,4265.641113,4258.333496,4392.692383,4448.461426,4342.436035,4371.794922,,,,,,,,,,,,,,,,,,,,,,,,,,,,,,,,,,,,,,,,,,,,,,,,,,,,,,,,,,,,,,,,,,,,,,
1720525778,69,0,3961.025635,4260.256348,4291.282227,4295.897461,4280.256348,4308.333496,4280.641113,4298.333496,4264.871582,4255.512695,4387.692383,4443.461426,4338.717773,4368.589844,,,,,,,,,,,,,,,,,,,,,,,,,,,,,,,,,,,,,,,,,,,,,,,,,,,,,,,,,,,,,,,,,,,,,,
1720525778,70,0,3968.974365,4263.589844,4292.179688,4293.077148,4281.153809,4304.487305,4281.410156,4298.974121,4262.307617,4255,4386.153809,4440,4334.615234,4369.743652,,,,,,,,,,,,,,,,,,,,,,,,,,,,,,,,,,,,,,,,,,,,,,,,,,,,,,,,,,,,,,,,,,,,,,
1720525778,71,0,3973.846191,4261.153809,4294.102539,4290.384766,4276.538574,4311.282227,4281.922852,4310.128418,4266.025879,4264.487305,4396.666504,4456.666504,4341.153809,4378.205078,,,,,,,,,,,,,,,,,,,,,,,,,,,,,,,,,,,,,,,,,,,,,,,,,,,,,,,,,,,,,,,,,,,,,,
1720525778,72,0,3970,4257.820313,4287.05127,4290,4273.974121,4312.563965,4279.230957,4297.307617,4266.922852,4255.256348,4389.102539,4447.436035,4343.461426,4370,,,,,,,,,,,,,,,,,,,,,,,,,,,,,,,,,,,,,,,,,,,,,,,,,,,,,,,,,,,,,,,,,,,,,,
1720525778,73,0,3978.718018,4261.153809,4284.487305,4294.358887,4276.538574,4309.102539,4276.666504,4285.256348,4256.538574,4248.333496,4380.512695,4437.94873,4345.769043,4364.358887,,,,,,,,,,,,,,,,,,,,,,,,,,,,,,,,,,,,,,,,,,,,,,,,,,,,,,,,,,,,,,,,,,,,,,
1720525778,74,0,3998.333252,4265.512695,4297.820313,4296.922852,4274.358887,4308.333496,4276.794922,4310.897461,4248.846191,4270.128418,4399.102539,4471.025879,4348.461426,4387.307617,1.034061,4.21635,0.901523,0.984267,0.331557,0.527828,1.546511,0.604233,0.578697,0.196465,0.175006,1.814976,0.540371,0.609271,0.190979,0.252546,1.211064,0.291005,0.393486,0.249754,7.873932,0.625914,1.013433,0.776708,0.119491,0.202994,0.335512,0.26577,0.134359,0.161143,0.484095,1.951189,0.706418,0.262645,0.147039,0.033608,0.247131,0.068731,0.080996,0.493562,1.104048,2.471165,0.651541,0.314156,0.189404,0.13484,0.105351,0.091624,0.061289,0.325974,0.057599,0.054878,0.05149,0.066133,0.368467,1.517965,3.21639,0.264196,0.873125,0.761519,2.22614,3.000505,0.358763,0.969044,0.40709,2.045022,4.202777,0.61338,1.195267,0.452845
1720525778,75,0,4005.897461,4263.974121,4293.974121,4293.461426,4264.358887,4297.307617,4266.794922,4305.384766,4248.461426,4264.743652,4397.179688,4463.846191,4348.205078,4396.282227,,,,,,,,,,,,,,,,,,,,,,,,,,,,,,,,,,,,,,,,,,,,,,,,,,,,,,,,,,,,,,,,,,,,,,
1720525778,76,0,4005.769287,4259.487305,4283.974121,4291.282227,4260.897461,4290.897461,4258.717773,4285.512695,4246.282227,4248.077148,4380.897461,4428.461426,4340.641113,4377.05127,,,,,,,,,,,,,,,,,,,,,,,,,,,,,,,,,,,,,,,,,,,,,,,,,,,,,,,,,,,,,,,,,,,,,,
1720525778,77,0,4014.102539,4265.512695,4294.358887,4292.820313,4265.641113,4296.410156,4263.205078,4299.230957,4245.769043,4258.589844,4387.05127,4432.94873,4329.871582,4368.589844,,,,,,,,,,,,,,,,,,,,,,,,,,,,,,,,,,,,,,,,,,,,,,,,,,,,,,,,,,,,,,,,,,,,,,
1720525778,78,0,4020.897461,4273.205078,4299.230957,4293.974121,4265.512695,4297.179688,4263.205078,4300.769043,4246.025879,4263.205078,4389.871582,4435.512695,4331.282227,4373.077148,,,,,,,,,,,,,,,,,,,,,,,,,,,,,,,,,,,,,,,,,,,,,,,,,,,,,,,,,,,,,,,,,,,,,,
1720525778,79,0,4021.538574,4267.05127,4293.717773,4296.922852,4262.820313,4299.871582,4266.282227,4291.666504,4250,4256.538574,4382.820313,4431.282227,4343.974121,4377.94873,,,,,,,,,,,,,,,,,,,,,,,,,,,,,,,,,,,,,,,,,,,,,,,,,,,,,,,,,,,,,,,,,,,,,,
1720525778,80,0,4024.615479,4260.128418,4298.205078,4299.615234,4265,4309.871582,4281.282227,4304.871582,4261.153809,4260.897461,4390.256348,4454.743652,4345.769043,4385,,,,,,,,,,,,,,,,,,,,,,,,,,,,,,,,,,,,,,,,,,,,,,,,,,,,,,,,,,,,,,,,,,,,,,
1720525778,81,0,4025.384521,4261.922852,4298.589844,4295.512695,4268.461426,4309.615234,4283.461426,4305.512695,4267.436035,4259.358887,4391.922852,4460,4338.461426,4383.974121,,,,,,,,,,,,,,,,,,,,,,,,,,,,,,,,,,,,,,,,,,,,,,,,,,,,,,,,,,,,,,,,,,,,,,
1720525778,82,0,4027.05127,4263.717773,4294.358887,4294.615234,4271.282227,4307.05127,4277.692383,4292.179688,4264.743652,4254.358887,4385,4444.102539,4342.307617,4379.487305,,,,,,,,,,,,,,,,,,,,,,,,,,,,,,,,,,,,,,,,,,,,,,,,,,,,,,,,,,,,,,,,,,,,,,
1720525778,83,0,4034.743652,4272.563965,4302.820313,4305.897461,4277.692383,4314.871582,4286.153809,4302.692383,4263.333496,4264.871582,4391.153809,4456.025879,4342.692383,4383.974121,,,,,,,,,,,,,,,,,,,,,,,,,,,,,,,,,,,,,,,,,,,,,,,,,,,,,,,,,,,,,,,,,,,,,,
1720525778,84,0,4044.230713,4281.666504,4308.077148,4315,4284.871582,4316.666504,4288.846191,4305.256348,4265.384766,4261.794922,4390.897461,4462.692383,4337.563965,4385.641113,,,,,,,,,,,,,,,,,,,,,,,,,,,,,,,,,,,,,,,,,,,,,,,,,,,,,,,,,,,,,,,,,,,,,,
1720525778,85,0,4048.846191,4269.743652,4306.538574,4312.436035,4282.820313,4312.307617,4279.358887,4298.461426,4260.256348,4254.871582,4393.077148,4459.871582,4339.230957,4386.410156,,,,,,,,,,,,,,,,,,,,,,,,,,,,,,,,,,,,,,,,,,,,,,,,,,,,,,,,,,,,,,,,,,,,,,
1720525778,86,0,4054.102539,4265.256348,4307.820313,4308.974121,4276.922852,4308.846191,4275.641113,4303.077148,4252.563965,4259.871582,4398.205078,4463.333496,4343.333496,4394.743652,,,,,,,,,,,,,,,,,,,,,,,,,,,,,,,,,,,,,,,,,,,,,,,,,,,,,,,,,,,,,,,,,,,,,,
1720525778,87,0,4063.846191,4281.153809,4308.461426,4310.769043,4275.256348,4303.589844,4269.487305,4295.897461,4244.358887,4257.179688,4392.563965,4458.333496,4348.461426,4403.846191,,,,,,,,,,,,,,,,,,,,,,,,,,,,,,,,,,,,,,,,,,,,,,,,,,,,,,,,,,,,,,,,,,,,,,
1720525778,88,0,4066.794922,4277.307617,4307.692383,4309.871582,4274.871582,4293.461426,4257.307617,4291.538574,4240.897461,4254.871582,4392.436035,4459.615234,4351.538574,4407.820313,,,,,,,,,,,,,,,,,,,,,,,,,,,,,,,,,,,,,,,,,,,,,,,,,,,,,,,,,,,,,,,,,,,,,,
1720525778,89,0,4063.076904,4265.512695,4303.077148,4303.717773,4273.974121,4283.974121,4255.512695,4295.256348,4245.128418,4256.410156,4395.512695,4455.769043,4345.128418,4399.871582,,,,,,,,,,,,,,,,,,,,,,,,,,,,,,,,,,,,,,,,,,,,,,,,,,,,,,,,,,,,,,,,,,,,,,
1720525778,90,0,4060,4264.102539,4298.333496,4296.282227,4274.230957,4288.589844,4261.666504,4294.487305,4239.743652,4257.436035,4391.282227,4438.717773,4328.974121,4389.487305,4.805588,5.478386,1.587608,0.97376,0.378467,0.628765,1.573289,0.67047,0.498501,0.210064,0.191628,1.730993,0.615521,0.502963,0.187056,0.282573,1.302537,0.352282,0.301002,0.258527,9.188657,0.670546,1.131178,0.912157,0.130042,0.167774,0.285514,0.205343,0.127215,0.175293,0.606893,1.785956,0.574351,0.226591,0.153124,0.039425,0.211814,0.062667,0.075585,0.50629,1.071267,1.618047,0.49072,0.299229,0.198027,0.133861,0.107545,0.089262,0.068019,0.340499,0.057723,0.060468,0.051631,0.058994,0.3732,1.883721,3.527365,0.241049,0.799522,0.76705,2.172826,3.262879,0.296769,0.893597,0.431465,2.206094,4.660805,0.718846,1.135158,0.479768
1720525778,91,0,4058.974365,4255.897461,4291.922852,4292.563965,4273.846191,4300.128418,4263.077148,4292.94873,4231.538574,4256.922852,4384.615234,4425,4321.025879,4383.333496,,,,,,,,,,,,,,,,,,,,,,,,,,,,,,,,,,,,,,,,,,,,,,,,,,,,,,,,,,,,,,,,,,,,,,
1720525778,92,0,4059.615479,4251.666504,4284.230957,4291.153809,4267.179688,4298.974121,4265,4297.179688,4238.846191,4255,4385.256348,4421.538574,4322.179688,4372.692383,,,,,,,,,,,,,,,,,,,,,,,,,,,,,,,,,,,,,,,,,,,,,,,,,,,,,,,,,,,,,,,,,,,,,,
1720525778,93,0,4063.333252,4259.487305,4284.871582,4290.769043,4261.282227,4290.897461,4269.487305,4298.205078,4249.358887,4254.358887,4387.692383,4424.871582,4319.743652,4365.897461,,,,,,,,,,,,,,,,,,,,,,,,,,,,,,,,,,,,,,,,,,,,,,,,,,,,,,,,,,,,,,,,,,,,,,
1720525778,94,0,4075.128174,4267.05127,4293.589844,4300,4269.230957,4293.589844,4277.179688,4297.179688,4255.512695,4258.461426,4387.436035,4435.128418,4329.487305,4380.256348,,,,,,,,,,,,,,,,,,,,,,,,,,,,,,,,,,,,,,,,,,,,,,,,,,,,,,,,,,,,,,,,,,,,,,
1720525778,95,0,4086.281982,4271.794922,4300.641113,4310.769043,4280,4302.05127,4280.897461,4302.179688,4261.538574,4262.05127,4389.230957,4450.512695,4345.128418,4395.256348,,,,,,,,,,,,,,,,,,,,,,,,,,,,,,,,,,,,,,,,,,,,,,,,,,,,,,,,,,,,,,,,,,,,,,
1720525778,96,0,4086.153809,4267.05127,4301.794922,4310,4279.102539,4304.487305,4276.025879,4304.487305,4260.641113,4258.846191,4391.153809,4462.820313,4342.307617,4386.922852,,,,,,,,,,,,,,,,,,,,,,,,,,,,,,,,,,,,,,,,,,,,,,,,,,,,,,,,,,,,,,,,,,,,,,
1720525778,97,0,4093.205078,4263.077148,4308.333496,4308.717773,4276.794922,4302.820313,4276.666504,4303.077148,4265.128418,4255.512695,4390.256348,4470.897461,4345.256348,4390,,,,,,,,,,,,,,,,,,,,,,,,,,,,,,,,,,,,,,,,,,,,,,,,,,,,,,,,,,,,,,,,,,,,,,
1720525778,98,0,4118.077148,4273.717773,4320.897461,4312.820313,4279.487305,4305.384766,4285.384766,4302.563965,4274.487305,4259.615234,4392.307617,4473.205078,4369.615234,4417.307617,,,,,,,,,,,,,,,,,,,,,,,,,,,,,,,,,,,,,,,,,,,,,,,,,,,,,,,,,,,,,,,,,,,,,,
1720525778,99,0,4125.384766,4278.205078,4324.230957,4313.205078,4279.615234,4309.487305,4288.846191,4312.436035,4271.794922,4270.512695,4401.410156,4481.666504,4376.794922,4428.974121,,,,,,,,,,,,,,,,,,,,,,,,,,,,,,,,,,,,,,,,,,,,,,,,,,,,,,,,,,,,,,,,,,,,,,
1720525778,100,0,4114.871582,4269.102539,4317.307617,4311.282227,4277.436035,4303.589844,4285.512695,4310.769043,4270.512695,4265.128418,4395.769043,4478.974121,4366.666504,4420.641113,,,,,,,,,,,,,,,,,,,,,,,,,,,,,,,,,,,,,,,,,,,,,,,,,,,,,,,,,,,,,,,,,,,,,,
1720525778,101,0,4126.025879,4268.717773,4318.077148,4313.461426,4277.94873,4297.05127,4280.512695,4294.102539,4275.897461,4251.153809,4383.974121,4461.922852,4375.769043,4422.179688,,,,,,,,,,,,,,,,,,,,,,,,,,,,,,,,,,,,,,,,,,,,,,,,,,,,,,,,,,,,,,,,,,,,,,
1720525778,102,0,4140.512695,4273.717773,4321.538574,4311.410156,4278.461426,4300.384766,4275.641113,4303.077148,4261.794922,4262.307617,4396.025879,4466.666504,4380.512695,4427.436035,,,,,,,,,,,,,,,,,,,,,,,,,,,,,,,,,,,,,,,,,,,,,,,,,,,,,,,,,,,,,,,,,,,,,,
1720525778,103,0,4131.922852,4276.025879,4308.333496,4308.205078,4279.102539,4303.717773,4273.846191,4304.871582,4245.641113,4266.025879,4396.153809,4462.436035,4360.384766,4414.102539,,,,,,,,,,,,,,,,,,,,,,,,,,,,,,,,,,,,,,,,,,,,,,,,,,,,,,,,,,,,,,,,,,,,,,
1720525778,104,0,4126.666504,4272.820313,4300.128418,4308.974121,4280.512695,4306.922852,4275.384766,4292.436035,4253.974121,4253.846191,4382.94873,4445.384766,4352.692383,4408.461426,,,,,,,,,,,,,,,,,,,,,,,,,,,,,,,,,,,,,,,,,,,,,,,,,,,,,,,,,,,,,,,,,,,,,,
1720525778,105,0,4130.641113,4262.179688,4304.871582,4307.179688,4280.512695,4311.025879,4277.94873,4300.641113,4263.717773,4260.641113,4392.179688,4446.153809,4360.384766,4419.487305,,,,,,,,,,,,,,,,,,,,,,,,,,,,,,,,,,,,,,,,,,,,,,,,,,,,,,,,,,,,,,,,,,,,,,
1720525778,106,0,4125.384766,4260.256348,4299.230957,4307.563965,4281.282227,4309.358887,4282.05127,4303.461426,4266.666504,4265.897461,4393.589844,4435.128418,4352.820313,4410.128418,14.638177,8.904691,3.075426,1.150176,0.485662,0.800918,1.528007,0.703879,0.441225,0.228866,0.232124,1.628309,0.675051,0.415428,0.180956,0.3306,1.31143,0.402766,0.235651,0.258477,9.340019,0.661458,1.133284,0.940862,0.135565,0.137076,0.293184,0.152218,0.117323,0.186344,0.704989,1.7805,0.448626,0.202888,0.162307,0.045357,0.220082,0.062411,0.07208,0.510166,0.971004,1.08575,0.348656,0.298026,0.200879,0.124919,0.103917,0.077043,0.075399,0.349672,0.058171,0.068573,0.051635,0.052205,0.375959,2.127242,4.039414,0.244951,0.717339,0.771701,1.992281,3.397097,0.277226,0.83795,0.444161,2.264824,4.867158,0.824497,1.088012,0.497827
1720525778,107,0,4117.94873,4264.230957,4289.487305,4310.641113,4281.922852,4307.563965,4275.769043,4288.717773,4261.153809,4255.128418,4380.128418,4411.538574,4337.563965,4386.666504,,,,,,,,,,,,,,,,,,,,,,,,,,,,,,,,,,,,,,,,,,,,,,,,,,,,,,,,,,,,,,,,,,,,,,
1720525778,108,0,4121.282227,4259.743652,4291.666504,4306.922852,4280.256348,4310.256348,4265.512695,4294.871582,4252.436035,4258.077148,4387.179688,4420.384766,4339.358887,4387.436035,,,,,,,,,,,,,,,,,,,,,,,,,,,,,,,,,,,,,,,,,,,,,,,,,,,,,,,,,,,,,,,,,,,,,,
1720525778,109,0,4128.205078,4264.615234,4290.512695,4303.974121,4278.461426,4307.820313,4272.436035,4307.563965,4255.128418,4263.333496,4390.384766,4433.333496,4346.666504,4398.333496,,,,,,,,,,,,,,,,,,,,,,,,,,,,,,,,,,,,,,,,,,,,,,,,,,,,,,,,,,,,,,,,,,,,,,
1720525778,110,0,4131.410156,4265.512695,4278.461426,4308.461426,4277.563965,4303.333496,4282.179688,4294.230957,4257.436035,4252.436035,4379.743652,4423.077148,4341.282227,4391.666504,,,,,,,,,,,,,,,,,,,,,,,,,,,,,,,,,,,,,,,,,,,,,,,,,,,,,,,,,,,,,,,,,,,,,,
1720525778,111,0,4130.897461,4249.358887,4277.94873,4304.743652,4276.538574,4303.589844,4279.230957,4292.692383,4248.205078,4253.077148,4388.717773,4428.589844,4338.333496,4386.666504,,,,,,,,,,,,,,,,,,,,,,,,,,,,,,,,,,,,,,,,,,,,,,,,,,,,,,,,,,,,,,,,,,,,,,
1720525778,112,0,4135.384766,4252.436035,4284.615234,4298.974121,4279.358887,4305,4274.743652,4299.230957,4243.974121,4258.461426,4391.666504,4428.846191,4346.794922,4391.922852,,,,,,,,,,,,,,,,,,,,,,,,,,,,,,,,,,,,,,,,,,,,,,,,,,,,,,,,,,,,,,,,,,,,,,
1720525778,113,0,4143.461426,4267.436035,4283.589844,4302.563965,4278.974121,4302.307617,4271.538574,4296.282227,4252.179688,4259.102539,4383.717773,4418.589844,4351.410156,4395.128418,,,,,,,,,,,,,,,,,,,,,,,,,,,,,,,,,,,,,,,,,,,,,,,,,,,,,,,,,,,,,,,,,,,,,,
1720525778,114,0,4143.589844,4255.897461,4279.102539,4299.615234,4271.025879,4295.384766,4265,4293.589844,4251.153809,4260,4388.205078,4420.128418,4343.717773,4387.436035,,,,,,,,,,,,,,,,,,,,,,,,,,,,,,,,,,,,,,,,,,,,,,,,,,,,,,,,,,,,,,,,,,,,,,
1720525778,115,0,4142.563965,4244.230957,4278.333496,4292.94873,4267.307617,4292.436035,4261.153809,4288.461426,4244.358887,4253.589844,4388.846191,4420.512695,4338.717773,4379.871582,,,,,,,,,,,,,,,,,,,,,,,,,,,,,,,,,,,,,,,,,,,,,,,,,,,,,,,,,,,,,,,,,,,,,,
1720525778,116,0,4147.179688,4251.538574,4280.128418,4295.128418,4268.077148,4300.256348,4263.974121,4292.307617,4244.871582,4251.282227,4389.358887,4428.333496,4343.846191,4392.307617,,,,,,,,,,,,,,,,,,,,,,,,,,,,,,,,,,,,,,,,,,,,,,,,,,,,,,,,,,,,,,,,,,,,,,
1720525778,117,0,4149.102539,4249.102539,4276.666504,4295.384766,4264.487305,4303.589844,4269.487305,4296.538574,4253.077148,4254.615234,4389.615234,4435.641113,4350.256348,4403.717773,,,,,,,,,,,,,,,,,,,,,,,,,,,,,,,,,,,,,,,,,,,,,,,,,,,,,,,,,,,,,,,,,,,,,,
1720525779,118,0,4158.717773,4246.538574,4281.153809,4290.641113,4262.179688,4300.384766,4273.846191,4294.358887,4264.743652,4257.436035,4390,4439.230957,4354.615234,4402.436035,,,,,,,,,,,,,,,,,,,,,,,,,,,,,,,,,,,,,,,,,,,,,,,,,,,,,,,,,,,,,,,,,,,,,,
1720525779,119,0,4184.102539,4263.333496,4298.333496,4299.487305,4268.077148,4301.282227,4276.538574,4295.384766,4263.205078,4257.436035,4392.692383,4446.025879,4360.512695,4412.436035,,,,,,,,,,,,,,,,,,,,,,,,,,,,,,,,,,,,,,,,,,,,,,,,,,,,,,,,,,,,,,,,,,,,,,
1720525779,120,0,4195,4272.563965,4307.05127,4315.769043,4274.615234,4303.974121,4276.922852,4295.897461,4250.897461,4255,4388.205078,4444.743652,4361.922852,4421.025879,,,,,,,,,,,,,,,,,,,,,,,,,,,,,,,,,,,,,,,,,,,,,,,,,,,,,,,,,,,,,,,,,,,,,,
1720525779,121,0,4186.153809,4269.487305,4302.436035,4320.897461,4279.102539,4303.461426,4276.153809,4293.846191,4244.487305,4255.641113,4385.769043,4442.692383,4361.282227,4416.282227,,,,,,,,,,,,,,,,,,,,,,,,,,,,,,,,,,,,,,,,,,,,,,,,,,,,,,,,,,,,,,,,,,,,,,
1720525779,122,0,4181.538574,4264.615234,4295.641113,4314.230957,4279.615234,4302.05127,4277.307617,4295,4246.666504,4258.333496,4387.307617,4447.94873,4361.922852,4413.461426,31.885029,14.857158,5.440753,1.586281,0.66939,1.014845,1.409132,0.690718,0.405877,0.251291,0.310636,1.527091,0.703646,0.359561,0.174491,0.393648,1.222756,0.428285,0.199585,0.248667,8.28719,0.633926,1.030643,0.850754,0.133837,0.115845,0.376388,0.107841,0.105666,0.190234,0.744509,1.898863,0.346864,0.197105,0.171835,0.050277,0.257949,0.067143,0.070769,0.504898,0.858952,0.856509,0.25183,0.319264,0.197591,0.111586,0.094944,0.058332,0.081896,0.349066,0.061153,0.080879,0.051252,0.048315,0.371711,2.213403,4.64683,0.26439,0.65602,0.774618,1.750358,3.360317,0.302988,0.825416,0.439908,2.201979,4.808591,0.903819,1.068326,0.498264
1720525779,123,0,4178.205078,4254.487305,4287.692383,4301.282227,4273.077148,4303.333496,4278.717773,4296.410156,4250.256348,4259.743652,4387.05127,4448.333496,4361.538574,4408.589844,,,,,,,,,,,,,,,,,,,,,,,,,,,,,,,,,,,,,,,,,,,,,,,,,,,,,,,,,,,,,,,,,,,,,,
1720525779,124,0,4172.692383,4250.512695,4279.871582,4293.205078,4270.897461,4305.897461,4276.410156,4293.333496,4257.307617,4260.512695,4388.333496,4438.077148,4361.538574,4397.179688,,,,,,,,,,,,,,,,,,,,,,,,,,,,,,,,,,,,,,,,,,,,,,,,,,,,,,,,,,,,,,,,,,,,,,
1720525779,125,0,4168.846191,4260.384766,4278.717773,4294.871582,4279.102539,4305.256348,4269.743652,4292.436035,4260.384766,4260.641113,4385.897461,4426.794922,4361.666504,4395.512695,,,,,,,,,,,,,,,,,,,,,,,,,,,,,,,,,,,,,,,,,,,,,,,,,,,,,,,,,,,,,,,,,,,,,,
1720525779,126,0,4167.820313,4260.641113,4280.128418,4297.692383,4277.436035,4306.922852,4262.436035,4291.666504,4253.461426,4261.922852,4382.692383,4424.615234,4353.077148,4398.333496,,,,,,,,,,,,,,,,,,,,,,,,,,,,,,,,,,,,,,,,,,,,,,,,,,,,,,,,,,,,,,,,,,,,,,
1720525779,127,0,4167.94873,4249.358887,4278.717773,4297.436035,4265.256348,4308.974121,4259.102539,4287.692383,4242.94873,4262.179688,4386.282227,4429.102539,4340.256348,4390.128418,,,,,,,,,,,,,,,,,,,,,,,,,,,,,,,,,,,,,,,,,,,,,,,,,,,,,,,,,,,,,,,,,,,,,,
1720525779,0,0,4171.922852,4253.205078,4278.077148,4301.410156,4270.384766,4305.128418,4261.025879,4286.025879,4245.769043,4257.05127,4385.641113,4425.769043,4341.794922,4382.179688,,,,,,,,,,,,,,,,,,,,,,,,,,,,,,,,,,,,,,,,,,,,,,,,,,,,,,,,,,,,,,,,,,,,,,
1720525779,1,0,4174.615234,4263.205078,4278.077148,4309.102539,4280.384766,4303.717773,4262.94873,4289.743652,4259.871582,4258.717773,4383.846191,4424.487305,4352.820313,4385.897461,,,,,,,,,,,,,,,,,,,,,,,,,,,,,,,,,,,,,,,,,,,,,,,,,,,,,,,,,,,,,,,,,,,,,,
1720525779,2,0,4175.641113,4255.512695,4281.025879,4305.256348,4269.358887,4305.769043,4260.897461,4300,4257.436035,4267.563965,4396.282227,4444.871582,4351.922852,4392.563965,,,,,,,,,,,,,,,,,,,,,,,,,,,,,,,,,,,,,,,,,,,,,,,,,,,,,,,,,,,,,,,,,,,,,,
1720525779,3,0,4180.641113,4243.974121,4282.179688,4291.922852,4262.436035,4297.436035,4263.077148,4290.128418,4243.077148,4257.436035,4390.769043,4444.615234,4339.102539,4386.922852,,,,,,,,,,,,,,,,,,,,,,,,,,,,,,,,,,,,,,,,,,,,,,,,,,,,,,,,,,,,,,,,,,,,,,
1720525779,4,0,4182.179688,4245.897461,4285.384766,4291.794922,4273.846191,4300,4276.922852,4279.487305,4251.538574,4251.025879,4373.846191,4432.436035,4336.282227,4381.410156,,,,,,,,,,,,,,,,,,,,,,,,,,,,,,,,,,,,,,,,,,,,,,,,,,,,,,,,,,,,,,,,,,,,,,
1720525779,5,0,4184.487305,4255.897461,4294.358887,4305.512695,4275.769043,4314.871582,4289.230957,4298.205078,4265.512695,4271.025879,4386.922852,4454.102539,4348.077148,4395.256348,,,,,,,,,,,,,,,,,,,,,,,,,,,,,,,,,,,,,,,,,,,,,,,,,,,,,,,,,,,,,,,,,,,,,,
1720525779,6,0,4191.922852,4260.641113,4292.94873,4310,4267.820313,4310.128418,4283.077148,4300.897461,4253.589844,4273.205078,4394.230957,4460.769043,4351.922852,4404.871582,,,,,,,,,,,,,,,,,,,,,,,,,,,,,,,,,,,,,,,,,,,,,,,,,,,,,,,,,,,,,,,,,,,,,,
1720525779,7,0,4204.743652,4264.743652,4287.94873,4309.102539,4273.589844,4304.487305,4276.025879,4285.256348,4249.871582,4256.025879,4378.205078,4441.153809,4356.153809,4399.871582,,,,,,,,,,,,,,,,,,,,,,,,,,,,,,,,,,,,,,,,,,,,,,,,,,,,,,,,,,,,,,,,,,,,,,
1720525779,8,0,4213.717773,4267.05127,4293.717773,4313.461426,4277.820313,4313.589844,4282.179688,4294.358887,4265.512695,4263.205078,4383.205078,4449.358887,4360.897461,4400.384766,,,,,,,,,,,,,,,,,,,,,,,,,,,,,,,,,,,,,,,,,,,,,,,,,,,,,,,,,,,,,,,,,,,,,,
1720525779,9,0,4204.102539,4257.94873,4289.230957,4306.538574,4266.922852,4312.692383,4280.384766,4303.717773,4263.717773,4274.230957,4393.846191,4455.256348,4350,4397.563965,,,,,,,,,,,,,,,,,,,,,,,,,,,,,,,,,,,,,,,,,,,,,,,,,,,,,,,,,,,,,,,,,,,,,,
1720525779,10,0,4180.769043,4244.230957,4267.179688,4291.538574,4260.256348,4302.05127,4267.820313,4288.077148,4258.589844,4265.897461,4380.384766,4427.05127,4340,4380.256348,53.780098,22.379366,8.318103,2.226911,0.904409,1.211761,1.249074,0.633719,0.384095,0.275987,0.455301,1.440921,0.693112,0.328658,0.169429,0.470402,1.073657,0.426434,0.184208,0.230112,6.394499,0.626405,0.865821,0.674985,0.125317,0.124848,0.541456,0.077196,0.097224,0.185822,0.738184,2.073555,0.273524,0.208977,0.179531,0.05792,0.304162,0.073742,0.071171,0.492698,0.810916,0.853517,0.209421,0.367285,0.190941,0.094582,0.083057,0.038696,0.086379,0.338888,0.06894,0.100518,0.050135,0.047892,0.357929,2.19644,5.245966,0.291564,0.634677,0.773009,1.565595,3.177016,0.362535,0.853816,0.417971,2.113391,4.556246,0.942062,1.070559,0.479576
1720525779,11,0,4176.794922,4242.179688,4268.461426,4290,4265.256348,4305.769043,4264.743652,4286.538574,4264.615234,4267.820313,4380.128418,4427.436035,4351.025879,4380.128418,,,,,,,,,,,,,,,,,,,,,,,,,,,,,,,,,,,,,,,,,,,,,,,,,,,,,,,,,,,,,,,,,,,,,,
1720525779,12,0,4197.307617,4251.025879,4284.230957,4297.05127,4269.615234,4311.282227,4266.153809,4291.282227,4259.102539,4273.717773,4388.205078,4447.563965,4360.641113,4396.282227,,,,,,,,,,,,,,,,,,,,,,,,,,,,,,,,,,,,,,,,,,,,,,,,,,,,,,,,,,,,,,,,,,,,,,
1720525779,13,0,4203.333496,4249.102539,4280.384766,4296.282227,4266.282227,4302.179688,4261.794922,4280.897461,4240.897461,4266.922852,4382.692383,4439.358887,4349.871582,4391.794922,,,,,,,,,,,,,,,,,,,,,,,,,,,,,,,,,,,,,,,,,,,,,,,,,,,,,,,,,,,,,,,,,,,,,,
1720525779,14,0,4196.153809,4246.153809,4277.05127,4293.461426,4263.461426,4299.871582,4266.538574,4285.641113,4241.025879,4266.922852,4384.487305,4433.717773,4340,4381.922852,,,,,,,,,,,,,,,,,,,,,,,,,,,,,,,,,,,,,,,,,,,,,,,,,,,,,,,,,,,,,,,,,,,,,,
1720525779,15,0,4203.205078,4258.589844,4281.794922,4301.666504,4267.692383,4310.128418,4280.128418,4295.384766,4256.153809,4267.05127,4385.512695,4439.615234,4339.487305,4388.974121,,,,,,,,,,,,,,,,,,,,,,,,,,,,,,,,,,,,,,,,,,,,,,,,,,,,,,,,,,,,,,,,,,,,,,
1720525779,16,0,4211.153809,4263.077148,4280.769043,4307.563965,4270.769043,4313.589844,4283.461426,4294.743652,4255.769043,4264.871582,4384.230957,4443.077148,4339.487305,4390.512695,,,,,,,,,,,,,,,,,,,,,,,,,,,,,,,,,,,,,,,,,,,,,,,,,,,,,,,,,,,,,,,,,,,,,,
1720525779,17,0,4196.794922,4249.487305,4271.794922,4298.205078,4268.077148,4309.358887,4278.333496,4289.358887,4246.025879,4266.153809,4383.333496,4433.077148,4335.897461,4371.538574,,,,,,,,,,,,,,,,,,,,,,,,,,,,,,,,,,,,,,,,,,,,,,,,,,,,,,,,,,,,,,,,,,,,,,
1720525779,18,0,4184.102539,4240,4264.743652,4291.794922,4265.256348,4311.153809,4280,4288.717773,4253.077148,4269.358887,4382.436035,4422.563965,4331.922852,4361.666504,,,,,,,,,,,,,,,,,,,,,,,,,,,,,,,,,,,,,,,,,,,,,,,,,,,,,,,,,,,,,,,,,,,,,,
1720525779,19,0,4195.128418,4243.461426,4264.615234,4293.461426,4263.974121,4311.153809,4278.974121,4292.692383,4263.205078,4272.436035,4385.769043,4428.846191,4332.692383,4369.358887,,,,,,,,,,,,,,,,,,,,,,,,,,,,,,,,,,,,,,,,,,,,,,,,,,,,,,,,,,,,,,,,,,,,,,
1720525779,20,0,4207.692383,4247.179688,4269.871582,4294.230957,4263.846191,4305.384766,4266.538574,4292.563965,4255.897461,4270.384766,4384.230957,4431.794922,4334.871582,4371.538574,,,,,,,,,,,,,,,,,,,,,,,,,,,,,,,,,,,,,,,,,,,,,,,,,,,,,,,,,,,,,,,,,,,,,,
1720525779,21,0,4220.128418,4252.307617,4281.153809,4299.743652,4266.282227,4307.692383,4260,4290.512695,4249.230957,4268.333496,4382.307617,4431.282227,4341.153809,4379.615234,,,,,,,,,,,,,,,,,,,,,,,,,,,,,,,,,,,,,,,,,,,,,,,,,,,,,,,,,,,,,,,,,,,,,,
1720525779,22,0,4232.05127,4258.333496,4287.563965,4306.538574,4265.128418,4306.153809,4260.384766,4288.205078,4247.820313,4269.102539,4385.384766,4435.769043,4343.333496,4392.820313,,,,,,,,,,,,,,,,,,,,,,,,,,,,,,,,,,,,,,,,,,,,,,,,,,,,,,,,,,,,,,,,,,,,,,
1720525779,23,0,4229.871582,4260.897461,4287.05127,4306.538574,4263.974121,4299.102539,4259.615234,4287.307617,4243.333496,4271.282227,4386.794922,4438.461426,4336.794922,4390.384766,,,,,,,,,,,,,,,,,,,,,,,,,,,,,,,,,,,,,,,,,,,,,,,,,,,,,,,,,,,,,,,,,,,,,,
1720525779,24,0,4228.333496,4259.487305,4288.077148,4308.205078,4274.615234,4306.794922,4272.179688,4292.94873,4249.871582,4272.05127,4384.358887,4442.692383,4335.641113,4388.077148,,,,,,,,,,,,,,,,,,,,,,,,,,,,,,,,,,,,,,,,,,,,,,,,,,,,,,,,,,,,,,,,,,,,,,
1720525779,25,0,4238.717773,4251.794922,4291.666504,4313.589844,4279.743652,4318.077148,4290.256348,4298.333496,4261.538574,4270.384766,4386.153809,4444.358887,4340.769043,4392.820313,,,,,,,,,,,,,,,,,,,,,,,,,,,,,,,,,,,,,,,,,,,,,,,,,,,,,,,,,,,,,,,,,,,,,,
1720525779,26,0,4234.743652,4252.307617,4288.589844,4310.256348,4268.717773,4313.846191,4289.230957,4295.897461,4259.487305,4269.230957,4387.692383,4442.307617,4337.436035,4387.05127,75.042084,29.35471,10.951222,2.888108,1.127337,1.344987,1.088468,0.552837,0.367791,0.30084,0.731145,1.382177,0.652847,0.307493,0.16694,0.555484,0.924301,0.405319,0.178943,0.205533,4.276211,0.669087,0.690483,0.474008,0.112856,0.171216,0.771071,0.060381,0.09707,0.174338,0.721332,2.2414,0.226445,0.232556,0.183357,0.073357,0.341727,0.07822,0.071871,0.476028,0.890914,0.997287,0.214193,0.43338,0.185874,0.083403,0.070649,0.022985,0.087948,0.322811,0.082504,0.12899,0.04831,0.049599,0.335557,2.322799,5.751235,0.327784,0.650859,0.761281,1.606754,2.919958,0.437559,0.891136,0.38313,2.158236,4.229626,0.944133,1.068581,0.449626
1720525779,27,0,4219.871582,4258.461426,4285.256348,4303.846191,4263.461426,4311.282227,4280.384766,4297.307617,4260.769043,4271.922852,4388.077148,4449.487305,4331.794922,4382.820313,,,,,,,,,,,,,,,,,,,,,,,,,,,,,,,,,,,,,,,,,,,,,,,,,,,,,,,,,,,,,,,,,,,,,,
1720525779,28,0,4223.333496,4255.384766,4286.282227,4305,4270.769043,4317.05127,4274.615234,4299.102539,4265.256348,4272.436035,4392.05127,4455.256348,4338.077148,4391.153809,,,,,,,,,,,,,,,,,,,,,,,,,,,,,,,,,,,,,,,,,,,,,,,,,,,,,,,,,,,,,,,,,,,,,,
1720525779,29,0,4231.794922,4249.358887,4280.384766,4305.256348,4270.897461,4316.538574,4264.871582,4289.871582,4256.282227,4265.128418,4385.897461,4440.641113,4340.128418,4392.05127,,,,,,,,,,,,,,,,,,,,,,,,,,,,,,,,,,,,,,,,,,,,,,,,,,,,,,,,,,,,,,,,,,,,,,
1720525779,30,0,4227.94873,4248.077148,4277.820313,4297.563965,4262.563965,4313.974121,4261.153809,4295.512695,4249.102539,4271.794922,4387.307617,4439.871582,4327.05127,4383.846191,,,,,,,,,,,,,,,,,,,,,,,,,,,,,,,,,,,,,,,,,,,,,,,,,,,,,,,,,,,,,,,,,,,,,,
1720525779,31,0,4225.512695,4249.102539,4277.692383,4290.769043,4260.512695,4309.871582,4258.205078,4297.820313,4255.128418,4277.05127,4390.128418,4443.589844,4320.384766,4376.153809,,,,,,,,,,,,,,,,,,,,,,,,,,,,,,,,,,,,,,,,,,,,,,,,,,,,,,,,,,,,,,,,,,,,,,
1720525779,32,0,4225.512695,4246.410156,4271.538574,4293.717773,4259.102539,4307.179688,4244.615234,4281.025879,4250.769043,4267.692383,4378.974121,4425.512695,4321.282227,4366.282227,,,,,,,,,,,,,,,,,,,,,,,,,,,,,,,,,,,,,,,,,,,,,,,,,,,,,,,,,,,,,,,,,,,,,,
1720525779,33,0,4221.922852,4246.794922,4273.589844,4295.897461,4251.282227,4307.563965,4240.769043,4284.230957,4234.102539,4270.641113,4381.794922,4428.333496,4318.589844,4363.589844,,,,,,,,,,,,,,,,,,,,,,,,,,,,,,,,,,,,,,,,,,,,,,,,,,,,,,,,,,,,,,,,,,,,,,
1720525779,34,0,4225.641113,4255.128418,4281.922852,4297.05127,4249.487305,4298.974121,4248.461426,4289.230957,4238.077148,4275.256348,4386.538574,4440,4326.025879,4370.769043,,,,,,,,,,,,,,,,,,,,,,,,,,,,,,,,,,,,,,,,,,,,,,,,,,,,,,,,,,,,,,,,,,,,,,
1720525779,35,0,4237.179688,4255.897461,4286.153809,4299.230957,4250.769043,4294.743652,4245.897461,4280.256348,4245.128418,4269.358887,4380.769043,4437.436035,4339.487305,4377.307617,,,,,,,,,,,,,,,,,,,,,,,,,,,,,,,,,,,,,,,,,,,,,,,,,,,,,,,,,,,,,,,,,,,,,,
1720525779,36,0,4248.461426,4249.102539,4294.871582,4300.256348,4249.871582,4307.307617,4245.769043,4287.436035,4235.384766,4271.794922,4385.512695,4448.461426,4343.461426,4387.563965,,,,,,,,,,,,,,,,,,,,,,,,,,,,,,,,,,,,,,,,,,,,,,,,,,,,,,,,,,,,,,,,,,,,,,
1720525779,37,0,4252.436035,4248.717773,4298.589844,4302.307617,4255.769043,4312.179688,4257.94873,4294.615234,4235.256348,4275.256348,4388.333496,4457.94873,4341.794922,4395.256348,,,,,,,,,,,,,,,,,,,,,,,,,,,,,,,,,,,,,,,,,,,,,,,,,,,,,,,,,,,,,,,,,,,,,,
1720525779,38,0,4242.05127,4252.820313,4284.487305,4303.205078,4265,4305.897461,4266.538574,4285.256348,4253.205078,4267.94873,4372.307617,4443.717773,4339.102539,4388.333496,,,,,,,,,,,,,,,,,,,,,,,,,,,,,,,,,,,,,,,,,,,,,,,,,,,,,,,,,,,,,,,,,,,,,,
1720525779,39,0,4228.461426,4245.641113,4279.615234,4296.025879,4264.230957,4308.461426,4267.307617,4293.205078,4264.102539,4273.333496,4376.922852,4445,4332.820313,4381.025879,,,,,,,,,,,,,,,,,,,,,,,,,,,,,,,,,,,,,,,,,,,,,,,,,,,,,,,,,,,,,,,,,,,,,,
1720525779,40,0,4229.230957,4240.128418,4286.410156,4288.205078,4260.128418,4311.025879,4265.128418,4305,4264.102539,4278.461426,4393.846191,4459.487305,4329.102539,4382.692383,,,,,,,,,,,,,,,,,,,,,,,,,,,,,,,,,,,,,,,,,,,,,,,,,,,,,,,,,,,,,,,,,,,,,,
1720525779,41,0,4240.897461,4250.769043,4284.743652,4298.205078,4263.205078,4307.05127,4264.871582,4295.897461,4270.769043,4271.666504,4384.615234,4453.717773,4339.358887,4387.05127,,,,,,,,,,,,,,,,,,,,,,,,,,,,,,,,,,,,,,,,,,,,,,,,,,,,,,,,,,,,,,,,,,,,,,
1720525779,42,0,4242.94873,4258.077148,4285.897461,4306.666504,4263.589844,4307.820313,4263.461426,4294.487305,4270,4276.666504,4380.256348,4449.743652,4346.794922,4388.333496,88.436462,33.356281,12.489482,3.34641,1.263677,1.383526,0.957973,0.483044,0.361093,0.32303,1.194436,1.360814,0.603251,0.288964,0.167233,0.648948,0.833032,0.386879,0.185553,0.179122,2.511374,0.756087,0.540693,0.305862,0.101561,0.269061,1.01869,0.056302,0.106879,0.158894,0.74127,2.388329,0.210508,0.258229,0.181908,0.10159,0.362817,0.077483,0.071502,0.456771,1.127964,1.23193,0.248103,0.498987,0.188503,0.080877,0.060368,0.013439,0.086037,0.306245,0.101132,0.162937,0.045815,0.051183,0.30888,2.826065,6.078476,0.368899,0.684487,0.735076,2.000419,2.663996,0.503621,0.899465,0.344801,2.518583,3.934598,0.928395,1.036053,0.421555
1720525779,43,0,4239.615234,4257.05127,4288.589844,4298.589844,4260.897461,4305.897461,4253.717773,4291.025879,4264.102539,4280.769043,4382.563965,4447.179688,4344.743652,4382.692383,,,,,,,,,,,,,,,,,,,,,,,,,,,,,,,,,,,,,,,,,,,,,,,,,,,,,,,,,,,,,,,,,,,,,,
1720525779,44,0,4245.769043,4257.307617,4286.794922,4295.769043,4262.436035,4299.743652,4242.307617,4283.205078,4263.846191,4278.589844,4383.077148,4447.563965,4342.94873,4384.102539,,,,,,,,,,,,,,,,,,,,,,,,,,,,,,,,,,,,,,,,,,,,,,,,,,,,,,,,,,,,,,,,,,,,,,
1720525779,45,0,4261.666504,4262.05127,4293.461426,4307.179688,4265.256348,4296.538574,4241.153809,4284.230957,4259.615234,4277.563965,4385.256348,4458.717773,4345.897461,4400.512695,,,,,,,,,,,,,,,,,,,,,,,,,,,,,,,,,,,,,,,,,,,,,,,,,,,,,,,,,,,,,,,,,,,,,,
1720525779,46,0,4277.563965,4267.563965,4310.384766,4318.205078,4267.179688,4299.487305,4246.538574,4283.077148,4247.307617,4277.05127,4382.820313,4464.871582,4358.846191,4416.538574,,,,,,,,,,,,,,,,,,,,,,,,,,,,,,,,,,,,,,,,,,,,,,,,,,,,,,,,,,,,,,,,,,,,,,
1720525779,47,0,4277.563965,4267.820313,4313.589844,4316.282227,4264.871582,4300.897461,4244.871582,4283.846191,4231.282227,4279.743652,4384.102539,4464.615234,4361.538574,4415.897461,,,,,,,,,,,,,,,,,,,,,,,,,,,,,,,,,,,,,,,,,,,,,,,,,,,,,,,,,,,,,,,,,,,,,,
1720525779,48,0,4267.692383,4263.333496,4300.769043,4310.641113,4262.436035,4294.358887,4241.410156,4285.769043,4224.358887,4277.563965,4385.641113,4457.692383,4348.589844,4407.05127,,,,,,,,,,,,,,,,,,,,,,,,,,,,,,,,,,,,,,,,,,,,,,,,,,,,,,,,,,,,,,,,,,,,,,
1720525779,49,0,4267.692383,4262.692383,4300.128418,4310.641113,4269.358887,4297.94873,4255.897461,4291.025879,4239.102539,4274.230957,4386.538574,4459.358887,4347.436035,4407.692383,,,,,,,,,,,,,,,,,,,,,,,,,,,,,,,,,,,,,,,,,,,,,,,,,,,,,,,,,,,,,,,,,,,,,,
1720525779,50,0,4266.666504,4263.589844,4303.974121,4310,4276.538574,4313.974121,4278.717773,4299.230957,4266.410156,4280.384766,4387.05127,4468.589844,4356.922852,4404.871582,,,,,,,,,,,,,,,,,,,,,,,,,,,,,,,,,,,,,,,,,,,,,,,,,,,,,,,,,,,,,,,,,,,,,,
1720525779,51,0,4250.897461,4251.410156,4290.769043,4304.102539,4268.205078,4318.846191,4284.102539,4300.641113,4278.589844,4280.256348,4383.974121,4464.615234,4352.05127,4390.641113,,,,,,,,,,,,,,,,,,,,,,,,,,,,,,,,,,,,,,,,,,,,,,,,,,,,,,,,,,,,,,,,,,,,,,
1720525779,52,0,4248.846191,4244.102539,4284.871582,4302.692383,4259.487305,4313.717773,4279.615234,4297.692383,4277.436035,4275,4382.307617,4458.077148,4348.974121,4389.230957,,,,,,,,,,,,,,,,,,,,,,,,,,,,,,,,,,,,,,,,,,,,,,,,,,,,,,,,,,,,,,,,,,,,,,
1720525779,53,0,4263.205078,4251.922852,4295.128418,4309.743652,4264.230957,4315.641113,4278.333496,4300.256348,4282.179688,4279.358887,4383.077148,4460.384766,4360.256348,4398.717773,,,,,,,,,,,,,,,,,,,,,,,,,,,,,,,,,,,,,,,,,,,,,,,,,,,,,,,,,,,,,,,,,,,,,,
1720525779,54,0,4261.666504,4251.922852,4291.666504,4306.410156,4267.692383,4315.128418,4264.615234,4295.897461,4281.538574,4278.461426,4382.94873,4455.256348,4360,4392.563965,,,,,,,,,,,,,,,,,,,,,,,,,,,,,,,,,,,,,,,,,,,,,,,,,,,,,,,,,,,,,,,,,,,,,,
1720525779,55,0,4255.769043,4242.692383,4283.717773,4293.717773,4264.615234,4308.589844,4247.436035,4291.538574,4269.487305,4276.282227,4385,4450.641113,4355.769043,4386.410156,,,,,,,,,,,,,,,,,,,,,,,,,,,,,,,,,,,,,,,,,,,,,,,,,,,,,,,,,,,,,,,,,,,,,,
1720525779,56,0,4262.820313,4241.794922,4290.384766,4292.307617,4262.307617,4303.205078,4247.692383,4299.871582,4264.358887,4283.717773,4388.846191,4460.641113,4358.717773,4391.794922,,,,,,,,,,,,,,,,,,,,,,,,,,,,,,,,,,,,,,,,,,,,,,,,,,,,,,,,,,,,,,,,,,,,,,
1720525779,57,0,4271.794922,4254.743652,4292.05127,4305.256348,4268.589844,4296.794922,4248.205078,4286.538574,4263.846191,4272.307617,4378.461426,4453.846191,4360.256348,4391.666504,,,,,,,,,,,,,,,,,,,,,,,,,,,,,,,,,,,,,,,,,,,,,,,,,,,,,,,,,,,,,,,,,,,,,,
1720525779,58,0,4283.717773,4264.615234,4299.615234,4316.282227,4276.410156,4301.538574,4246.282227,4282.820313,4250.128418,4267.436035,4381.538574,4458.205078,4369.615234,4402.94873,89.818123,32.883045,12.3911,3.435117,1.264405,1.338866,0.863248,0.450676,0.373126,0.339505,1.838152,1.399257,0.570592,0.275856,0.169832,0.753719,0.829482,0.389838,0.212468,0.15584,1.365557,0.843838,0.426399,0.201863,0.097,0.387328,1.21547,0.06698,0.123327,0.143891,0.81414,2.525505,0.248177,0.278809,0.17543,0.143718,0.366597,0.071542,0.069327,0.435769,1.459606,1.473344,0.30183,0.543456,0.204096,0.089405,0.054435,0.009639,0.080733,0.293539,0.122041,0.194374,0.042552,0.051112,0.283534,3.796282,6.168316,0.405749,0.708614,0.694777,2.706681,2.463763,0.534584,0.855464,0.313521,3.237774,3.72382,0.908644,0.963316,0.406581
1720525779,59,0,4294.871582,4258.974121,4314.487305,4314.487305,4274.871582,4304.358887,4249.358887,4304.102539,4234.743652,4285.641113,4397.307617,4478.333496,4376.922852,4425.384766,,,,,,,,,,,,,,,,,,,,,,,,,,,,,,,,,,,,,,,,,,,,,,,,,,,,,,,,,,,,,,,,,,,,,,
1720525779,60,0,4282.179688,4250.512695,4301.666504,4309.487305,4268.333496,4292.94873,4247.563965,4294.487305,4229.743652,4278.589844,4385.128418,4456.153809,4367.307617,4413.333496,,,,,,,,,,,,,,,,,,,,,,,,,,,,,,,,,,,,,,,,,,,,,,,,,,,,,,,,,,,,,,,,,,,,,,
1720525779,61,0,4262.307617,4246.025879,4285,4306.666504,4267.94873,4297.436035,4252.05127,4285.128418,4230.128418,4267.692383,4381.538574,4440.897461,4355.512695,4387.05127,,,,,,,,,,,,,,,,,,,,,,,,,,,,,,,,,,,,,,,,,,,,,,,,,,,,,,,,,,,,,,,,,,,,,,
1720525779,62,0,4265.897461,4245.512695,4288.589844,4305.256348,4269.871582,4312.94873,4266.410156,4296.282227,4243.333496,4276.666504,4390.641113,4455.512695,4351.794922,4387.820313,,,,,,,,,,,,,,,,,,,,,,,,,,,,,,,,,,,,,,,,,,,,,,,,,,,,,,,,,,,,,,,,,,,,,,
1720525779,63,0,4271.025879,4244.487305,4289.871582,4301.538574,4267.179688,4312.820313,4269.871582,4297.94873,4262.436035,4280,4382.820313,4454.615234,4346.666504,4389.871582,,,,,,,,,,,,,,,,,,,,,,,,,,,,,,,,,,,,,,,,,,,,,,,,,,,,,,,,,,,,,,,,,,,,,,
1720525779,64,0,4260.128418,4235.512695,4284.102539,4292.05127,4262.820313,4305.128418,4263.974121,4298.333496,4265.769043,4276.794922,4380.512695,4447.05127,4339.615234,4378.846191,,,,,,,,,,,,,,,,,,,,,,,,,,,,,,,,,,,,,,,,,,,,,,,,,,,,,,,,,,,,,,,,,,,,,,
1720525779,65,0,4257.820313,4232.179688,4281.922852,4291.282227,4261.666504,4306.666504,4260.128418,4298.333496,4263.333496,4278.077148,4388.717773,4450,4343.205078,4383.077148,,,,,,,,,,,,,,,,,,,,,,,,,,,,,,,,,,,,,,,,,,,,,,,,,,,,,,,,,,,,,,,,,,,,,,
1720525779,66,0,4267.692383,4246.410156,4281.410156,4302.307617,4269.358887,4309.743652,4253.205078,4287.179688,4269.102539,4277.05127,4382.563965,4447.563965,4356.666504,4394.358887,,,,,,,,,,,,,,,,,,,,,,,,,,,,,,,,,,,,,,,,,,,,,,,,,,,,,,,,,,,,,,,,,,,,,,
1720525779,67,0,4270,4251.410156,4282.179688,4307.307617,4277.820313,4306.538574,4246.025879,4290,4271.025879,4279.358887,4381.282227,4450.897461,4361.794922,4392.179688,,,,,,,,,,,,,,,,,,,,,,,,,,,,,,,,,,,,,,,,,,,,,,,,,,,,,,,,,,,,,,,,,,,,,,
1720525779,68,0,4278.333496,4243.589844,4290.384766,4304.230957,4275.769043,4299.615234,4245.512695,4299.743652,4261.025879,4285.384766,4387.436035,4459.487305,4357.179688,4393.077148,,,,,,,,,,,,,,,,,,,,,,,,,,,,,,,,,,,,,,,,,,,,,,,,,,,,,,,,,,,,,,,,,,,,,,
1720525779,69,0,4296.410156,4259.230957,4299.871582,4310.256348,4272.436035,4292.94873,4247.820313,4285,4252.307617,4276.666504,4377.179688,4451.282227,4359.615234,4401.794922,,,,,,,,,,,,,,,,,,,,,,,,,,,,,,,,,,,,,,,,,,,,,,,,,,,,,,,,,,,,,,,,,,,,,,
1720525779,70,0,4301.410156,4279.871582,4305.897461,4321.282227,4276.025879,4295.384766,4254.743652,4286.025879,4243.077148,4277.179688,4383.333496,4462.307617,4370.897461,4413.205078,,,,,,,,,,,,,,,,,,,,,,,,,,,,,,,,,,,,,,,,,,,,,,,,,,,,,,,,,,,,,,,,,,,,,,
1720525779,71,0,4295.256348,4274.487305,4302.05127,4323.077148,4281.282227,4301.922852,4266.666504,4297.94873,4234.102539,4280.256348,4393.717773,4472.692383,4379.358887,4417.820313,,,,,,,,,,,,,,,,,,,,,,,,,,,,,,,,,,,,,,,,,,,,,,,,,,,,,,,,,,,,,,,,,,,,,,
1720525779,72,0,4293.333496,4259.102539,4300.128418,4317.94873,4278.461426,4307.692383,4276.538574,4293.589844,4239.102539,4275.641113,4387.179688,4465.384766,4382.94873,4413.846191,,,,,,,,,,,,,,,,,,,,,,,,,,,,,,,,,,,,,,,,,,,,,,,,,,,,,,,,,,,,,,,,,,,,,,
1720525779,73,0,4290.128418,4253.077148,4303.974121,4315,4266.282227,4311.922852,4282.179688,4296.794922,4248.974121,4279.358887,4385.384766,4468.205078,4373.717773,4409.615234,,,,,,,,,,,,,,,,,,,,,,,,,,,,,,,,,,,,,,,,,,,,,,,,,,,,,,,,,,,,,,,,,,,,,,
1720525779,74,0,4280.897461,4253.717773,4291.538574,4310.641113,4246.025879,4309.102539,4278.333496,4297.307617,4249.615234,4278.333496,4382.179688,4453.974121,4352.692383,4393.717773,78.576721,28.145058,10.721988,3.129733,1.129203,1.240329,0.788866,0.461836,0.409301,0.347906,2.543756,1.511708,0.571153,0.276765,0.173814,0.859021,0.899163,0.416133,0.263225,0.140557,0.847733,0.891794,0.337183,0.158978,0.102632,0.504667,1.312545,0.094646,0.138857,0.133933,0.921072,2.717551,0.35453,0.290349,0.166188,0.193578,0.365056,0.064356,0.065741,0.412139,1.7789,1.677177,0.371187,0.554905,0.234709,0.103566,0.053291,0.009601,0.072676,0.284574,0.141035,0.213335,0.038387,0.049604,0.263396,5.010262,5.98333,0.429482,0.699824,0.643734,3.538637,2.320969,0.519265,0.762853,0.295506,4.178341,3.580535,0.887905,0.865457,0.406368
1720525779,75,0,4274.230957,4241.666504,4284.487305,4299.615234,4232.820313,4305,4268.461426,4295.128418,4253.974121,4276.666504,4383.205078,4436.025879,4340.256348,4372.05127,,,,,,,,,,,,,,,,,,,,,,,,,,,,,,,,,,,,,,,,,,,,,,,,,,,,,,,,,,,,,,,,,,,,,,
1720525779,76,0,4266.025879,4231.922852,4285.897461,4290.512695,4229.487305,4307.692383,4263.333496,4296.410156,4266.153809,4275.128418,4386.794922,4435.769043,4339.230957,4364.487305,,,,,,,,,,,,,,,,,,,,,,,,,,,,,,,,,,,,,,,,,,,,,,,,,,,,,,,,,,,,,,,,,,,,,,
1720525779,77,0,4258.461426,4240.769043,4274.743652,4291.922852,4220.128418,4311.025879,4261.922852,4293.333496,4267.692383,4273.077148,4384.871582,4438.205078,4339.871582,4369.230957,,,,,,,,,,,,,,,,,,,,,,,,,,,,,,,,,,,,,,,,,,,,,,,,,,,,,,,,,,,,,,,,,,,,,,
1720525779,78,0,4268.205078,4248.974121,4276.153809,4302.692383,4208.974121,4308.205078,4261.282227,4292.692383,4263.077148,4276.922852,4384.102539,4441.410156,4345.512695,4376.282227,,,,,,,,,,,,,,,,,,,,,,,,,,,,,,,,,,,,,,,,,,,,,,,,,,,,,,,,,,,,,,,,,,,,,,
1720525779,79,0,4288.461426,4248.717773,4297.563965,4310.769043,4209.743652,4302.436035,4262.179688,4294.487305,4266.538574,4277.94873,4383.717773,4448.717773,4357.692383,4386.025879,,,,,,,,,,,,,,,,,,,,,,,,,,,,,,,,,,,,,,,,,,,,,,,,,,,,,,,,,,,,,,,,,,,,,,
1720525779,80,0,4299.358887,4257.820313,4307.820313,4309.230957,4214.615234,4301.666504,4261.538574,4293.974121,4268.846191,4277.307617,4383.846191,4458.717773,4368.846191,4398.846191,,,,,,,,,,,,,,,,,,,,,,,,,,,,,,,,,,,,,,,,,,,,,,,,,,,,,,,,,,,,,,,,,,,,,,
1720525779,81,0,4301.282227,4270.769043,4302.94873,4314.871582,4214.743652,4305.769043,4259.743652,4293.589844,4262.05127,4282.436035,4386.922852,4466.538574,4375.128418,4408.205078,,,,,,,,,,,,,,,,,,,,,,,,,,,,,,,,,,,,,,,,,,,,,,,,,,,,,,,,,,,,,,,,,,,,,,
1720525779,82,0,4305.769043,4267.820313,4302.05127,4322.563965,4216.153809,4303.205078,4261.282227,4290.641113,4251.025879,4281.410156,4385.256348,4465.897461,4377.820313,4409.871582,,,,,,,,,,,,,,,,,,,,,,,,,,,,,,,,,,,,,,,,,,,,,,,,,,,,,,,,,,,,,,,,,,,,,,
1720525779,83,0,4312.563965,4263.974121,4309.743652,4322.307617,4218.589844,4303.077148,4265.128418,4287.820313,4244.358887,4274.743652,4384.358887,4465.512695,4378.461426,4408.717773,,,,,,,,,,,,,,,,,,,,,,,,,,,,,,,,,,,,,,,,,,,,,,,,,,,,,,,,,,,,,,,,,,,,,,
1720525779,84,0,4315.128418,4269.230957,4315.128418,4320.641113,4219.102539,4311.025879,4265.384766,4299.743652,4242.307617,4284.871582,4394.102539,4477.94873,4377.436035,4411.794922,,,,,,,,,,,,,,,,,,,,,,,,,,,,,,,,,,,,,,,,,,,,,,,,,,,,,,,,,,,,,,,,,,,,,,
1720525779,85,0,4315.769043,4274.615234,4305.897461,4319.487305,4219.230957,4306.538574,4263.461426,4293.205078,4241.538574,4279.358887,4387.179688,4465.897461,4374.358887,4410.512695,,,,,,,,,,,,,,,,,,,,,,,,,,,,,,,,,,,,,,,,,,,,,,,,,,,,,,,,,,,,,,,,,,,,,,
1720525779,86,0,4310.897461,4267.94873,4296.922852,4311.282227,4217.563965,4300.256348,4267.179688,4281.025879,4244.358887,4266.410156,4377.692383,4450,4370.641113,4404.102539,,,,,,,,,,,,,,,,,,,,,,,,,,,,,,,,,,,,,,,,,,,,,,,,,,,,,,,,,,,,,,,,,,,,,,
1720525779,87,0,4297.05127,4254.102539,4298.846191,4306.282227,4215.128418,4310.512695,4279.358887,4301.794922,4257.692383,4282.94873,4390.641113,4470.128418,4365.512695,4402.436035,,,,,,,,,,,,,,,,,,,,,,,,,,,,,,,,,,,,,,,,,,,,,,,,,,,,,,,,,,,,,,,,,,,,,,
1720525779,88,0,4288.205078,4251.153809,4289.230957,4311.025879,4215.384766,4312.94873,4280.512695,4301.410156,4274.615234,4285.897461,4388.333496,4467.436035,4364.615234,4397.692383,,,,,,,,,,,,,,,,,,,,,,,,,,,,,,,,,,,,,,,,,,,,,,,,,,,,,,,,,,,,,,,,,,,,,,
1720525779,89,0,4292.94873,4248.717773,4284.615234,4307.94873,4214.743652,4304.871582,4266.410156,4286.153809,4275.512695,4275.897461,4380.384766,4454.487305,4367.692383,4395,,,,,,,,,,,,,,,,,,,,,,,,,,,,,,,,,,,,,,,,,,,,,,,,,,,,,,,,,,,,,,,,,,,,,,
1720525779,90,0,4296.922852,4245,4293.461426,4296.922852,4210.769043,4302.94873,4258.461426,4292.307617,4268.077148,4282.563965,4386.153809,4462.94873,4362.05127,4399.487305,58.939613,20.819206,8.091641,2.560379,0.908042,1.132055,0.743567,0.503363,0.463192,0.347059,3.117844,1.685156,0.593322,0.297671,0.178874,0.953551,1.00131,0.451673,0.331939,0.136966,0.727986,0.887725,0.264504,0.15032,0.117968,0.57176,1.307055,0.136359,0.146351,0.132474,1.027531,3.058307,0.517885,0.293191,0.157969,0.238992,0.382999,0.062031,0.061217,0.385705,1.968999,1.94749,0.449913,0.538284,0.276438,0.117086,0.055572,0.011222,0.062965,0.276315,0.153906,0.211839,0.033374,0.048027,0.249911,6.028314,5.516491,0.434573,0.649042,0.588467,4.204873,2.202821,0.464477,0.651387,0.290063,5.053002,3.469655,0.857361,0.775693,0.413326
1720525779,91,0,4288.461426,4244.871582,4283.205078,4294.102539,4210.128418,4301.025879,4259.743652,4291.410156,4266.794922,4281.153809,4382.563965,4451.794922,4351.025879,4392.692383,,,,,,,,,,,,,,,,,,,,,,,,,,,,,,,,,,,,,,,,,,,,,,,,,,,,,,,,,,,,,,,,,,,,,,
1720525779,92,0,4275.384766,4238.589844,4266.153809,4291.282227,4212.820313,4300.769043,4258.205078,4286.922852,4265.769043,4276.538574,4378.205078,4431.922852,4347.94873,4375.641113,,,,,,,,,,,,,,,,,,,,,,,,,,,,,,,,,,,,,,,,,,,,,,,,,,,,,,,,,,,,,,,,,,,,,,
1720525779,93,0,4271.153809,4233.333496,4270.128418,4288.974121,4213.846191,4306.922852,4262.05127,4293.846191,4263.589844,4284.615234,4382.692383,4435.641113,4347.820313,4370.512695,,,,,,,,,,,,,,,,,,,,,,,,,,,,,,,,,,,,,,,,,,,,,,,,,,,,,,,,,,,,,,,,,,,,,,
1720525779,94,0,4286.666504,4245,4287.05127,4299.871582,4213.846191,4310.256348,4271.025879,4294.358887,4257.94873,4284.487305,4379.615234,4447.179688,4351.410156,4383.846191,,,,,,,,,,,,,,,,,,,,,,,,,,,,,,,,,,,,,,,,,,,,,,,,,,,,,,,,,,,,,,,,,,,,,,
1720525779,95,0,4313.461426,4260.128418,4304.871582,4311.538574,4217.94873,4308.846191,4270.384766,4290,4240,4278.717773,4381.282227,4463.717773,4364.871582,4406.153809,,,,,,,,,,,,,,,,,,,,,,,,,,,,,,,,,,,,,,,,,,,,,,,,,,,,,,,,,,,,,,,,,,,,,,
1720525779,96,0,4328.717773,4262.692383,4313.589844,4310.897461,4224.615234,4309.487305,4265,4295.512695,4227.179688,4286.153809,4394.871582,4485.256348,4375.897461,4424.358887,,,,,,,,,,,,,,,,,,,,,,,,,,,,,,,,,,,,,,,,,,,,,,,,,,,,,,,,,,,,,,,,,,,,,,
1720525779,97,0,4317.692383,4252.820313,4299.358887,4308.205078,4222.94873,4306.922852,4262.436035,4289.487305,4231.025879,4279.230957,4386.922852,4467.436035,4371.538574,4412.94873,,,,,,,,,,,,,,,,,,,,,,,,,,,,,,,,,,,,,,,,,,,,,,,,,,,,,,,,,,,,,,,,,,,,,,
1720525779,98,0,4299.487305,4236.666504,4283.077148,4301.025879,4216.282227,4304.358887,4262.820313,4289.871582,4238.077148,4274.743652,4380,4448.077148,4360.512695,4391.922852,,,,,,,,,,,,,,,,,,,,,,,,,,,,,,,,,,,,,,,,,,,,,,,,,,,,,,,,,,,,,,,,,,,,,,
1720525779,99,0,4296.025879,4237.179688,4283.974121,4295.384766,4222.05127,4305.384766,4265.384766,4298.846191,4254.487305,4284.102539,4387.563965,4454.871582,4352.94873,4390.897461,,,,,,,,,,,,,,,,,,,,,,,,,,,,,,,,,,,,,,,,,,,,,,,,,,,,,,,,,,,,,,,,,,,,,,
1720525779,100,0,4294.743652,4245,4286.922852,4300.512695,4227.94873,4306.922852,4264.871582,4293.589844,4276.153809,4280.128418,4384.487305,4453.589844,4349.743652,4389.871582,,,,,,,,,,,,,,,,,,,,,,,,,,,,,,,,,,,,,,,,,,,,,,,,,,,,,,,,,,,,,,,,,,,,,,
1720525779,101,0,4292.563965,4240.641113,4286.538574,4298.974121,4221.538574,4307.307617,4267.563965,4294.743652,4279.102539,4278.205078,4383.077148,4455.256348,4347.307617,4383.846191,,,,,,,,,,,,,,,,,,,,,,,,,,,,,,,,,,,,,,,,,,,,,,,,,,,,,,,,,,,,,,,,,,,,,,
1720525779,102,0,4301.666504,4242.436035,4287.692383,4296.025879,4223.333496,4307.692383,4272.436035,4295.769043,4274.615234,4280.769043,4383.846191,4457.820313,4349.615234,4386.666504,,,,,,,,,,,,,,,,,,,,,,,,,,,,,,,,,,,,,,,,,,,,,,,,,,,,,,,,,,,,,,,,,,,,,,
1720525779,103,0,4314.102539,4252.179688,4289.615234,4306.025879,4234.102539,4310.384766,4271.922852,4295.128418,4279.615234,4282.436035,4385.256348,4463.333496,4358.205078,4395.769043,,,,,,,,,,,,,,,,,,,,,,,,,,,,,,,,,,,,,,,,,,,,,,,,,,,,,,,,,,,,,,,,,,,,,,
1720525779,104,0,4313.077148,4250.256348,4288.846191,4312.692383,4233.846191,4308.717773,4268.205078,4295.256348,4281.410156,4283.589844,4385.897461,4468.846191,4362.820313,4396.410156,,,,,,,,,,,,,,,,,,,,,,,,,,,,,,,,,,,,,,,,,,,,,,,,,,,,,,,,,,,,,,,,,,,,,,
1720525779,105,0,4308.205078,4245.512695,4288.077148,4309.102539,4229.743652,4304.615234,4267.307617,4289.871582,4267.94873,4280.384766,4383.974121,4466.794922,4359.487305,4395.128418,,,,,,,,,,,,,,,,,,,,,,,,,,,,,,,,,,,,,,,,,,,,,,,,,,,,,,,,,,,,,,,,,,,,,,
1720525779,106,0,4318.077148,4255.641113,4298.589844,4311.025879,4231.282227,4306.922852,4264.102539,4288.846191,4250.641113,4279.102539,4385.128418,4470.256348,4362.307617,4408.846191,37.311291,13.390749,5.323334,1.938314,0.675433,1.058413,0.789399,0.549789,0.516466,0.33788,3.373525,1.927051,0.61283,0.335962,0.185862,1.025682,1.125515,0.480075,0.402776,0.145215,0.783775,0.867679,0.212944,0.148099,0.138844,0.581314,1.246252,0.183795,0.143427,0.140196,1.111213,3.620404,0.711291,0.294369,0.15362,0.268335,0.442524,0.069983,0.056682,0.357827,1.949379,2.501448,0.527625,0.514067,0.319638,0.120337,0.059156,0.013317,0.053299,0.265153,0.158312,0.190295,0.027777,0.048172,0.241898,6.42342,4.848858,0.424461,0.567049,0.536439,4.420513,2.137894,0.395187,0.560443,0.290404,5.523032,3.429332,0.828316,0.723122,0.41624
1720525779,107,0,4330.384766,4268.717773,4308.717773,4319.230957,4233.589844,4309.743652,4258.846191,4289.743652,4241.538574,4280.384766,4385,4472.436035,4371.025879,4424.358887,,,,,,,,,,,,,,,,,,,,,,,,,,,,,,,,,,,,,,,,,,,,,,,,,,,,,,,,,,,,,,,,,,,,,,
1720525779,108,0,4329.487305,4263.974121,4306.666504,4320.769043,4233.205078,4307.436035,4264.230957,4292.05127,4243.461426,4280.256348,4385,4471.538574,4368.717773,4422.563965,,,,,,,,,,,,,,,,,,,,,,,,,,,,,,,,,,,,,,,,,,,,,,,,,,,,,,,,,,,,,,,,,,,,,,
1720525779,109,0,4319.615234,4250.128418,4301.153809,4313.846191,4229.487305,4302.94873,4271.282227,4296.153809,4255.128418,4276.025879,4385,4468.589844,4356.666504,4404.487305,,,,,,,,,,,,,,,,,,,,,,,,,,,,,,,,,,,,,,,,,,,,,,,,,,,,,,,,,,,,,,,,,,,,,,
1720525779,110,0,4310.769043,4252.820313,4292.820313,4308.461426,4227.563965,4300.641113,4267.436035,4294.358887,4262.820313,4275.128418,4381.794922,4458.846191,4351.666504,4388.717773,,,,,,,,,,,,,,,,,,,,,,,,,,,,,,,,,,,,,,,,,,,,,,,,,,,,,,,,,,,,,,,,,,,,,,
1720525779,111,0,4308.589844,4260.128418,4288.077148,4309.743652,4231.794922,4303.333496,4262.563965,4291.153809,4264.487305,4280,4381.666504,4457.179688,4354.230957,4390,,,,,,,,,,,,,,,,,,,,,,,,,,,,,,,,,,,,,,,,,,,,,,,,,,,,,,,,,,,,,,,,,,,,,,
1720525779,112,0,4313.846191,4248.846191,4294.615234,4308.589844,4232.179688,4309.358887,4267.05127,4297.179688,4271.794922,4285.128418,4388.205078,4471.538574,4353.461426,4401.410156,,,,,,,,,,,,,,,,,,,,,,,,,,,,,,,,,,,,,,,,,,,,,,,,,,,,,,,,,,,,,,,,,,,,,,
1720525779,113,0,4322.94873,4245,4297.05127,4306.922852,4229.487305,4305.512695,4266.666504,4290.769043,4278.589844,4276.794922,4381.538574,4465.897461,4349.871582,4406.025879,,,,,,,,,,,,,,,,,,,,,,,,,,,,,,,,,,,,,,,,,,,,,,,,,,,,,,,,,,,,,,,,,,,,,,
1720525779,114,0,4330.128418,4261.025879,4298.077148,4312.05127,4229.743652,4304.615234,4264.743652,4285.641113,4278.589844,4274.102539,4377.179688,4460.128418,4353.077148,4409.230957,,,,,,,,,,,,,,,,,,,,,,,,,,,,,,,,,,,,,,,,,,,,,,,,,,,,,,,,,,,,,,,,,,,,,,
1720525779,115,0,4332.179688,4265.256348,4306.666504,4310,4229.102539,4317.179688,4275.897461,4306.538574,4278.205078,4293.589844,4394.871582,4485,4356.538574,4417.692383,,,,,,,,,,,,,,,,,,,,,,,,,,,,,,,,,,,,,,,,,,,,,,,,,,,,,,,,,,,,,,,,,,,,,,
1720525779,116,0,4324.102539,4259.487305,4300.256348,4306.410156,4229.358887,4313.077148,4276.922852,4296.922852,4277.436035,4285.769043,4389.487305,4471.153809,4350.769043,4406.410156,,,,,,,,,,,,,,,,,,,,,,,,,,,,,,,,,,,,,,,,,,,,,,,,,,,,,,,,,,,,,,,,,,,,,,
1720525779,117,0,4317.692383,4263.974121,4286.153809,4311.794922,4233.333496,4302.563965,4262.05127,4277.820313,4264.871582,4270.641113,4379.102539,4444.743652,4343.333496,4389.871582,,,,,,,,,,,,,,,,,,,,,,,,,,,,,,,,,,,,,,,,,,,,,,,,,,,,,,,,,,,,,,,,,,,,,,
1720525780,118,0,4323.589844,4269.743652,4291.153809,4316.153809,4236.025879,4306.922852,4258.589844,4292.94873,4252.436035,4284.615234,4392.05127,4465.641113,4348.717773,4401.410156,,,,,,,,,,,,,,,,,,,,,,,,,,,,,,,,,,,,,,,,,,,,,,,,,,,,,,,,,,,,,,,,,,,,,,
1720525780,119,0,4329.743652,4265.641113,4299.230957,4310.512695,4233.974121,4304.102539,4262.692383,4293.077148,4249.358887,4282.692383,4389.102539,4476.282227,4355.384766,4413.333496,,,,,,,,,,,,,,,,,,,,,,,,,,,,,,,,,,,,,,,,,,,,,,,,,,,,,,,,,,,,,,,,,,,,,,
1720525780,120,0,4330.384766,4263.333496,4301.922852,4307.179688,4231.538574,4298.333496,4259.743652,4284.871582,4240.384766,4271.666504,4381.025879,4471.153809,4350.641113,4408.333496,,,,,,,,,,,,,,,,,,,,,,,,,,,,,,,,,,,,,,,,,,,,,,,,,,,,,,,,,,,,,,,,,,,,,,
1720525780,121,0,4333.589844,4274.615234,4305.256348,4317.436035,4233.461426,4301.922852,4258.717773,4293.846191,4228.461426,4278.717773,4388.077148,4479.615234,4347.05127,4405.897461,,,,,,,,,,,,,,,,,,,,,,,,,,,,,,,,,,,,,,,,,,,,,,,,,,,,,,,,,,,,,,,,,,,,,,
1720525780,122,0,4332.692383,4273.205078,4300.897461,4325,4234.358887,4302.05127,4263.461426,4292.563965,4235.128418,4281.153809,4386.666504,4475.769043,4351.538574,4407.436035,19.587692,7.959358,3.111416,1.44862,0.494245,1.027812,1.001417,0.580636,0.548733,0.323505,3.228441,2.237871,0.615347,0.384196,0.195891,1.064167,1.290269,0.494309,0.457162,0.161133,0.950376,0.919124,0.196087,0.141897,0.159323,0.526315,1.195802,0.229572,0.133529,0.154237,1.168911,4.386946,0.900361,0.305097,0.153296,0.274068,0.545898,0.089239,0.053383,0.331649,1.741664,3.560595,0.587023,0.503417,0.351326,0.113373,0.062648,0.015144,0.04511,0.249864,0.153854,0.157075,0.022569,0.051032,0.236468,6.004448,4.1168,0.412618,0.481287,0.493825,4.093498,2.20311,0.346643,0.513244,0.287294,5.42682,3.556221,0.829191,0.716116,0.406383
1720525780,123,0,4320,4251.666504,4290.128418,4311.794922,4230.384766,4303.205078,4265.384766,4287.820313,4259.358887,4279.743652,4385.384766,4463.077148,4353.461426,4401.153809,,,,,,,,,,,,,,,,,,,,,,,,,,,,,,,,,,,,,,,,,,,,,,,,,,,,,,,,,,,,,,,,,,,,,,
1720525780,124,0,4308.717773,4243.461426,4286.410156,4292.820313,4228.077148,4310.128418,4263.461426,4300.769043,4273.333496,4290,4396.153809,4467.179688,4348.974121,4388.333496,,,,,,,,,,,,,,,,,,,,,,,,,,,,,,,,,,,,,,,,,,,,,,,,,,,,,,,,,,,,,,,,,,,,,,
1720525780,125,0,4308.974121,4255.641113,4284.743652,4293.461426,4228.974121,4302.436035,4260.384766,4295,4268.589844,4283.846191,4386.922852,4461.666504,4345.641113,4380.897461,,,,,,,,,,,,,,,,,,,,,,,,,,,,,,,,,,,,,,,,,,,,,,,,,,,,,,,,,,,,,,,,,,,,,,
1720525780,126,0,4317.307617,4263.461426,4288.589844,4306.666504,4243.974121,4297.436035,4261.410156,4286.538574,4264.230957,4275.384766,4380.641113,4461.666504,4351.153809,4392.692383,,,,,,,,,,,,,,,,,,,,,,,,,,,,,,,,,,,,,,,,,,,,,,,,,,,,,,,,,,,,,,,,,,,,,,
1720525780,127,0,4323.333496,4261.153809,4294.230957,4309.743652,4273.717773,4305.384766,4263.333496,4296.666504,4266.282227,4283.717773,4392.436035,4475.512695,4356.410156,4407.692383,,,,,,,,,,,,,,,,,,,,,,,,,,,,,,,,,,,,,,,,,,,,,,,,,,,,,,,,,,,,,,,,,,,,,,
1720525780,0,0,4324.743652,4260.512695,4291.410156,4301.025879,4231.282227,4302.179688,4263.717773,4293.461426,4264.230957,4283.077148,4389.358887,4468.077148,4353.589844,4399.230957,,,,,,,,,,,,,,,,,,,,,,,,,,,,,,,,,,,,,,,,,,,,,,,,,,,,,,,,,,,,,,,,,,,,,,
1720525780,1,0,4322.692383,4263.717773,4290.256348,4297.94873,4225.384766,4297.692383,4263.846191,4291.666504,4251.922852,4282.05127,4385.128418,4462.05127,4347.179688,4391.666504,,,,,,,,,,,,,,,,,,,,,,,,,,,,,,,,,,,,,,,,,,,,,,,,,,,,,,,,,,,,,,,,,,,,,,
1720525780,2,0,4315.512695,4261.538574,4288.717773,4303.717773,4299.358887,4301.410156,4260.256348,4293.205078,4244.358887,4282.179688,4384.358887,4460.256348,4344.102539,4391.922852,,,,,,,,,,,,,,,,,,,,,,,,,,,,,,,,,,,,,,,,,,,,,,,,,,,,,,,,,,,,,,,,,,,,,,
1720525780,3,0,4320.897461,4259.230957,4294.871582,4305.256348,4034.487061,4306.282227,4261.025879,4290.769043,4255,4284.230957,4384.487305,4461.025879,4355.769043,4395.256348,,,,,,,,,,,,,,,,,,,,,,,,,,,,,,,,,,,,,,,,,,,,,,,,,,,,,,,,,,,,,,,,,,,,,,
1720525780,4,0,4344.358887,4269.230957,4313.974121,4309.487305,3564.358887,4310.769043,4274.102539,4295.769043,4269.871582,4295.512695,4392.179688,4480.384766,4381.538574,4416.538574,,,,,,,,,,,,,,,,,,,,,,,,,,,,,,,,,,,,,,,,,,,,,,,,,,,,,,,,,,,,,,,,,,,,,,
1720525780,5,0,4368.205078,4283.974121,4324.102539,4320.769043,3525.256348,4312.436035,4282.05127,4297.05127,4268.974121,4297.820313,4391.794922,4495.897461,4398.589844,4443.717773,,,,,,,,,,,,,,,,,,,,,,,,,,,,,,,,,,,,,,,,,,,,,,,,,,,,,,,,,,,,,,,,,,,,,,
1720525780,6,0,4378.717773,4292.307617,4327.692383,4331.025879,3757.179443,4307.820313,4275.256348,4294.743652,4259.743652,4294.743652,4391.922852,4503.461426,4403.077148,4457.05127,,,,,,,,,,,,,,,,,,,,,,,,,,,,,,,,,,,,,,,,,,,,,,,,,,,,,,,,,,,,,,,,,,,,,,
1720525780,7,0,4378.974121,4297.94873,4330.769043,4338.205078,3772.307617,4307.436035,4274.871582,4295.769043,4265.384766,4296.025879,4396.794922,4509.615234,4406.538574,4450.769043,,,,,,,,,,,,,,,,,,,,,,,,,,,,,,,,,,,,,,,,,,,,,,,,,,,,,,,,,,,,,,,,,,,,,,
1720525780,8,0,4377.563965,4293.589844,4325.384766,4339.102539,3736.923096,4313.717773,4287.820313,4299.615234,4285.512695,4298.846191,4393.846191,4504.615234,4403.461426,4435.384766,,,,,,,,,,,,,,,,,,,,,,,,,,,,,,,,,,,,,,,,,,,,,,,,,,,,,,,,,,,,,,,,,,,,,,
1720525780,9,0,4372.692383,4279.871582,4316.666504,4330.769043,3811.923096,4312.307617,4296.410156,4302.307617,4296.794922,4299.743652,4390.384766,4492.692383,4391.025879,4423.077148,,,,,,,,,,,,,,,,,,,,,,,,,,,,,,,,,,,,,,,,,,,,,,,,,,,,,,,,,,,,,,,,,,,,,,
1720525780,10,0,4360.384766,4278.205078,4310.641113,4324.871582,3825.256348,4311.025879,4296.282227,4305.769043,4300.512695,4297.94873,4393.846191,4487.436035,4383.333496,4418.974121,8.734879,5.424714,1.759162,1.175982,0.389312,1.040215,1.434197,0.581439,0.546884,0.309307,2.75719,2.626041,0.596519,0.438011,0.208758,1.08004,1.532655,0.49333,0.478677,0.178291,1.275705,1.086771,0.207089,0.136686,0.174891,0.437518,1.196104,0.268355,0.122913,0.168942,1.208894,5.206712,1.054829,0.332554,0.15398,0.257019,0.667798,0.114077,0.052014,0.309336,1.446618,5.214995,0.617539,0.516951,0.360906,0.100502,0.065294,0.016957,0.03915,0.232198,0.142209,0.124168,0.018914,0.056205,0.229999,4.932559,3.500201,0.424214,0.427584,0.46248,3.35827,2.49093,0.348572,0.511029,0.274362,4.821789,3.959059,0.884923,0.749808,0.382813
1720525780,11,0,4347.692383,4278.846191,4304.102539,4320,3820.897461,4310.769043,4296.410156,4305.641113,4304.102539,4293.461426,4394.487305,4485.512695,4381.410156,4416.922852,,,,,,,,,,,,,,,,,,,,,,,,,,,,,,,,,,,,,,,,,,,,,,,,,,,,,,,,,,,,,,,,,,,,,,
1720525780,12,0,4351.922852,4275.512695,4307.436035,4314.230957,3841.025635,4312.05127,4297.692383,4306.794922,4299.102539,4298.077148,4394.358887,4490.512695,4381.153809,4416.794922,,,,,,,,,,,,,,,,,,,,,,,,,,,,,,,,,,,,,,,,,,,,,,,,,,,,,,,,,,,,,,,,,,,,,,
1720525780,13,0,4362.179688,4283.333496,4311.538574,4320.641113,3849.487061,4313.077148,4291.794922,4302.436035,4291.538574,4297.563965,4389.487305,4485.769043,4383.205078,4417.179688,,,,,,,,,,,,,,,,,,,,,,,,,,,,,,,,,,,,,,,,,,,,,,,,,,,,,,,,,,,,,,,,,,,,,,
1720525780,14,0,4361.282227,4287.436035,4301.538574,4327.436035,3858.846191,4305.641113,4275.512695,4289.871582,4285.641113,4286.025879,4384.230957,4470.897461,4378.205078,4406.410156,,,,,,,,,,,,,,,,,,,,,,,,,,,,,,,,,,,,,,,,,,,,,,,,,,,,,,,,,,,,,,,,,,,,,,
1720525780,15,0,4358.589844,4278.205078,4303.846191,4323.589844,3862.05127,4301.922852,4264.871582,4302.563965,4271.025879,4296.410156,4399.871582,4488.717773,4368.461426,4402.436035,,,,,,,,,,,,,,,,,,,,,,,,,,,,,,,,,,,,,,,,,,,,,,,,,,,,,,,,,,,,,,,,,,,,,,
1720525780,16,0,4360.769043,4275.384766,4310.512695,4321.410156,3871.923096,4300.256348,4262.436035,4303.589844,4259.102539,4298.717773,4397.820313,4491.666504,4369.487305,4405.641113,,,,,,,,,,,,,,,,,,,,,,,,,,,,,,,,,,,,,,,,,,,,,,,,,,,,,,,,,,,,,,,,,,,,,,
1720525780,17,0,4360.512695,4280.897461,4301.922852,4319.615234,3883.076904,4296.282227,4260.897461,4283.461426,4259.743652,4285.641113,4383.077148,4469.871582,4374.102539,4402.307617,,,,,,,,,,,,,,,,,,,,,,,,,,,,,,,,,,,,,,,,,,,,,,,,,,,,,,,,,,,,,,,,,,,,,,
1720525780,18,0,4359.615234,4280.512695,4305.769043,4321.922852,3893.589844,4298.077148,4269.230957,4295,4258.974121,4295.641113,4394.230957,4488.205078,4377.307617,4408.461426,,,,,,,,,,,,,,,,,,,,,,,,,,,,,,,,,,,,,,,,,,,,,,,,,,,,,,,,,,,,,,,,,,,,,,
1720525780,19,0,4369.487305,4278.717773,4317.820313,4329.358887,3899.230713,4300.256348,4280.897461,4302.307617,4255.897461,4297.436035,4394.102539,4504.615234,4385.897461,4423.077148,,,,,,,,,,,,,,,,,,,,,,,,,,,,,,,,,,,,,,,,,,,,,,,,,,,,,,,,,,,,,,,,,,,,,,
1720525780,20,0,4371.538574,4278.205078,4316.153809,4318.461426,3895.769287,4295.641113,4280.128418,4295.512695,4257.94873,4288.589844,4386.666504,4490.256348,4386.153809,4426.410156,,,,,,,,,,,,,,,,,,,,,,,,,,,,,,,,,,,,,,,,,,,,,,,,,,,,,,,,,,,,,,,,,,,,,,
1720525780,21,0,4355.128418,4275.897461,4305.256348,4303.461426,3900.897461,4294.487305,4280.641113,4304.102539,4271.538574,4294.230957,4392.820313,4482.307617,4373.589844,4412.307617,,,,,,,,,,,,,,,,,,,,,,,,,,,,,,,,,,,,,,,,,,,,,,,,,,,,,,,,,,,,,,,,,,,,,,
1720525780,22,0,4349.358887,4277.05127,4302.05127,4314.230957,3918.205078,4304.102539,4293.589844,4308.974121,4292.563965,4298.974121,4391.922852,4484.102539,4372.692383,4402.820313,,,,,,,,,,,,,,,,,,,,,,,,,,,,,,,,,,,,,,,,,,,,,,,,,,,,,,,,,,,,,,,,,,,,,,
1720525780,23,0,4350.769043,4277.179688,4303.205078,4324.743652,3926.410156,4306.410156,4295.128418,4300.384766,4295.128418,4294.615234,4386.538574,4482.692383,4374.358887,4402.179688,,,,,,,,,,,,,,,,,,,,,,,,,,,,,,,,,,,,,,,,,,,,,,,,,,,,,,,,,,,,,,,,,,,,,,
1720525780,24,0,4345.384766,4276.538574,4305.384766,4321.153809,3927.564209,4300.769043,4284.102539,4303.589844,4280.512695,4295.384766,4395.384766,4488.333496,4367.307617,4401.666504,,,,,,,,,,,,,,,,,,,,,,,,,,,,,,,,,,,,,,,,,,,,,,,,,,,,,,,,,,,,,,,,,,,,,,
1720525780,25,0,4348.974121,4280.512695,4305.897461,4318.846191,3935.512939,4299.871582,4275.512695,4298.974121,4273.974121,4291.666504,4391.153809,4475.256348,4369.230957,4395.128418,,,,,,,,,,,,,,,,,,,,,,,,,,,,,,,,,,,,,,,,,,,,,,,,,,,,,,,,,,,,,,,,,,,,,,
1720525780,26,0,4357.692383,4283.589844,4304.358887,4317.820313,3941.923096,4305.256348,4265.641113,4286.538574,4272.436035,4289.743652,4382.307617,4461.410156,4375.128418,4390.769043,4.050563,5.30074,1.187815,1.100215,0.343654,1.115367,2.060806,0.560567,0.517842,0.301641,2.174856,3.077859,0.577137,0.503982,0.221964,1.110842,1.859341,0.48732,0.46591,0.191154,3.169196,1.984727,0.634524,0.375412,0.285226,0.340447,1.233936,0.296361,0.116633,0.178765,1.241715,5.8298,1.154861,0.374587,0.15244,0.223291,0.765401,0.134421,0.052671,0.292723,1.186101,7.330383,0.619045,0.550959,0.346049,0.088234,0.066753,0.020218,0.035424,0.216557,0.125252,0.100816,0.018225,0.062226,0.221095,3.636831,3.123128,0.498554,0.437647,0.442698,2.530644,3.034443,0.424949,0.539648,0.251201,3.984417,4.66968,1.044635,0.828559,0.352628
1720525780,27,0,4356.025879,4281.025879,4310.897461,4316.666504,3947.820557,4306.282227,4261.794922,4295.512695,4262.94873,4300.641113,4394.871582,4481.794922,4375.384766,4401.410156,,,,,,,,,,,,,,,,,,,,,,,,,,,,,,,,,,,,,,,,,,,,,,,,,,,,,,,,,,,,,,,,,,,,,,
1720525780,28,0,4349.615234,4276.025879,4307.94873,4317.563965,3956.281982,4298.717773,4263.846191,4293.333496,4252.692383,4294.358887,4392.179688,4479.743652,4376.922852,4402.307617,,,,,,,,,,,,,,,,,,,,,,,,,,,,,,,,,,,,,,,,,,,,,,,,,,,,,,,,,,,,,,,,,,,,,,
1720525780,29,0,4345.641113,4273.205078,4298.333496,4313.077148,3959.358887,4295.641113,4261.410156,4288.333496,4244.615234,4286.282227,4387.307617,4470.384766,4377.692383,4394.743652,,,,,,,,,,,,,,,,,,,,,,,,,,,,,,,,,,,,,,,,,,,,,,,,,,,,,,,,,,,,,,,,,,,,,,
1720525780,30,0,4340.897461,4274.615234,4295.897461,4307.05127,3963.076904,4296.025879,4265.384766,4294.743652,4241.153809,4288.974121,4392.94873,4479.871582,4370.256348,4393.333496,,,,,,,,,,,,,,,,,,,,,,,,,,,,,,,,,,,,,,,,,,,,,,,,,,,,,,,,,,,,,,,,,,,,,,
1720525780,31,0,4341.794922,4278.205078,4296.538574,4311.666504,3972.692383,4296.025879,4278.974121,4295,4250.128418,4290,4390.384766,4480,4363.205078,4391.025879,,,,,,,,,,,,,,,,,,,,,,,,,,,,,,,,,,,,,,,,,,,,,,,,,,,,,,,,,,,,,,,,,,,,,,
1720525780,32,0,4346.538574,4277.94873,4300.256348,4317.179688,3978.461426,4296.922852,4284.615234,4297.692383,4265,4295.897461,4390.256348,4479.615234,4368.589844,4395.512695,,,,,,,,,,,,,,,,,,,,,,,,,,,,,,,,,,,,,,,,,,,,,,,,,,,,,,,,,,,,,,,,,,,,,,
1720525780,33,0,4353.077148,4284.102539,4308.205078,4319.871582,3984.871826,4296.282227,4281.794922,4299.230957,4278.333496,4295.512695,4391.153809,4483.077148,4379.743652,4408.717773,,,,,,,,,,,,,,,,,,,,,,,,,,,,,,,,,,,,,,,,,,,,,,,,,,,,,,,,,,,,,,,,,,,,,,
1720525780,34,0,4355.384766,4295,4313.077148,4322.94873,3990,4294.743652,4279.487305,4298.077148,4282.563965,4295.128418,4391.538574,4481.794922,4378.461426,4415.384766,,,,,,,,,,,,,,,,,,,,,,,,,,,,,,,,,,,,,,,,,,,,,,,,,,,,,,,,,,,,,,,,,,,,,,
1720525780,35,0,4338.589844,4282.307617,4300,4312.179688,3986.281982,4292.820313,4276.922852,4295,4278.589844,4297.179688,4390.256348,4471.410156,4362.94873,4402.436035,,,,,,,,,,,,,,,,,,,,,,,,,,,,,,,,,,,,,,,,,,,,,,,,,,,,,,,,,,,,,,,,,,,,,,
1720525780,36,0,4323.589844,4264.230957,4289.102539,4296.282227,3989.615479,4293.077148,4274.743652,4295.256348,4277.436035,4294.871582,4389.358887,4466.922852,4357.05127,4385,,,,,,,,,,,,,,,,,,,,,,,,,,,,,,,,,,,,,,,,,,,,,,,,,,,,,,,,,,,,,,,,,,,,,,
1720525780,37,0,4324.615234,4268.589844,4290.641113,4297.436035,4001.281982,4293.333496,4269.615234,4293.846191,4272.820313,4293.974121,4392.307617,4466.153809,4358.205078,4377.179688,,,,,,,,,,,,,,,,,,,,,,,,,,,,,,,,,,,,,,,,,,,,,,,,,,,,,,,,,,,,,,,,,,,,,,
1720525780,38,0,4323.333496,4271.538574,4289.871582,4307.820313,4006.281982,4289.871582,4257.05127,4285.128418,4255.512695,4294.871582,4391.282227,4457.307617,4351.922852,4373.205078,,,,,,,,,,,,,,,,,,,,,,,,,,,,,,,,,,,,,,,,,,,,,,,,,,,,,,,,,,,,,,,,,,,,,,
1720525780,39,0,4326.410156,4266.794922,4293.974121,4313.717773,4009.358887,4287.94873,4253.846191,4283.461426,4241.922852,4289.871582,4388.205078,4457.563965,4355.641113,4380.128418,,,,,,,,,,,,,,,,,,,,,,,,,,,,,,,,,,,,,,,,,,,,,,,,,,,,,,,,,,,,,,,,,,,,,,
1720525780,40,0,4349.615234,4280.384766,4314.615234,4323.717773,4018.974365,4293.461426,4273.846191,4296.794922,4250.641113,4288.846191,4393.077148,4483.846191,4376.025879,4403.974121,,,,,,,,,,,,,,,,,,,,,,,,,,,,,,,,,,,,,,,,,,,,,,,,,,,,,,,,,,,,,,,,,,,,,,
1720525780,41,0,4363.077148,4299.743652,4324.358887,4334.487305,4026.410156,4297.05127,4293.333496,4301.410156,4263.205078,4293.461426,4395.384766,4499.487305,4383.589844,4418.205078,,,,,,,,,,,,,,,,,,,,,,,,,,,,,,,,,,,,,,,,,,,,,,,,,,,,,,,,,,,,,,,,,,,,,,
1720525780,42,0,4353.333496,4297.692383,4313.333496,4329.487305,4024.871826,4295.769043,4294.487305,4291.410156,4260.641113,4286.538574,4388.077148,4483.333496,4372.436035,4410.256348,2.892284,6.214961,1.059083,1.14068,0.319158,1.274325,2.750021,0.53353,0.482097,0.303944,1.724307,3.505943,0.565897,0.589417,0.231458,1.205252,2.217095,0.487635,0.432011,0.197862,13.983766,6.942586,3.54355,1.894429,0.960791,0.268096,1.25061,0.311801,0.115839,0.180844,1.277228,6.011877,1.170759,0.419955,0.147467,0.182763,0.799459,0.139528,0.054878,0.282355,1.080875,9.572039,0.599223,0.591637,0.314453,0.087853,0.068275,0.027891,0.033281,0.207057,0.106135,0.089281,0.021996,0.067235,0.211091,2.557646,2.97378,0.637313,0.521831,0.433317,1.943447,3.707858,0.569968,0.579009,0.222164,3.255848,5.518859,1.284842,0.958522,0.324648
1720525780,43,0,4340.384766,4277.692383,4310,4312.692383,4021.281982,4300.384766,4295.769043,4306.794922,4264.358887,4291.922852,4393.717773,4487.307617,4359.871582,4403.205078,,,,,,,,,,,,,,,,,,,,,,,,,,,,,,,,,,,,,,,,,,,,,,,,,,,,,,,,,,,,,,,,,,,,,,
1720525780,44,0,4327.179688,4261.922852,4299.743652,4303.333496,4023.333252,4294.871582,4295.897461,4310,4279.871582,4298.589844,4390.641113,4482.692383,4347.05127,4392.179688,,,,,,,,,,,,,,,,,,,,,,,,,,,,,,,,,,,,,,,,,,,,,,,,,,,,,,,,,,,,,,,,,,,,,,
1720525780,45,0,4323.205078,4261.794922,4281.538574,4307.94873,4029.743652,4285.256348,4284.487305,4283.205078,4277.820313,4284.358887,4375.897461,4450.769043,4341.666504,4375.897461,,,,,,,,,,,,,,,,,,,,,,,,,,,,,,,,,,,,,,,,,,,,,,,,,,,,,,,,,,,,,,,,,,,,,,
1720525780,46,0,4333.846191,4267.563965,4288.205078,4311.666504,4034.358887,4288.589844,4275.769043,4290.641113,4262.820313,4285.256348,4389.102539,4462.05127,4354.230957,4381.666504,,,,,,,,,,,,,,,,,,,,,,,,,,,,,,,,,,,,,,,,,,,,,,,,,,,,,,,,,,,,,,,,,,,,,,
1720525780,47,0,4341.410156,4271.025879,4296.794922,4307.307617,4038.461426,4285.897461,4268.461426,4295.256348,4261.410156,4290.256348,4393.846191,4475,4366.282227,4392.820313,,,,,,,,,,,,,,,,,,,,,,,,,,,,,,,,,,,,,,,,,,,,,,,,,,,,,,,,,,,,,,,,,,,,,,
1720525780,48,0,4347.563965,4276.282227,4298.974121,4311.922852,4044.871826,4285.897461,4256.666504,4279.102539,4259.102539,4287.94873,4381.922852,4463.974121,4367.179688,4396.922852,,,,,,,,,,,,,,,,,,,,,,,,,,,,,,,,,,,,,,,,,,,,,,,,,,,,,,,,,,,,,,,,,,,,,,
1720525780,49,0,4361.025879,4284.743652,4309.487305,4318.589844,4054.743652,4294.358887,4258.333496,4281.794922,4251.153809,4292.307617,4387.307617,4474.358887,4368.974121,4407.94873,,,,,,,,,,,,,,,,,,,,,,,,,,,,,,,,,,,,,,,,,,,,,,,,,,,,,,,,,,,,,,,,,,,,,,
1720525780,50,0,4347.820313,4279.358887,4303.974121,4305.769043,4054.358887,4288.077148,4262.179688,4282.179688,4246.282227,4290.384766,4388.717773,4475.641113,4355.769043,4400.897461,,,,,,,,,,,,,,,,,,,,,,,,,,,,,,,,,,,,,,,,,,,,,,,,,,,,,,,,,,,,,,,,,,,,,,
1720525780,51,0,4311.410156,4258.077148,4283.589844,4289.487305,4045.641113,4281.666504,4260.897461,4275.897461,4237.820313,4282.563965,4380.512695,4457.179688,4327.94873,4374.230957,,,,,,,,,,,,,,,,,,,,,,,,,,,,,,,,,,,,,,,,,,,,,,,,,,,,,,,,,,,,,,,,,,,,,,
1720525780,52,0,4304.615234,4253.461426,4281.538574,4291.282227,4047.692383,4295,4276.666504,4291.666504,4237.436035,4286.922852,4386.410156,4466.666504,4325.641113,4366.282227,,,,,,,,,,,,,,,,,,,,,,,,,,,,,,,,,,,,,,,,,,,,,,,,,,,,,,,,,,,,,,,,,,,,,,
1720525780,53,0,4320.769043,4267.563965,4285.256348,4306.025879,4059.487061,4299.230957,4295.897461,4298.846191,4253.717773,4288.077148,4389.102539,4479.102539,4346.666504,4377.05127,,,,,,,,,,,,,,,,,,,,,,,,,,,,,,,,,,,,,,,,,,,,,,,,,,,,,,,,,,,,,,,,,,,,,,
1720525780,54,0,4326.666504,4272.563965,4285.256348,4315.769043,4065.256348,4290.641113,4298.589844,4286.922852,4265.128418,4280.384766,4381.153809,4472.820313,4358.333496,4386.410156,,,,,,,,,,,,,,,,,,,,,,,,,,,,,,,,,,,,,,,,,,,,,,,,,,,,,,,,,,,,,,,,,,,,,,
1720525780,55,0,4327.436035,4268.333496,4296.922852,4313.589844,4065.897461,4295.512695,4296.922852,4297.692383,4265.256348,4287.179688,4390.384766,4486.794922,4358.846191,4393.461426,,,,,,,,,,,,,,,,,,,,,,,,,,,,,,,,,,,,,,,,,,,,,,,,,,,,,,,,,,,,,,,,,,,,,,
1720525780,56,0,4330,4270.897461,4299.358887,4306.538574,4070.512939,4297.179688,4290.641113,4301.666504,4267.820313,4288.461426,4391.025879,4482.820313,4363.717773,4390.512695,,,,,,,,,,,,,,,,,,,,,,,,,,,,,,,,,,,,,,,,,,,,,,,,,,,,,,,,,,,,,,,,,,,,,,
1720525780,57,0,4324.102539,4268.461426,4292.179688,4307.94873,4075.512939,4294.358887,4281.666504,4289.358887,4269.615234,4283.461426,4382.94873,4464.743652,4365.512695,4383.461426,,,,,,,,,,,,,,,,,,,,,,,,,,,,,,,,,,,,,,,,,,,,,,,,,,,,,,,,,,,,,,,,,,,,,,
1720525780,58,0,4322.692383,4263.333496,4292.692383,4312.05127,4081.410156,4292.563965,4275.769043,4288.589844,4268.077148,4285.641113,4389.615234,4471.153809,4359.487305,4387.94873,2.760276,6.936661,1.102291,1.224551,0.288935,1.508196,3.305972,0.513718,0.463988,0.314588,1.550504,3.796148,0.564011,0.694824,0.233545,1.382118,2.509482,0.503888,0.399297,0.201233,43.225483,20.357939,11.620802,6.047766,2.819307,0.240496,1.184322,0.31799,0.117278,0.174963,1.3278,5.677552,1.112452,0.453825,0.140832,0.145068,0.758741,0.129325,0.058133,0.276788,1.191031,11.52229,0.586133,0.628101,0.281099,0.099829,0.072685,0.042588,0.032565,0.204996,0.089028,0.086137,0.0309,0.069497,0.202343,1.92663,2.956729,0.807422,0.663028,0.432774,1.784224,4.302025,0.757263,0.618186,0.193739,2.876529,6.241174,1.533556,1.144134,0.303804
1720525780,59,0,4331.666504,4271.025879,4293.205078,4310,4088.846191,4284.487305,4266.153809,4283.589844,4268.846191,4281.666504,4390,4472.179688,4355,4392.692383,,,,,,,,,,,,,,,,,,,,,,,,,,,,,,,,,,,,,,,,,,,,,,,,,,,,,,,,,,,,,,,,,,,,,,
1720525780,60,0,4331.410156,4276.666504,4294.230957,4310.769043,4090.512939,4277.436035,4256.666504,4283.205078,4260.641113,4282.436035,4388.846191,4473.461426,4352.436035,4392.692383,,,,,,,,,,,,,,,,,,,,,,,,,,,,,,,,,,,,,,,,,,,,,,,,,,,,,,,,,,,,,,,,,,,,,,
1720525780,61,0,4332.307617,4280.128418,4296.922852,4317.820313,4094.871826,4275.641113,4260,4287.94873,4251.025879,4282.436035,4391.153809,4481.282227,4354.230957,4397.820313,,,,,,,,,,,,,,,,,,,,,,,,,,,,,,,,,,,,,,,,,,,,,,,,,,,,,,,,,,,,,,,,,,,,,,
1720525780,62,0,4342.94873,4285.897461,4303.846191,4324.358887,4105,4277.179688,4263.589844,4285.897461,4247.436035,4278.077148,4390.256348,4482.563965,4359.487305,4404.358887,,,,,,,,,,,,,,,,,,,,,,,,,,,,,,,,,,,,,,,,,,,,,,,,,,,,,,,,,,,,,,,,,,,,,,
1720525780,63,0,4350.641113,4284.358887,4313.974121,4323.333496,4108.589844,4278.846191,4261.025879,4284.230957,4238.333496,4279.487305,4389.358887,4478.846191,4363.717773,4404.615234,,,,,,,,,,,,,,,,,,,,,,,,,,,,,,,,,,,,,,,,,,,,,,,,,,,,,,,,,,,,,,,,,,,,,,
1720525780,64,0,4349.615234,4281.282227,4321.666504,4321.922852,4108.589844,4279.615234,4270.769043,4292.179688,4232.436035,4280.512695,4390.512695,4481.666504,4366.538574,4406.153809,,,,,,,,,,,,,,,,,,,,,,,,,,,,,,,,,,,,,,,,,,,,,,,,,,,,,,,,,,,,,,,,,,,,,,
