Timestamp,EEG.Counter,EEG.Interpolated,EEG.AF3,EEG.F7,EEG.F3,EEG.FC5,EEG.T7,EEG.P7,EEG.O1,EEG.O2,EEG.P8,EEG.T8,EEG.FC6,EEG.F4,EEG.F8,EEG.AF4,POW.AF3.Theta,POW.AF3.Alpha,POW.AF3.BetaL,POW.AF3.BetaH,POW.AF3.Gamma,POW.F7.Theta,POW.F7.Alpha,POW.F7.BetaL,POW.F7.BetaH,POW.F7.Gamma,POW.F3.Theta,POW.F3.Alpha,POW.F3.BetaL,POW.F3.BetaH,POW.F3.Gamma,POW.FC5.Theta,POW.FC5.Alpha,POW.FC5.BetaL,POW.FC5.BetaH,POW.FC5.Gamma,POW.T7.Theta,POW.T7.Alpha,POW.T7.BetaL,POW.T7.BetaH,POW.T7.Gamma,POW.P7.Theta,POW.P7.Alpha,POW.P7.BetaL,POW.P7.BetaH,POW.P7.Gamma,POW.O1.Theta,POW.O1.Alpha,POW.O1.BetaL,POW.O1.BetaH,POW.O1.Gamma,POW.O2.Theta,POW.O2.Alpha,POW.O2.BetaL,POW.O2.BetaH,POW.O2.Gamma,POW.P8.Theta,POW.P8.Alpha,POW.P8.BetaL,POW.P8.BetaH,POW.P8.Gamma,POW.T8.Theta,POW.T8.Alpha,POW.T8.BetaL,POW.T8.BetaH,POW.T8.Gamma,POW.FC6.Theta,POW.FC6.Alpha,POW.FC6.BetaL,POW.FC6.BetaH,POW.FC6.Gamma,POW.F4.Theta,POW.F4.Alpha,POW.F4.BetaL,POW.F4.BetaH,POW.F4.Gamma,POW.F8.Theta,POW.F8.Alpha,POW.F8.BetaL,POW.F8.BetaH,POW.F8.Gamma,POW.AF4.Theta,POW.AF4.Alpha,POW.AF4.BetaL,POW.AF4.BetaH,POW.AF4.Gamma
1720514568,126,0,4262.820313,4274.743652,4292.820313,4290.769043,4264.743652,4273.077148,4275.769043,4268.461426,4322.820313,4246.538574,4445.128418,4487.307617,4370.512695,4674.871582,,,,,,,,,,,,,,,,,,,,,,,,,,,,,,,,,,,,,,,,,,,,,,,,,,,,,,,,,,,,,,,,,,,,,,
1720514568,127,0,4275.641113,4278.717773,4291.410156,4301.538574,4272.94873,4278.205078,4277.05127,4264.487305,4321.282227,4248.205078,4452.820313,4485.128418,4367.94873,4673.077148,,,,,,,,,,,,,,,,,,,,,,,,,,,,,,,,,,,,,,,,,,,,,,,,,,,,,,,,,,,,,,,,,,,,,,
1720514568,0,0,4277.436035,4278.333496,4293.589844,4305.769043,4275.384766,4282.05127,4290.512695,4274.871582,4327.692383,4250.641113,4452.307617,4486.410156,4365.897461,4676.666504,,,,,,,,,,,,,,,,,,,,,,,,,,,,,,,,,,,,,,,,,,,,,,,,,,,,,,,,,,,,,,,,,,,,,,
1720514568,1,0,4262.05127,4275.769043,4287.820313,4294.743652,4265.128418,4280.128418,4291.410156,4279.871582,4327.94873,4248.205078,4440.769043,4482.820313,4355.384766,4669.102539,,,,,,,,,,,,,,,,,,,,,,,,,,,,,,,,,,,,,,,,,,,,,,,,,,,,,,,,,,,,,,,,,,,,,,
1720514568,2,0,4260,4278.333496,4280,4294.615234,4262.563965,4279.230957,4280,4269.230957,4319.230957,4242.692383,4441.922852,4477.94873,4349.487305,4657.179688,,,,,,,,,,,,,,,,,,,,,,,,,,,,,,,,,,,,,,,,,,,,,,,,,,,,,,,,,,,,,,,,,,,,,,
1720514568,3,0,4268.205078,4279.230957,4283.717773,4305.384766,4272.563965,4279.871582,4279.615234,4269.487305,4322.820313,4246.153809,4451.025879,4487.436035,4360.128418,4664.615234,,,,,,,,,,,,,,,,,,,,,,,,,,,,,,,,,,,,,,,,,,,,,,,,,,,,,,,,,,,,,,,,,,,,,,
1720514568,4,0,4269.615234,4279.871582,4289.102539,4310.641113,4276.666504,4276.666504,4282.179688,4267.436035,4327.307617,4252.820313,4451.153809,4491.153809,4372.563965,4672.820313,,,,,,,,,,,,,,,,,,,,,,,,,,,,,,,,,,,,,,,,,,,,,,,,,,,,,,,,,,,,,,,,,,,,,,
1720514568,5,0,4278.974121,4281.538574,4292.307617,4310.897461,4271.153809,4273.589844,4277.05127,4264.102539,4319.615234,4250.769043,4451.410156,4490,4376.282227,4670.641113,,,,,,,,,,,,,,,,,,,,,,,,,,,,,,,,,,,,,,,,,,,,,,,,,,,,,,,,,,,,,,,,,,,,,,
1720514568,6,0,4296.538574,4283.333496,4297.05127,4310.512695,4267.692383,4273.974121,4274.487305,4264.487305,4326.794922,4249.358887,4456.410156,4494.871582,4376.538574,4670.641113,,,,,,,,,,,,,,,,,,,,,,,,,,,,,,,,,,,,,,,,,,,,,,,,,,,,,,,,,,,,,,,,,,,,,,
1720514568,7,0,4290.897461,4283.846191,4299.102539,4311.025879,4265.897461,4275.769043,4277.94873,4262.94873,4344.615234,4252.436035,4461.410156,4496.153809,4378.333496,4671.153809,,,,,,,,,,,,,,,,,,,,,,,,,,,,,,,,,,,,,,,,,,,,,,,,,,,,,,,,,,,,,,,,,,,,,,
1720514568,8,0,4279.102539,4280.769043,4300,4310.769043,4263.077148,4276.922852,4279.871582,4265.769043,4337.307617,4253.077148,4461.282227,4496.538574,4381.025879,4671.538574,,,,,,,,,,,,,,,,,,,,,,,,,,,,,,,,,,,,,,,,,,,,,,,,,,,,,,,,,,,,,,,,,,,,,,
1720514568,9,0,4285.512695,4274.487305,4299.358887,4300.641113,4261.538574,4279.102539,4279.102539,4267.436035,4321.666504,4248.717773,4451.153809,4496.922852,4381.025879,4665.769043,,,,,,,,,,,,,,,,,,,,,,,,,,,,,,,,,,,,,,,,,,,,,,,,,,,,,,,,,,,,,,,,,,,,,,
1720514568,10,0,4287.05127,4272.307617,4291.282227,4293.589844,4262.05127,4278.589844,4277.307617,4261.922852,4323.077148,4250.128418,4448.077148,4491.666504,4379.487305,4649.487305,,,,,,,,,,,,,,,,,,,,,,,,,,,,,,,,,,,,,,,,,,,,,,,,,,,,,,,,,,,,,,,,,,,,,,
1720514568,11,0,4278.077148,4274.102539,4290.384766,4301.153809,4264.358887,4275,4278.205078,4269.487305,4330.256348,4259.615234,4463.974121,4493.461426,4380.384766,4638.589844,,,,,,,,,,,,,,,,,,,,,,,,,,,,,,,,,,,,,,,,,,,,,,,,,,,,,,,,,,,,,,,,,,,,,,
1720514568,12,0,4276.666504,4274.871582,4297.307617,4303.205078,4265.256348,4278.205078,4276.410156,4281.538574,4332.179688,4265.641113,4468.333496,4502.179688,4380.384766,4628.077148,1.719407,0.926961,1.567771,0.856011,0.275763,0.888741,0.685213,1.051827,0.422168,0.112411,0.794027,0.723722,0.933425,0.805229,0.178585,0.763699,0.484526,0.464301,0.465986,0.257643,0.128955,0.200679,0.121364,0.089589,0.073833,0.383231,0.507577,0.218729,0.352195,0.128683,1.170586,0.784938,0.722556,0.203872,0.114906,0.961063,0.848811,0.310884,0.218435,0.165647,3.22023,3.506933,1.021256,0.47653,0.308792,2.245449,1.84402,1.757806,0.45934,0.176875,5.155307,2.702938,2.712369,1.403576,0.497688,1.892951,1.335792,1.600973,1.123688,0.18122,1.999422,1.321781,1.503166,0.767757,0.245202,41.216263,7.855803,2.400379,1.368096,0.313074
1720514568,13,0,4279.487305,4277.179688,4298.717773,4298.077148,4261.794922,4278.077148,4268.589844,4265.384766,4322.05127,4264.743652,4450.512695,4495,4380.256348,4602.05127,,,,,,,,,,,,,,,,,,,,,,,,,,,,,,,,,,,,,,,,,,,,,,,,,,,,,,,,,,,,,,,,,,,,,,
1720514568,14,0,4283.077148,4281.153809,4300.641113,4306.025879,4261.282227,4268.205078,4264.615234,4261.922852,4309.871582,4264.487305,4448.974121,4492.179688,4382.436035,4587.436035,,,,,,,,,,,,,,,,,,,,,,,,,,,,,,,,,,,,,,,,,,,,,,,,,,,,,,,,,,,,,,,,,,,,,,
1720514568,15,0,4294.358887,4287.05127,4307.436035,4317.179688,4265.769043,4268.333496,4268.846191,4273.974121,4308.333496,4266.153809,4458.333496,4499.102539,4379.230957,4584.487305,,,,,,,,,,,,,,,,,,,,,,,,,,,,,,,,,,,,,,,,,,,,,,,,,,,,,,,,,,,,,,,,,,,,,,
1720514568,16,0,4298.205078,4288.077148,4311.410156,4310.769043,4262.692383,4274.230957,4274.487305,4266.410156,4302.94873,4265.897461,4452.307617,4496.153809,4376.666504,4565.512695,,,,,,,,,,,,,,,,,,,,,,,,,,,,,,,,,,,,,,,,,,,,,,,,,,,,,,,,,,,,,,,,,,,,,,
1720514568,17,0,4291.538574,4285.897461,4310.897461,4307.05127,4261.666504,4269.871582,4276.538574,4263.974121,4289.487305,4261.025879,4450.384766,4493.974121,4379.102539,4550.128418,,,,,,,,,,,,,,,,,,,,,,,,,,,,,,,,,,,,,,,,,,,,,,,,,,,,,,,,,,,,,,,,,,,,,,
1720514568,18,0,4288.974121,4288.461426,4305,4315.256348,4273.077148,4270.384766,4273.333496,4266.025879,4293.589844,4262.05127,4458.077148,4490.384766,4378.717773,4544.615234,,,,,,,,,,,,,,,,,,,,,,,,,,,,,,,,,,,,,,,,,,,,,,,,,,,,,,,,,,,,,,,,,,,,,,
1720514568,19,0,4285,4288.205078,4298.974121,4315.256348,4275,4278.974121,4267.820313,4261.922852,4295.384766,4271.025879,4455.897461,4483.205078,4377.179688,4529.615234,,,,,,,,,,,,,,,,,,,,,,,,,,,,,,,,,,,,,,,,,,,,,,,,,,,,,,,,,,,,,,,,,,,,,,
1720514568,20,0,4275.641113,4286.153809,4296.282227,4309.102539,4264.487305,4271.153809,4261.666504,4257.563965,4272.563965,4271.922852,4444.743652,4481.538574,4379.615234,4515,,,,,,,,,,,,,,,,,,,,,,,,,,,,,,,,,,,,,,,,,,,,,,,,,,,,,,,,,,,,,,,,,,,,,,
1720514568,21,0,4279.615234,4291.666504,4297.820313,4310.769043,4264.615234,4259.615234,4258.461426,4255.769043,4258.461426,4264.743652,4444.230957,4486.153809,4382.692383,4511.666504,,,,,,,,,,,,,,,,,,,,,,,,,,,,,,,,,,,,,,,,,,,,,,,,,,,,,,,,,,,,,,,,,,,,,,
1720514568,22,0,4292.436035,4291.794922,4302.563965,4316.025879,4269.230957,4264.743652,4260.641113,4262.94873,4263.846191,4265.641113,4451.538574,4493.846191,4380.897461,4510,,,,,,,,,,,,,,,,,,,,,,,,,,,,,,,,,,,,,,,,,,,,,,,,,,,,,,,,,,,,,,,,,,,,,,
1720514568,23,0,4290.512695,4282.307617,4299.871582,4310,4263.717773,4267.820313,4264.871582,4267.436035,4268.333496,4269.871582,4452.307617,4492.307617,4375.256348,4495.641113,,,,,,,,,,,,,,,,,,,,,,,,,,,,,,,,,,,,,,,,,,,,,,,,,,,,,,,,,,,,,,,,,,,,,,
1720514568,24,0,4276.538574,4279.487305,4291.538574,4302.820313,4260,4266.153809,4266.922852,4266.025879,4264.743652,4264.230957,4448.589844,4482.179688,4373.846191,4477.179688,,,,,,,,,,,,,,,,,,,,,,,,,,,,,,,,,,,,,,,,,,,,,,,,,,,,,,,,,,,,,,,,,,,,,,
1720514568,25,0,4272.692383,4279.358887,4294.743652,4306.922852,4261.025879,4268.717773,4268.077148,4270.897461,4256.282227,4263.589844,4445.897461,4480.256348,4372.692383,4468.205078,,,,,,,,,,,,,,,,,,,,,,,,,,,,,,,,,,,,,,,,,,,,,,,,,,,,,,,,,,,,,,,,,,,,,,
1720514568,26,0,4277.436035,4281.025879,4299.615234,4312.307617,4264.487305,4269.102539,4266.666504,4271.794922,4250.256348,4273.717773,4443.205078,4483.589844,4370.384766,4462.563965,,,,,,,,,,,,,,,,,,,,,,,,,,,,,,,,,,,,,,,,,,,,,,,,,,,,,,,,,,,,,,,,,,,,,,
1720514568,27,0,4280.256348,4293.333496,4294.871582,4311.538574,4272.820313,4265.384766,4260.128418,4255.128418,4245.641113,4274.102539,4442.436035,4480,4375.384766,4453.717773,,,,,,,,,,,,,,,,,,,,,,,,,,,,,,,,,,,,,,,,,,,,,,,,,,,,,,,,,,,,,,,,,,,,,,
1720514568,28,0,4281.025879,4295.128418,4300.384766,4310.641113,4273.461426,4263.333496,4257.563965,4258.077148,4239.871582,4265.897461,4448.077148,4487.94873,4380.256348,4452.692383,1.78199,1.248442,1.236221,0.885338,0.25808,1.027461,0.907926,0.985204,0.446323,0.117333,0.882391,0.768692,0.75165,0.731454,0.192343,0.826331,0.624102,0.533413,0.504921,0.229484,0.118799,0.197538,0.105456,0.071104,0.062283,0.346245,0.444021,0.181249,0.319676,0.132319,1.147161,0.59142,0.594442,0.184471,0.117497,0.919841,0.802344,0.259726,0.18234,0.156918,2.784456,3.053905,0.808975,0.46926,0.306939,2.222009,1.934677,1.413539,0.503647,0.186481,7.080692,3.887264,3.10045,1.480311,0.491427,1.90289,1.36774,1.407586,1.089152,0.204867,2.295988,1.580993,1.27556,0.727932,0.261226,41.123211,8.59023,2.27447,1.440706,0.380963
1720514568,29,0,4280.512695,4282.692383,4311.410156,4313.333496,4266.410156,4262.820313,4261.410156,4271.666504,4236.153809,4265.256348,4450.897461,4500.256348,4376.666504,4452.05127,,,,,,,,,,,,,,,,,,,,,,,,,,,,,,,,,,,,,,,,,,,,,,,,,,,,,,,,,,,,,,,,,,,,,,
1720514568,30,0,4281.282227,4279.358887,4307.179688,4312.436035,4265.512695,4262.179688,4257.436035,4259.102539,4234.230957,4268.589844,4446.922852,4491.025879,4372.820313,4435.897461,,,,,,,,,,,,,,,,,,,,,,,,,,,,,,,,,,,,,,,,,,,,,,,,,,,,,,,,,,,,,,,,,,,,,,
1720514568,31,0,4278.846191,4286.025879,4304.743652,4310.769043,4268.717773,4262.563965,4250.128418,4252.436035,4232.05127,4262.436035,4446.282227,4483.333496,4367.05127,4418.589844,,,,,,,,,,,,,,,,,,,,,,,,,,,,,,,,,,,,,,,,,,,,,,,,,,,,,,,,,,,,,,,,,,,,,,
1720514568,32,0,4271.922852,4286.794922,4308.974121,4311.025879,4267.436035,4265.384766,4255.512695,4256.538574,4228.589844,4258.205078,4443.717773,4484.743652,4356.666504,4407.05127,,,,,,,,,,,,,,,,,,,,,,,,,,,,,,,,,,,,,,,,,,,,,,,,,,,,,,,,,,,,,,,,,,,,,,
1720514568,33,0,4273.589844,4284.871582,4306.922852,4310.384766,4265.641113,4269.358887,4265.897461,4260.769043,4222.05127,4262.563965,4439.871582,4487.307617,4356.025879,4397.179688,,,,,,,,,,,,,,,,,,,,,,,,,,,,,,,,,,,,,,,,,,,,,,,,,,,,,,,,,,,,,,,,,,,,,,
1720514568,34,0,4279.743652,4287.692383,4306.794922,4310.897461,4268.077148,4269.615234,4267.563965,4266.538574,4216.153809,4264.230957,4444.871582,4491.025879,4365.897461,4393.205078,,,,,,,,,,,,,,,,,,,,,,,,,,,,,,,,,,,,,,,,,,,,,,,,,,,,,,,,,,,,,,,,,,,,,,
1720514568,35,0,4279.230957,4290.128418,4310,4313.717773,4270.256348,4266.794922,4266.410156,4263.589844,4218.461426,4264.102539,4449.743652,4489.358887,4365.641113,4389.871582,,,,,,,,,,,,,,,,,,,,,,,,,,,,,,,,,,,,,,,,,,,,,,,,,,,,,,,,,,,,,,,,,,,,,,
1720514568,36,0,4276.410156,4288.205078,4302.179688,4312.05127,4268.333496,4267.820313,4260.512695,4260.128418,4218.974121,4264.743652,4441.538574,4483.461426,4358.589844,4377.692383,,,,,,,,,,,,,,,,,,,,,,,,,,,,,,,,,,,,,,,,,,,,,,,,,,,,,,,,,,,,,,,,,,,,,,
1720514568,37,0,4279.615234,4290.641113,4296.922852,4313.717773,4262.563965,4266.025879,4248.717773,4261.153809,4213.974121,4266.025879,4434.615234,4477.692383,4359.102539,4361.410156,,,,,,,,,,,,,,,,,,,,,,,,,,,,,,,,,,,,,,,,,,,,,,,,,,,,,,,,,,,,,,,,,,,,,,
1720514568,38,0,4278.589844,4297.692383,4304.358887,4325,4260.769043,4261.025879,4245.769043,4255.256348,4209.230957,4263.846191,4440.384766,4475,4364.615234,4351.410156,,,,,,,,,,,,,,,,,,,,,,,,,,,,,,,,,,,,,,,,,,,,,,,,,,,,,,,,,,,,,,,,,,,,,,
1720514568,39,0,4272.94873,4297.94873,4305.128418,4323.846191,4257.563965,4262.179688,4250.897461,4253.846191,4208.846191,4265.256348,4449.871582,4482.307617,4367.692383,4347.05127,,,,,,,,,,,,,,,,,,,,,,,,,,,,,,,,,,,,,,,,,,,,,,,,,,,,,,,,,,,,,,,,,,,,,,
1720514568,40,0,4274.487305,4292.563965,4302.05127,4310.384766,4248.717773,4263.205078,4248.717773,4268.717773,4210.897461,4272.692383,4448.589844,4493.589844,4364.743652,4343.205078,,,,,,,,,,,,,,,,,,,,,,,,,,,,,,,,,,,,,,,,,,,,,,,,,,,,,,,,,,,,,,,,,,,,,,
1720514568,41,0,4275.769043,4293.717773,4301.794922,4309.871582,4244.615234,4260.897461,4247.563965,4262.563965,4207.692383,4272.563965,4440.641113,4487.179688,4359.871582,4333.461426,,,,,,,,,,,,,,,,,,,,,,,,,,,,,,,,,,,,,,,,,,,,,,,,,,,,,,,,,,,,,,,,,,,,,,
1720514568,42,0,4267.692383,4296.794922,4297.692383,4315.256348,4249.230957,4263.461426,4256.153809,4255,4210.512695,4268.589844,4448.077148,4479.615234,4360.897461,4330.641113,,,,,,,,,,,,,,,,,,,,,,,,,,,,,,,,,,,,,,,,,,,,,,,,,,,,,,,,,,,,,,,,,,,,,,
1720514568,43,0,4261.666504,4288.077148,4295.512695,4309.102539,4246.922852,4266.153809,4261.410156,4273.717773,4216.153809,4272.692383,4456.025879,4486.282227,4366.282227,4334.358887,,,,,,,,,,,,,,,,,,,,,,,,,,,,,,,,,,,,,,,,,,,,,,,,,,,,,,,,,,,,,,,,,,,,,,
1720514568,44,0,4264.487305,4276.153809,4299.358887,4302.820313,4228.461426,4262.307617,4261.282227,4276.153809,4208.333496,4278.461426,4451.410156,4488.846191,4365.897461,4327.692383,1.822177,1.582869,0.943242,0.943691,0.249723,1.213466,1.14267,0.921596,0.501873,0.125803,0.913405,0.851772,0.649643,0.680017,0.200029,0.858421,0.785434,0.639292,0.564524,0.203083,0.122813,0.212032,0.102044,0.060208,0.053362,0.293602,0.376086,0.153982,0.277916,0.133813,1.155264,0.419757,0.444221,0.178084,0.116319,0.857216,0.723659,0.245967,0.149221,0.149502,2.246037,2.423288,0.630797,0.473036,0.289095,2.385833,2.102584,1.115647,0.557086,0.187971,9.798181,5.305992,3.48176,1.607209,0.475714,1.899884,1.334632,1.223763,1.06903,0.220714,2.778867,1.849697,1.114491,0.708038,0.269399,40.053368,8.670192,2.23509,1.507301,0.428669
1720514568,45,0,4265.128418,4273.846191,4304.358887,4307.436035,4215.384766,4260.512695,4263.077148,4267.307617,4199.743652,4278.333496,4449.871582,4493.461426,4364.358887,4319.487305,,,,,,,,,,,,,,,,,,,,,,,,,,,,,,,,,,,,,,,,,,,,,,,,,,,,,,,,,,,,,,,,,,,,,,
1720514568,46,0,4267.563965,4276.794922,4309.743652,4312.692383,4223.846191,4265.128418,4263.717773,4270.128418,4195.512695,4276.025879,4452.179688,4498.077148,4363.846191,4317.436035,,,,,,,,,,,,,,,,,,,,,,,,,,,,,,,,,,,,,,,,,,,,,,,,,,,,,,,,,,,,,,,,,,,,,,
1720514568,47,0,4274.615234,4278.974121,4312.05127,4311.922852,4234.487305,4268.205078,4262.436035,4272.820313,4187.179688,4273.717773,4452.179688,4493.717773,4359.615234,4314.358887,,,,,,,,,,,,,,,,,,,,,,,,,,,,,,,,,,,,,,,,,,,,,,,,,,,,,,,,,,,,,,,,,,,,,,
1720514568,48,0,4277.563965,4277.563965,4308.333496,4307.692383,4228.589844,4264.487305,4263.589844,4272.94873,4181.922852,4273.461426,4456.410156,4495,4359.230957,4308.205078,,,,,,,,,,,,,,,,,,,,,,,,,,,,,,,,,,,,,,,,,,,,,,,,,,,,,,,,,,,,,,,,,,,,,,
1720514568,49,0,4279.615234,4273.846191,4303.717773,4306.666504,4222.563965,4260.384766,4263.717773,4272.692383,4184.743652,4278.589844,4459.487305,4501.410156,4364.358887,4306.153809,,,,,,,,,,,,,,,,,,,,,,,,,,,,,,,,,,,,,,,,,,,,,,,,,,,,,,,,,,,,,,,,,,,,,,
1720514568,50,0,4276.410156,4276.666504,4300.256348,4308.717773,4229.230957,4263.077148,4262.94873,4272.692383,4190.897461,4282.05127,4464.102539,4503.205078,4369.743652,4310.128418,,,,,,,,,,,,,,,,,,,,,,,,,,,,,,,,,,,,,,,,,,,,,,,,,,,,,,,,,,,,,,,,,,,,,,
1720514568,51,0,4268.077148,4282.179688,4303.205078,4310.128418,4233.461426,4268.077148,4266.538574,4275.128418,4197.05127,4287.94873,4474.102539,4504.487305,4373.077148,4305.512695,,,,,,,,,,,,,,,,,,,,,,,,,,,,,,,,,,,,,,,,,,,,,,,,,,,,,,,,,,,,,,,,,,,,,,
1720514568,52,0,4268.077148,4278.333496,4310.512695,4311.794922,4226.922852,4266.410156,4267.820313,4273.717773,4196.410156,4296.922852,4469.743652,4503.846191,4371.282227,4293.846191,,,,,,,,,,,,,,,,,,,,,,,,,,,,,,,,,,,,,,,,,,,,,,,,,,,,,,,,,,,,,,,,,,,,,,
1720514568,53,0,4268.974121,4278.974121,4307.820313,4313.333496,4230.384766,4264.230957,4265,4270.769043,4195.512695,4293.974121,4458.589844,4500,4365.512695,4290.897461,,,,,,,,,,,,,,,,,,,,,,,,,,,,,,,,,,,,,,,,,,,,,,,,,,,,,,,,,,,,,,,,,,,,,,
1720514568,54,0,4262.05127,4290.769043,4298.846191,4310,4249.871582,4266.794922,4263.974121,4275.256348,4200.641113,4281.794922,4456.538574,4499.615234,4358.077148,4284.871582,,,,,,,,,,,,,,,,,,,,,,,,,,,,,,,,,,,,,,,,,,,,,,,,,,,,,,,,,,,,,,,,,,,,,,
1720514568,55,0,4259.358887,4296.794922,4294.358887,4307.820313,4256.410156,4266.025879,4262.05127,4272.179688,4200,4277.94873,4463.461426,4493.461426,4358.717773,4268.846191,,,,,,,,,,,,,,,,,,,,,,,,,,,,,,,,,,,,,,,,,,,,,,,,,,,,,,,,,,,,,,,,,,,,,,
1720514568,56,0,4256.282227,4294.871582,4295.512695,4311.666504,4248.846191,4260.897461,4257.692383,4268.077148,4197.05127,4280.512695,4471.794922,4484.743652,4358.974121,4262.05127,,,,,,,,,,,,,,,,,,,,,,,,,,,,,,,,,,,,,,,,,,,,,,,,,,,,,,,,,,,,,,,,,,,,,,
1720514568,57,0,4244.102539,4292.563965,4295.256348,4311.666504,4252.307617,4260.512695,4259.358887,4272.563965,4196.666504,4279.871582,4459.871582,4485.128418,4348.333496,4260.256348,,,,,,,,,,,,,,,,,,,,,,,,,,,,,,,,,,,,,,,,,,,,,,,,,,,,,,,,,,,,,,,,,,,,,,
1720514568,58,0,4240.512695,4291.025879,4293.846191,4309.358887,4262.820313,4263.846191,4262.820313,4268.077148,4190.256348,4278.333496,4442.692383,4486.794922,4345.641113,4254.230957,,,,,,,,,,,,,,,,,,,,,,,,,,,,,,,,,,,,,,,,,,,,,,,,,,,,,,,,,,,,,,,,,,,,,,
1720514568,59,0,4245.769043,4291.666504,4292.820313,4315.641113,4262.307617,4264.743652,4254.743652,4263.333496,4186.794922,4279.743652,4448.974121,4486.538574,4354.743652,4254.615234,,,,,,,,,,,,,,,,,,,,,,,,,,,,,,,,,,,,,,,,,,,,,,,,,,,,,,,,,,,,,,,,,,,,,,
1720514568,60,0,4247.692383,4294.871582,4293.846191,4322.05127,4258.205078,4266.282227,4246.538574,4261.153809,4189.871582,4281.153809,4455.512695,4485.384766,4357.05127,4257.179688,1.815502,1.80305,0.766238,1.009614,0.249529,1.435324,1.322197,0.880685,0.572964,0.135591,0.916737,0.934224,0.668482,0.658503,0.200301,0.88117,0.928921,0.750849,0.635431,0.182146,0.132717,0.243414,0.109614,0.060229,0.050585,0.245077,0.308493,0.139476,0.234709,0.129732,1.205634,0.308963,0.320557,0.182008,0.111598,0.785115,0.657911,0.275519,0.124689,0.146244,1.886797,1.815711,0.53953,0.488234,0.264727,2.665891,2.364711,0.946694,0.608652,0.181879,12.783839,6.647864,3.740508,1.729679,0.454675,1.912073,1.275194,1.115612,1.051934,0.223623,3.461949,2.082627,1.078154,0.712482,0.267239,41.015499,8.340101,2.333998,1.538439,0.443742
1720514568,61,0,4255.512695,4295.128418,4299.615234,4317.179688,4260.384766,4269.487305,4255.897461,4262.05127,4191.410156,4279.615234,4448.846191,4488.205078,4356.153809,4258.717773,,,,,,,,,,,,,,,,,,,,,,,,,,,,,,,,,,,,,,,,,,,,,,,,,,,,,,,,,,,,,,,,,,,,,,
1720514568,62,0,4265.128418,4295.256348,4300.128418,4319.102539,4262.05127,4266.282227,4262.563965,4267.563965,4190.384766,4278.461426,4455.128418,4487.820313,4361.922852,4256.922852,,,,,,,,,,,,,,,,,,,,,,,,,,,,,,,,,,,,,,,,,,,,,,,,,,,,,,,,,,,,,,,,,,,,,,
1720514568,63,0,4264.615234,4297.563965,4293.846191,4325.897461,4262.563965,4264.743652,4254.230957,4261.025879,4186.153809,4280.256348,4463.077148,4479.871582,4358.461426,4247.820313,,,,,,,,,,,,,,,,,,,,,,,,,,,,,,,,,,,,,,,,,,,,,,,,,,,,,,,,,,,,,,,,,,,,,,
1720514568,64,0,4253.846191,4291.922852,4284.487305,4311.666504,4261.410156,4266.153809,4245.897461,4256.282227,4176.153809,4273.077148,4449.358887,4473.589844,4342.563965,4240.897461,,,,,,,,,,,,,,,,,,,,,,,,,,,,,,,,,,,,,,,,,,,,,,,,,,,,,,,,,,,,,,,,,,,,,,
1720514568,65,0,4228.077148,4278.717773,4269.615234,4296.666504,4253.333496,4255.769043,4237.820313,4253.205078,4158.974121,4252.563965,4425.384766,4460.256348,4326.153809,4225.256348,,,,,,,,,,,,,,,,,,,,,,,,,,,,,,,,,,,,,,,,,,,,,,,,,,,,,,,,,,,,,,,,,,,,,,
1720514569,66,0,4208.461426,4272.436035,4263.205078,4300.128418,4246.282227,4243.461426,4229.230957,4242.94873,4152.820313,4244.358887,4412.179688,4446.410156,4317.436035,4203.974121,,,,,,,,,,,,,,,,,,,,,,,,,,,,,,,,,,,,,,,,,,,,,,,,,,,,,,,,,,,,,,,,,,,,,,
1720514569,67,0,4230.769043,4285.769043,4283.205078,4311.282227,4253.205078,4251.282227,4237.179688,4250.897461,4172.820313,4265.384766,4433.461426,4462.179688,4335.128418,4210.512695,,,,,,,,,,,,,,,,,,,,,,,,,,,,,,,,,,,,,,,,,,,,,,,,,,,,,,,,,,,,,,,,,,,,,,
1720514569,68,0,4265.384766,4307.436035,4308.077148,4325.512695,4265.769043,4270.256348,4258.589844,4274.743652,4193.461426,4289.102539,4467.692383,4497.563965,4366.666504,4235.769043,,,,,,,,,,,,,,,,,,,,,,,,,,,,,,,,,,,,,,,,,,,,,,,,,,,,,,,,,,,,,,,,,,,,,,
1720514569,69,0,4268.589844,4316.410156,4312.820313,4335.256348,4272.563965,4279.102539,4268.846191,4275.256348,4198.333496,4297.05127,4477.563965,4509.487305,4382.692383,4242.307617,,,,,,,,,,,,,,,,,,,,,,,,,,,,,,,,,,,,,,,,,,,,,,,,,,,,,,,,,,,,,,,,,,,,,,
1720514569,70,0,4259.743652,4313.333496,4312.94873,4330.256348,4275.769043,4281.025879,4267.692383,4270.512695,4205.128418,4302.05127,4479.743652,4503.974121,4383.461426,4236.794922,,,,,,,,,,,,,,,,,,,,,,,,,,,,,,,,,,,,,,,,,,,,,,,,,,,,,,,,,,,,,,,,,,,,,,
1720514569,71,0,4257.05127,4309.102539,4311.282227,4322.692383,4271.538574,4279.358887,4267.436035,4286.025879,4214.615234,4308.205078,4491.794922,4508.461426,4379.615234,4238.205078,,,,,,,,,,,,,,,,,,,,,,,,,,,,,,,,,,,,,,,,,,,,,,,,,,,,,,,,,,,,,,,,,,,,,,
1720514569,72,0,4248.077148,4306.922852,4302.307617,4326.922852,4265.128418,4279.487305,4266.538574,4281.538574,4217.820313,4306.794922,4491.025879,4503.846191,4377.820313,4230.641113,,,,,,,,,,,,,,,,,,,,,,,,,,,,,,,,,,,,,,,,,,,,,,,,,,,,,,,,,,,,,,,,,,,,,,
1720514569,73,0,4241.666504,4305.641113,4302.563965,4328.333496,4268.974121,4286.410156,4265.256348,4271.410156,4214.615234,4297.692383,4476.153809,4495.256348,4374.871582,4218.461426,,,,,,,,,,,,,,,,,,,,,,,,,,,,,,,,,,,,,,,,,,,,,,,,,,,,,,,,,,,,,,,,,,,,,,
1720514569,74,0,4248.589844,4307.820313,4305.641113,4325.641113,4277.563965,4286.410156,4266.025879,4276.922852,4202.436035,4293.077148,4472.820313,4497.307617,4368.461426,4217.307617,,,,,,,,,,,,,,,,,,,,,,,,,,,,,,,,,,,,,,,,,,,,,,,,,,,,,,,,,,,,,,,,,,,,,,
1720514569,75,0,4250.384766,4307.94873,4300.384766,4325,4277.179688,4279.102539,4265.897461,4272.692383,4194.743652,4299.487305,4475.769043,4494.871582,4365.769043,4214.358887,,,,,,,,,,,,,,,,,,,,,,,,,,,,,,,,,,,,,,,,,,,,,,,,,,,,,,,,,,,,,,,,,,,,,,
1720514569,76,0,4247.820313,4304.230957,4301.153809,4324.615234,4269.743652,4275.641113,4262.820313,4274.487305,4207.692383,4303.205078,4472.307617,4492.820313,4375.256348,4211.922852,1.793622,1.850512,0.720577,1.050563,0.251985,1.642427,1.392534,0.849212,0.630847,0.143392,0.893553,0.978702,0.802149,0.655118,0.193168,0.901345,1.024499,0.823452,0.691601,0.169061,0.178581,0.281072,0.120373,0.071459,0.056339,0.206365,0.246053,0.139717,0.194685,0.119112,1.263522,0.262727,0.269324,0.189567,0.104421,0.71238,0.639392,0.335492,0.10999,0.150024,1.813966,1.376558,0.538925,0.50649,0.244391,2.95482,2.652369,0.909302,0.63918,0.170944,15.122827,7.517046,3.751776,1.771243,0.431193,1.968502,1.216531,1.087888,1.01588,0.213002,4.15092,2.216119,1.148666,0.727217,0.252408,43.805584,7.777419,2.541866,1.501432,0.422249
1720514569,77,0,4252.692383,4307.179688,4306.410156,4327.563965,4266.794922,4278.077148,4263.589844,4282.436035,4215.641113,4301.410156,4477.307617,4497.05127,4383.461426,4213.846191,,,,,,,,,,,,,,,,,,,,,,,,,,,,,,,,,,,,,,,,,,,,,,,,,,,,,,,,,,,,,,,,,,,,,,
1720514569,78,0,4257.94873,4309.871582,4304.358887,4326.153809,4269.102539,4277.563965,4266.153809,4281.282227,4211.538574,4303.589844,4489.102539,4497.563965,4377.692383,4210.769043,,,,,,,,,,,,,,,,,,,,,,,,,,,,,,,,,,,,,,,,,,,,,,,,,,,,,,,,,,,,,,,,,,,,,,
1720514569,79,0,4249.487305,4306.666504,4305.384766,4325.384766,4271.666504,4273.077148,4263.205078,4278.846191,4208.974121,4304.358887,4486.025879,4498.974121,4370.256348,4207.563965,,,,,,,,,,,,,,,,,,,,,,,,,,,,,,,,,,,,,,,,,,,,,,,,,,,,,,,,,,,,,,,,,,,,,,
1720514569,80,0,4246.025879,4310.897461,4312.692383,4333.589844,4274.487305,4273.461426,4259.102539,4277.563965,4205.512695,4301.025879,4473.717773,4508.205078,4370.641113,4212.436035,,,,,,,,,,,,,,,,,,,,,,,,,,,,,,,,,,,,,,,,,,,,,,,,,,,,,,,,,,,,,,,,,,,,,,
1720514569,81,0,4259.871582,4318.589844,4316.282227,4338.333496,4279.743652,4277.05127,4263.205078,4276.410156,4203.846191,4301.666504,4479.230957,4513.461426,4372.563965,4214.743652,,,,,,,,,,,,,,,,,,,,,,,,,,,,,,,,,,,,,,,,,,,,,,,,,,,,,,,,,,,,,,,,,,,,,,
1720514569,82,0,4260.128418,4311.410156,4309.743652,4329.743652,4279.615234,4276.410156,4266.538574,4282.94873,4199.230957,4299.358887,4482.307617,4507.94873,4369.615234,4208.846191,,,,,,,,,,,,,,,,,,,,,,,,,,,,,,,,,,,,,,,,,,,,,,,,,,,,,,,,,,,,,,,,,,,,,,
1720514569,83,0,4244.743652,4302.307617,4297.179688,4322.94873,4268.974121,4272.563965,4262.436035,4279.358887,4187.179688,4291.025879,4462.436035,4492.692383,4361.922852,4204.230957,,,,,,,,,,,,,,,,,,,,,,,,,,,,,,,,,,,,,,,,,,,,,,,,,,,,,,,,,,,,,,,,,,,,,,
1720514569,84,0,4242.820313,4305.897461,4296.666504,4328.461426,4264.358887,4275.769043,4262.436035,4271.282227,4190.897461,4291.538574,4456.794922,4483.717773,4357.563965,4212.436035,,,,,,,,,,,,,,,,,,,,,,,,,,,,,,,,,,,,,,,,,,,,,,,,,,,,,,,,,,,,,,,,,,,,,,
1720514569,85,0,4249.102539,4306.410156,4305.384766,4328.461426,4271.282227,4279.230957,4268.077148,4282.94873,4206.153809,4298.205078,4476.025879,4492.563965,4360,4236.025879,,,,,,,,,,,,,,,,,,,,,,,,,,,,,,,,,,,,,,,,,,,,,,,,,,,,,,,,,,,,,,,,,,,,,,
1720514569,86,0,4244.230957,4303.974121,4306.922852,4324.230957,4277.307617,4277.436035,4267.307617,4281.922852,4197.436035,4296.666504,4481.025879,4492.692383,4363.717773,4259.871582,,,,,,,,,,,,,,,,,,,,,,,,,,,,,,,,,,,,,,,,,,,,,,,,,,,,,,,,,,,,,,,,,,,,,,
1720514569,87,0,4240.641113,4309.487305,4306.025879,4326.538574,4277.05127,4278.846191,4263.974121,4273.461426,4181.666504,4288.974121,4471.794922,4487.179688,4361.410156,4282.179688,,,,,,,,,,,,,,,,,,,,,,,,,,,,,,,,,,,,,,,,,,,,,,,,,,,,,,,,,,,,,,,,,,,,,,
1720514569,88,0,4243.717773,4309.487305,4305.512695,4326.538574,4275.256348,4278.333496,4265.384766,4280.512695,4186.282227,4290.384766,4472.94873,4492.692383,4356.666504,4310,,,,,,,,,,,,,,,,,,,,,,,,,,,,,,,,,,,,,,,,,,,,,,,,,,,,,,,,,,,,,,,,,,,,,,
1720514569,89,0,4240.384766,4298.461426,4300.897461,4323.846191,4276.282227,4273.077148,4263.717773,4277.436035,4191.153809,4297.563965,4473.846191,4490.512695,4357.307617,4332.179688,,,,,,,,,,,,,,,,,,,,,,,,,,,,,,,,,,,,,,,,,,,,,,,,,,,,,,,,,,,,,,,,,,,,,,
1720514569,90,0,4238.333496,4293.589844,4298.846191,4327.436035,4274.230957,4273.717773,4260.256348,4270.128418,4193.974121,4288.974121,4463.589844,4481.538574,4355.897461,4345.769043,,,,,,,,,,,,,,,,,,,,,,,,,,,,,,,,,,,,,,,,,,,,,,,,,,,,,,,,,,,,,,,,,,,,,,
1720514569,91,0,4242.307617,4300.128418,4294.871582,4327.563965,4268.589844,4278.589844,4259.230957,4274.102539,4198.333496,4279.615234,4456.794922,4480.128418,4353.077148,4357.94873,,,,,,,,,,,,,,,,,,,,,,,,,,,,,,,,,,,,,,,,,,,,,,,,,,,,,,,,,,,,,,,,,,,,,,
1720514569,92,0,4244.230957,4302.05127,4290.641113,4318.077148,4269.615234,4278.717773,4256.666504,4274.743652,4190.128418,4285.641113,4460.641113,4481.410156,4356.666504,4377.563965,1.750621,1.722405,0.759103,1.047744,0.251215,1.781371,1.336678,0.792248,0.650142,0.146446,0.868206,0.953215,0.987898,0.650181,0.179943,0.90431,1.04985,0.817857,0.704331,0.164195,0.33612,0.310738,0.125685,0.093174,0.071863,0.179991,0.190277,0.154011,0.159432,0.104516,1.284721,0.259593,0.307703,0.195645,0.096669,0.653558,0.665966,0.398353,0.103838,0.161546,2.078695,1.145097,0.598367,0.515653,0.233589,3.112133,2.828926,0.949844,0.630854,0.158446,16.035702,7.579189,3.454115,1.673625,0.406773,2.069815,1.151866,1.097395,0.944467,0.193194,4.624658,2.191682,1.274714,0.729305,0.225094,45.117016,7.114272,2.745011,1.379862,0.371048
1720514569,93,0,4245.256348,4299.615234,4300.897461,4318.333496,4275,4276.538574,4256.153809,4270.897461,4180.128418,4290.641113,4460.512695,4485,4357.94873,4406.538574,,,,,,,,,,,,,,,,,,,,,,,,,,,,,,,,,,,,,,,,,,,,,,,,,,,,,,,,,,,,,,,,,,,,,,
1720514569,94,0,4251.025879,4305.641113,4311.153809,4327.563965,4274.358887,4276.922852,4257.820313,4271.922852,4182.307617,4279.358887,4455.769043,4495.641113,4358.717773,4434.230957,,,,,,,,,,,,,,,,,,,,,,,,,,,,,,,,,,,,,,,,,,,,,,,,,,,,,,,,,,,,,,,,,,,,,,
1720514569,95,0,4253.333496,4308.717773,4311.025879,4329.102539,4272.563965,4276.666504,4259.871582,4270,4178.461426,4258.717773,4467.05127,4499.358887,4365.769043,4449.615234,,,,,,,,,,,,,,,,,,,,,,,,,,,,,,,,,,,,,,,,,,,,,,,,,,,,,,,,,,,,,,,,,,,,,,
1720514569,96,0,4249.102539,4298.077148,4311.538574,4325.384766,4275,4270.897461,4261.410156,4276.025879,4173.974121,4245.256348,4478.974121,4496.794922,4366.025879,4456.794922,,,,,,,,,,,,,,,,,,,,,,,,,,,,,,,,,,,,,,,,,,,,,,,,,,,,,,,,,,,,,,,,,,,,,,
1720514569,97,0,4246.153809,4290.256348,4307.179688,4322.820313,4272.307617,4266.410156,4260.641113,4280.897461,4181.410156,4242.563965,4462.05127,4488.846191,4354.230957,4457.436035,,,,,,,,,,,,,,,,,,,,,,,,,,,,,,,,,,,,,,,,,,,,,,,,,,,,,,,,,,,,,,,,,,,,,,
1720514569,98,0,4247.563965,4296.025879,4296.538574,4322.307617,4271.538574,4272.307617,4259.230957,4268.846191,4184.871582,4242.563965,4446.282227,4478.974121,4352.05127,4459.743652,,,,,,,,,,,,,,,,,,,,,,,,,,,,,,,,,,,,,,,,,,,,,,,,,,,,,,,,,,,,,,,,,,,,,,
1720514569,99,0,4248.333496,4299.487305,4298.717773,4322.692383,4276.922852,4281.025879,4262.563965,4272.307617,4183.461426,4248.589844,4461.538574,4487.436035,4360.256348,4480.641113,,,,,,,,,,,,,,,,,,,,,,,,,,,,,,,,,,,,,,,,,,,,,,,,,,,,,,,,,,,,,,,,,,,,,,
1720514569,100,0,4249.230957,4295,4311.153809,4323.077148,4271.538574,4280.128418,4264.871582,4281.153809,4188.333496,4263.717773,4477.692383,4498.974121,4363.589844,4499.871582,,,,,,,,,,,,,,,,,,,,,,,,,,,,,,,,,,,,,,,,,,,,,,,,,,,,,,,,,,,,,,,,,,,,,,
1720514569,101,0,4256.153809,4293.846191,4317.307617,4329.230957,4265,4276.794922,4261.025879,4277.05127,4190.897461,4263.717773,4473.333496,4497.307617,4362.05127,4501.410156,,,,,,,,,,,,,,,,,,,,,,,,,,,,,,,,,,,,,,,,,,,,,,,,,,,,,,,,,,,,,,,,,,,,,,
1720514569,102,0,4262.179688,4299.358887,4320.384766,4340.641113,4272.692383,4277.820313,4262.94873,4278.461426,4184.871582,4253.077148,4467.563965,4496.922852,4361.410156,4501.410156,,,,,,,,,,,,,,,,,,,,,,,,,,,,,,,,,,,,,,,,,,,,,,,,,,,,,,,,,,,,,,,,,,,,,,
1720514569,103,0,4268.717773,4306.025879,4322.692383,4340.769043,4279.102539,4279.358887,4272.179688,4277.94873,4185.256348,4258.846191,4476.153809,4499.487305,4363.846191,4503.589844,,,,,,,,,,,,,,,,,,,,,,,,,,,,,,,,,,,,,,,,,,,,,,,,,,,,,,,,,,,,,,,,,,,,,,
1720514569,104,0,4273.589844,4303.717773,4322.436035,4329.743652,4269.358887,4280,4276.794922,4277.563965,4190.769043,4263.333496,4490,4500.769043,4366.538574,4505.512695,,,,,,,,,,,,,,,,,,,,,,,,,,,,,,,,,,,,,,,,,,,,,,,,,,,,,,,,,,,,,,,,,,,,,,
1720514569,105,0,4272.05127,4297.307617,4321.666504,4330,4259.871582,4279.358887,4275.384766,4282.179688,4185.897461,4257.436035,4492.436035,4506.794922,4367.179688,4508.205078,,,,,,,,,,,,,,,,,,,,,,,,,,,,,,,,,,,,,,,,,,,,,,,,,,,,,,,,,,,,,,,,,,,,,,
1720514569,106,0,4272.692383,4298.717773,4320.641113,4337.436035,4262.436035,4278.461426,4275.256348,4279.230957,4181.410156,4259.743652,4490.512695,4510,4367.692383,4504.487305,,,,,,,,,,,,,,,,,,,,,,,,,,,,,,,,,,,,,,,,,,,,,,,,,,,,,,,,,,,,,,,,,,,,,,
1720514569,107,0,4280.897461,4303.461426,4323.205078,4340.512695,4266.153809,4277.820313,4278.205078,4279.230957,4187.692383,4270.256348,4497.307617,4509.615234,4374.487305,4498.333496,,,,,,,,,,,,,,,,,,,,,,,,,,,,,,,,,,,,,,,,,,,,,,,,,,,,,,,,,,,,,,,,,,,,,,
1720514569,108,0,4285.384766,4307.436035,4329.487305,4346.153809,4264.615234,4276.025879,4278.205078,4287.820313,4190.641113,4275.641113,4502.692383,4513.205078,4383.333496,4499.615234,1.651878,1.484665,0.843409,1.01998,0.245268,1.827193,1.184187,0.694235,0.626339,0.144289,0.867329,0.866168,1.16581,0.633191,0.162849,0.874247,1.005564,0.73874,0.662621,0.165445,0.668843,0.326009,0.124486,0.126719,0.096095,0.173249,0.156778,0.183949,0.131932,0.090944,1.265753,0.288397,0.420384,0.201342,0.09059,0.651998,0.715659,0.445774,0.105455,0.178851,2.588547,1.071262,0.703784,0.510613,0.231343,3.187362,2.771029,1.0251,0.58432,0.147489,15.166018,6.760678,2.934031,1.450066,0.38325,2.203951,1.072159,1.131756,0.846507,0.171916,4.774689,1.993651,1.435543,0.709759,0.190278,45.433109,6.314811,2.845205,1.18824,0.305853
1720514569,109,0,4280.128418,4308.077148,4327.820313,4349.615234,4263.205078,4276.538574,4277.05127,4288.205078,4188.846191,4277.563965,4495,4511.410156,4382.563965,4498.077148,,,,,,,,,,,,,,,,,,,,,,,,,,,,,,,,,,,,,,,,,,,,,,,,,,,,,,,,,,,,,,,,,,,,,,
1720514569,110,0,4276.666504,4307.692383,4323.846191,4342.179688,4268.461426,4278.846191,4275.769043,4284.230957,4190.128418,4279.358887,4488.333496,4503.717773,4374.743652,4485,,,,,,,,,,,,,,,,,,,,,,,,,,,,,,,,,,,,,,,,,,,,,,,,,,,,,,,,,,,,,,,,,,,,,,
1720514569,111,0,4279.743652,4304.358887,4325.641113,4335.256348,4272.94873,4278.077148,4272.94873,4283.589844,4189.487305,4276.922852,4493.461426,4498.974121,4372.179688,4470,,,,,,,,,,,,,,,,,,,,,,,,,,,,,,,,,,,,,,,,,,,,,,,,,,,,,,,,,,,,,,,,,,,,,,
1720514569,112,0,4283.205078,4300.641113,4327.692383,4332.307617,4268.077148,4276.153809,4272.94873,4281.794922,4186.666504,4276.153809,4494.487305,4501.410156,4373.589844,4460.641113,,,,,,,,,,,,,,,,,,,,,,,,,,,,,,,,,,,,,,,,,,,,,,,,,,,,,,,,,,,,,,,,,,,,,,
1720514569,113,0,4279.487305,4302.692383,4324.358887,4335.512695,4264.230957,4277.692383,4277.436035,4288.846191,4192.692383,4273.333496,4483.205078,4508.717773,4370.512695,4450.512695,,,,,,,,,,,,,,,,,,,,,,,,,,,,,,,,,,,,,,,,,,,,,,,,,,,,,,,,,,,,,,,,,,,,,,
1720514569,114,0,4281.794922,4311.153809,4323.974121,4348.461426,4272.179688,4281.025879,4279.743652,4283.846191,4195.641113,4268.589844,4476.282227,4509.102539,4367.820313,4435.769043,,,,,,,,,,,,,,,,,,,,,,,,,,,,,,,,,,,,,,,,,,,,,,,,,,,,,,,,,,,,,,,,,,,,,,
1720514569,115,0,4291.794922,4314.871582,4329.230957,4355.128418,4282.692383,4282.179688,4277.436035,4274.487305,4189.102539,4270.128418,4480.256348,4508.974121,4370.384766,4426.282227,,,,,,,,,,,,,,,,,,,,,,,,,,,,,,,,,,,,,,,,,,,,,,,,,,,,,,,,,,,,,,,,,,,,,,
1720514569,116,0,4287.05127,4302.436035,4324.743652,4341.922852,4277.94873,4280.256348,4277.820313,4283.846191,4185.897461,4270,4479.743652,4510,4370.384766,4418.461426,,,,,,,,,,,,,,,,,,,,,,,,,,,,,,,,,,,,,,,,,,,,,,,,,,,,,,,,,,,,,,,,,,,,,,
1720514569,117,0,4277.563965,4293.333496,4310.512695,4334.487305,4267.436035,4277.436035,4278.717773,4280.641113,4185.128418,4266.794922,4473.589844,4500.641113,4365.897461,4397.820313,,,,,,,,,,,,,,,,,,,,,,,,,,,,,,,,,,,,,,,,,,,,,,,,,,,,,,,,,,,,,,,,,,,,,,
1720514569,118,0,4276.666504,4301.153809,4307.179688,4342.436035,4267.692383,4277.307617,4277.307617,4274.230957,4186.410156,4271.153809,4472.563965,4495.512695,4360.897461,4376.794922,,,,,,,,,,,,,,,,,,,,,,,,,,,,,,,,,,,,,,,,,,,,,,,,,,,,,,,,,,,,,,,,,,,,,,
1720514569,119,0,4276.025879,4309.615234,4319.871582,4342.692383,4268.205078,4279.358887,4278.077148,4286.153809,4190.256348,4278.205078,4476.794922,4508.974121,4357.436035,4372.307617,,,,,,,,,,,,,,,,,,,,,,,,,,,,,,,,,,,,,,,,,,,,,,,,,,,,,,,,,,,,,,,,,,,,,,
1720514569,120,0,4280.384766,4311.922852,4328.333496,4342.179688,4263.589844,4279.102539,4279.102539,4287.820313,4192.436035,4278.205078,4479.487305,4517.436035,4360.256348,4369.743652,,,,,,,,,,,,,,,,,,,,,,,,,,,,,,,,,,,,,,,,,,,,,,,,,,,,,,,,,,,,,,,,,,,,,,
1720514569,121,0,4290.897461,4314.230957,4327.436035,4354.230957,4271.410156,4278.589844,4277.436035,4278.974121,4196.922852,4277.692383,4473.974121,4511.282227,4365.128418,4359.487305,,,,,,,,,,,,,,,,,,,,,,,,,,,,,,,,,,,,,,,,,,,,,,,,,,,,,,,,,,,,,,,,,,,,,,
1720514569,122,0,4294.102539,4315.384766,4328.974121,4357.05127,4281.410156,4280.256348,4277.94873,4287.307617,4199.743652,4278.461426,4469.358887,4515.128418,4365.897461,4352.05127,,,,,,,,,,,,,,,,,,,,,,,,,,,,,,,,,,,,,,,,,,,,,,,,,,,,,,,,,,,,,,,,,,,,,,
1720514569,123,0,4296.153809,4312.563965,4331.282227,4343.589844,4271.538574,4280.897461,4281.282227,4291.153809,4192.563965,4279.743652,4476.922852,4519.230957,4366.153809,4346.410156,,,,,,,,,,,,,,,,,,,,,,,,,,,,,,,,,,,,,,,,,,,,,,,,,,,,,,,,,,,,,,,,,,,,,,
1720514569,124,0,4295.641113,4311.922852,4327.307617,4339.743652,4262.05127,4279.743652,4279.487305,4282.307617,4185.512695,4278.846191,4479.358887,4505.512695,4365,4332.94873,1.587238,1.241717,0.956912,1.00898,0.237563,1.780042,0.999715,0.572467,0.576792,0.139172,0.917132,0.759438,1.305125,0.612684,0.144745,0.798834,0.91182,0.628241,0.578878,0.1691,1.184124,0.329977,0.12127,0.173614,0.12537,0.199963,0.162545,0.228368,0.115759,0.083128,1.237839,0.340483,0.568327,0.211548,0.08789,0.71983,0.750871,0.469369,0.114142,0.198241,3.169575,1.084094,0.851187,0.495657,0.232796,3.161023,2.456915,1.129762,0.522698,0.140492,12.906953,5.312164,2.396557,1.177528,0.366106,2.425563,0.99343,1.212859,0.74843,0.156348,4.600635,1.688352,1.644019,0.68083,0.157261,42.483063,5.36278,2.829768,0.972401,0.244508
1720514569,125,0,4284.230957,4311.666504,4315.641113,4349.615234,4269.358887,4279.871582,4279.615234,4287.563965,4190.384766,4270.769043,4463.974121,4492.692383,4355.384766,4321.922852,,,,,,,,,,,,,,,,,,,,,,,,,,,,,,,,,,,,,,,,,,,,,,,,,,,,,,,,,,,,,,,,,,,,,,
1720514569,126,0,4278.974121,4312.820313,4310.128418,4355.256348,4274.871582,4279.487305,4284.487305,4288.846191,4188.974121,4269.358887,4451.794922,4491.025879,4345.897461,4316.794922,,,,,,,,,,,,,,,,,,,,,,,,,,,,,,,,,,,,,,,,,,,,,,,,,,,,,,,,,,,,,,,,,,,,,,
1720514569,127,0,4281.025879,4317.94873,4320.769043,4357.436035,4275.641113,4277.820313,4283.717773,4285.384766,4184.358887,4271.153809,4463.717773,4500,4351.666504,4313.205078,,,,,,,,,,,,,,,,,,,,,,,,,,,,,,,,,,,,,,,,,,,,,,,,,,,,,,,,,,,,,,,,,,,,,,
1720514569,0,0,4278.461426,4321.794922,4325.769043,4359.358887,4277.436035,4278.717773,4276.922852,4283.846191,4189.230957,4267.820313,4472.05127,4504.743652,4360.384766,4302.692383,,,,,,,,,,,,,,,,,,,,,,,,,,,,,,,,,,,,,,,,,,,,,,,,,,,,,,,,,,,,,,,,,,,,,,
1720514569,1,0,4280.769043,4319.487305,4314.743652,4356.153809,4276.922852,4278.974121,4273.077148,4275.769043,4186.922852,4270,4456.410156,4493.461426,4354.743652,4286.282227,,,,,,,,,,,,,,,,,,,,,,,,,,,,,,,,,,,,,,,,,,,,,,,,,,,,,,,,,,,,,,,,,,,,,,
1720514569,2,0,4290,4323.461426,4317.94873,4358.077148,4276.666504,4277.94873,4275.512695,4278.077148,4188.205078,4280.641113,4450.128418,4492.179688,4351.794922,4280.769043,,,,,,,,,,,,,,,,,,,,,,,,,,,,,,,,,,,,,,,,,,,,,,,,,,,,,,,,,,,,,,,,,,,,,,
1720514569,3,0,4292.94873,4335.384766,4332.820313,4366.025879,4281.538574,4283.333496,4278.461426,4286.922852,4200.769043,4286.410156,4468.333496,4508.461426,4361.282227,4282.820313,,,,,,,,,,,,,,,,,,,,,,,,,,,,,,,,,,,,,,,,,,,,,,,,,,,,,,,,,,,,,,,,,,,,,,
1720514569,4,0,4292.94873,4333.205078,4333.333496,4364.102539,4282.820313,4290.897461,4281.666504,4286.666504,4198.846191,4284.871582,4475.128418,4513.846191,4364.871582,4281.410156,,,,,,,,,,,,,,,,,,,,,,,,,,,,,,,,,,,,,,,,,,,,,,,,,,,,,,,,,,,,,,,,,,,,,,
1720514569,5,0,4291.410156,4325.512695,4324.615234,4357.05127,4278.461426,4287.436035,4277.307617,4280.641113,4185.256348,4278.589844,4460.256348,4501.666504,4358.205078,4276.282227,,,,,,,,,,,,,,,,,,,,,,,,,,,,,,,,,,,,,,,,,,,,,,,,,,,,,,,,,,,,,,,,,,,,,,
1720514569,6,0,4285,4334.230957,4319.743652,4358.717773,4278.974121,4277.179688,4265.897461,4274.487305,4178.205078,4269.230957,4453.461426,4492.05127,4351.153809,4261.410156,,,,,,,,,,,,,,,,,,,,,,,,,,,,,,,,,,,,,,,,,,,,,,,,,,,,,,,,,,,,,,,,,,,,,,
1720514569,7,0,4282.179688,4340.512695,4321.410156,4360.384766,4281.666504,4275.641113,4265.512695,4273.974121,4175.769043,4264.871582,4461.153809,4493.333496,4345.512695,4240.769043,,,,,,,,,,,,,,,,,,,,,,,,,,,,,,,,,,,,,,,,,,,,,,,,,,,,,,,,,,,,,,,,,,,,,,
1720514569,8,0,4285,4334.615234,4325.641113,4357.563965,4279.615234,4280.128418,4276.794922,4279.102539,4170.769043,4262.307617,4457.436035,4496.153809,4343.333496,4226.410156,,,,,,,,,,,,,,,,,,,,,,,,,,,,,,,,,,,,,,,,,,,,,,,,,,,,,,,,,,,,,,,,,,,,,,
1720514569,9,0,4280.897461,4339.615234,4325.641113,4363.077148,4278.205078,4281.538574,4281.666504,4282.94873,4173.717773,4266.922852,4448.205078,4497.692383,4344.102539,4219.743652,,,,,,,,,,,,,,,,,,,,,,,,,,,,,,,,,,,,,,,,,,,,,,,,,,,,,,,,,,,,,,,,,,,,,,
1720514569,10,0,4272.563965,4346.153809,4325.512695,4365.384766,4279.743652,4282.436035,4278.333496,4284.358887,4182.94873,4278.846191,4451.666504,4498.077148,4341.538574,4216.666504,,,,,,,,,,,,,,,,,,,,,,,,,,,,,,,,,,,,,,,,,,,,,,,,,,,,,,,,,,,,,,,,,,,,,,
1720514569,11,0,4270.897461,4338.974121,4326.410156,4355.897461,4281.794922,4280.512695,4277.05127,4285.384766,4185.897461,4283.589844,4453.846191,4497.820313,4338.974121,4210.384766,,,,,,,,,,,,,,,,,,,,,,,,,,,,,,,,,,,,,,,,,,,,,,,,,,,,,,,,,,,,,,,,,,,,,,
1720514569,12,0,4273.717773,4337.692383,4322.94873,4356.153809,4280.769043,4279.230957,4275.384766,4282.05127,4182.692383,4281.282227,4447.563965,4497.820313,4338.077148,4198.974121,1.490252,1.077055,1.097806,1.043369,0.232978,1.670734,0.848854,0.472184,0.529296,0.13481,1.04167,0.679299,1.408938,0.606144,0.128799,0.698765,0.801479,0.542336,0.486415,0.17141,1.783355,0.331072,0.123091,0.232744,0.154254,0.269297,0.215441,0.281331,0.114069,0.082839,1.258081,0.411172,0.705147,0.22998,0.088682,0.883863,0.746996,0.471421,0.128023,0.21557,3.652814,1.143343,1.034927,0.481229,0.233436,3.261782,1.976091,1.291412,0.478137,0.13963,10.19272,3.673353,2.038957,0.951859,0.363405,2.711948,0.946045,1.366401,0.678277,0.150752,4.297533,1.359133,1.900733,0.66481,0.135717,35.989819,4.218527,2.736107,0.790141,0.200094
1720514569,13,0,4273.974121,4342.820313,4323.461426,4362.179688,4279.871582,4289.230957,4275.897461,4285.769043,4173.205078,4279.487305,4445.384766,4500.256348,4334.743652,4197.563965,,,,,,,,,,,,,,,,,,,,,,,,,,,,,,,,,,,,,,,,,,,,,,,,,,,,,,,,,,,,,,,,,,,,,,
1720514569,14,0,4274.358887,4344.871582,4329.102539,4360.512695,4285.384766,4295.512695,4278.205078,4284.871582,4169.743652,4280.641113,4448.333496,4499.615234,4337.563965,4201.538574,,,,,,,,,,,,,,,,,,,,,,,,,,,,,,,,,,,,,,,,,,,,,,,,,,,,,,,,,,,,,,,,,,,,,,
1720514569,15,0,4276.025879,4349.102539,4326.282227,4358.589844,4285.384766,4283.461426,4275.256348,4272.05127,4185,4282.179688,4454.230957,4496.666504,4343.333496,4196.922852,,,,,,,,,,,,,,,,,,,,,,,,,,,,,,,,,,,,,,,,,,,,,,,,,,,,,,,,,,,,,,,,,,,,,,
1720514569,16,0,4278.333496,4354.615234,4327.94873,4362.307617,4282.692383,4275.128418,4276.025879,4280.512695,4162.307617,4280,4461.025879,4508.974121,4343.077148,4200.769043,,,,,,,,,,,,,,,,,,,,,,,,,,,,,,,,,,,,,,,,,,,,,,,,,,,,,,,,,,,,,,,,,,,,,,
1720514569,17,0,4283.461426,4359.358887,4340.256348,4371.538574,4291.538574,4282.692383,4283.717773,4290.512695,4161.794922,4278.846191,4461.538574,4518.717773,4344.743652,4214.230957,,,,,,,,,,,,,,,,,,,,,,,,,,,,,,,,,,,,,,,,,,,,,,,,,,,,,,,,,,,,,,,,,,,,,,
1720514569,18,0,4278.589844,4360.897461,4341.922852,4374.102539,4297.436035,4285.897461,4278.846191,4278.589844,4332.436035,4282.94873,4456.025879,4508.717773,4347.307617,4215,,,,,,,,,,,,,,,,,,,,,,,,,,,,,,,,,,,,,,,,,,,,,,,,,,,,,,,,,,,,,,,,,,,,,,
1720514569,19,0,4263.846191,4356.794922,4328.717773,4360.384766,4291.153809,4280.897461,4262.94873,4270,4523.205078,4282.563965,4450.384766,4497.820313,4345.512695,4203.846191,,,,,,,,,,,,,,,,,,,,,,,,,,,,,,,,,,,,,,,,,,,,,,,,,,,,,,,,,,,,,,,,,,,,,,
1720514569,20,0,4260.384766,4354.358887,4320.256348,4354.871582,4292.179688,4277.820313,4258.589844,4266.666504,4525.897461,4281.794922,4443.974121,4496.025879,4340.256348,4195.769043,,,,,,,,,,,,,,,,,,,,,,,,,,,,,,,,,,,,,,,,,,,,,,,,,,,,,,,,,,,,,,,,,,,,,,
1720514569,21,0,4264.871582,4357.05127,4320.256348,4367.436035,4297.179688,4283.077148,4264.230957,4268.589844,4477.563965,4287.94873,4444.743652,4498.461426,4333.589844,4194.743652,,,,,,,,,,,,,,,,,,,,,,,,,,,,,,,,,,,,,,,,,,,,,,,,,,,,,,,,,,,,,,,,,,,,,,
1720514569,22,0,4263.589844,4355.897461,4314.743652,4364.230957,4292.307617,4293.077148,4267.563965,4279.230957,4503.974121,4291.025879,4446.538574,4492.436035,4326.666504,4182.94873,,,,,,,,,,,,,,,,,,,,,,,,,,,,,,,,,,,,,,,,,,,,,,,,,,,,,,,,,,,,,,,,,,,,,,
1720514569,23,0,4256.666504,4352.436035,4306.153809,4350.512695,4291.282227,4291.794922,4270.512695,4282.94873,4503.461426,4288.974121,4440.897461,4483.461426,4323.717773,4163.846191,,,,,,,,,,,,,,,,,,,,,,,,,,,,,,,,,,,,,,,,,,,,,,,,,,,,,,,,,,,,,,,,,,,,,,
1720514569,24,0,4259.615234,4356.153809,4309.871582,4360.256348,4294.743652,4290,4276.922852,4285.256348,4473.205078,4292.179688,4442.94873,4492.692383,4328.974121,4166.538574,,,,,,,,,,,,,,,,,,,,,,,,,,,,,,,,,,,,,,,,,,,,,,,,,,,,,,,,,,,,,,,,,,,,,,
1720514569,25,0,4262.94873,4358.717773,4318.205078,4369.358887,4294.871582,4293.717773,4280.512695,4298.974121,4477.820313,4295.128418,4448.589844,4508.717773,4334.615234,4179.743652,,,,,,,,,,,,,,,,,,,,,,,,,,,,,,,,,,,,,,,,,,,,,,,,,,,,,,,,,,,,,,,,,,,,,,
1720514569,26,0,4256.282227,4361.153809,4319.358887,4362.692383,4294.871582,4287.05127,4279.487305,4293.077148,4480,4300.128418,4445.641113,4503.333496,4336.794922,4175.512695,,,,,,,,,,,,,,,,,,,,,,,,,,,,,,,,,,,,,,,,,,,,,,,,,,,,,,,,,,,,,,,,,,,,,,
1720514569,27,0,4254.102539,4367.436035,4325.897461,4368.846191,4293.205078,4278.205078,4278.077148,4282.436035,4471.922852,4304.102539,4448.589844,4497.692383,4338.846191,4174.615234,,,,,,,,,,,,,,,,,,,,,,,,,,,,,,,,,,,,,,,,,,,,,,,,,,,,,,,,,,,,,,,,,,,,,,
1720514569,28,0,4262.563965,4373.846191,4337.436035,4381.282227,4296.025879,4279.743652,4279.358887,4290.256348,4459.230957,4299.487305,4458.717773,4511.410156,4341.282227,4186.153809,1.437293,1.011853,1.255893,1.118003,0.233261,1.525959,0.761829,0.429823,0.503389,0.134072,1.218285,0.650549,1.491757,0.623219,0.117893,0.59992,0.696924,0.511549,0.423373,0.170751,2.288677,0.338907,0.133703,0.297465,0.177305,0.371363,0.306187,0.333012,0.126481,0.087782,1.345718,0.486774,0.792378,0.254536,0.090929,1.083907,0.698328,0.454908,0.143076,0.227433,3.876293,1.247205,1.229691,0.47833,0.231993,3.470584,1.483328,1.518756,0.475466,0.145186,7.91195,2.298915,1.93946,0.829453,0.380058,3.059358,0.947301,1.576105,0.65128,0.155472,4.012352,1.086603,2.161458,0.673803,0.129392,28.332106,3.027901,2.624034,0.686055,0.176294
1720514569,29,0,4268.205078,4379.102539,4335.512695,4378.717773,4304.615234,4279.615234,4276.922852,4282.05127,4439.615234,4301.794922,4462.307617,4516.153809,4341.666504,4186.922852,,,,,,,,,,,,,,,,,,,,,,,,,,,,,,,,,,,,,,,,,,,,,,,,,,,,,,,,,,,,,,,,,,,,,,
1720514569,30,0,4266.922852,4376.153809,4329.358887,4368.846191,4305.256348,4283.077148,4267.563965,4268.974121,4423.205078,4308.974121,4459.615234,4511.410156,4344.487305,4183.589844,,,,,,,,,,,,,,,,,,,,,,,,,,,,,,,,,,,,,,,,,,,,,,,,,,,,,,,,,,,,,,,,,,,,,,
1720514569,31,0,4262.563965,4370.897461,4328.333496,4366.025879,4297.05127,4293.974121,4261.666504,4269.615234,4409.615234,4300.512695,4453.846191,4506.538574,4343.077148,4180.641113,,,,,,,,,,,,,,,,,,,,,,,,,,,,,,,,,,,,,,,,,,,,,,,,,,,,,,,,,,,,,,,,,,,,,,
1720514569,32,0,4253.333496,4374.358887,4326.410156,4370.128418,4296.153809,4296.025879,4264.743652,4270,4403.333496,4288.461426,4445,4499.871582,4328.461426,4176.025879,,,,,,,,,,,,,,,,,,,,,,,,,,,,,,,,,,,,,,,,,,,,,,,,,,,,,,,,,,,,,,,,,,,,,,
1720514569,33,0,4248.205078,4375.128418,4325.641113,4373.974121,4301.410156,4293.333496,4272.820313,4275.641113,4412.563965,4294.358887,4441.153809,4507.307617,4325.384766,4177.307617,,,,,,,,,,,,,,,,,,,,,,,,,,,,,,,,,,,,,,,,,,,,,,,,,,,,,,,,,,,,,,,,,,,,,,
1720514569,34,0,4250.128418,4368.846191,4330.384766,4375.769043,4302.05127,4294.358887,4281.666504,4287.05127,4429.230957,4306.025879,4452.436035,4518.717773,4337.563965,4173.974121,,,,,,,,,,,,,,,,,,,,,,,,,,,,,,,,,,,,,,,,,,,,,,,,,,,,,,,,,,,,,,,,,,,,,,
1720514569,35,0,4248.461426,4367.563965,4332.436035,4374.358887,4298.205078,4295.384766,4283.717773,4295.769043,4433.461426,4309.230957,4458.846191,4511.410156,4335.384766,4161.666504,,,,,,,,,,,,,,,,,,,,,,,,,,,,,,,,,,,,,,,,,,,,,,,,,,,,,,,,,,,,,,,,,,,,,,
1720514569,36,0,4246.025879,4370.384766,4325.384766,4369.615234,4294.615234,4292.179688,4278.974121,4297.307617,4423.589844,4310.769043,4446.025879,4500,4320.256348,4152.05127,,,,,,,,,,,,,,,,,,,,,,,,,,,,,,,,,,,,,,,,,,,,,,,,,,,,,,,,,,,,,,,,,,,,,,
1720514569,37,0,4244.871582,4373.589844,4317.307617,4369.871582,4296.794922,4285.641113,4279.615234,4290.641113,4416.410156,4312.179688,4435.384766,4500.769043,4317.179688,4147.05127,,,,,,,,,,,,,,,,,,,,,,,,,,,,,,,,,,,,,,,,,,,,,,,,,,,,,,,,,,,,,,,,,,,,,,
1720514569,38,0,4235.769043,4372.307617,4309.487305,4370.384766,4299.487305,4279.358887,4278.846191,4284.871582,4406.282227,4304.615234,4429.743652,4492.820313,4310.512695,4132.05127,,,,,,,,,,,,,,,,,,,,,,,,,,,,,,,,,,,,,,,,,,,,,,,,,,,,,,,,,,,,,,,,,,,,,,
1720514569,39,0,4212.563965,4354.871582,4300,4353.461426,4293.461426,4277.692383,4268.717773,4283.974121,4381.666504,4284.358887,4409.743652,4471.282227,4284.871582,4103.846191,,,,,,,,,,,,,,,,,,,,,,,,,,,,,,,,,,,,,,,,,,,,,,,,,,,,,,,,,,,,,,,,,,,,,,
1720514569,40,0,4198.077148,4345.256348,4294.358887,4341.153809,4288.717773,4283.077148,4266.025879,4270.256348,4366.282227,4269.358887,4397.692383,4464.102539,4273.077148,4103.333496,,,,,,,,,,,,,,,,,,,,,,,,,,,,,,,,,,,,,,,,,,,,,,,,,,,,,,,,,,,,,,,,,,,,,,
1720514569,41,0,4214.487305,4361.410156,4305.769043,4361.153809,4293.717773,4291.282227,4276.153809,4270.256348,4371.410156,4281.922852,4418.333496,4487.307617,4296.282227,4148.846191,,,,,,,,,,,,,,,,,,,,,,,,,,,,,,,,,,,,,,,,,,,,,,,,,,,,,,,,,,,,,,,,,,,,,,
1720514569,42,0,4238.205078,4378.974121,4327.05127,4378.461426,4298.461426,4293.846191,4281.794922,4285.769043,4373.205078,4307.05127,4438.974121,4511.025879,4324.871582,4183.077148,,,,,,,,,,,,,,,,,,,,,,,,,,,,,,,,,,,,,,,,,,,,,,,,,,,,,,,,,,,,,,,,,,,,,,
1720514569,43,0,4238.717773,4381.666504,4326.153809,4371.410156,4295.897461,4288.974121,4273.846191,4277.692383,4367.179688,4315,4440,4502.820313,4330.256348,4178.589844,,,,,,,,,,,,,,,,,,,,,,,,,,,,,,,,,,,,,,,,,,,,,,,,,,,,,,,,,,,,,,,,,,,,,,
1720514569,44,0,4230.512695,4378.974121,4313.589844,4368.077148,4291.794922,4287.94873,4264.102539,4273.205078,4366.025879,4308.205078,4441.794922,4495.128418,4323.461426,4177.307617,1.404054,1.011106,1.405542,1.192689,0.235251,1.362642,0.723457,0.449237,0.501437,0.137718,1.431471,0.670267,1.559456,0.654666,0.114484,0.532995,0.601734,0.524869,0.412455,0.168431,2.538243,0.355781,0.149047,0.355608,0.190928,0.474215,0.408663,0.3733,0.146611,0.093953,1.462225,0.54685,0.806222,0.277075,0.092267,1.282064,0.617034,0.427514,0.15433,0.231775,4.451672,1.733783,1.554752,0.56372,0.254156,3.852139,1.102668,1.781776,0.515027,0.154807,6.555389,1.421459,2.026204,0.797367,0.414924,3.32947,0.994913,1.778727,0.658596,0.168416,3.792927,0.91412,2.340582,0.6973,0.134571,22.938705,1.993553,2.507323,0.668146,0.167987
1720514569,45,0,4230.769043,4380.897461,4316.282227,4375.512695,4292.436035,4292.436035,4265.769043,4283.461426,4364.615234,4309.102539,4443.974121,4509.487305,4318.974121,4185.769043,,,,,,,,,,,,,,,,,,,,,,,,,,,,,,,,,,,,,,,,,,,,,,,,,,,,,,,,,,,,,,,,,,,,,,
1720514569,46,0,4224.743652,4380.256348,4327.05127,4372.563965,4293.717773,4295.384766,4277.307617,4284.743652,4371.025879,4317.307617,4444.615234,4518.846191,4318.077148,4187.94873,,,,,,,,,,,,,,,,,,,,,,,,,,,,,,,,,,,,,,,,,,,,,,,,,,,,,,,,,,,,,,,,,,,,,,
1720514569,47,0,4214.102539,4374.358887,4329.358887,4365.256348,4291.153809,4294.358887,4282.436035,4286.794922,4385.512695,4317.820313,4446.410156,4514.487305,4314.487305,4183.717773,,,,,,,,,,,,,,,,,,,,,,,,,,,,,,,,,,,,,,,,,,,,,,,,,,,,,,,,,,,,,,,,,,,,,,
1720514569,48,0,4211.794922,4370.512695,4324.230957,4371.538574,4288.974121,4292.436035,4279.615234,4288.846191,4380,4312.05127,4441.410156,4505.641113,4303.717773,4173.205078,,,,,,,,,,,,,,,,,,,,,,,,,,,,,,,,,,,,,,,,,,,,,,,,,,,,,,,,,,,,,,,,,,,,,,
1720514569,49,0,4212.563965,4372.94873,4316.666504,4374.358887,4291.025879,4294.743652,4279.358887,4284.358887,4368.846191,4308.846191,4425,4496.410156,4294.102539,4162.563965,,,,,,,,,,,,,,,,,,,,,,,,,,,,,,,,,,,,,,,,,,,,,,,,,,,,,,,,,,,,,,,,,,,,,,
1720514569,50,0,4211.666504,4376.794922,4309.358887,4365.641113,4293.974121,4293.333496,4279.230957,4280.769043,4379.230957,4310.641113,4413.717773,4486.666504,4289.487305,4155.769043,,,,,,,,,,,,,,,,,,,,,,,,,,,,,,,,,,,,,,,,,,,,,,,,,,,,,,,,,,,,,,,,,,,,,,
1720514569,51,0,4211.410156,4377.94873,4309.871582,4365.384766,4294.358887,4290.897461,4277.563965,4283.077148,4383.717773,4311.153809,4418.205078,4486.410156,4289.743652,4152.94873,,,,,,,,,,,,,,,,,,,,,,,,,,,,,,,,,,,,,,,,,,,,,,,,,,,,,,,,,,,,,,,,,,,,,,
1720514569,52,0,4215.512695,4383.077148,4312.436035,4373.461426,4294.102539,4294.358887,4277.94873,4283.205078,4373.333496,4307.820313,4421.282227,4492.307617,4289.358887,4156.153809,,,,,,,,,,,,,,,,,,,,,,,,,,,,,,,,,,,,,,,,,,,,,,,,,,,,,,,,,,,,,,,,,,,,,,
1720514569,53,0,4216.794922,4390.897461,4316.922852,4376.282227,4294.871582,4296.153809,4278.589844,4280.384766,4375.128418,4313.846191,4421.282227,4493.589844,4291.025879,4162.820313,,,,,,,,,,,,,,,,,,,,,,,,,,,,,,,,,,,,,,,,,,,,,,,,,,,,,,,,,,,,,,,,,,,,,,
1720514569,54,0,4210.769043,4394.358887,4321.666504,4380.641113,4297.692383,4292.436035,4275.128418,4269.743652,4380,4321.794922,4428.589844,4489.358887,4297.05127,4164.487305,,,,,,,,,,,,,,,,,,,,,,,,,,,,,,,,,,,,,,,,,,,,,,,,,,,,,,,,,,,,,,,,,,,,,,
1720514569,55,0,4210.128418,4391.794922,4321.666504,4386.025879,4299.102539,4293.077148,4271.922852,4269.358887,4381.794922,4318.333496,4432.179688,4493.205078,4294.358887,4166.282227,,,,,,,,,,,,,,,,,,,,,,,,,,,,,,,,,,,,,,,,,,,,,,,,,,,,,,,,,,,,,,,,,,,,,,
1720514569,56,0,4218.589844,4387.307617,4323.205078,4378.717773,4296.922852,4297.563965,4274.102539,4284.102539,4395.897461,4323.077148,4423.461426,4506.410156,4282.94873,4172.307617,,,,,,,,,,,,,,,,,,,,,,,,,,,,,,,,,,,,,,,,,,,,,,,,,,,,,,,,,,,,,,,,,,,,,,
1720514569,57,0,4217.692383,4388.205078,4322.820313,4371.666504,4296.538574,4296.410156,4283.717773,4286.153809,4404.743652,4308.333496,4418.846191,4506.922852,4277.692383,4177.820313,,,,,,,,,,,,,,,,,,,,,,,,,,,,,,,,,,,,,,,,,,,,,,,,,,,,,,,,,,,,,,,,,,,,,,
1720514569,58,0,4203.205078,4387.179688,4318.077148,4375,4296.538574,4294.615234,4289.615234,4288.846191,4399.487305,4234.230957,4427.179688,4507.05127,4278.589844,4193.333496,,,,,,,,,,,,,,,,,,,,,,,,,,,,,,,,,,,,,,,,,,,,,,,,,,,,,,,,,,,,,,,,,,,,,,
1720514569,59,0,4196.025879,4378.717773,4312.179688,4373.846191,4294.230957,4294.871582,4283.589844,4293.974121,4394.615234,4172.05127,4428.717773,4515,4275,4217.179688,,,,,,,,,,,,,,,,,,,,,,,,,,,,,,,,,,,,,,,,,,,,,,,,,,,,,,,,,,,,,,,,,,,,,,
1720514569,60,0,4197.94873,4372.692383,4308.589844,4369.487305,4292.307617,4293.461426,4280,4289.102539,4393.589844,4181.666504,4421.153809,4510.769043,4274.230957,4243.974121,1.380939,1.010937,1.493725,1.210541,0.233635,1.167859,0.691903,0.492764,0.508361,0.144416,1.582556,0.718185,1.598347,0.674035,0.11988,0.491493,0.509075,0.539516,0.447907,0.168327,2.455192,0.372712,0.160694,0.392827,0.194275,0.538497,0.48322,0.396531,0.164559,0.098403,1.551282,0.575237,0.749379,0.288313,0.091931,1.369119,0.540844,0.403708,0.159985,0.228818,8.503035,3.480455,2.475968,0.968458,0.383068,4.122792,0.873318,2.018795,0.577765,0.164396,5.965811,1.014235,2.129958,0.795639,0.458509,3.412296,1.064783,1.900077,0.673443,0.187671,3.61603,0.836531,2.352554,0.710523,0.143402,18.648645,1.351099,2.354128,0.706451,0.166799
1720514569,61,0,4196.538574,4379.102539,4309.102539,4374.230957,4292.820313,4292.179688,4283.717773,4294.743652,4396.666504,4203.589844,4422.307617,4504.487305,4280.384766,4277.692383,,,,,,,,,,,,,,,,,,,,,,,,,,,,,,,,,,,,,,,,,,,,,,,,,,,,,,,,,,,,,,,,,,,,,,
1720514569,62,0,4195.256348,4384.102539,4313.333496,4378.077148,4294.871582,4293.589844,4280.128418,4297.563965,4390.897461,4199.230957,4429.487305,4504.871582,4277.820313,4311.922852,,,,,,,,,,,,,,,,,,,,,,,,,,,,,,,,,,,,,,,,,,,,,,,,,,,,,,,,,,,,,,,,,,,,,,
1720514569,63,0,4199.615234,4380.769043,4318.461426,4368.717773,4297.05127,4294.358887,4275.128418,4284.230957,4367.563965,4197.436035,4428.205078,4502.05127,4271.410156,4337.563965,,,,,,,,,,,,,,,,,,,,,,,,,,,,,,,,,,,,,,,,,,,,,,,,,,,,,,,,,,,,,,,,,,,,,,
1720514569,64,0,4203.205078,4383.589844,4322.820313,4367.692383,4296.666504,4293.205078,4284.230957,4284.358887,4350.512695,4199.871582,4425,4502.94873,4271.922852,4363.846191,,,,,,,,,,,,,,,,,,,,,,,,,,,,,,,,,,,,,,,,,,,,,,,,,,,,,,,,,,,,,,,,,,,,,,
1720514569,65,0,4204.102539,4391.538574,4327.307617,4378.461426,4296.538574,4293.333496,4292.436035,4293.717773,4348.333496,4201.666504,4426.153809,4510.897461,4270.897461,4392.820313,,,,,,,,,,,,,,,,,,,,,,,,,,,,,,,,,,,,,,,,,,,,,,,,,,,,,,,,,,,,,,,,,,,,,,
1720514570,66,0,4207.179688,4393.205078,4326.538574,4380.512695,4299.230957,4294.615234,4284.871582,4280.256348,4340.384766,4203.461426,4421.922852,4508.974121,4263.589844,4416.153809,,,,,,,,,,,,,,,,,,,,,,,,,,,,,,,,,,,,,,,,,,,,,,,,,,,,,,,,,,,,,,,,,,,,,,
1720514570,67,0,4207.05127,4388.077148,4319.871582,4375,4299.230957,4294.871582,4276.538574,4270.256348,4330.769043,4197.94873,4412.307617,4502.692383,4260,4438.205078,,,,,,,,,,,,,,,,,,,,,,,,,,,,,,,,,,,,,,,,,,,,,,,,,,,,,,,,,,,,,,,,,,,,,,
1720514570,68,0,4200.897461,4387.820313,4316.794922,4375.897461,4295.512695,4297.179688,4282.436035,4278.846191,4335.128418,4201.794922,4411.153809,4502.563965,4262.05127,4453.974121,,,,,,,,,,,,,,,,,,,,,,,,,,,,,,,,,,,,,,,,,,,,,,,,,,,,,,,,,,,,,,,,,,,,,,
1720514570,69,0,4200.128418,4392.179688,4318.846191,4376.282227,4293.717773,4301.922852,4291.922852,4286.282227,4346.025879,4217.94873,4417.94873,4501.666504,4263.846191,4465.512695,,,,,,,,,,,,,,,,,,,,,,,,,,,,,,,,,,,,,,,,,,,,,,,,,,,,,,,,,,,,,,,,,,,,,,
1720514570,70,0,4202.436035,4385.128418,4317.179688,4367.563965,4294.230957,4299.743652,4285.769043,4288.589844,4348.077148,4222.307617,4413.205078,4498.974121,4261.666504,4476.922852,,,,,,,,,,,,,,,,,,,,,,,,,,,,,,,,,,,,,,,,,,,,,,,,,,,,,,,,,,,,,,,,,,,,,,
1720514570,71,0,4199.871582,4375.769043,4311.538574,4363.333496,4292.820313,4292.692383,4277.179688,4285.769043,4340.641113,4215.769043,4410.256348,4497.820313,4258.205078,4483.717773,,,,,,,,,,,,,,,,,,,,,,,,,,,,,,,,,,,,,,,,,,,,,,,,,,,,,,,,,,,,,,,,,,,,,,
1720514570,72,0,4201.025879,4379.230957,4312.820313,4367.692383,4288.974121,4294.102539,4283.974121,4291.153809,4341.794922,4223.205078,4427.307617,4504.743652,4264.358887,4498.589844,,,,,,,,,,,,,,,,,,,,,,,,,,,,,,,,,,,,,,,,,,,,,,,,,,,,,,,,,,,,,,,,,,,,,,
1720514570,73,0,4204.743652,4385.641113,4317.179688,4371.282227,4288.589844,4297.94873,4288.717773,4298.846191,4345.769043,4232.179688,4433.717773,4511.282227,4277.692383,4522.563965,,,,,,,,,,,,,,,,,,,,,,,,,,,,,,,,,,,,,,,,,,,,,,,,,,,,,,,,,,,,,,,,,,,,,,
1720514570,74,0,4203.461426,4383.333496,4315.128418,4368.333496,4291.794922,4296.410156,4282.179688,4291.538574,4331.794922,4222.436035,4416.794922,4508.846191,4275.256348,4529.615234,,,,,,,,,,,,,,,,,,,,,,,,,,,,,,,,,,,,,,,,,,,,,,,,,,,,,,,,,,,,,,,,,,,,,,
1720514570,75,0,4203.589844,4380.512695,4313.846191,4365.128418,4292.436035,4292.820313,4278.077148,4282.307617,4318.077148,4217.820313,4415.769043,4504.615234,4265.384766,4528.077148,,,,,,,,,,,,,,,,,,,,,,,,,,,,,,,,,,,,,,,,,,,,,,,,,,,,,,,,,,,,,,,,,,,,,,
1720514570,76,0,4212.820313,4388.333496,4321.153809,4372.563965,4290.512695,4292.692383,4279.487305,4284.230957,4325,4229.230957,4428.974121,4509.615234,4271.282227,4542.94873,1.291901,0.979396,1.487702,1.141184,0.225172,0.955161,0.646732,0.518078,0.503809,0.151832,1.649301,0.77896,1.592605,0.660515,0.133912,0.488566,0.422053,0.52547,0.500963,0.175612,2.060629,0.378548,0.160237,0.398029,0.189106,0.534014,0.503877,0.41069,0.172307,0.100695,1.521465,0.571613,0.652187,0.285732,0.091596,1.314085,0.525396,0.404494,0.162285,0.220719,20.262661,7.515007,4.484916,1.945792,0.707713,4.347815,0.746573,2.185293,0.6349,0.17152,5.596061,0.913041,2.107279,0.765627,0.495079,3.191692,1.149533,1.897682,0.671161,0.213594,3.299083,0.85252,2.17934,0.69678,0.150754,17.711416,1.323365,2.131833,0.765935,0.171004
1720514570,77,0,4222.436035,4397.820313,4331.666504,4380.256348,4293.846191,4299.743652,4287.820313,4288.589844,4328.589844,4236.794922,4423.717773,4518.717773,4279.871582,4557.94873,,,,,,,,,,,,,,,,,,,,,,,,,,,,,,,,,,,,,,,,,,,,,,,,,,,,,,,,,,,,,,,,,,,,,,
1720514570,78,0,4214.615234,4394.743652,4329.102539,4375.384766,4297.563965,4306.282227,4293.077148,4287.94873,4314.615234,4234.358887,4419.615234,4514.615234,4277.820313,4559.871582,,,,,,,,,,,,,,,,,,,,,,,,,,,,,,,,,,,,,,,,,,,,,,,,,,,,,,,,,,,,,,,,,,,,,,
1720514570,79,0,4204.487305,4384.743652,4318.717773,4366.794922,4288.333496,4298.846191,4285.897461,4287.05127,4309.102539,4233.717773,4429.487305,4508.333496,4276.282227,4564.487305,,,,,,,,,,,,,,,,,,,,,,,,,,,,,,,,,,,,,,,,,,,,,,,,,,,,,,,,,,,,,,,,,,,,,,
1720514570,80,0,4209.743652,4383.717773,4320.897461,4368.077148,4278.589844,4290.384766,4283.333496,4288.974121,4312.05127,4239.102539,4425.769043,4518.077148,4278.205078,4573.589844,,,,,,,,,,,,,,,,,,,,,,,,,,,,,,,,,,,,,,,,,,,,,,,,,,,,,,,,,,,,,,,,,,,,,,
1720514570,81,0,4217.820313,4385.384766,4330.384766,4368.333496,4285.384766,4298.461426,4292.692383,4292.05127,4312.563965,4243.333496,4415.897461,4526.538574,4276.282227,4579.230957,,,,,,,,,,,,,,,,,,,,,,,,,,,,,,,,,,,,,,,,,,,,,,,,,,,,,,,,,,,,,,,,,,,,,,
1720514570,82,0,4223.205078,4387.692383,4331.794922,4368.589844,4296.025879,4304.743652,4296.538574,4291.025879,4322.307617,4247.179688,4423.461426,4523.205078,4277.179688,4580.641113,,,,,,,,,,,,,,,,,,,,,,,,,,,,,,,,,,,,,,,,,,,,,,,,,,,,,,,,,,,,,,,,,,,,,,
1720514570,83,0,4231.153809,4391.666504,4325.256348,4373.717773,4295.384766,4298.717773,4294.358887,4293.461426,4325.641113,4255.256348,4432.307617,4522.436035,4281.666504,4578.461426,,,,,,,,,,,,,,,,,,,,,,,,,,,,,,,,,,,,,,,,,,,,,,,,,,,,,,,,,,,,,,,,,,,,,,
1720514570,84,0,4232.563965,4390.256348,4326.153809,4374.743652,4293.077148,4294.487305,4294.358887,4306.282227,4315,4260.897461,4430,4528.846191,4279.743652,4579.487305,,,,,,,,,,,,,,,,,,,,,,,,,,,,,,,,,,,,,,,,,,,,,,,,,,,,,,,,,,,,,,,,,,,,,,
1720514570,85,0,4226.538574,4390.641113,4333.077148,4375.641113,4295,4296.153809,4293.461426,4298.461426,4306.666504,4258.717773,4423.077148,4528.333496,4277.307617,4580.769043,,,,,,,,,,,,,,,,,,,,,,,,,,,,,,,,,,,,,,,,,,,,,,,,,,,,,,,,,,,,,,,,,,,,,,
1720514570,86,0,4229.487305,4397.307617,4336.666504,4380.641113,4295.256348,4299.743652,4295,4285.512695,4304.743652,4260.128418,4419.358887,4523.846191,4278.333496,4575.897461,,,,,,,,,,,,,,,,,,,,,,,,,,,,,,,,,,,,,,,,,,,,,,,,,,,,,,,,,,,,,,,,,,,,,,
1720514570,87,0,4234.743652,4400.769043,4337.692383,4385.641113,4296.410156,4304.743652,4293.846191,4291.025879,4294.743652,4264.230957,4424.743652,4523.205078,4279.871582,4566.666504,,,,,,,,,,,,,,,,,,,,,,,,,,,,,,,,,,,,,,,,,,,,,,,,,,,,,,,,,,,,,,,,,,,,,,
1720514570,88,0,4232.179688,4397.563965,4341.538574,4382.436035,4297.692383,4306.666504,4288.333496,4284.230957,4283.461426,4258.077148,4426.538574,4520.769043,4279.871582,4556.794922,,,,,,,,,,,,,,,,,,,,,,,,,,,,,,,,,,,,,,,,,,,,,,,,,,,,,,,,,,,,,,,,,,,,,,
1720514570,89,0,4231.282227,4395.256348,4343.974121,4375.641113,4295.641113,4305.384766,4290.128418,4274.358887,4291.025879,4257.307617,4417.820313,4522.820313,4279.871582,4548.974121,,,,,,,,,,,,,,,,,,,,,,,,,,,,,,,,,,,,,,,,,,,,,,,,,,,,,,,,,,,,,,,,,,,,,,
1720514570,90,0,4234.615234,4396.666504,4335.384766,4372.692383,4295.641113,4307.563965,4292.307617,4283.846191,4303.589844,4272.179688,4414.487305,4522.179688,4279.743652,4532.05127,,,,,,,,,,,,,,,,,,,,,,,,,,,,,,,,,,,,,,,,,,,,,,,,,,,,,,,,,,,,,,,,,,,,,,
1720514570,91,0,4233.846191,4395.512695,4324.487305,4372.436035,4296.153809,4306.153809,4290.128418,4291.922852,4301.538574,4278.333496,4416.153809,4514.102539,4277.94873,4508.333496,,,,,,,,,,,,,,,,,,,,,,,,,,,,,,,,,,,,,,,,,,,,,,,,,,,,,,,,,,,,,,,,,,,,,,
1720514570,92,0,4227.05127,4390,4324.230957,4373.333496,4292.820313,4298.333496,4286.410156,4287.563965,4292.05127,4270.641113,4411.666504,4513.461426,4274.615234,4495.256348,1.226484,0.929138,1.398295,1.001875,0.211273,0.742122,0.59739,0.509746,0.475363,0.158144,1.611538,0.855127,1.534151,0.611587,0.153793,0.500131,0.351657,0.485887,0.538145,0.193887,1.507437,0.364606,0.143199,0.368288,0.17834,0.459186,0.474547,0.429388,0.167958,0.10203,1.344365,0.55059,0.555778,0.276196,0.094212,1.107498,0.623466,0.439282,0.165957,0.211189,41.268475,14.063519,7.681486,3.550747,1.247005,4.750897,0.71872,2.344719,0.685596,0.182936,5.075684,0.971626,1.932357,0.689068,0.510002,2.736005,1.277248,1.779173,0.645057,0.248211,2.944568,0.980155,1.899048,0.658841,0.156843,18.005953,1.988415,1.864985,0.822145,0.185277
1720514570,93,0,4230.641113,4390.128418,4332.179688,4376.410156,4291.538574,4295.256348,4282.307617,4286.538574,4293.333496,4275.128418,4411.025879,4523.461426,4275,4496.794922,,,,,,,,,,,,,,,,,,,,,,,,,,,,,,,,,,,,,,,,,,,,,,,,,,,,,,,,,,,,,,,,,,,,,,
1720514570,94,0,4241.153809,4394.743652,4335.128418,4380.384766,4294.487305,4297.307617,4281.538574,4287.436035,4297.05127,4286.153809,4417.05127,4527.307617,4280.256348,4500.512695,,,,,,,,,,,,,,,,,,,,,,,,,,,,,,,,,,,,,,,,,,,,,,,,,,,,,,,,,,,,,,,,,,,,,,
1720514570,95,0,4236.538574,4392.05127,4329.358887,4374.230957,4294.487305,4296.410156,4286.282227,4287.563965,4290.641113,4282.307617,4417.94873,4517.820313,4278.461426,4499.487305,,,,,,,,,,,,,,,,,,,,,,,,,,,,,,,,,,,,,,,,,,,,,,,,,,,,,,,,,,,,,,,,,,,,,,
1720514570,96,0,4228.461426,4387.179688,4326.922852,4365.128418,4291.538574,4293.846191,4290.641113,4286.538574,4278.589844,4275.512695,4415.128418,4511.410156,4274.358887,4495.512695,,,,,,,,,,,,,,,,,,,,,,,,,,,,,,,,,,,,,,,,,,,,,,,,,,,,,,,,,,,,,,,,,,,,,,
1720514570,97,0,4231.922852,4384.487305,4322.692383,4365.641113,4289.871582,4296.282227,4289.743652,4277.94873,4264.743652,4276.666504,4410.641113,4511.153809,4273.974121,4486.153809,,,,,,,,,,,,,,,,,,,,,,,,,,,,,,,,,,,,,,,,,,,,,,,,,,,,,,,,,,,,,,,,,,,,,,
1720514570,98,0,4236.410156,4381.282227,4317.05127,4365.897461,4292.307617,4298.333496,4290.128418,4278.717773,4260.128418,4278.717773,4406.794922,4510.384766,4269.487305,4479.358887,,,,,,,,,,,,,,,,,,,,,,,,,,,,,,,,,,,,,,,,,,,,,,,,,,,,,,,,,,,,,,,,,,,,,,
1720514570,99,0,4238.461426,4382.307617,4322.05127,4360.897461,4293.717773,4294.230957,4290.897461,4279.871582,4259.615234,4279.743652,4400.384766,4511.025879,4261.666504,4475.512695,,,,,,,,,,,,,,,,,,,,,,,,,,,,,,,,,,,,,,,,,,,,,,,,,,,,,,,,,,,,,,,,,,,,,,
1720514570,100,0,4236.025879,4382.05127,4328.589844,4361.922852,4285,4291.538574,4289.487305,4276.153809,4258.205078,4277.820313,4392.436035,4516.410156,4258.333496,4468.205078,,,,,,,,,,,,,,,,,,,,,,,,,,,,,,,,,,,,,,,,,,,,,,,,,,,,,,,,,,,,,,,,,,,,,,
1720514570,101,0,4232.05127,4377.820313,4327.307617,4371.153809,4279.743652,4293.974121,4288.974121,4282.179688,4261.794922,4279.487305,4402.436035,4524.358887,4265.769043,4464.230957,,,,,,,,,,,,,,,,,,,,,,,,,,,,,,,,,,,,,,,,,,,,,,,,,,,,,,,,,,,,,,,,,,,,,,
1720514570,102,0,4239.871582,4379.102539,4330,4374.102539,4288.589844,4297.307617,4292.307617,4285.769043,4264.102539,4289.615234,4420.769043,4528.974121,4277.307617,4468.461426,,,,,,,,,,,,,,,,,,,,,,,,,,,,,,,,,,,,,,,,,,,,,,,,,,,,,,,,,,,,,,,,,,,,,,
1720514570,103,0,4253.461426,4382.94873,4337.05127,4369.358887,4294.102539,4295.897461,4296.025879,4284.871582,4259.358887,4296.025879,4421.794922,4530.641113,4280.897461,4470.256348,,,,,,,,,,,,,,,,,,,,,,,,,,,,,,,,,,,,,,,,,,,,,,,,,,,,,,,,,,,,,,,,,,,,,,
1720514570,104,0,4255.256348,4382.563965,4336.025879,4367.307617,4290.512695,4295.384766,4292.563965,4285.641113,4254.230957,4292.05127,4420.897461,4524.358887,4278.589844,4460.384766,,,,,,,,,,,,,,,,,,,,,,,,,,,,,,,,,,,,,,,,,,,,,,,,,,,,,,,,,,,,,,,,,,,,,,
1720514570,105,0,4254.743652,4379.743652,4338.333496,4372.179688,4292.179688,4300.256348,4289.487305,4284.615234,4259.102539,4291.410156,4424.102539,4520.512695,4280,4454.871582,,,,,,,,,,,,,,,,,,,,,,,,,,,,,,,,,,,,,,,,,,,,,,,,,,,,,,,,,,,,,,,,,,,,,,
1720514570,106,0,4262.94873,4379.230957,4343.461426,4380,4296.025879,4301.538574,4291.666504,4284.358887,4266.794922,4300,4418.589844,4525.512695,4282.692383,4454.615234,,,,,,,,,,,,,,,,,,,,,,,,,,,,,,,,,,,,,,,,,,,,,,,,,,,,,,,,,,,,,,,,,,,,,,
1720514570,107,0,4259.615234,4380.256348,4338.846191,4374.743652,4295,4296.282227,4291.410156,4289.102539,4262.436035,4302.94873,4412.563965,4522.307617,4279.102539,4440.769043,,,,,,,,,,,,,,,,,,,,,,,,,,,,,,,,,,,,,,,,,,,,,,,,,,,,,,,,,,,,,,,,,,,,,,
1720514570,108,0,4249.102539,4380.128418,4335.769043,4363.846191,4295.512695,4294.871582,4291.922852,4291.153809,4257.94873,4300.769043,4412.94873,4518.077148,4276.538574,4428.589844,1.095388,0.893573,1.276482,0.844483,0.196675,0.595968,0.582832,0.492712,0.425812,0.163176,1.521996,0.95559,1.43918,0.543305,0.174493,0.53569,0.312672,0.459475,0.539036,0.222183,0.957695,0.332365,0.114619,0.310779,0.164558,0.345588,0.423087,0.459251,0.154661,0.103484,1.053651,0.532477,0.491511,0.270231,0.102801,0.834662,0.850065,0.502216,0.174006,0.204433,68.855064,22.081564,11.53625,5.514051,1.908315,5.875275,0.873965,2.65683,0.76932,0.214051,4.242059,1.15858,1.69986,0.596164,0.496819,2.180325,1.475482,1.601296,0.601828,0.290333,2.445602,1.245904,1.649631,0.613421,0.164579,18.619734,3.176937,1.638777,0.863825,0.212573
1720514570,109,0,4253.461426,4381.410156,4340.769043,4371.410156,4296.153809,4297.820313,4293.205078,4290.641113,4262.179688,4301.794922,4412.179688,4525.256348,4278.974121,4433.461426,,,,,,,,,,,,,,,,,,,,,,,,,,,,,,,,,,,,,,,,,,,,,,,,,,,,,,,,,,,,,,,,,,,,,,
1720514570,110,0,4264.230957,4381.922852,4338.974121,4379.615234,4294.615234,4296.282227,4286.922852,4288.333496,4258.717773,4306.538574,4415.256348,4523.589844,4281.922852,4431.922852,,,,,,,,,,,,,,,,,,,,,,,,,,,,,,,,,,,,,,,,,,,,,,,,,,,,,,,,,,,,,,,,,,,,,,
1720514570,111,0,4265.256348,4377.179688,4328.717773,4366.282227,4293.461426,4293.461426,4280.512695,4281.153809,4253.846191,4305.256348,4418.077148,4507.820313,4279.102539,4416.666504,,,,,,,,,,,,,,,,,,,,,,,,,,,,,,,,,,,,,,,,,,,,,,,,,,,,,,,,,,,,,,,,,,,,,,
1720514570,112,0,4261.666504,4370,4328.077148,4356.153809,4294.615234,4293.974121,4287.563965,4286.922852,4261.025879,4298.333496,4412.820313,4511.282227,4275.769043,4411.794922,,,,,,,,,,,,,,,,,,,,,,,,,,,,,,,,,,,,,,,,,,,,,,,,,,,,,,,,,,,,,,,,,,,,,,
1720514570,113,0,4255.512695,4371.282227,4331.410156,4365.641113,4295.641113,4294.871582,4301.410156,4293.846191,4263.461426,4296.794922,4407.179688,4521.922852,4276.922852,4410.769043,,,,,,,,,,,,,,,,,,,,,,,,,,,,,,,,,,,,,,,,,,,,,,,,,,,,,,,,,,,,,,,,,,,,,,
1720514570,114,0,4247.05127,4373.333496,4329.102539,4367.820313,4294.102539,4298.846191,4302.94873,4283.589844,4259.230957,4301.025879,4402.05127,4515.641113,4276.922852,4403.974121,,,,,,,,,,,,,,,,,,,,,,,,,,,,,,,,,,,,,,,,,,,,,,,,,,,,,,,,,,,,,,,,,,,,,,
1720514570,115,0,4254.743652,4368.974121,4333.974121,4361.666504,4294.230957,4301.538574,4294.743652,4282.820313,4268.846191,4306.538574,4407.436035,4515.512695,4279.102539,4404.230957,,,,,,,,,,,,,,,,,,,,,,,,,,,,,,,,,,,,,,,,,,,,,,,,,,,,,,,,,,,,,,,,,,,,,,
1720514570,116,0,4267.820313,4366.282227,4341.666504,4364.102539,4295.641113,4302.692383,4293.205078,4286.794922,4277.94873,4301.666504,4412.820313,4522.05127,4275,4403.461426,,,,,,,,,,,,,,,,,,,,,,,,,,,,,,,,,,,,,,,,,,,,,,,,,,,,,,,,,,,,,,,,,,,,,,
1720514570,117,0,4265.641113,4370,4342.692383,4367.563965,4294.358887,4304.230957,4298.974121,4285.512695,4279.743652,4295.769043,4406.794922,4527.563965,4266.666504,4401.922852,,,,,,,,,,,,,,,,,,,,,,,,,,,,,,,,,,,,,,,,,,,,,,,,,,,,,,,,,,,,,,,,,,,,,,
1720514570,118,0,4264.743652,4377.563965,4342.820313,4374.102539,4299.871582,4303.077148,4301.282227,4285.769043,4286.025879,4303.205078,4415.897461,4533.846191,4277.436035,4407.692383,,,,,,,,,,,,,,,,,,,,,,,,,,,,,,,,,,,,,,,,,,,,,,,,,,,,,,,,,,,,,,,,,,,,,,
1720514570,119,0,4270.384766,4378.205078,4340.512695,4379.358887,4307.436035,4297.436035,4297.179688,4284.230957,4296.538574,4312.436035,4435.256348,4532.94873,4291.410156,4407.179688,,,,,,,,,,,,,,,,,,,,,,,,,,,,,,,,,,,,,,,,,,,,,,,,,,,,,,,,,,,,,,,,,,,,,,
1720514570,120,0,4266.025879,4368.846191,4337.05127,4369.102539,4300.641113,4290.769043,4293.589844,4287.05127,4308.717773,4310.384766,4429.102539,4527.436035,4284.230957,4398.589844,,,,,,,,,,,,,,,,,,,,,,,,,,,,,,,,,,,,,,,,,,,,,,,,,,,,,,,,,,,,,,,,,,,,,,
1720514570,121,0,4257.692383,4366.282227,4341.538574,4360.897461,4293.077148,4294.615234,4293.589844,4292.820313,4316.922852,4306.794922,4413.589844,4530.769043,4277.05127,4393.205078,,,,,,,,,,,,,,,,,,,,,,,,,,,,,,,,,,,,,,,,,,,,,,,,,,,,,,,,,,,,,,,,,,,,,,
1720514570,122,0,4261.794922,4372.05127,4344.102539,4370.897461,4297.820313,4305.128418,4296.666504,4287.820313,4319.487305,4313.333496,4417.820313,4529.358887,4282.563965,4384.743652,,,,,,,,,,,,,,,,,,,,,,,,,,,,,,,,,,,,,,,,,,,,,,,,,,,,,,,,,,,,,,,,,,,,,,
1720514570,123,0,4266.410156,4365.256348,4336.153809,4366.666504,4298.333496,4302.94873,4297.563965,4281.666504,4315.769043,4309.871582,4419.743652,4517.436035,4281.025879,4371.410156,,,,,,,,,,,,,,,,,,,,,,,,,,,,,,,,,,,,,,,,,,,,,,,,,,,,,,,,,,,,,,,,,,,,,,
1720514570,124,0,4264.743652,4357.563965,4329.743652,4359.230957,4293.846191,4292.436035,4294.358887,4289.615234,4317.820313,4299.102539,4415.512695,4515.641113,4277.307617,4368.333496,0.99952,0.897366,1.175735,0.722287,0.186801,0.517,0.636172,0.506238,0.36803,0.168188,1.402566,1.084514,1.337716,0.479342,0.190738,0.568474,0.314569,0.486851,0.501398,0.254079,0.559797,0.289693,0.086482,0.240619,0.149403,0.228461,0.381591,0.495877,0.137785,0.105557,0.73533,0.52594,0.46811,0.274082,0.118515,0.56764,1.170553,0.57085,0.185937,0.203138,95.972404,29.404514,14.998554,7.292295,2.509429,8.06401,1.292261,3.228295,0.926798,0.277427,3.352049,1.43623,1.522804,0.52154,0.459804,1.696388,1.748473,1.430722,0.55182,0.333271,2.044657,1.621228,1.540316,0.573889,0.175864,19.433973,4.523623,1.547373,0.883911,0.249919
1720514570,125,0,4267.563965,4366.922852,4332.436035,4371.410156,4297.563965,4293.846191,4293.589844,4289.102539,4323.205078,4298.846191,4425.128418,4517.436035,4280.384766,4372.563965,,,,,,,,,,,,,,,,,,,,,,,,,,,,,,,,,,,,,,,,,,,,,,,,,,,,,,,,,,,,,,,,,,,,,,
1720514570,126,0,4271.025879,4371.538574,4334.358887,4337.436035,4298.461426,4298.974121,4295.897461,4285.641113,4317.820313,4303.717773,4436.922852,4520.897461,4281.794922,4375.897461,,,,,,,,,,,,,,,,,,,,,,,,,,,,,,,,,,,,,,,,,,,,,,,,,,,,,,,,,,,,,,,,,,,,,,
1720514570,127,0,4265.769043,4363.589844,4331.153809,4262.94873,4293.333496,4294.102539,4296.153809,4291.153809,4308.974121,4305.897461,4431.025879,4522.94873,4282.307617,4370.769043,,,,,,,,,,,,,,,,,,,,,,,,,,,,,,,,,,,,,,,,,,,,,,,,,,,,,,,,,,,,,,,,,,,,,,
1720514570,0,0,4267.436035,4366.282227,4331.794922,4239.487305,4294.102539,4293.589844,4295.128418,4288.077148,4310.641113,4309.743652,4423.077148,4520.512695,4281.282227,4361.025879,,,,,,,,,,,,,,,,,,,,,,,,,,,,,,,,,,,,,,,,,,,,,,,,,,,,,,,,,,,,,,,,,,,,,,
1720514570,1,0,4279.230957,4373.589844,4337.94873,4253.333496,4293.461426,4298.846191,4295.512695,4285,4313.205078,4312.692383,4426.282227,4524.487305,4279.615234,4357.820313,,,,,,,,,,,,,,,,,,,,,,,,,,,,,,,,,,,,,,,,,,,,,,,,,,,,,,,,,,,,,,,,,,,,,,
1720514570,2,0,4281.922852,4366.538574,4340.769043,4247.179688,4290.512695,4296.922852,4296.666504,4287.692383,4309.102539,4308.461426,4431.666504,4526.922852,4284.230957,4358.846191,,,,,,,,,,,,,,,,,,,,,,,,,,,,,,,,,,,,,,,,,,,,,,,,,,,,,,,,,,,,,,,,,,,,,,
1720514570,3,0,4281.410156,4362.179688,4338.077148,4243.846191,4293.333496,4291.794922,4296.794922,4291.922852,4320.256348,4314.743652,4436.153809,4523.974121,4291.666504,4362.820313,,,,,,,,,,,,,,,,,,,,,,,,,,,,,,,,,,,,,,,,,,,,,,,,,,,,,,,,,,,,,,,,,,,,,,
1720514570,4,0,4286.282227,4365.128418,4335.769043,4248.846191,4294.871582,4291.410156,4297.436035,4293.846191,4323.974121,4321.025879,4440.512695,4524.487305,4296.794922,4367.563965,,,,,,,,,,,,,,,,,,,,,,,,,,,,,,,,,,,,,,,,,,,,,,,,,,,,,,,,,,,,,,,,,,,,,,
1720514570,5,0,4283.461426,4361.666504,4337.692383,4247.692383,4293.077148,4299.871582,4297.820313,4293.077148,4301.282227,4304.615234,4452.820313,4525.897461,4293.461426,4365.128418,,,,,,,,,,,,,,,,,,,,,,,,,,,,,,,,,,,,,,,,,,,,,,,,,,,,,,,,,,,,,,,,,,,,,,
1720514570,6,0,4278.589844,4358.717773,4337.436035,4255.769043,4296.410156,4308.589844,4294.487305,4291.794922,4288.717773,4294.230957,4463.974121,4517.94873,4287.692383,4353.717773,,,,,,,,,,,,,,,,,,,,,,,,,,,,,,,,,,,,,,,,,,,,,,,,,,,,,,,,,,,,,,,,,,,,,,
1720514570,7,0,4279.102539,4358.974121,4332.692383,4256.538574,4298.589844,4303.077148,4291.410156,4291.153809,4297.436035,4305.641113,4454.487305,4508.077148,4283.717773,4341.538574,,,,,,,,,,,,,,,,,,,,,,,,,,,,,,,,,,,,,,,,,,,,,,,,,,,,,,,,,,,,,,,,,,,,,,
1720514570,8,0,4270.897461,4353.077148,4324.615234,4245.512695,4293.717773,4292.05127,4289.615234,4290.512695,4299.487305,4310.128418,4441.794922,4498.974121,4281.282227,4332.563965,,,,,,,,,,,,,,,,,,,,,,,,,,,,,,,,,,,,,,,,,,,,,,,,,,,,,,,,,,,,,,,,,,,,,,
1720514570,9,0,4260,4347.307617,4318.589844,4245.641113,4289.615234,4293.589844,4289.102539,4291.025879,4295.897461,4304.487305,4447.692383,4497.820313,4286.922852,4332.820313,,,,,,,,,,,,,,,,,,,,,,,,,,,,,,,,,,,,,,,,,,,,,,,,,,,,,,,,,,,,,,,,,,,,,,
1720514570,10,0,4266.025879,4348.974121,4319.102539,4251.410156,4290.128418,4298.205078,4290.256348,4292.179688,4299.871582,4310.641113,4450.897461,4506.025879,4292.436035,4338.589844,,,,,,,,,,,,,,,,,,,,,,,,,,,,,,,,,,,,,,,,,,,,,,,,,,,,,,,,,,,,,,,,,,,,,,
1720514570,11,0,4266.538574,4344.358887,4313.846191,4250.641113,4291.922852,4293.846191,4285.384766,4279.743652,4287.820313,4306.410156,4435.512695,4491.794922,4281.282227,4324.102539,,,,,,,,,,,,,,,,,,,,,,,,,,,,,,,,,,,,,,,,,,,,,,,,,,,,,,,,,,,,,,,,,,,,,,
1720514570,12,0,4248.589844,4330.384766,4299.487305,4245.641113,4292.307617,4290.384766,4269.615234,4270.512695,4263.974121,4280.128418,4413.589844,4468.589844,4257.94873,4299.230957,0.937746,0.925847,1.114813,0.656999,0.184486,0.543764,0.745927,0.560022,0.312921,0.173068,1.32919,1.212714,1.248316,0.435725,0.19833,0.628736,0.350913,0.566307,0.438321,0.280536,0.35625,0.246839,0.069669,0.174527,0.13388,0.152621,0.365138,0.524952,0.12195,0.107867,0.484645,0.526537,0.470041,0.285688,0.139302,0.383863,1.509585,0.621359,0.197717,0.206776,113.984566,33.660915,16.896599,8.296842,2.853446,11.260324,1.979231,3.997082,1.153762,0.370574,2.519606,1.745697,1.463632,0.482079,0.410928,1.429285,2.045481,1.302881,0.501998,0.366271,1.722528,2.007907,1.582631,0.541385,0.189197,21.359015,5.691405,1.626788,0.87668,0.287566
1720514570,13,0,4245.256348,4325.384766,4295.128418,4239.615234,4288.846191,4290.641113,4261.410156,4272.436035,4260.897461,4273.589844,4401.282227,4470.897461,4253.717773,4292.820313,,,,,,,,,,,,,,,,,,,,,,,,,,,,,,,,,,,,,,,,,,,,,,,,,,,,,,,,,,,,,,,,,,,,,,
1720514570,14,0,4260.641113,4335.512695,4307.179688,4242.05127,4288.974121,4289.358887,4273.974121,4272.692383,4277.179688,4293.846191,4417.563965,4486.153809,4274.487305,4300,,,,,,,,,,,,,,,,,,,,,,,,,,,,,,,,,,,,,,,,,,,,,,,,,,,,,,,,,,,,,,,,,,,,,,
1720514570,15,0,4265.512695,4344.487305,4321.025879,4255.256348,4293.717773,4290.512695,4288.846191,4286.410156,4292.692383,4309.871582,4442.436035,4497.05127,4293.333496,4311.410156,,,,,,,,,,,,,,,,,,,,,,,,,,,,,,,,,,,,,,,,,,,,,,,,,,,,,,,,,,,,,,,,,,,,,,
1720514570,16,0,4262.179688,4343.717773,4324.230957,4262.179688,4294.871582,4294.230957,4291.538574,4296.410156,4294.102539,4310.897461,4446.153809,4502.307617,4299.743652,4315,,,,,,,,,,,,,,,,,,,,,,,,,,,,,,,,,,,,,,,,,,,,,,,,,,,,,,,,,,,,,,,,,,,,,,
1720514570,17,0,4267.307617,4341.794922,4317.436035,4262.307617,4293.589844,4297.179688,4291.794922,4286.410156,4287.436035,4302.94873,4443.461426,4499.102539,4293.717773,4303.205078,,,,,,,,,,,,,,,,,,,,,,,,,,,,,,,,,,,,,,,,,,,,,,,,,,,,,,,,,,,,,,,,,,,,,,
1720514570,18,0,4264.871582,4342.94873,4310.256348,4261.922852,4294.615234,4296.410156,4289.615234,4279.615234,4282.179688,4294.358887,4436.794922,4486.922852,4283.974121,4290.769043,,,,,,,,,,,,,,,,,,,,,,,,,,,,,,,,,,,,,,,,,,,,,,,,,,,,,,,,,,,,,,,,,,,,,,
1720514570,19,0,4251.153809,4340.897461,4308.077148,4259.487305,4296.410156,4293.974121,4281.666504,4278.333496,4280.128418,4294.871582,4421.410156,4475.256348,4276.922852,4284.358887,,,,,,,,,,,,,,,,,,,,,,,,,,,,,,,,,,,,,,,,,,,,,,,,,,,,,,,,,,,,,,,,,,,,,,
1720514570,20,0,4250.641113,4338.461426,4310.128418,4257.94873,4294.487305,4293.974121,4282.05127,4278.717773,4278.589844,4295.128418,4423.974121,4481.282227,4277.179688,4279.871582,,,,,,,,,,,,,,,,,,,,,,,,,,,,,,,,,,,,,,,,,,,,,,,,,,,,,,,,,,,,,,,,,,,,,,
1720514570,21,0,4260.641113,4338.717773,4316.666504,4263.461426,4292.307617,4294.230957,4290,4287.307617,4280.128418,4293.974121,4443.974121,4497.307617,4284.615234,4282.307617,,,,,,,,,,,,,,,,,,,,,,,,,,,,,,,,,,,,,,,,,,,,,,,,,,,,,,,,,,,,,,,,,,,,,,
1720514570,22,0,4266.410156,4341.282227,4324.871582,4273.205078,4294.102539,4293.205078,4290.769043,4291.153809,4292.692383,4309.358887,4453.077148,4503.717773,4291.538574,4289.487305,,,,,,,,,,,,,,,,,,,,,,,,,,,,,,,,,,,,,,,,,,,,,,,,,,,,,,,,,,,,,,,,,,,,,,
1720514570,23,0,4269.102539,4343.846191,4325.512695,4280.256348,4294.615234,4293.589844,4290.128418,4289.487305,4302.94873,4323.974121,4455.128418,4509.743652,4295.512695,4289.871582,,,,,,,,,,,,,,,,,,,,,,,,,,,,,,,,,,,,,,,,,,,,,,,,,,,,,,,,,,,,,,,,,,,,,,
1720514570,24,0,4260.512695,4337.563965,4320,4273.846191,4290.128418,4294.743652,4295.256348,4299.743652,4299.102539,4314.102539,4461.410156,4517.820313,4297.820313,4282.436035,,,,,,,,,,,,,,,,,,,,,,,,,,,,,,,,,,,,,,,,,,,,,,,,,,,,,,,,,,,,,,,,,,,,,,
1720514570,25,0,4250.384766,4329.615234,4319.358887,4265.256348,4289.487305,4295,4296.410156,4299.102539,4295.256348,4301.538574,4457.563965,4506.794922,4296.410156,4271.025879,,,,,,,,,,,,,,,,,,,,,,,,,,,,,,,,,,,,,,,,,,,,,,,,,,,,,,,,,,,,,,,,,,,,,,
1720514570,26,0,4254.230957,4332.05127,4321.025879,4273.717773,4294.615234,4294.871582,4292.563965,4284.871582,4293.589844,4297.563965,4443.461426,4489.358887,4282.307617,4258.333496,,,,,,,,,,,,,,,,,,,,,,,,,,,,,,,,,,,,,,,,,,,,,,,,,,,,,,,,,,,,,,,,,,,,,,
1720514570,27,0,4259.871582,4335.128418,4316.538574,4280.384766,4294.102539,4293.077148,4289.230957,4283.717773,4289.102539,4295,4441.025879,4490.256348,4276.538574,4258.077148,,,,,,,,,,,,,,,,,,,,,,,,,,,,,,,,,,,,,,,,,,,,,,,,,,,,,,,,,,,,,,,,,,,,,,
1720514570,28,0,4248.717773,4330,4312.179688,4274.102539,4292.563965,4291.922852,4289.487305,4286.922852,4285.512695,4293.717773,4452.05127,4500.897461,4291.153809,4268.589844,0.930794,0.945499,1.076761,0.636985,0.188766,0.597293,0.863045,0.635093,0.263625,0.17606,1.267085,1.296695,1.170071,0.412298,0.19562,0.889832,0.448525,0.675432,0.383085,0.298089,0.316933,0.21146,0.069931,0.124869,0.118943,0.125048,0.368462,0.525329,0.110344,0.109711,0.339113,0.521807,0.46921,0.296224,0.160418,0.29473,1.767143,0.634155,0.203379,0.211763,116.699249,33.35857,16.516851,8.172262,2.821229,14.56179,2.773223,4.723669,1.393122,0.473208,1.908469,1.974587,1.500181,0.474146,0.364154,1.347854,2.265374,1.209118,0.451597,0.379317,1.592404,2.262644,1.688309,0.509267,0.200485,23.480122,6.281629,1.810934,0.84023,0.31254
1720514570,29,0,4232.692383,4324.615234,4313.846191,4273.461426,4296.922852,4293.205078,4289.230957,4286.666504,4282.692383,4294.358887,4458.717773,4504.743652,4297.563965,4271.410156,,,,,,,,,,,,,,,,,,,,,,,,,,,,,,,,,,,,,,,,,,,,,,,,,,,,,,,,,,,,,,,,,,,,,,
1720514570,30,0,4237.692383,4319.615234,4312.05127,4279.230957,4294.487305,4293.333496,4284.102539,4283.974121,4281.410156,4299.615234,4457.05127,4495.897461,4292.436035,4268.717773,,,,,,,,,,,,,,,,,,,,,,,,,,,,,,,,,,,,,,,,,,,,,,,,,,,,,,,,,,,,,,,,,,,,,,
1720514570,31,0,4246.666504,4310.384766,4306.922852,4274.102539,4282.94873,4293.205078,4282.05127,4284.230957,4285.384766,4300.512695,4457.179688,4487.563965,4295.769043,4280,,,,,,,,,,,,,,,,,,,,,,,,,,,,,,,,,,,,,,,,,,,,,,,,,,,,,,,,,,,,,,,,,,,,,,
1720514570,32,0,4240.128418,4307.692383,4307.563965,4269.487305,4283.717773,4294.487305,4287.05127,4282.05127,4281.410156,4287.05127,4452.563965,4489.743652,4297.05127,4300.128418,,,,,,,,,,,,,,,,,,,,,,,,,,,,,,,,,,,,,,,,,,,,,,,,,,,,,,,,,,,,,,,,,,,,,,
1720514570,33,0,4236.922852,4311.025879,4312.692383,4275.128418,4292.820313,4293.589844,4290.128418,4276.282227,4270.641113,4281.153809,4444.743652,4491.153809,4292.05127,4324.615234,,,,,,,,,,,,,,,,,,,,,,,,,,,,,,,,,,,,,,,,,,,,,,,,,,,,,,,,,,,,,,,,,,,,,,
1720514570,34,0,4246.538574,4310.128418,4318.974121,4276.666504,4287.820313,4294.871582,4291.410156,4278.077148,4273.333496,4292.563965,4451.538574,4492.563965,4295.641113,4365,,,,,,,,,,,,,,,,,,,,,,,,,,,,,,,,,,,,,,,,,,,,,,,,,,,,,,,,,,,,,,,,,,,,,,
1720514570,35,0,4251.153809,4308.717773,4317.563965,4274.487305,4279.487305,4294.487305,4293.077148,4282.94873,4277.94873,4297.94873,4459.102539,4493.717773,4297.692383,4404.615234,,,,,,,,,,,,,,,,,,,,,,,,,,,,,,,,,,,,,,,,,,,,,,,,,,,,,,,,,,,,,,,,,,,,,,
1720514570,36,0,4243.461426,4306.025879,4306.153809,4277.563965,4282.436035,4285.641113,4291.538574,4281.025879,4279.487305,4303.077148,4458.461426,4491.282227,4297.307617,4430.512695,,,,,,,,,,,,,,,,,,,,,,,,,,,,,,,,,,,,,,,,,,,,,,,,,,,,,,,,,,,,,,,,,,,,,,
1720514570,37,0,4236.282227,4296.666504,4297.692383,4276.025879,4281.538574,4277.94873,4289.102539,4282.436035,4284.615234,4311.922852,4463.974121,4491.794922,4300.769043,4459.743652,,,,,,,,,,,,,,,,,,,,,,,,,,,,,,,,,,,,,,,,,,,,,,,,,,,,,,,,,,,,,,,,,,,,,,
1720514570,38,0,4230.641113,4288.974121,4294.871582,4263.461426,4271.666504,4279.871582,4287.307617,4288.205078,4276.282227,4304.743652,4470.256348,4490.769043,4301.282227,4486.922852,,,,,,,,,,,,,,,,,,,,,,,,,,,,,,,,,,,,,,,,,,,,,,,,,,,,,,,,,,,,,,,,,,,,,,
1720514570,39,0,4229.743652,4288.077148,4288.974121,4255.897461,4270.256348,4280.256348,4283.589844,4279.743652,4257.307617,4294.615234,4462.563965,4479.358887,4297.820313,4493.974121,,,,,,,,,,,,,,,,,,,,,,,,,,,,,,,,,,,,,,,,,,,,,,,,,,,,,,,,,,,,,,,,,,,,,,
1720514570,40,0,4230.384766,4287.436035,4289.615234,4262.05127,4277.94873,4279.743652,4280.384766,4273.333496,4249.230957,4295.897461,4450.897461,4473.205078,4294.230957,4502.820313,,,,,,,,,,,,,,,,,,,,,,,,,,,,,,,,,,,,,,,,,,,,,,,,,,,,,,,,,,,,,,,,,,,,,,
1720514570,41,0,4232.307617,4289.743652,4296.666504,4263.974121,4280.769043,4287.563965,4276.410156,4278.461426,4244.487305,4288.333496,4451.153809,4477.692383,4291.794922,4523.846191,,,,,,,,,,,,,,,,,,,,,,,,,,,,,,,,,,,,,,,,,,,,,,,,,,,,,,,,,,,,,,,,,,,,,,
1720514570,42,0,4239.487305,4294.358887,4300.128418,4261.794922,4278.589844,4292.94873,4277.692383,4271.025879,4233.589844,4278.077148,4457.692383,4477.94873,4294.871582,4536.153809,,,,,,,,,,,,,,,,,,,,,,,,,,,,,,,,,,,,,,,,,,,,,,,,,,,,,,,,,,,,,,,,,,,,,,
1720514570,43,0,4244.102539,4288.333496,4309.102539,4271.025879,4277.436035,4292.692383,4285.897461,4270.769043,4229.487305,4279.230957,4459.871582,4484.487305,4294.743652,4549.230957,,,,,,,,,,,,,,,,,,,,,,,,,,,,,,,,,,,,,,,,,,,,,,,,,,,,,,,,,,,,,,,,,,,,,,
1720514570,44,0,4243.589844,4284.615234,4315.897461,4283.205078,4278.077148,4290.769043,4286.666504,4278.333496,4232.436035,4279.102539,4457.94873,4490.769043,4284.358887,4566.282227,0.961752,0.927424,1.020041,0.629867,0.195714,0.659848,0.931564,0.692633,0.218006,0.17564,1.224613,1.311013,1.078308,0.398353,0.184284,1.73618,0.712804,0.806724,0.379365,0.313661,0.345461,0.18628,0.083062,0.095978,0.105835,0.142577,0.372686,0.484897,0.104352,0.110954,0.306275,0.499569,0.444056,0.298103,0.176347,0.285633,1.854999,0.601563,0.200164,0.213388,103.5812,28.692232,13.936981,6.961113,2.425643,16.90239,3.421769,5.106214,1.566712,0.55544,1.515402,2.040143,1.561669,0.488245,0.330223,1.385421,2.320089,1.110266,0.401369,0.368114,1.478648,2.27679,1.721413,0.473476,0.205497,24.853701,6.093221,1.955808,0.784785,0.314745
1720514570,45,0,4243.333496,4291.025879,4310.256348,4281.794922,4277.436035,4285.512695,4282.436035,4273.205078,4230.641113,4279.743652,4462.692383,4483.589844,4283.717773,4571.922852,,,,,,,,,,,,,,,,,,,,,,,,,,,,,,,,,,,,,,,,,,,,,,,,,,,,,,,,,,,,,,,,,,,,,,
1720514570,46,0,4243.461426,4292.05127,4307.179688,4277.436035,4276.153809,4285,4287.820313,4276.410156,4232.94873,4290.641113,4473.205078,4483.333496,4292.94873,4576.153809,,,,,,,,,,,,,,,,,,,,,,,,,,,,,,,,,,,,,,,,,,,,,,,,,,,,,,,,,,,,,,,,,,,,,,
1720514570,47,0,4245.384766,4286.153809,4313.333496,4278.717773,4275.128418,4291.025879,4295.384766,4285.641113,4242.820313,4297.820313,4475,4491.922852,4295,4587.05127,,,,,,,,,,,,,,,,,,,,,,,,,,,,,,,,,,,,,,,,,,,,,,,,,,,,,,,,,,,,,,,,,,,,,,
1720514570,48,0,4254.487305,4282.436035,4317.563965,4278.717773,4277.307617,4295.512695,4298.077148,4287.94873,4247.692383,4294.487305,4475.128418,4496.922852,4293.205078,4597.307617,,,,,,,,,,,,,,,,,,,,,,,,,,,,,,,,,,,,,,,,,,,,,,,,,,,,,,,,,,,,,,,,,,,,,,
1720514570,49,0,4264.230957,4282.820313,4314.358887,4283.333496,4281.538574,4293.589844,4296.794922,4292.179688,4247.436035,4296.922852,4476.922852,4496.666504,4294.230957,4605.512695,,,,,,,,,,,,,,,,,,,,,,,,,,,,,,,,,,,,,,,,,,,,,,,,,,,,,,,,,,,,,,,,,,,,,,
1720514570,50,0,4268.589844,4286.922852,4311.922852,4287.563965,4278.717773,4288.974121,4290.641113,4290.128418,4247.05127,4305.384766,4476.666504,4498.205078,4298.205078,4612.820313,,,,,,,,,,,,,,,,,,,,,,,,,,,,,,,,,,,,,,,,,,,,,,,,,,,,,,,,,,,,,,,,,,,,,,
1720514570,51,0,4273.077148,4292.05127,4316.922852,4283.077148,4272.820313,4286.025879,4288.461426,4285.128418,4246.666504,4307.563965,4480.897461,4506.922852,4304.615234,4618.205078,,,,,,,,,,,,,,,,,,,,,,,,,,,,,,,,,,,,,,,,,,,,,,,,,,,,,,,,,,,,,,,,,,,,,,
1720514570,52,0,4280.384766,4294.615234,4323.846191,4285.641113,4277.436035,4291.025879,4294.871582,4296.282227,4246.282227,4306.666504,4492.692383,4518.461426,4310.512695,4628.589844,,,,,,,,,,,,,,,,,,,,,,,,,,,,,,,,,,,,,,,,,,,,,,,,,,,,,,,,,,,,,,,,,,,,,,
1720514570,53,0,4282.820313,4297.307617,4316.538574,4296.153809,4285.384766,4296.922852,4295.128418,4291.666504,4233.846191,4304.743652,4498.974121,4509.102539,4311.666504,4633.461426,,,,,,,,,,,,,,,,,,,,,,,,,,,,,,,,,,,,,,,,,,,,,,,,,,,,,,,,,,,,,,,,,,,,,,
1720514570,54,0,4273.846191,4298.077148,4307.307617,4296.282227,4282.563965,4292.179688,4290.897461,4272.436035,4217.436035,4298.589844,4487.94873,4484.615234,4307.05127,4620.384766,,,,,,,,,,,,,,,,,,,,,,,,,,,,,,,,,,,,,,,,,,,,,,,,,,,,,,,,,,,,,,,,,,,,,,
1720514570,55,0,4268.333496,4294.615234,4308.205078,4289.487305,4277.179688,4287.94873,4293.589844,4279.487305,4214.102539,4292.436035,4475.128418,4478.461426,4297.05127,4608.974121,,,,,,,,,,,,,,,,,,,,,,,,,,,,,,,,,,,,,,,,,,,,,,,,,,,,,,,,,,,,,,,,,,,,,,
1720514570,56,0,4272.94873,4290.769043,4307.692383,4293.589844,4278.077148,4291.922852,4293.589844,4283.461426,4218.846191,4292.692383,4475.769043,4482.05127,4292.94873,4610.641113,,,,,,,,,,,,,,,,,,,,,,,,,,,,,,,,,,,,,,,,,,,,,,,,,,,,,,,,,,,,,,,,,,,,,,
1720514570,57,0,4276.153809,4284.230957,4306.153809,4294.871582,4279.230957,4296.794922,4291.922852,4274.615234,4223.461426,4295.384766,4478.717773,4481.153809,4296.794922,4612.94873,,,,,,,,,,,,,,,,,,,,,,,,,,,,,,,,,,,,,,,,,,,,,,,,,,,,,,,,,,,,,,,,,,,,,,
1720514570,58,0,4274.615234,4279.743652,4306.794922,4282.94873,4273.589844,4295.128418,4295.641113,4282.307617,4229.230957,4295,4479.487305,4484.230957,4297.05127,4605.256348,,,,,,,,,,,,,,,,,,,,,,,,,,,,,,,,,,,,,,,,,,,,,,,,,,,,,,,,,,,,,,,,,,,,,,
1720514570,59,0,4277.307617,4279.358887,4307.692383,4280.512695,4267.820313,4290.641113,4295.897461,4290.128418,4232.94873,4296.538574,4486.153809,4485.512695,4295.897461,4596.282227,,,,,,,,,,,,,,,,,,,,,,,,,,,,,,,,,,,,,,,,,,,,,,,,,,,,,,,,,,,,,,,,,,,,,,
1720514570,60,0,4281.410156,4278.077148,4312.94873,4289.230957,4269.358887,4287.692383,4292.94873,4287.307617,4235.128418,4301.025879,4493.846191,4486.666504,4302.179688,4594.487305,1.037739,0.877782,0.914811,0.606489,0.202082,0.728008,0.917372,0.702612,0.175346,0.171333,1.197165,1.272233,0.955646,0.384966,0.168251,3.518588,1.246749,0.979543,0.459668,0.338853,0.384167,0.167563,0.100362,0.085102,0.096036,0.172468,0.359645,0.409125,0.103593,0.11156,0.349328,0.461416,0.396545,0.290928,0.183032,0.31581,1.739824,0.539775,0.193628,0.207901,79.4646,21.309656,10.022941,5.10458,1.804996,17.264629,3.700312,4.931436,1.623139,0.591798,1.322937,1.940982,1.586008,0.534849,0.313107,1.471973,2.190988,0.980284,0.368735,0.336798,1.364526,2.039466,1.595734,0.450853,0.202925,25.69363,5.175594,1.926966,0.737242,0.291983
1720514570,61,0,4281.410156,4276.922852,4317.436035,4284.615234,4270,4283.077148,4290.897461,4286.666504,4235.897461,4298.717773,4486.153809,4493.205078,4307.820313,4588.077148,,,,,,,,,,,,,,,,,,,,,,,,,,,,,,,,,,,,,,,,,,,,,,,,,,,,,,,,,,,,,,,,,,,,,,
1720514570,62,0,4280.641113,4275.897461,4314.615234,4276.410156,4265.384766,4279.358887,4284.743652,4287.820313,4231.153809,4290,4477.820313,4494.871582,4301.410156,4570.256348,,,,,,,,,,,,,,,,,,,,,,,,,,,,,,,,,,,,,,,,,,,,,,,,,,,,,,,,,,,,,,,,,,,,,,
1720514570,63,0,4278.846191,4275,4312.692383,4287.563965,4264.358887,4279.615234,4277.05127,4281.666504,4231.410156,4292.94873,4478.846191,4482.436035,4292.563965,4554.615234,,,,,,,,,,,,,,,,,,,,,,,,,,,,,,,,,,,,,,,,,,,,,,,,,,,,,,,,,,,,,,,,,,,,,,
1720514570,64,0,4279.102539,4274.230957,4306.922852,4293.205078,4267.692383,4280.128418,4275.256348,4275.769043,4235.897461,4298.205078,4478.205078,4471.153809,4292.820313,4547.179688,,,,,,,,,,,,,,,,,,,,,,,,,,,,,,,,,,,,,,,,,,,,,,,,,,,,,,,,,,,,,,,,,,,,,,
1720514570,65,0,4279.743652,4269.102539,4296.282227,4280.256348,4265.384766,4278.589844,4277.692383,4274.743652,4231.922852,4286.282227,4477.307617,4471.922852,4296.025879,4543.974121,,,,,,,,,,,,,,,,,,,,,,,,,,,,,,,,,,,,,,,,,,,,,,,,,,,,,,,,,,,,,,,,,,,,,,
1720514571,66,0,4274.871582,4262.94873,4301.538574,4276.153809,4260.128418,4278.846191,4280.128418,4282.692383,4228.205078,4278.077148,4478.205078,4480.641113,4295,4545.512695,,,,,,,,,,,,,,,,,,,,,,,,,,,,,,,,,,,,,,,,,,,,,,,,,,,,,,,,,,,,,,,,,,,,,,
1720514571,67,0,4272.179688,4262.820313,4309.615234,4280.128418,4265.769043,4280.769043,4281.410156,4279.871582,4229.871582,4284.871582,4475.769043,4482.94873,4294.871582,4541.282227,,,,,,,,,,,,,,,,,,,,,,,,,,,,,,,,,,,,,,,,,,,,,,,,,,,,,,,,,,,,,,,,,,,,,,
1720514571,68,0,4275.128418,4261.794922,4298.717773,4275.641113,4273.846191,4277.94873,4282.94873,4265.769043,4228.846191,4285.512695,4471.666504,4474.615234,4295.256348,4526.153809,,,,,,,,,,,,,,,,,,,,,,,,,,,,,,,,,,,,,,,,,,,,,,,,,,,,,,,,,,,,,,,,,,,,,,
1720514571,69,0,4276.922852,4258.846191,4297.179688,4279.230957,4273.461426,4278.077148,4288.461426,4275.769043,4227.692383,4276.282227,4479.743652,4480.641113,4295,4520.512695,,,,,,,,,,,,,,,,,,,,,,,,,,,,,,,,,,,,,,,,,,,,,,,,,,,,,,,,,,,,,,,,,,,,,,
1720514571,70,0,4285.769043,4267.692383,4312.94873,4295.641113,4273.589844,4291.153809,4293.974121,4285.128418,4238.974121,4279.743652,4490.769043,4491.666504,4301.538574,4523.461426,,,,,,,,,,,,,,,,,,,,,,,,,,,,,,,,,,,,,,,,,,,,,,,,,,,,,,,,,,,,,,,,,,,,,,
1720514571,71,0,4291.794922,4277.179688,4313.846191,4299.743652,4277.05127,4297.436035,4290.641113,4276.538574,4249.743652,4292.05127,4494.615234,4486.794922,4310.897461,4520.769043,,,,,,,,,,,,,,,,,,,,,,,,,,,,,,,,,,,,,,,,,,,,,,,,,,,,,,,,,,,,,,,,,,,,,,
1720514571,72,0,4284.487305,4273.717773,4307.05127,4292.436035,4277.563965,4285.641113,4283.205078,4276.666504,4238.974121,4294.871582,4495.512695,4484.358887,4311.282227,4515.641113,,,,,,,,,,,,,,,,,,,,,,,,,,,,,,,,,,,,,,,,,,,,,,,,,,,,,,,,,,,,,,,,,,,,,,
1720514571,73,0,4285.641113,4273.461426,4312.05127,4294.615234,4275.769043,4277.563965,4280.256348,4281.410156,4229.358887,4293.333496,4491.410156,4491.922852,4309.230957,4511.025879,,,,,,,,,,,,,,,,,,,,,,,,,,,,,,,,,,,,,,,,,,,,,,,,,,,,,,,,,,,,,,,,,,,,,,
1720514571,74,0,4297.307617,4280,4316.410156,4296.153809,4272.94873,4280.512695,4280.897461,4283.461426,4239.358887,4295.128418,4494.743652,4497.692383,4317.307617,4509.230957,,,,,,,,,,,,,,,,,,,,,,,,,,,,,,,,,,,,,,,,,,,,,,,,,,,,,,,,,,,,,,,,,,,,,,
1720514571,75,0,4294.230957,4278.974121,4311.153809,4293.589844,4271.538574,4281.410156,4280.384766,4283.589844,4241.794922,4298.205078,4507.563965,4497.05127,4324.871582,4506.025879,,,,,,,,,,,,,,,,,,,,,,,,,,,,,,,,,,,,,,,,,,,,,,,,,,,,,,,,,,,,,,,,,,,,,,
1720514571,76,0,4281.666504,4271.153809,4308.461426,4302.05127,4271.282227,4278.077148,4278.589844,4278.333496,4229.615234,4293.846191,4505,4494.487305,4317.307617,4495,1.160403,0.824718,0.771258,0.560681,0.207645,0.833674,0.82294,0.659413,0.140876,0.163886,1.21651,1.21764,0.814818,0.370095,0.151759,6.17194,2.047272,1.209674,0.621073,0.379943,0.404894,0.15624,0.112318,0.085905,0.090663,0.204332,0.329014,0.322943,0.108227,0.111296,0.452867,0.42422,0.351444,0.282719,0.179056,0.369593,1.467994,0.477648,0.195721,0.194206,52.099831,13.56829,6.030684,3.222786,1.156989,15.442581,3.533329,4.187887,1.561181,0.572748,1.309803,1.757978,1.551198,0.643665,0.309653,1.61391,1.942752,0.825275,0.381839,0.296995,1.172819,1.643556,1.323257,0.472882,0.194873,25.266193,3.997799,1.69288,0.726658,0.251822
1720514571,77,0,4280.128418,4271.538574,4307.563965,4305.384766,4267.05127,4275.897461,4279.358887,4271.538574,4227.820313,4285.384766,4490.384766,4490.384766,4312.94873,4483.077148,,,,,,,,,,,,,,,,,,,,,,,,,,,,,,,,,,,,,,,,,,,,,,,,,,,,,,,,,,,,,,,,,,,,,,
1720514571,78,0,4280.641113,4276.794922,4300.256348,4297.94873,4263.461426,4280.769043,4278.974121,4270,4225.128418,4279.487305,4492.692383,4481.538574,4317.05127,4473.205078,,,,,,,,,,,,,,,,,,,,,,,,,,,,,,,,,,,,,,,,,,,,,,,,,,,,,,,,,,,,,,,,,,,,,,
1720514571,79,0,4278.461426,4273.846191,4299.230957,4299.487305,4266.282227,4288.205078,4280.384766,4269.230957,4212.563965,4280.128418,4498.461426,4478.846191,4317.179688,4464.358887,,,,,,,,,,,,,,,,,,,,,,,,,,,,,,,,,,,,,,,,,,,,,,,,,,,,,,,,,,,,,,,,,,,,,,
1720514571,80,0,4280.128418,4266.410156,4302.820313,4302.94873,4270.641113,4286.153809,4284.487305,4274.871582,4212.94873,4289.230957,4493.205078,4487.94873,4317.820313,4461.410156,,,,,,,,,,,,,,,,,,,,,,,,,,,,,,,,,,,,,,,,,,,,,,,,,,,,,,,,,,,,,,,,,,,,,,
1720514571,81,0,4283.846191,4265.641113,4302.436035,4299.743652,4276.153809,4278.461426,4287.563965,4279.358887,4221.794922,4294.871582,4496.666504,4494.615234,4326.410156,4461.282227,,,,,,,,,,,,,,,,,,,,,,,,,,,,,,,,,,,,,,,,,,,,,,,,,,,,,,,,,,,,,,,,,,,,,,
1720514571,82,0,4294.358887,4268.589844,4307.179688,4304.871582,4274.615234,4278.333496,4287.307617,4277.307617,4228.333496,4293.974121,4508.205078,4496.666504,4333.333496,4463.974121,,,,,,,,,,,,,,,,,,,,,,,,,,,,,,,,,,,,,,,,,,,,,,,,,,,,,,,,,,,,,,,,,,,,,,
1720514571,83,0,4298.333496,4266.538574,4315.256348,4310.769043,4266.410156,4280.256348,4283.717773,4283.717773,4236.538574,4297.05127,4512.307617,4499.871582,4330.256348,4463.461426,,,,,,,,,,,,,,,,,,,,,,,,,,,,,,,,,,,,,,,,,,,,,,,,,,,,,,,,,,,,,,,,,,,,,,
1720514571,84,0,4286.153809,4264.230957,4309.743652,4305.128418,4271.025879,4276.666504,4279.230957,4282.692383,4232.307617,4296.538574,4503.846191,4494.230957,4327.436035,4451.153809,,,,,,,,,,,,,,,,,,,,,,,,,,,,,,,,,,,,,,,,,,,,,,,,,,,,,,,,,,,,,,,,,,,,,,
1720514571,85,0,4276.794922,4262.563965,4300.384766,4303.846191,4278.333496,4273.846191,4278.461426,4276.025879,4216.666504,4282.820313,4496.538574,4486.794922,4326.410156,4436.153809,,,,,,,,,,,,,,,,,,,,,,,,,,,,,,,,,,,,,,,,,,,,,,,,,,,,,,,,,,,,,,,,,,,,,,
1720514571,86,0,4282.307617,4260.256348,4300.256348,4310,4275.512695,4277.436035,4283.461426,4278.589844,4215.128418,4279.871582,4502.820313,4491.153809,4325.256348,4427.692383,,,,,,,,,,,,,,,,,,,,,,,,,,,,,,,,,,,,,,,,,,,,,,,,,,,,,,,,,,,,,,,,,,,,,,
1720514571,87,0,4285.256348,4261.025879,4298.717773,4307.179688,4274.871582,4282.820313,4284.871582,4278.461426,4222.179688,4289.358887,4511.922852,4491.538574,4329.358887,4422.94873,,,,,,,,,,,,,,,,,,,,,,,,,,,,,,,,,,,,,,,,,,,,,,,,,,,,,,,,,,,,,,,,,,,,,,
1720514571,88,0,4277.179688,4261.538574,4295.641113,4297.94873,4277.436035,4280.256348,4280.256348,4277.179688,4217.820313,4284.358887,4500.384766,4482.307617,4327.436035,4411.538574,,,,,,,,,,,,,,,,,,,,,,,,,,,,,,,,,,,,,,,,,,,,,,,,,,,,,,,,,,,,,,,,,,,,,,
1720514571,89,0,4272.563965,4257.820313,4295.128418,4292.820313,4277.179688,4275.897461,4278.205078,4278.205078,4211.794922,4272.94873,4485.256348,4478.205078,4315,4391.410156,,,,,,,,,,,,,,,,,,,,,,,,,,,,,,,,,,,,,,,,,,,,,,,,,,,,,,,,,,,,,,,,,,,,,,
1720514571,90,0,4274.871582,4257.436035,4291.922852,4292.94873,4277.436035,4277.94873,4279.102539,4272.563965,4216.025879,4273.846191,4494.358887,4480,4309.487305,4380.256348,,,,,,,,,,,,,,,,,,,,,,,,,,,,,,,,,,,,,,,,,,,,,,,,,,,,,,,,,,,,,,,,,,,,,,
1720514571,91,0,4275,4256.666504,4284.743652,4295.512695,4275.256348,4278.333496,4277.563965,4268.077148,4218.717773,4277.05127,4495.897461,4478.333496,4310.641113,4378.846191,,,,,,,,,,,,,,,,,,,,,,,,,,,,,,,,,,,,,,,,,,,,,,,,,,,,,,,,,,,,,,,,,,,,,,
1720514571,92,0,4274.615234,4252.436035,4285.641113,4300.897461,4273.333496,4275.256348,4278.717773,4271.922852,4218.205078,4275.641113,4478.461426,4475.256348,4307.94873,4371.922852,1.330003,0.796975,0.638352,0.503678,0.214106,1.03218,0.681714,0.588546,0.120049,0.154355,1.308897,1.184131,0.702892,0.355729,0.138357,9.281923,2.957637,1.47792,0.81644,0.431056,0.421325,0.154256,0.113735,0.091354,0.089573,0.238102,0.298467,0.255053,0.119146,0.11012,0.600907,0.41495,0.337512,0.281982,0.166037,0.447425,1.144375,0.43416,0.214175,0.175669,29.286806,7.522687,3.019055,1.827235,0.649215,11.99578,3.038603,3.08807,1.42425,0.508876,1.466631,1.604402,1.482289,0.824201,0.311854,1.867679,1.697408,0.691473,0.457069,0.262792,0.98309,1.246581,1.005997,0.556887,0.185495,23.771564,3.100014,1.341425,0.765415,0.207967
1720514571,93,0,4277.563965,4254.615234,4294.743652,4303.461426,4277.563965,4275.769043,4279.871582,4269.487305,4213.589844,4277.820313,4479.358887,4475.769043,4315.641113,4364.743652,,,,,,,,,,,,,,,,,,,,,,,,,,,,,,,,,,,,,,,,,,,,,,,,,,,,,,,,,,,,,,,,,,,,,,
1720514571,94,0,4279.487305,4258.205078,4293.717773,4295.641113,4277.179688,4279.358887,4272.05127,4267.05127,4206.153809,4279.615234,4495.769043,4477.05127,4328.205078,4372.05127,,,,,,,,,,,,,,,,,,,,,,,,,,,,,,,,,,,,,,,,,,,,,,,,,,,,,,,,,,,,,,,,,,,,,,
1720514571,95,0,4278.846191,4251.794922,4290.641113,4286.666504,4267.563965,4277.436035,4270.512695,4269.871582,4206.025879,4279.102539,4496.025879,4481.282227,4326.538574,4376.282227,,,,,,,,,,,,,,,,,,,,,,,,,,,,,,,,,,,,,,,,,,,,,,,,,,,,,,,,,,,,,,,,,,,,,,
1720514571,96,0,4280,4247.436035,4295.256348,4291.410156,4264.487305,4273.846191,4282.563965,4270.641113,4214.230957,4280,4497.94873,4490.641113,4328.205078,4368.461426,,,,,,,,,,,,,,,,,,,,,,,,,,,,,,,,,,,,,,,,,,,,,,,,,,,,,,,,,,,,,,,,,,,,,,
1720514571,97,0,4279.358887,4251.025879,4295.897461,4300.897461,4270.641113,4276.025879,4286.922852,4280.128418,4223.077148,4282.692383,4512.94873,4495.897461,4333.846191,4361.410156,,,,,,,,,,,,,,,,,,,,,,,,,,,,,,,,,,,,,,,,,,,,,,,,,,,,,,,,,,,,,,,,,,,,,,
1720514571,98,0,4283.077148,4250.256348,4292.05127,4300.897461,4274.871582,4278.205078,4281.794922,4281.922852,4215.769043,4282.820313,4508.974121,4485.128418,4326.153809,4353.333496,,,,,,,,,,,,,,,,,,,,,,,,,,,,,,,,,,,,,,,,,,,,,,,,,,,,,,,,,,,,,,,,,,,,,,
1720514571,99,0,4297.179688,4252.563965,4296.794922,4305,4276.025879,4277.436035,4278.077148,4271.153809,4202.05127,4281.666504,4497.692383,4477.307617,4324.743652,4347.94873,,,,,,,,,,,,,,,,,,,,,,,,,,,,,,,,,,,,,,,,,,,,,,,,,,,,,,,,,,,,,,,,,,,,,,
1720514571,100,0,4304.871582,4261.922852,4301.410156,4315,4278.077148,4278.205078,4270.641113,4270.897461,4207.820313,4281.922852,4495.384766,4482.307617,4329.230957,4345.641113,,,,,,,,,,,,,,,,,,,,,,,,,,,,,,,,,,,,,,,,,,,,,,,,,,,,,,,,,,,,,,,,,,,,,,
1720514571,101,0,4296.282227,4263.205078,4296.538574,4307.563965,4278.205078,4277.179688,4262.436035,4269.871582,4215.256348,4276.153809,4486.153809,4474.615234,4318.717773,4333.974121,,,,,,,,,,,,,,,,,,,,,,,,,,,,,,,,,,,,,,,,,,,,,,,,,,,,,,,,,,,,,,,,,,,,,,
1720514571,102,0,4292.692383,4262.307617,4295.128418,4297.94873,4276.922852,4274.102539,4261.538574,4262.179688,4204.358887,4271.922852,4481.025879,4463.077148,4309.230957,4323.717773,,,,,,,,,,,,,,,,,,,,,,,,,,,,,,,,,,,,,,,,,,,,,,,,,,,,,,,,,,,,,,,,,,,,,,
1720514571,103,0,4298.077148,4265.641113,4300.512695,4308.717773,4277.179688,4275.641113,4265.128418,4261.794922,4193.077148,4272.436035,4484.358887,4465.512695,4310.897461,4322.307617,,,,,,,,,,,,,,,,,,,,,,,,,,,,,,,,,,,,,,,,,,,,,,,,,,,,,,,,,,,,,,,,,,,,,,
1720514571,104,0,4299.230957,4265.256348,4306.153809,4314.230957,4276.666504,4277.05127,4273.717773,4268.974121,4200.512695,4269.230957,4488.717773,4474.487305,4314.358887,4326.153809,,,,,,,,,,,,,,,,,,,,,,,,,,,,,,,,,,,,,,,,,,,,,,,,,,,,,,,,,,,,,,,,,,,,,,
1720514571,105,0,4303.717773,4262.307617,4309.358887,4307.436035,4276.282227,4276.025879,4280.769043,4278.077148,4213.974121,4267.820313,4499.230957,4481.282227,4320.897461,4335.128418,,,,,,,,,,,,,,,,,,,,,,,,,,,,,,,,,,,,,,,,,,,,,,,,,,,,,,,,,,,,,,,,,,,,,,
1720514571,106,0,4312.692383,4265.897461,4301.922852,4310.769043,4279.230957,4276.410156,4278.846191,4281.794922,4215.641113,4273.846191,4510.128418,4483.205078,4329.358887,4340.641113,,,,,,,,,,,,,,,,,,,,,,,,,,,,,,,,,,,,,,,,,,,,,,,,,,,,,,,,,,,,,,,,,,,,,,
1720514571,107,0,4316.538574,4267.05127,4294.102539,4311.666504,4280,4275.128418,4275.769043,4277.820313,4214.871582,4276.538574,4503.205078,4483.205078,4331.666504,4337.436035,,,,,,,,,,,,,,,,,,,,,,,,,,,,,,,,,,,,,,,,,,,,,,,,,,,,,,,,,,,,,,,,,,,,,,
1720514571,108,0,4321.794922,4265.384766,4301.410156,4305.384766,4277.05127,4277.563965,4277.692383,4280.384766,4222.563965,4274.871582,4492.820313,4491.153809,4332.692383,4342.692383,1.551421,0.803513,0.561235,0.448728,0.222165,1.335371,0.532605,0.525759,0.115366,0.143896,1.467864,1.178743,0.656269,0.343245,0.130581,11.97922,3.7076,1.724598,0.979167,0.476076,0.446171,0.161149,0.104731,0.095986,0.091379,0.281577,0.286772,0.217718,0.136105,0.10788,0.773959,0.450956,0.365002,0.289231,0.147411,0.546083,0.88043,0.411774,0.245441,0.158803,14.686403,4.101819,1.3704,1.104159,0.351415,8.039869,2.453968,1.945533,1.273489,0.424678,1.747556,1.543952,1.397357,1.048064,0.311701,2.252829,1.54788,0.613536,0.583853,0.243984,0.850203,0.967081,0.738195,0.688004,0.178474,23.360949,2.913638,0.989499,0.843516,0.1738
1720514571,109,0,4327.05127,4269.487305,4309.871582,4309.358887,4280.256348,4278.974121,4275.897461,4285.384766,4229.230957,4277.94873,4502.05127,4502.307617,4337.307617,4352.436035,,,,,,,,,,,,,,,,,,,,,,,,,,,,,,,,,,,,,,,,,,,,,,,,,,,,,,,,,,,,,,,,,,,,,,
1720514571,110,0,4317.94873,4267.307617,4301.410156,4308.589844,4280.128418,4266.282227,4263.589844,4272.94873,4216.025879,4274.743652,4504.743652,4490.769043,4334.615234,4343.461426,,,,,,,,,,,,,,,,,,,,,,,,,,,,,,,,,,,,,,,,,,,,,,,,,,,,,,,,,,,,,,,,,,,,,,
1720514571,111,0,4294.743652,4247.820313,4280.769043,4288.333496,4268.333496,4256.410156,4246.538574,4259.615234,4195.641113,4251.922852,4485.641113,4464.743652,4316.666504,4318.077148,,,,,,,,,,,,,,,,,,,,,,,,,,,,,,,,,,,,,,,,,,,,,,,,,,,,,,,,,,,,,,,,,,,,,,
1720514571,112,0,4277.94873,4235.641113,4266.025879,4278.717773,4266.538574,4258.589844,4238.589844,4250.384766,4187.692383,4229.230957,4463.333496,4446.794922,4295.512695,4295.256348,,,,,,,,,,,,,,,,,,,,,,,,,,,,,,,,,,,,,,,,,,,,,,,,,,,,,,,,,,,,,,,,,,,,,,
1720514571,113,0,4275.897461,4241.666504,4274.615234,4290.256348,4277.692383,4262.563965,4246.153809,4246.538574,4193.333496,4233.205078,4458.589844,4448.333496,4297.820313,4295,,,,,,,,,,,,,,,,,,,,,,,,,,,,,,,,,,,,,,,,,,,,,,,,,,,,,,,,,,,,,,,,,,,,,,
1720514571,114,0,4290.128418,4250.256348,4301.025879,4299.358887,4281.922852,4269.615234,4261.794922,4261.153809,4210.512695,4256.922852,4478.846191,4467.436035,4322.94873,4310.512695,,,,,,,,,,,,,,,,,,,,,,,,,,,,,,,,,,,,,,,,,,,,,,,,,,,,,,,,,,,,,,,,,,,,,,
1720514571,115,0,4312.05127,4258.205078,4312.820313,4302.436035,4281.282227,4278.333496,4274.615234,4271.410156,4219.102539,4269.615234,4503.333496,4483.333496,4342.436035,4312.692383,,,,,,,,,,,,,,,,,,,,,,,,,,,,,,,,,,,,,,,,,,,,,,,,,,,,,,,,,,,,,,,,,,,,,,
1720514571,116,0,4321.153809,4259.230957,4309.487305,4308.974121,4283.461426,4279.230957,4280.256348,4271.922852,4214.615234,4263.461426,4503.974121,4491.538574,4342.436035,4308.717773,,,,,,,,,,,,,,,,,,,,,,,,,,,,,,,,,,,,,,,,,,,,,,,,,,,,,,,,,,,,,,,,,,,,,,
1720514571,117,0,4313.333496,4251.538574,4309.358887,4312.820313,4280.512695,4280.512695,4280.384766,4273.717773,4214.615234,4262.307617,4493.461426,4492.307617,4334.615234,4311.025879,,,,,,,,,,,,,,,,,,,,,,,,,,,,,,,,,,,,,,,,,,,,,,,,,,,,,,,,,,,,,,,,,,,,,,
1720514571,118,0,4307.307617,4248.077148,4304.102539,4304.615234,4278.333496,4280.769043,4275,4277.436035,4222.05127,4273.461426,4504.102539,4491.410156,4336.666504,4308.077148,,,,,,,,,,,,,,,,,,,,,,,,,,,,,,,,,,,,,,,,,,,,,,,,,,,,,,,,,,,,,,,,,,,,,,
1720514571,119,0,4310,4249.615234,4295.897461,4297.563965,4281.922852,4270.641113,4266.410156,4282.563965,4231.538574,4276.153809,4513.846191,4491.794922,4342.820313,4300.512695,,,,,,,,,,,,,,,,,,,,,,,,,,,,,,,,,,,,,,,,,,,,,,,,,,,,,,,,,,,,,,,,,,,,,,
1720514571,120,0,4310.512695,4247.820313,4298.717773,4296.794922,4279.871582,4261.922852,4262.307617,4280.256348,4230.128418,4268.333496,4501.153809,4488.077148,4343.846191,4298.461426,,,,,,,,,,,,,,,,,,,,,,,,,,,,,,,,,,,,,,,,,,,,,,,,,,,,,,,,,,,,,,,,,,,,,,
1720514571,121,0,4308.717773,4248.077148,4302.179688,4293.974121,4276.922852,4262.692383,4262.692383,4271.282227,4219.230957,4265,4500.256348,4489.102539,4346.282227,4298.461426,,,,,,,,,,,,,,,,,,,,,,,,,,,,,,,,,,,,,,,,,,,,,,,,,,,,,,,,,,,,,,,,,,,,,,
1720514571,122,0,4311.025879,4249.743652,4300.256348,4302.179688,4279.743652,4264.615234,4261.153809,4270.897461,4214.615234,4265.512695,4517.563965,4494.102539,4351.666504,4298.205078,,,,,,,,,,,,,,,,,,,,,,,,,,,,,,,,,,,,,,,,,,,,,,,,,,,,,,,,,,,,,,,,,,,,,,
1720514571,123,0,4317.05127,4250.512695,4301.282227,4311.153809,4281.794922,4262.563965,4258.846191,4270.769043,4218.589844,4263.974121,4513.717773,4490.128418,4352.179688,4298.205078,,,,,,,,,,,,,,,,,,,,,,,,,,,,,,,,,,,,,,,,,,,,,,,,,,,,,,,,,,,,,,,,,,,,,,
1720514571,124,0,4325.641113,4258.077148,4301.410156,4301.922852,4278.846191,4259.743652,4260.384766,4256.153809,4212.692383,4263.589844,4503.333496,4484.487305,4348.846191,4297.179688,1.798108,0.83235,0.565052,0.400926,0.22952,1.71771,0.407153,0.494855,0.12237,0.132848,1.661284,1.183256,0.680524,0.330482,0.129056,13.471998,4.034742,1.866258,1.052297,0.496089,0.490335,0.177518,0.090721,0.096843,0.094633,0.337127,0.301871,0.205535,0.156438,0.104895,0.942846,0.522768,0.41876,0.297232,0.126854,0.650143,0.742533,0.391641,0.276167,0.149231,7.822753,2.898269,0.777409,0.902566,0.229511,4.655117,2.019277,1.041577,1.148387,0.345584,2.077302,1.572889,1.283777,1.251113,0.305617,2.712881,1.527063,0.592934,0.724473,0.241878,0.832097,0.855731,0.560685,0.818382,0.174477,23.969305,3.345963,0.726613,0.925676,0.156019
1720514571,125,0,4327.94873,4257.820313,4303.077148,4291.794922,4278.333496,4266.153809,4262.820313,4261.922852,4212.820313,4263.589844,4514.487305,4497.436035,4350,4303.846191,,,,,,,,,,,,,,,,,,,,,,,,,,,,,,,,,,,,,,,,,,,,,,,,,,,,,,,,,,,,,,,,,,,,,,
1720514571,126,0,4320.769043,4250.256348,4304.358887,4297.307617,4281.282227,4270.256348,4262.307617,4281.282227,4228.077148,4265.128418,4519.102539,4501.025879,4354.102539,4309.102539,,,,,,,,,,,,,,,,,,,,,,,,,,,,,,,,,,,,,,,,,,,,,,,,,,,,,,,,,,,,,,,,,,,,,,
1720514571,127,0,4313.077148,4244.230957,4299.102539,4299.871582,4281.153809,4265.769043,4265.256348,4279.358887,4226.282227,4262.179688,4506.025879,4486.025879,4353.205078,4300.384766,,,,,,,,,,,,,,,,,,,,,,,,,,,,,,,,,,,,,,,,,,,,,,,,,,,,,,,,,,,,,,,,,,,,,,
1720514571,0,0,4307.05127,4237.179688,4294.871582,4293.717773,4279.230957,4268.846191,4275.384766,4282.692383,4213.205078,4252.307617,4501.538574,4486.794922,4346.538574,4294.871582,,,,,,,,,,,,,,,,,,,,,,,,,,,,,,,,,,,,,,,,,,,,,,,,,,,,,,,,,,,,,,,,,,,,,,
1720514571,1,0,4307.820313,4237.692383,4295.769043,4296.025879,4279.358887,4280.512695,4282.179688,4290,4215.128418,4251.153809,4509.743652,4492.307617,4342.307617,4299.358887,,,,,,,,,,,,,,,,,,,,,,,,,,,,,,,,,,,,,,,,,,,,,,,,,,,,,,,,,,,,,,,,,,,,,,
1720514571,2,0,4312.820313,4243.077148,4294.743652,4299.102539,4280.256348,4280.897461,4281.538574,4288.717773,4219.615234,4253.589844,4507.436035,4487.563965,4343.461426,4313.333496,,,,,,,,,,,,,,,,,,,,,,,,,,,,,,,,,,,,,,,,,,,,,,,,,,,,,,,,,,,,,,,,,,,,,,
1720514571,3,0,4307.94873,4239.102539,4293.205078,4295.128418,4278.974121,4272.820313,4279.615234,4289.743652,4216.794922,4251.153809,4494.230957,4485,4342.307617,4333.333496,,,,,,,,,,,,,,,,,,,,,,,,,,,,,,,,,,,,,,,,,,,,,,,,,,,,,,,,,,,,,,,,,,,,,,
1720514571,4,0,4303.461426,4232.94873,4296.410156,4292.820313,4277.820313,4268.205078,4274.743652,4283.205078,4215.641113,4250.897461,4495.897461,4483.205078,4341.410156,4350.256348,,,,,,,,,,,,,,,,,,,,,,,,,,,,,,,,,,,,,,,,,,,,,,,,,,,,,,,,,,,,,,,,,,,,,,
1720514571,5,0,4308.974121,4232.563965,4295.512695,4294.871582,4277.820313,4264.615234,4266.153809,4271.410156,4213.974121,4251.410156,4509.743652,4476.794922,4346.282227,4375.769043,,,,,,,,,,,,,,,,,,,,,,,,,,,,,,,,,,,,,,,,,,,,,,,,,,,,,,,,,,,,,,,,,,,,,,
1720514571,6,0,4306.666504,4232.692383,4285.641113,4293.461426,4277.692383,4262.692383,4260.256348,4271.153809,4212.05127,4248.461426,4504.487305,4470.897461,4349.871582,4413.077148,,,,,,,,,,,,,,,,,,,,,,,,,,,,,,,,,,,,,,,,,,,,,,,,,,,,,,,,,,,,,,,,,,,,,,
1720514571,7,0,4295.897461,4235.384766,4282.05127,4293.717773,4278.461426,4263.846191,4259.615234,4268.846191,4210.512695,4248.077148,4493.077148,4468.846191,4354.230957,4440.128418,,,,,,,,,,,,,,,,,,,,,,,,,,,,,,,,,,,,,,,,,,,,,,,,,,,,,,,,,,,,,,,,,,,,,,
1720514571,8,0,4301.538574,4239.487305,4294.102539,4303.589844,4279.615234,4264.615234,4261.666504,4266.153809,4201.666504,4247.820313,4504.358887,4473.974121,4361.025879,4461.025879,,,,,,,,,,,,,,,,,,,,,,,,,,,,,,,,,,,,,,,,,,,,,,,,,,,,,,,,,,,,,,,,,,,,,,
1720514571,9,0,4319.102539,4240.512695,4302.436035,4304.615234,4280.769043,4263.717773,4263.974121,4280.384766,4204.615234,4248.461426,4515.512695,4487.692383,4366.282227,4496.666504,,,,,,,,,,,,,,,,,,,,,,,,,,,,,,,,,,,,,,,,,,,,,,,,,,,,,,,,,,,,,,,,,,,,,,
1720514571,10,0,4321.794922,4239.102539,4296.282227,4294.615234,4279.615234,4263.846191,4263.589844,4282.307617,4215.769043,4252.563965,4509.871582,4486.538574,4367.05127,4521.025879,,,,,,,,,,,,,,,,,,,,,,,,,,,,,,,,,,,,,,,,,,,,,,,,,,,,,,,,,,,,,,,,,,,,,,
1720514571,11,0,4309.615234,4230,4290.897461,4291.666504,4272.563965,4271.538574,4262.436035,4270.641113,4207.563965,4245.256348,4500.897461,4472.563965,4363.205078,4525,,,,,,,,,,,,,,,,,,,,,,,,,,,,,,,,,,,,,,,,,,,,,,,,,,,,,,,,,,,,,,,,,,,,,,
1720514571,12,0,4306.282227,4221.922852,4286.794922,4288.589844,4266.538574,4276.282227,4262.94873,4274.615234,4198.846191,4238.974121,4497.307617,4470.128418,4361.282227,4534.871582,2.034726,0.858943,0.651448,0.362536,0.232266,2.113476,0.322845,0.496262,0.13526,0.121211,1.829477,1.171948,0.749509,0.317167,0.133063,13.243069,3.815514,1.838693,1.016896,0.478903,0.556099,0.204542,0.079675,0.09513,0.098428,0.394561,0.337212,0.206673,0.174951,0.101922,1.063391,0.612981,0.484648,0.296152,0.10723,0.730517,0.737024,0.35953,0.291212,0.148722,5.252798,2.798334,0.63202,0.905322,0.198664,2.508206,1.845098,0.501247,1.048087,0.286458,2.353267,1.648661,1.13143,1.362578,0.296698,3.108371,1.609057,0.618769,0.832434,0.250402,0.921171,0.896825,0.464431,0.89341,0.171611,24.619993,4.04285,0.587708,0.968634,0.153344
1720514571,13,0,4306.794922,4220.384766,4278.205078,4277.692383,4265.384766,4269.615234,4263.717773,4281.922852,4210.641113,4246.410156,4502.179688,4470.384766,4363.205078,4548.717773,,,,,,,,,,,,,,,,,,,,,,,,,,,,,,,,,,,,,,,,,,,,,,,,,,,,,,,,,,,,,,,,,,,,,,
1720514571,14,0,4296.922852,4214.358887,4276.922852,4276.922852,4261.794922,4267.563965,4266.025879,4283.589844,4217.436035,4248.205078,4508.717773,4466.153809,4366.410156,4558.461426,,,,,,,,,,,,,,,,,,,,,,,,,,,,,,,,,,,,,,,,,,,,,,,,,,,,,,,,,,,,,,,,,,,,,,
1720514571,15,0,4296.922852,4214.743652,4282.563965,4289.230957,4261.666504,4273.717773,4268.205078,4278.333496,4214.487305,4245,4506.794922,4466.666504,4366.538574,4568.333496,,,,,,,,,,,,,,,,,,,,,,,,,,,,,,,,,,,,,,,,,,,,,,,,,,,,,,,,,,,,,,,,,,,,,,
1720514571,16,0,4315.384766,4229.102539,4289.615234,4297.563965,4263.461426,4275.128418,4266.025879,4272.563965,4215.384766,4247.563965,4503.717773,4472.692383,4365,4580.128418,,,,,,,,,,,,,,,,,,,,,,,,,,,,,,,,,,,,,,,,,,,,,,,,,,,,,,,,,,,,,,,,,,,,,,
1720514571,17,0,4326.794922,4233.077148,4294.743652,4296.922852,4257.436035,4271.794922,4262.179688,4275.897461,4209.871582,4248.717773,4506.153809,4473.974121,4369.487305,4593.846191,,,,,,,,,,,,,,,,,,,,,,,,,,,,,,,,,,,,,,,,,,,,,,,,,,,,,,,,,,,,,,,,,,,,,,
1720514571,18,0,4322.820313,4221.538574,4294.743652,4294.358887,4251.922852,4267.563965,4261.666504,4275.641113,4199.102539,4245.512695,4506.282227,4471.025879,4374.871582,4610.256348,,,,,,,,,,,,,,,,,,,,,,,,,,,,,,,,,,,,,,,,,,,,,,,,,,,,,,,,,,,,,,,,,,,,,,
1720514571,19,0,4321.153809,4216.153809,4293.333496,4294.487305,4253.077148,4263.461426,4262.563965,4269.358887,4200.897461,4243.589844,4505.641113,4475.384766,4374.871582,4622.307617,,,,,,,,,,,,,,,,,,,,,,,,,,,,,,,,,,,,,,,,,,,,,,,,,,,,,,,,,,,,,,,,,,,,,,
1720514571,20,0,4325.769043,4220.769043,4297.563965,4295,4251.922852,4264.102539,4263.333496,4270.769043,4212.179688,4245.641113,4517.307617,4482.307617,4376.538574,4629.358887,,,,,,,,,,,,,,,,,,,,,,,,,,,,,,,,,,,,,,,,,,,,,,,,,,,,,,,,,,,,,,,,,,,,,,
1720514571,21,0,4326.282227,4222.307617,4300.384766,4293.461426,4249.102539,4266.794922,4265.897461,4277.820313,4217.05127,4254.615234,4527.563965,4481.410156,4385.256348,4642.563965,,,,,,,,,,,,,,,,,,,,,,,,,,,,,,,,,,,,,,,,,,,,,,,,,,,,,,,,,,,,,,,,,,,,,,
1720514571,22,0,4318.974121,4215.641113,4291.538574,4293.589844,4248.846191,4264.102539,4266.025879,4278.461426,4220.256348,4262.179688,4516.025879,4470.897461,4386.794922,4652.563965,,,,,,,,,,,,,,,,,,,,,,,,,,,,,,,,,,,,,,,,,,,,,,,,,,,,,,,,,,,,,,,,,,,,,,
1720514571,23,0,4317.94873,4206.153809,4284.230957,4290,4249.230957,4263.333496,4265,4276.666504,4224.358887,4258.846191,4501.922852,4466.025879,4382.307617,4650,,,,,,,,,,,,,,,,,,,,,,,,,,,,,,,,,,,,,,,,,,,,,,,,,,,,,,,,,,,,,,,,,,,,,,
1720514571,24,0,4329.358887,4204.487305,4288.077148,4283.589844,4250.128418,4266.922852,4269.102539,4273.461426,4223.205078,4253.974121,4508.846191,4469.102539,4385.512695,4647.563965,,,,,,,,,,,,,,,,,,,,,,,,,,,,,,,,,,,,,,,,,,,,,,,,,,,,,,,,,,,,,,,,,,,,,,
1720514571,25,0,4330.641113,4204.102539,4291.538574,4283.717773,4248.846191,4266.666504,4273.205078,4280.256348,4222.820313,4253.205078,4521.025879,4471.922852,4389.102539,4654.487305,,,,,,,,,,,,,,,,,,,,,,,,,,,,,,,,,,,,,,,,,,,,,,,,,,,,,,,,,,,,,,,,,,,,,,
1720514571,26,0,4322.05127,4201.922852,4286.410156,4286.025879,4247.692383,4268.461426,4270.769043,4293.205078,4228.846191,4254.230957,4522.307617,4476.666504,4391.922852,4660.641113,,,,,,,,,,,,,,,,,,,,,,,,,,,,,,,,,,,,,,,,,,,,,,,,,,,,,,,,,,,,,,,,,,,,,,
1720514571,27,0,4325.512695,4205.897461,4280.897461,4289.487305,4250.256348,4275.128418,4267.436035,4283.589844,4230.384766,4251.538574,4518.589844,4479.615234,4395.256348,4663.461426,,,,,,,,,,,,,,,,,,,,,,,,,,,,,,,,,,,,,,,,,,,,,,,,,,,,,,,,,,,,,,,,,,,,,,
1720514571,28,0,4333.333496,4206.282227,4287.692383,4288.717773,4247.436035,4277.307617,4265.512695,4276.922852,4225.641113,4247.307617,4518.333496,4481.794922,4394.615234,4674.743652,2.22717,0.866236,0.818222,0.345218,0.227796,2.454494,0.278635,0.516124,0.152636,0.109601,1.913018,1.13224,0.833295,0.315781,0.141514,11.494534,3.128359,1.639034,0.896732,0.427188,0.630682,0.240092,0.077553,0.093764,0.101636,0.437664,0.38627,0.218994,0.188251,0.100378,1.096418,0.732134,0.577304,0.286733,0.090495,0.759099,0.847317,0.332318,0.284839,0.155021,4.053105,2.915396,0.55881,0.880636,0.197376,1.617084,1.875749,0.304341,0.95131,0.249406,2.47178,1.727021,0.979892,1.343196,0.294951,3.272853,1.751806,0.703203,0.87892,0.261078,1.054762,1.042403,0.4453,0.888112,0.168073,25.264488,4.55738,0.573621,0.947012,0.159769
1720514571,29,0,4331.794922,4206.794922,4294.230957,4283.205078,4247.05127,4273.461426,4263.846191,4287.692383,4229.743652,4257.05127,4526.538574,4480.128418,4396.153809,4677.820313,,,,,,,,,,,,,,,,,,,,,,,,,,,,,,,,,,,,,,,,,,,,,,,,,,,,,,,,,,,,,,,,,,,,,,
