Timestamp,EEG.Counter,EEG.Interpolated,EEG.AF3,EEG.F7,EEG.F3,EEG.FC5,EEG.T7,EEG.P7,EEG.O1,EEG.O2,EEG.P8,EEG.T8,EEG.FC6,EEG.F4,EEG.F8,EEG.AF4,POW.AF3.Theta,POW.AF3.Alpha,POW.AF3.BetaL,POW.AF3.BetaH,POW.AF3.Gamma,POW.F7.Theta,POW.F7.Alpha,POW.F7.BetaL,POW.F7.BetaH,POW.F7.Gamma,POW.F3.Theta,POW.F3.Alpha,POW.F3.BetaL,POW.F3.BetaH,POW.F3.Gamma,POW.FC5.Theta,POW.FC5.Alpha,POW.FC5.BetaL,POW.FC5.BetaH,POW.FC5.Gamma,POW.T7.Theta,POW.T7.Alpha,POW.T7.BetaL,POW.T7.BetaH,POW.T7.Gamma,POW.P7.Theta,POW.P7.Alpha,POW.P7.BetaL,POW.P7.BetaH,POW.P7.Gamma,POW.O1.Theta,POW.O1.Alpha,POW.O1.BetaL,POW.O1.BetaH,POW.O1.Gamma,POW.O2.Theta,POW.O2.Alpha,POW.O2.BetaL,POW.O2.BetaH,POW.O2.Gamma,POW.P8.Theta,POW.P8.Alpha,POW.P8.BetaL,POW.P8.BetaH,POW.P8.Gamma,POW.T8.Theta,POW.T8.Alpha,POW.T8.BetaL,POW.T8.BetaH,POW.T8.Gamma,POW.FC6.Theta,POW.FC6.Alpha,POW.FC6.BetaL,POW.FC6.BetaH,POW.FC6.Gamma,POW.F4.Theta,POW.F4.Alpha,POW.F4.BetaL,POW.F4.BetaH,POW.F4.Gamma,POW.F8.Theta,POW.F8.Alpha,POW.F8.BetaL,POW.F8.BetaH,POW.F8.Gamma,POW.AF4.Theta,POW.AF4.Alpha,POW.AF4.BetaL,POW.AF4.BetaH,POW.AF4.Gamma
1720084010,50,0,4360.897461,4387.820313,4315.128418,4355.512695,4390,4380,4383.077148,4363.974121,4403.333496,4328.717773,4337.563965,4485,4302.563965,4228.333496,,,,,,,,,,,,,,,,,,,,,,,,,,,,,,,,,,,,,,,,,,,,,,,,,,,,,,,,,,,,,,,,,,,,,,
1720084010,51,0,4367.563965,4380.256348,4321.025879,4351.410156,4387.179688,4382.307617,4377.563965,4361.282227,4398.717773,4325.384766,4335.512695,4488.333496,4297.692383,4228.205078,,,,,,,,,,,,,,,,,,,,,,,,,,,,,,,,,,,,,,,,,,,,,,,,,,,,,,,,,,,,,,,,,,,,,,
1720084010,52,0,4362.436035,4373.717773,4323.846191,4346.153809,4386.410156,4376.282227,4376.538574,4354.358887,4395.897461,4320.641113,4326.153809,4488.333496,4280.641113,4223.461426,,,,,,,,,,,,,,,,,,,,,,,,,,,,,,,,,,,,,,,,,,,,,,,,,,,,,,,,,,,,,,,,,,,,,,
1720084010,53,0,4360.897461,4379.487305,4320.256348,4344.743652,4386.410156,4371.025879,4378.846191,4358.077148,4397.820313,4326.025879,4333.717773,4492.820313,4285.769043,4228.077148,,,,,,,,,,,,,,,,,,,,,,,,,,,,,,,,,,,,,,,,,,,,,,,,,,,,,,,,,,,,,,,,,,,,,,
1720084010,54,0,4365.897461,4379.487305,4316.153809,4341.282227,4385.641113,4373.077148,4377.563965,4364.615234,4397.436035,4328.974121,4347.05127,4500.897461,4312.692383,4246.153809,,,,,,,,,,,,,,,,,,,,,,,,,,,,,,,,,,,,,,,,,,,,,,,,,,,,,,,,,,,,,,,,,,,,,,
1720084010,55,0,4368.589844,4372.563965,4321.410156,4340.897461,4382.05127,4374.743652,4371.794922,4360.512695,4396.410156,4326.410156,4344.358887,4503.589844,4325.769043,4255.128418,,,,,,,,,,,,,,,,,,,,,,,,,,,,,,,,,,,,,,,,,,,,,,,,,,,,,,,,,,,,,,,,,,,,,,
1720084010,56,0,4371.153809,4375.897461,4325.641113,4344.487305,4377.05127,4371.153809,4366.666504,4353.717773,4395.769043,4330.384766,4342.94873,4501.538574,4328.974121,4252.692383,5.304525,2.87747,0.93005,0.384507,0.207979,1.374693,1.259103,0.735761,0.228383,0.126378,3.800819,3.398572,1.245334,0.420516,0.132047,1.072673,1.105471,0.563168,0.211045,0.120983,0.288695,0.551264,0.230488,0.130593,0.107889,0.296883,0.149814,0.159212,0.071057,0.056789,0.847976,0.431331,0.704056,0.131639,0.14548,1.281469,0.810373,0.341583,0.162535,0.237091,5.39626,2.764431,1.260643,0.676306,0.185832,1.515411,1.13855,0.496054,0.305187,0.120474,5.448189,3.829578,1.816611,0.73025,0.281785,5.275449,4.382016,1.535537,0.453001,0.27703,5.1599,3.360136,1.186548,0.744561,0.232087,10.80762,7.498929,2.174633,0.803083,0.402532
1720084010,57,0,4367.05127,4374.743652,4318.717773,4342.563965,4375.384766,4366.538574,4366.025879,4356.153809,4385.256348,4327.563965,4342.692383,4498.846191,4325.769043,4255.641113,,,,,,,,,,,,,,,,,,,,,,,,,,,,,,,,,,,,,,,,,,,,,,,,,,,,,,,,,,,,,,,,,,,,,,
1720084010,58,0,4359.871582,4370.128418,4316.794922,4344.358887,4378.461426,4367.307617,4365.769043,4350.897461,4377.563965,4324.487305,4332.05127,4489.615234,4313.461426,4246.282227,,,,,,,,,,,,,,,,,,,,,,,,,,,,,,,,,,,,,,,,,,,,,,,,,,,,,,,,,,,,,,,,,,,,,,
1720084010,59,0,4365.512695,4373.461426,4327.05127,4353.717773,4382.05127,4374.102539,4373.589844,4354.102539,4386.282227,4335.769043,4330.384766,4491.794922,4313.205078,4241.153809,,,,,,,,,,,,,,,,,,,,,,,,,,,,,,,,,,,,,,,,,,,,,,,,,,,,,,,,,,,,,,,,,,,,,,
1720084010,60,0,4364.487305,4369.615234,4322.692383,4350.769043,4381.025879,4376.922852,4377.563965,4365.256348,4387.05127,4339.743652,4338.717773,4495.641113,4316.666504,4248.846191,,,,,,,,,,,,,,,,,,,,,,,,,,,,,,,,,,,,,,,,,,,,,,,,,,,,,,,,,,,,,,,,,,,,,,
1720084010,61,0,4340,4354.358887,4300.256348,4331.538574,4375.512695,4371.922852,4365.128418,4356.025879,4374.487305,4327.563965,4325.897461,4475.512695,4295.769043,4228.589844,,,,,,,,,,,,,,,,,,,,,,,,,,,,,,,,,,,,,,,,,,,,,,,,,,,,,,,,,,,,,,,,,,,,,,
1720084010,62,0,4328.717773,4346.538574,4290.641113,4323.846191,4371.410156,4370.641113,4363.077148,4353.077148,4369.487305,4320.256348,4308.589844,4464.487305,4282.94873,4211.794922,,,,,,,,,,,,,,,,,,,,,,,,,,,,,,,,,,,,,,,,,,,,,,,,,,,,,,,,,,,,,,,,,,,,,,
1720084011,63,0,4339.102539,4351.794922,4294.487305,4332.563965,4375.128418,4373.717773,4371.282227,4358.717773,4371.922852,4323.974121,4312.820313,4472.307617,4295.384766,4220.128418,,,,,,,,,,,,,,,,,,,,,,,,,,,,,,,,,,,,,,,,,,,,,,,,,,,,,,,,,,,,,,,,,,,,,,
1720084011,64,0,4343.333496,4356.538574,4296.538574,4334.871582,4375.256348,4375,4373.077148,4358.461426,4372.94873,4330.256348,4325.256348,4475.256348,4302.05127,4226.025879,,,,,,,,,,,,,,,,,,,,,,,,,,,,,,,,,,,,,,,,,,,,,,,,,,,,,,,,,,,,,,,,,,,,,,
1720084011,65,0,4346.794922,4358.333496,4304.102539,4336.538574,4370.897461,4373.846191,4377.563965,4365.641113,4381.666504,4338.333496,4334.102539,4484.358887,4304.487305,4231.922852,,,,,,,,,,,,,,,,,,,,,,,,,,,,,,,,,,,,,,,,,,,,,,,,,,,,,,,,,,,,,,,,,,,,,,
1720084011,66,0,4351.666504,4358.333496,4312.307617,4344.230957,4374.615234,4373.589844,4381.282227,4369.230957,4387.94873,4344.358887,4335.256348,4493.974121,4313.717773,4236.025879,,,,,,,,,,,,,,,,,,,,,,,,,,,,,,,,,,,,,,,,,,,,,,,,,,,,,,,,,,,,,,,,,,,,,,
1720084011,67,0,4345.384766,4356.153809,4308.974121,4345.256348,4373.205078,4374.102539,4374.743652,4360.128418,4377.820313,4341.794922,4327.179688,4483.846191,4310.384766,4224.871582,,,,,,,,,,,,,,,,,,,,,,,,,,,,,,,,,,,,,,,,,,,,,,,,,,,,,,,,,,,,,,,,,,,,,,
1720084011,68,0,4342.820313,4356.282227,4307.820313,4344.743652,4360.256348,4372.692383,4374.487305,4362.820313,4374.358887,4335.256348,4320.256348,4481.538574,4301.538574,4219.615234,,,,,,,,,,,,,,,,,,,,,,,,,,,,,,,,,,,,,,,,,,,,,,,,,,,,,,,,,,,,,,,,,,,,,,
1720084011,69,0,4352.179688,4358.077148,4313.461426,4351.922852,4357.692383,4370.769043,4375.769043,4365.769043,4377.692383,4335.897461,4321.538574,4491.282227,4305.641113,4223.717773,,,,,,,,,,,,,,,,,,,,,,,,,,,,,,,,,,,,,,,,,,,,,,,,,,,,,,,,,,,,,,,,,,,,,,
1720084011,70,0,4354.358887,4359.743652,4315.897461,4353.205078,4366.282227,4370.641113,4367.94873,4349.487305,4372.05127,4340.256348,4324.871582,4485.128418,4313.333496,4213.589844,,,,,,,,,,,,,,,,,,,,,,,,,,,,,,,,,,,,,,,,,,,,,,,,,,,,,,,,,,,,,,,,,,,,,,
1720084011,71,0,4348.333496,4357.436035,4314.358887,4346.538574,4365.897461,4375.897461,4371.282227,4357.436035,4371.153809,4336.794922,4327.692383,4477.820313,4311.153809,4211.794922,,,,,,,,,,,,,,,,,,,,,,,,,,,,,,,,,,,,,,,,,,,,,,,,,,,,,,,,,,,,,,,,,,,,,,
1720084011,72,0,4346.794922,4357.820313,4312.820313,4350.897461,4364.615234,4378.461426,4378.846191,4374.487305,4380.641113,4336.794922,4330.384766,4477.563965,4306.922852,4215,3.853366,2.757216,0.665355,0.439499,0.214203,1.133644,1.215593,0.605985,0.266915,0.130757,3.086537,3.192242,0.792658,0.44298,0.134181,0.967711,0.98748,0.426186,0.219101,0.100801,0.354968,0.652203,0.230738,0.12529,0.095753,0.299425,0.166959,0.097711,0.06047,0.046031,0.783266,0.556116,0.535097,0.094534,0.144038,1.261347,0.927887,0.30003,0.138915,0.259488,4.114467,1.838147,0.973113,0.560597,0.176794,1.416087,1.242028,0.517172,0.258041,0.122855,5.931907,4.239312,1.575428,0.731935,0.270774,5.243924,4.446674,1.069801,0.476985,0.289261,6.269603,4.00417,1.131873,0.795039,0.236773,10.732202,7.269677,1.913311,0.85899,0.410113
1720084011,73,0,4349.743652,4359.743652,4316.153809,4358.205078,4368.589844,4373.589844,4375.769043,4367.307617,4389.358887,4348.974121,4332.820313,4482.307617,4312.05127,4211.538574,,,,,,,,,,,,,,,,,,,,,,,,,,,,,,,,,,,,,,,,,,,,,,,,,,,,,,,,,,,,,,,,,,,,,,
1720084011,74,0,4348.333496,4355.641113,4316.538574,4350.897461,4364.487305,4370.897461,4374.102539,4363.461426,4389.871582,4353.077148,4333.974121,4487.692383,4311.282227,4216.410156,,,,,,,,,,,,,,,,,,,,,,,,,,,,,,,,,,,,,,,,,,,,,,,,,,,,,,,,,,,,,,,,,,,,,,
1720084011,75,0,4344.358887,4353.205078,4310.128418,4341.666504,4360.512695,4375.256348,4375.256348,4365.641113,4386.666504,4344.358887,4327.563965,4481.922852,4300.384766,4215,,,,,,,,,,,,,,,,,,,,,,,,,,,,,,,,,,,,,,,,,,,,,,,,,,,,,,,,,,,,,,,,,,,,,,
1720084011,76,0,4349.487305,4357.05127,4314.358887,4346.410156,4365.641113,4379.743652,4376.922852,4366.666504,4385.641113,4340.512695,4325.256348,4481.922852,4302.179688,4215,,,,,,,,,,,,,,,,,,,,,,,,,,,,,,,,,,,,,,,,,,,,,,,,,,,,,,,,,,,,,,,,,,,,,,
1720084011,77,0,4355.128418,4359.358887,4324.487305,4356.666504,4366.538574,4380.384766,4378.846191,4366.538574,4385.641113,4342.179688,4330.384766,4488.717773,4311.282227,4220.384766,,,,,,,,,,,,,,,,,,,,,,,,,,,,,,,,,,,,,,,,,,,,,,,,,,,,,,,,,,,,,,,,,,,,,,
1720084011,78,0,4353.077148,4361.538574,4325.128418,4358.846191,4361.794922,4382.179688,4382.436035,4367.179688,4388.077148,4345.769043,4339.230957,4488.846191,4312.436035,4221.922852,,,,,,,,,,,,,,,,,,,,,,,,,,,,,,,,,,,,,,,,,,,,,,,,,,,,,,,,,,,,,,,,,,,,,,
1720084011,79,0,4356.282227,4366.025879,4323.205078,4357.820313,4362.307617,4382.820313,4382.820313,4368.589844,4393.461426,4348.589844,4342.94873,4490,4313.461426,4228.589844,,,,,,,,,,,,,,,,,,,,,,,,,,,,,,,,,,,,,,,,,,,,,,,,,,,,,,,,,,,,,,,,,,,,,,
1720084011,80,0,4361.794922,4365.641113,4327.05127,4362.05127,4367.05127,4378.974121,4375.384766,4363.077148,4390.256348,4345.256348,4331.282227,4488.461426,4315.256348,4232.94873,,,,,,,,,,,,,,,,,,,,,,,,,,,,,,,,,,,,,,,,,,,,,,,,,,,,,,,,,,,,,,,,,,,,,,
1720084011,81,0,4357.05127,4363.333496,4326.282227,4366.794922,4370.256348,4380.128418,4376.282227,4361.410156,4381.410156,4338.077148,4318.333496,4480,4309.102539,4228.846191,,,,,,,,,,,,,,,,,,,,,,,,,,,,,,,,,,,,,,,,,,,,,,,,,,,,,,,,,,,,,,,,,,,,,,
1720084011,82,0,4355.128418,4367.692383,4325.897461,4367.179688,4371.538574,4387.05127,4390.256348,4374.615234,4389.615234,4336.410156,4320.769043,4487.05127,4308.589844,4239.743652,,,,,,,,,,,,,,,,,,,,,,,,,,,,,,,,,,,,,,,,,,,,,,,,,,,,,,,,,,,,,,,,,,,,,,
1720084011,83,0,4359.230957,4369.230957,4328.974121,4365.769043,4373.205078,4386.538574,4390.641113,4377.05127,4400.384766,4339.743652,4331.794922,4495.897461,4315.897461,4252.692383,,,,,,,,,,,,,,,,,,,,,,,,,,,,,,,,,,,,,,,,,,,,,,,,,,,,,,,,,,,,,,,,,,,,,,
1720084011,84,0,4359.871582,4365.256348,4327.436035,4365.769043,4373.974121,4379.871582,4379.102539,4363.205078,4396.025879,4340.769043,4335.256348,4485.512695,4313.461426,4242.563965,,,,,,,,,,,,,,,,,,,,,,,,,,,,,,,,,,,,,,,,,,,,,,,,,,,,,,,,,,,,,,,,,,,,,,
1720084011,85,0,4364.487305,4368.333496,4328.333496,4366.922852,4373.589844,4381.922852,4386.025879,4375.128418,4398.205078,4341.666504,4343.333496,4491.153809,4310.256348,4251.666504,,,,,,,,,,,,,,,,,,,,,,,,,,,,,,,,,,,,,,,,,,,,,,,,,,,,,,,,,,,,,,,,,,,,,,
1720084011,86,0,4366.794922,4372.05127,4329.102539,4366.666504,4373.077148,4385.641113,4393.717773,4385,4405.256348,4343.077148,4351.666504,4505,4310.512695,4270.512695,,,,,,,,,,,,,,,,,,,,,,,,,,,,,,,,,,,,,,,,,,,,,,,,,,,,,,,,,,,,,,,,,,,,,,
1720084011,87,0,4362.820313,4366.410156,4325.128418,4364.487305,4370.769043,4382.820313,4385,4372.307617,4403.077148,4343.205078,4346.666504,4501.282227,4315.641113,4263.333496,,,,,,,,,,,,,,,,,,,,,,,,,,,,,,,,,,,,,,,,,,,,,,,,,,,,,,,,,,,,,,,,,,,,,,
1720084011,88,0,4366.922852,4366.410156,4329.230957,4365.897461,4369.358887,4382.563965,4381.538574,4375,4403.589844,4345.512695,4346.666504,4503.717773,4322.563965,4267.179688,2.874964,2.586202,0.485506,0.474995,0.205726,1.019356,1.175718,0.499003,0.288087,0.130895,2.541917,2.844368,0.508637,0.468534,0.13324,0.906617,0.909713,0.309491,0.207967,0.085693,0.433723,0.728719,0.231213,0.119724,0.084385,0.306795,0.190156,0.060604,0.05495,0.038246,0.735376,0.681973,0.375353,0.068602,0.139611,1.219653,0.975442,0.260268,0.116949,0.274879,3.183141,1.422832,0.76558,0.474619,0.161144,1.365315,1.331788,0.538856,0.23552,0.126829,6.179515,4.249543,1.419081,0.719538,0.25892,4.967981,4.104064,0.802463,0.531199,0.294009,6.983533,4.273385,1.200157,0.827609,0.236239,10.204041,6.710359,1.770914,0.89077,0.399435
1720084011,89,0,4372.563965,4375.128418,4339.487305,4370.641113,4368.589844,4383.205078,4382.692383,4374.615234,4404.230957,4351.922852,4351.538574,4509.487305,4316.538574,4280,,,,,,,,,,,,,,,,,,,,,,,,,,,,,,,,,,,,,,,,,,,,,,,,,,,,,,,,,,,,,,,,,,,,,,
1720084011,90,0,4370.769043,4374.871582,4339.230957,4372.307617,4368.846191,4380.641113,4384.358887,4370.897461,4399.743652,4351.666504,4346.922852,4508.461426,4313.077148,4282.05127,,,,,,,,,,,,,,,,,,,,,,,,,,,,,,,,,,,,,,,,,,,,,,,,,,,,,,,,,,,,,,,,,,,,,,
1720084011,91,0,4372.820313,4374.230957,4338.077148,4371.666504,4371.025879,4383.077148,4390.641113,4378.974121,4402.179688,4342.94873,4342.436035,4515,4325.128418,4290.769043,,,,,,,,,,,,,,,,,,,,,,,,,,,,,,,,,,,,,,,,,,,,,,,,,,,,,,,,,,,,,,,,,,,,,,
1720084011,92,0,4380,4383.461426,4347.436035,4374.743652,4373.077148,4389.615234,4393.205078,4380.128418,4408.077148,4340.897461,4353.077148,4529.615234,4331.153809,4301.282227,,,,,,,,,,,,,,,,,,,,,,,,,,,,,,,,,,,,,,,,,,,,,,,,,,,,,,,,,,,,,,,,,,,,,,
1720084011,93,0,4382.307617,4388.205078,4353.461426,4380,4374.871582,4388.717773,4391.025879,4375.897461,4402.179688,4342.436035,4356.282227,4530.384766,4323.205078,4303.205078,,,,,,,,,,,,,,,,,,,,,,,,,,,,,,,,,,,,,,,,,,,,,,,,,,,,,,,,,,,,,,,,,,,,,,
1720084011,94,0,4381.282227,4384.871582,4349.358887,4380.512695,4379.743652,4385.512695,4391.666504,4373.717773,4392.436035,4337.179688,4341.410156,4520.256348,4318.461426,4306.666504,,,,,,,,,,,,,,,,,,,,,,,,,,,,,,,,,,,,,,,,,,,,,,,,,,,,,,,,,,,,,,,,,,,,,,
1720084011,95,0,4379.615234,4382.94873,4345.512695,4378.461426,4383.717773,4386.922852,4389.871582,4366.153809,4393.717773,4335.512695,4341.025879,4517.563965,4321.922852,4308.717773,,,,,,,,,,,,,,,,,,,,,,,,,,,,,,,,,,,,,,,,,,,,,,,,,,,,,,,,,,,,,,,,,,,,,,
1720084011,96,0,4379.230957,4386.025879,4346.410156,4381.282227,4381.153809,4388.205078,4386.922852,4369.615234,4396.666504,4344.358887,4355.256348,4527.307617,4328.589844,4313.333496,,,,,,,,,,,,,,,,,,,,,,,,,,,,,,,,,,,,,,,,,,,,,,,,,,,,,,,,,,,,,,,,,,,,,,
1720084011,97,0,4383.333496,4390,4351.282227,4384.743652,4379.615234,4388.077148,4391.794922,4387.307617,4396.025879,4353.589844,4358.846191,4536.025879,4336.282227,4324.358887,,,,,,,,,,,,,,,,,,,,,,,,,,,,,,,,,,,,,,,,,,,,,,,,,,,,,,,,,,,,,,,,,,,,,,
1720084011,98,0,4382.436035,4387.179688,4356.538574,4383.717773,4382.307617,4388.461426,4393.974121,4381.410156,4401.282227,4357.179688,4356.153809,4530.897461,4336.410156,4313.974121,,,,,,,,,,,,,,,,,,,,,,,,,,,,,,,,,,,,,,,,,,,,,,,,,,,,,,,,,,,,,,,,,,,,,,
1720084011,99,0,4380.769043,4383.333496,4355.769043,4386.282227,4381.666504,4390.128418,4393.461426,4376.410156,4407.563965,4356.410156,4364.487305,4530.641113,4331.922852,4306.410156,,,,,,,,,,,,,,,,,,,,,,,,,,,,,,,,,,,,,,,,,,,,,,,,,,,,,,,,,,,,,,,,,,,,,,
1720084011,100,0,4394.358887,4393.461426,4355.769043,4394.871582,4381.282227,4390.384766,4394.615234,4385.384766,4408.717773,4359.743652,4370.256348,4537.307617,4335.256348,4322.94873,,,,,,,,,,,,,,,,,,,,,,,,,,,,,,,,,,,,,,,,,,,,,,,,,,,,,,,,,,,,,,,,,,,,,,
1720084011,101,0,4415.256348,4410.128418,4368.077148,4404.615234,4388.846191,4392.307617,4396.666504,4385,4411.282227,4366.282227,4365.128418,4538.974121,4342.436035,4328.333496,,,,,,,,,,,,,,,,,,,,,,,,,,,,,,,,,,,,,,,,,,,,,,,,,,,,,,,,,,,,,,,,,,,,,,
1720084011,102,0,4427.436035,4418.205078,4381.538574,4412.692383,4399.871582,4396.666504,4404.871582,4390,4414.743652,4363.974121,4366.282227,4543.974121,4332.307617,4325.256348,,,,,,,,,,,,,,,,,,,,,,,,,,,,,,,,,,,,,,,,,,,,,,,,,,,,,,,,,,,,,,,,,,,,,,
1720084011,103,0,4429.615234,4417.05127,4380.128418,4414.358887,4397.820313,4397.436035,4403.077148,4387.692383,4406.794922,4355.384766,4364.487305,4543.846191,4311.666504,4324.230957,,,,,,,,,,,,,,,,,,,,,,,,,,,,,,,,,,,,,,,,,,,,,,,,,,,,,,,,,,,,,,,,,,,,,,
1720084011,104,0,4428.205078,4415.897461,4372.05127,4411.153809,4388.974121,4396.025879,4393.205078,4381.538574,4398.077148,4355.384766,4357.05127,4536.025879,4312.94873,4320.769043,2.539425,2.390494,0.370809,0.476829,0.18527,1.018244,1.104715,0.407437,0.283965,0.125759,2.24631,2.422644,0.373626,0.485771,0.129804,0.898821,0.853507,0.243867,0.181386,0.07819,0.476875,0.772264,0.23109,0.111484,0.074932,0.302802,0.226367,0.047823,0.053625,0.034861,0.700009,0.792761,0.254217,0.05552,0.133432,1.135859,0.937024,0.221446,0.100088,0.280908,2.562639,1.286569,0.608667,0.404826,0.141778,1.342924,1.343768,0.5502,0.222764,0.132467,5.942963,3.825634,1.281041,0.674516,0.249638,4.460298,3.442173,0.668445,0.577604,0.289496,6.836834,4.076879,1.306691,0.808203,0.229537,9.417852,5.787337,1.61763,0.855436,0.371745
1720084011,105,0,4430,4423.333496,4372.179688,4412.436035,4392.820313,4396.282227,4395,4385.897461,4394.358887,4357.94873,4356.538574,4534.871582,4328.205078,4323.717773,,,,,,,,,,,,,,,,,,,,,,,,,,,,,,,,,,,,,,,,,,,,,,,,,,,,,,,,,,,,,,,,,,,,,,
1720084011,106,0,4431.666504,4427.307617,4373.974121,4411.538574,4398.589844,4396.025879,4395.769043,4377.179688,4381.794922,4348.717773,4352.436035,4531.410156,4328.333496,4325.641113,,,,,,,,,,,,,,,,,,,,,,,,,,,,,,,,,,,,,,,,,,,,,,,,,,,,,,,,,,,,,,,,,,,,,,
1720084011,107,0,4428.717773,4418.205078,4371.025879,4405.128418,4390,4394.102539,4389.230957,4366.410156,4371.538574,4339.102539,4346.410156,4520.384766,4319.102539,4321.538574,,,,,,,,,,,,,,,,,,,,,,,,,,,,,,,,,,,,,,,,,,,,,,,,,,,,,,,,,,,,,,,,,,,,,,
1720084011,108,0,4423.461426,4412.692383,4365.256348,4402.94873,4386.538574,4396.282227,4392.692383,4380.769043,4376.922852,4343.846191,4350,4520.384766,4317.307617,4317.820313,,,,,,,,,,,,,,,,,,,,,,,,,,,,,,,,,,,,,,,,,,,,,,,,,,,,,,,,,,,,,,,,,,,,,,
1720084011,109,0,4421.538574,4416.282227,4358.974121,4402.436035,4393.589844,4398.461426,4398.589844,4387.94873,4385.128418,4355.641113,4354.615234,4522.05127,4321.538574,4309.743652,,,,,,,,,,,,,,,,,,,,,,,,,,,,,,,,,,,,,,,,,,,,,,,,,,,,,,,,,,,,,,,,,,,,,,
1720084011,110,0,4422.692383,4416.538574,4360.384766,4400.641113,4392.05127,4396.282227,4397.05127,4382.307617,4388.846191,4360.769043,4359.743652,4519.615234,4326.025879,4304.102539,,,,,,,,,,,,,,,,,,,,,,,,,,,,,,,,,,,,,,,,,,,,,,,,,,,,,,,,,,,,,,,,,,,,,,
1720084011,111,0,4427.563965,4416.794922,4366.153809,4403.846191,4387.307617,4396.538574,4401.538574,4395.256348,4393.974121,4358.846191,4368.077148,4524.743652,4326.025879,4312.436035,,,,,,,,,,,,,,,,,,,,,,,,,,,,,,,,,,,,,,,,,,,,,,,,,,,,,,,,,,,,,,,,,,,,,,
1720084011,112,0,4426.922852,4419.230957,4363.717773,4406.153809,4390,4398.846191,4407.436035,4396.153809,4397.307617,4360,4364.358887,4524.102539,4324.615234,4308.333496,,,,,,,,,,,,,,,,,,,,,,,,,,,,,,,,,,,,,,,,,,,,,,,,,,,,,,,,,,,,,,,,,,,,,,
1720084011,113,0,4415,4413.333496,4355.769043,4397.94873,4388.205078,4399.743652,4407.692383,4388.461426,4397.05127,4360,4359.743652,4521.282227,4326.153809,4300.128418,,,,,,,,,,,,,,,,,,,,,,,,,,,,,,,,,,,,,,,,,,,,,,,,,,,,,,,,,,,,,,,,,,,,,,
1720084011,114,0,4412.05127,4409.487305,4353.077148,4392.94873,4388.205078,4400.128418,4407.179688,4395.256348,4398.461426,4356.538574,4366.538574,4523.461426,4327.307617,4304.230957,,,,,,,,,,,,,,,,,,,,,,,,,,,,,,,,,,,,,,,,,,,,,,,,,,,,,,,,,,,,,,,,,,,,,,
1720084011,115,0,4419.102539,4415.897461,4356.153809,4398.205078,4396.153809,4400.384766,4404.615234,4392.563965,4399.871582,4358.974121,4369.230957,4521.538574,4325.897461,4300,,,,,,,,,,,,,,,,,,,,,,,,,,,,,,,,,,,,,,,,,,,,,,,,,,,,,,,,,,,,,,,,,,,,,,
1720084011,116,0,4421.282227,4417.05127,4360,4400.256348,4395.897461,4401.922852,4406.922852,4390.512695,4401.025879,4363.077148,4368.077148,4523.974121,4325.897461,4305.641113,,,,,,,,,,,,,,,,,,,,,,,,,,,,,,,,,,,,,,,,,,,,,,,,,,,,,,,,,,,,,,,,,,,,,,
1720084011,117,0,4421.922852,4412.820313,4366.153809,4398.205078,4388.974121,4407.692383,4408.974121,4393.205078,4399.358887,4362.563965,4367.820313,4534.487305,4333.077148,4317.563965,,,,,,,,,,,,,,,,,,,,,,,,,,,,,,,,,,,,,,,,,,,,,,,,,,,,,,,,,,,,,,,,,,,,,,
1720084011,118,0,4428.589844,4419.358887,4375.256348,4402.179688,4387.94873,4411.794922,4410.256348,4393.205078,4397.05127,4364.230957,4368.589844,4538.974121,4343.077148,4316.794922,,,,,,,,,,,,,,,,,,,,,,,,,,,,,,,,,,,,,,,,,,,,,,,,,,,,,,,,,,,,,,,,,,,,,,
1720084011,119,0,4432.436035,4428.717773,4376.666504,4405,4389.358887,4407.05127,4411.153809,4392.563965,4400,4368.846191,4372.436035,4531.794922,4344.230957,4318.205078,,,,,,,,,,,,,,,,,,,,,,,,,,,,,,,,,,,,,,,,,,,,,,,,,,,,,,,,,,,,,,,,,,,,,,
1720084011,120,0,4428.846191,4423.077148,4368.205078,4397.94873,4390,4402.94873,4407.563965,4388.205078,4403.717773,4364.230957,4373.589844,4524.102539,4341.666504,4320.641113,2.527272,2.168636,0.287259,0.445934,0.16104,1.083497,0.978687,0.318213,0.258011,0.116369,2.14597,1.992488,0.321092,0.489695,0.126044,0.98464,0.811504,0.233811,0.150759,0.079494,0.478325,0.784235,0.229153,0.101018,0.067983,0.277173,0.274994,0.050464,0.054783,0.035848,0.656328,0.881118,0.177983,0.054957,0.127772,1.00603,0.830435,0.184623,0.092018,0.279701,2.174952,1.208168,0.472838,0.343693,0.12392,1.338207,1.252906,0.55028,0.215585,0.13935,5.35777,3.134984,1.107963,0.605979,0.244739,3.836194,2.664172,0.573504,0.587883,0.277191,6.109548,3.523928,1.377727,0.740224,0.221474,8.026719,4.642796,1.356621,0.751695,0.334358
1720084011,121,0,4423.205078,4412.436035,4363.205078,4395.512695,4390.512695,4405.512695,4408.717773,4386.153809,4401.666504,4358.461426,4373.077148,4524.743652,4343.333496,4318.077148,,,,,,,,,,,,,,,,,,,,,,,,,,,,,,,,,,,,,,,,,,,,,,,,,,,,,,,,,,,,,,,,,,,,,,
1720084011,122,0,4418.846191,4412.436035,4365.256348,4402.563965,4388.717773,4406.153809,4413.205078,4395.512695,4403.589844,4359.230957,4376.410156,4529.487305,4345.128418,4320.897461,,,,,,,,,,,,,,,,,,,,,,,,,,,,,,,,,,,,,,,,,,,,,,,,,,,,,,,,,,,,,,,,,,,,,,
1720084011,123,0,4422.563965,4418.333496,4365.897461,4404.487305,4390.384766,4402.820313,4412.820313,4395,4411.153809,4361.153809,4374.358887,4524.871582,4343.974121,4319.358887,,,,,,,,,,,,,,,,,,,,,,,,,,,,,,,,,,,,,,,,,,,,,,,,,,,,,,,,,,,,,,,,,,,,,,
1720084011,124,0,4429.743652,4419.871582,4365.384766,4401.410156,4396.282227,4402.563965,4409.743652,4383.205078,4412.820313,4363.974121,4373.205078,4519.615234,4342.820313,4306.922852,,,,,,,,,,,,,,,,,,,,,,,,,,,,,,,,,,,,,,,,,,,,,,,,,,,,,,,,,,,,,,,,,,,,,,
1720084011,125,0,4427.692383,4417.563965,4365.897461,4402.05127,4395.769043,4404.358887,4413.974121,4395.384766,4411.410156,4363.077148,4381.410156,4528.333496,4344.487305,4311.153809,,,,,,,,,,,,,,,,,,,,,,,,,,,,,,,,,,,,,,,,,,,,,,,,,,,,,,,,,,,,,,,,,,,,,,
1720084011,126,0,4422.563965,4417.692383,4366.282227,4402.307617,4390.512695,4399.871582,4413.333496,4400.256348,4411.410156,4360.641113,4380,4529.615234,4348.717773,4315.384766,,,,,,,,,,,,,,,,,,,,,,,,,,,,,,,,,,,,,,,,,,,,,,,,,,,,,,,,,,,,,,,,,,,,,,
1720084011,127,0,4425,4417.820313,4368.205078,4398.974121,4385.897461,4396.025879,4406.153809,4388.205078,4411.153809,4363.717773,4376.153809,4522.307617,4351.282227,4310.769043,,,,,,,,,,,,,,,,,,,,,,,,,,,,,,,,,,,,,,,,,,,,,,,,,,,,,,,,,,,,,,,,,,,,,,
1720084011,0,0,4431.153809,4420.256348,4373.333496,4401.410156,4385.769043,4400.641113,4409.102539,4395.769043,4410.256348,4365.641113,4378.589844,4525.897461,4344.358887,4315.256348,,,,,,,,,,,,,,,,,,,,,,,,,,,,,,,,,,,,,,,,,,,,,,,,,,,,,,,,,,,,,,,,,,,,,,
1720084011,1,0,4428.077148,4425.512695,4373.846191,4407.692383,4389.743652,4406.538574,4411.666504,4401.410156,4407.692383,4358.846191,4368.205078,4526.794922,4334.102539,4306.153809,,,,,,,,,,,,,,,,,,,,,,,,,,,,,,,,,,,,,,,,,,,,,,,,,,,,,,,,,,,,,,,,,,,,,,
1720084011,2,0,4419.615234,4422.820313,4365.128418,4405.641113,4390.384766,4406.410156,4410.256348,4395.897461,4403.333496,4354.615234,4363.461426,4520.897461,4338.589844,4301.538574,,,,,,,,,,,,,,,,,,,,,,,,,,,,,,,,,,,,,,,,,,,,,,,,,,,,,,,,,,,,,,,,,,,,,,
1720084011,3,0,4414.615234,4414.358887,4359.102539,4397.179688,4389.615234,4400,4410,4396.025879,4403.077148,4358.205078,4378.205078,4515.128418,4352.307617,4319.358887,,,,,,,,,,,,,,,,,,,,,,,,,,,,,,,,,,,,,,,,,,,,,,,,,,,,,,,,,,,,,,,,,,,,,,
1720084011,4,0,4416.794922,4414.358887,4363.717773,4398.846191,4394.358887,4398.205078,4409.871582,4396.666504,4407.307617,4358.589844,4377.436035,4515.128418,4359.743652,4322.436035,,,,,,,,,,,,,,,,,,,,,,,,,,,,,,,,,,,,,,,,,,,,,,,,,,,,,,,,,,,,,,,,,,,,,,
1720084011,5,0,4420.256348,4417.436035,4368.333496,4405.512695,4397.820313,4403.589844,4411.282227,4395.512695,4410,4357.307617,4367.820313,4525.128418,4362.436035,4315.641113,,,,,,,,,,,,,,,,,,,,,,,,,,,,,,,,,,,,,,,,,,,,,,,,,,,,,,,,,,,,,,,,,,,,,,
1720084011,6,0,4417.05127,4414.487305,4365.384766,4398.077148,4394.102539,4403.589844,4412.94873,4398.717773,4411.410156,4359.358887,4380.256348,4533.077148,4367.692383,4322.179688,,,,,,,,,,,,,,,,,,,,,,,,,,,,,,,,,,,,,,,,,,,,,,,,,,,,,,,,,,,,,,,,,,,,,,
1720084011,7,0,4409.871582,4413.205078,4362.563965,4388.846191,4392.307617,4399.230957,4410.256348,4396.153809,4412.94873,4367.05127,4388.717773,4530,4369.743652,4314.358887,,,,,,,,,,,,,,,,,,,,,,,,,,,,,,,,,,,,,,,,,,,,,,,,,,,,,,,,,,,,,,,,,,,,,,
1720084011,8,0,4412.05127,4414.230957,4368.717773,4393.717773,4394.615234,4401.794922,4411.922852,4404.487305,4414.487305,4377.94873,4384.871582,4533.333496,4368.717773,4307.05127,2.62208,1.934832,0.226697,0.396176,0.141939,1.137152,0.819121,0.236483,0.221506,0.105792,2.099861,1.609156,0.297057,0.479674,0.124794,1.109213,0.791981,0.264112,0.127661,0.088324,0.424565,0.766375,0.226801,0.091773,0.064219,0.230883,0.325045,0.056568,0.056669,0.03994,0.586917,0.939045,0.139561,0.063717,0.124558,0.831567,0.699355,0.153398,0.094666,0.27651,1.842581,1.145244,0.373659,0.291889,0.112666,1.282474,1.090692,0.548163,0.216565,0.146555,4.461689,2.40393,0.910599,0.540047,0.244414,3.135583,1.95414,0.475844,0.555504,0.261641,4.823577,2.802446,1.401885,0.653138,0.220327,6.313675,3.448817,1.027635,0.617789,0.298261
1720084011,9,0,4423.846191,4414.102539,4376.025879,4398.589844,4396.025879,4405.384766,4422.692383,4420,4413.333496,4381.794922,4391.282227,4543.077148,4371.666504,4323.589844,,,,,,,,,,,,,,,,,,,,,,,,,,,,,,,,,,,,,,,,,,,,,,,,,,,,,,,,,,,,,,,,,,,,,,
1720084011,10,0,4426.153809,4413.717773,4375.769043,4395.769043,4396.025879,4402.820313,4421.282227,4409.230957,4410.256348,4374.615234,4400.897461,4538.974121,4375.256348,4325,,,,,,,,,,,,,,,,,,,,,,,,,,,,,,,,,,,,,,,,,,,,,,,,,,,,,,,,,,,,,,,,,,,,,,
1720084011,11,0,4417.307617,4412.179688,4371.538574,4393.589844,4394.230957,4405.512695,4414.230957,4399.102539,4410.256348,4371.666504,4397.436035,4532.179688,4372.94873,4317.820313,,,,,,,,,,,,,,,,,,,,,,,,,,,,,,,,,,,,,,,,,,,,,,,,,,,,,,,,,,,,,,,,,,,,,,
1720084011,12,0,4416.282227,4410.897461,4372.94873,4393.333496,4396.282227,4407.563965,4414.230957,4398.717773,4407.94873,4375.256348,4385.897461,4529.102539,4369.743652,4320.384766,,,,,,,,,,,,,,,,,,,,,,,,,,,,,,,,,,,,,,,,,,,,,,,,,,,,,,,,,,,,,,,,,,,,,,
1720084011,13,0,4425.256348,4412.05127,4377.179688,4394.615234,4399.487305,4404.102539,4415.256348,4396.794922,4404.230957,4373.846191,4386.153809,4528.846191,4376.153809,4323.077148,,,,,,,,,,,,,,,,,,,,,,,,,,,,,,,,,,,,,,,,,,,,,,,,,,,,,,,,,,,,,,,,,,,,,,
1720084011,14,0,4431.410156,4420,4386.282227,4403.333496,4402.563965,4409.358887,4413.974121,4398.717773,4407.307617,4374.102539,4397.436035,4535.384766,4386.794922,4326.410156,,,,,,,,,,,,,,,,,,,,,,,,,,,,,,,,,,,,,,,,,,,,,,,,,,,,,,,,,,,,,,,,,,,,,,
1720084011,15,0,4432.307617,4430.256348,4393.333496,4412.307617,4408.589844,4418.205078,4412.692383,4397.05127,4410.384766,4378.333496,4396.025879,4532.05127,4387.307617,4324.615234,,,,,,,,,,,,,,,,,,,,,,,,,,,,,,,,,,,,,,,,,,,,,,,,,,,,,,,,,,,,,,,,,,,,,,
1720084011,16,0,4430.641113,4431.666504,4386.025879,4413.333496,4412.179688,4419.743652,4413.589844,4394.615234,4404.230957,4377.820313,4384.615234,4522.820313,4382.436035,4317.94873,,,,,,,,,,,,,,,,,,,,,,,,,,,,,,,,,,,,,,,,,,,,,,,,,,,,,,,,,,,,,,,,,,,,,,
1720084011,17,0,4425.769043,4428.846191,4378.077148,4410.897461,4411.025879,4420.897461,4413.974121,4395.897461,4400.384766,4376.282227,4384.230957,4518.077148,4380.769043,4310.256348,,,,,,,,,,,,,,,,,,,,,,,,,,,,,,,,,,,,,,,,,,,,,,,,,,,,,,,,,,,,,,,,,,,,,,
1720084011,18,0,4428.077148,4433.589844,4381.922852,4410.384766,4411.282227,4427.179688,4419.230957,4404.615234,4407.307617,4378.846191,4390.128418,4517.94873,4379.358887,4308.846191,,,,,,,,,,,,,,,,,,,,,,,,,,,,,,,,,,,,,,,,,,,,,,,,,,,,,,,,,,,,,,,,,,,,,,
1720084011,19,0,4438.461426,4442.436035,4388.461426,4412.307617,4412.820313,4428.461426,4428.077148,4414.230957,4414.487305,4384.358887,4400.512695,4526.794922,4386.922852,4321.794922,,,,,,,,,,,,,,,,,,,,,,,,,,,,,,,,,,,,,,,,,,,,,,,,,,,,,,,,,,,,,,,,,,,,,,
1720084011,20,0,4449.871582,4443.589844,4397.692383,4412.94873,4412.94873,4426.153809,4432.05127,4415.897461,4413.846191,4391.538574,4417.94873,4541.666504,4405.384766,4346.410156,,,,,,,,,,,,,,,,,,,,,,,,,,,,,,,,,,,,,,,,,,,,,,,,,,,,,,,,,,,,,,,,,,,,,,
1720084011,21,0,4466.666504,4440.769043,4407.05127,4416.794922,4414.743652,4427.307617,4427.436035,4406.282227,4411.922852,4390.769043,4419.871582,4547.436035,4414.358887,4366.410156,,,,,,,,,,,,,,,,,,,,,,,,,,,,,,,,,,,,,,,,,,,,,,,,,,,,,,,,,,,,,,,,,,,,,,
1720084011,22,0,4494.102539,4446.282227,4414.230957,4423.846191,4415.384766,4427.307617,4427.820313,4412.179688,4413.717773,4384.358887,4418.589844,4554.487305,4416.282227,4397.179688,,,,,,,,,,,,,,,,,,,,,,,,,,,,,,,,,,,,,,,,,,,,,,,,,,,,,,,,,,,,,,,,,,,,,,
1720084011,23,0,4524.615234,4458.333496,4428.974121,4427.820313,4413.461426,4426.666504,4433.333496,4426.666504,4417.563965,4390.897461,4434.102539,4573.846191,4432.05127,4443.205078,,,,,,,,,,,,,,,,,,,,,,,,,,,,,,,,,,,,,,,,,,,,,,,,,,,,,,,,,,,,,,,,,,,,,,
1720084011,24,0,4553.717773,4470.256348,4448.974121,4434.871582,4417.05127,4427.436035,4428.974121,4418.717773,4419.358887,4400.256348,4447.179688,4587.692383,4452.692383,4477.307617,2.711345,1.73131,0.197057,0.344113,0.133324,1.166154,0.67242,0.173251,0.186514,0.098257,2.066188,1.336716,0.280728,0.454851,0.127612,1.244768,0.800454,0.309437,0.118048,0.10119,0.352392,0.71864,0.226309,0.086839,0.06411,0.175676,0.359245,0.05962,0.058752,0.045201,0.497223,0.950048,0.129695,0.077322,0.124565,0.636443,0.584217,0.132854,0.107996,0.276325,1.740763,1.123993,0.329692,0.251459,0.109747,1.182035,0.924688,0.545968,0.226064,0.152792,3.437062,1.842513,0.728609,0.495222,0.246461,2.495235,1.459955,0.380875,0.488395,0.247238,3.426446,2.137629,1.388973,0.574038,0.232109,4.583144,2.44969,0.726899,0.495669,0.272734
1720084011,25,0,4587.820313,4483.846191,4467.05127,4452.05127,4426.153809,4428.717773,4429.102539,4422.307617,4416.922852,4395.256348,4456.410156,4602.179688,4461.153809,4514.743652,,,,,,,,,,,,,,,,,,,,,,,,,,,,,,,,,,,,,,,,,,,,,,,,,,,,,,,,,,,,,,,,,,,,,,
1720084011,26,0,4611.025879,4496.794922,4477.436035,4459.871582,4429.871582,4428.461426,4429.871582,4427.820313,4411.025879,4384.615234,4457.820313,4610.769043,4461.666504,4546.410156,,,,,,,,,,,,,,,,,,,,,,,,,,,,,,,,,,,,,,,,,,,,,,,,,,,,,,,,,,,,,,,,,,,,,,
1720084011,27,0,4614.487305,4492.563965,4474.743652,4447.94873,4422.307617,4426.922852,4426.922852,4413.974121,4406.025879,4376.410156,4441.538574,4601.410156,4448.717773,4544.487305,,,,,,,,,,,,,,,,,,,,,,,,,,,,,,,,,,,,,,,,,,,,,,,,,,,,,,,,,,,,,,,,,,,,,,
1720084011,28,0,4610.128418,4478.717773,4472.94873,4442.179688,4418.205078,4427.179688,4430.897461,4417.05127,4410.384766,4370.512695,4436.153809,4600.256348,4436.666504,4536.153809,,,,,,,,,,,,,,,,,,,,,,,,,,,,,,,,,,,,,,,,,,,,,,,,,,,,,,,,,,,,,,,,,,,,,,
1720084011,29,0,4609.743652,4481.794922,4479.743652,4450,4424.743652,4428.461426,4431.922852,4428.974121,4420.641113,4374.615234,4454.102539,4611.666504,4454.615234,4542.94873,,,,,,,,,,,,,,,,,,,,,,,,,,,,,,,,,,,,,,,,,,,,,,,,,,,,,,,,,,,,,,,,,,,,,,
1720084011,30,0,4611.538574,4493.717773,4480.384766,4450,4429.102539,4429.487305,4432.94873,4430.256348,4432.94873,4387.692383,4473.333496,4618.846191,4481.794922,4553.333496,,,,,,,,,,,,,,,,,,,,,,,,,,,,,,,,,,,,,,,,,,,,,,,,,,,,,,,,,,,,,,,,,,,,,,
1720084011,31,0,4606.153809,4490.128418,4476.538574,4442.179688,4426.794922,4429.615234,4438.333496,4433.717773,4448.333496,4402.563965,4491.922852,4623.717773,4497.179688,4557.563965,,,,,,,,,,,,,,,,,,,,,,,,,,,,,,,,,,,,,,,,,,,,,,,,,,,,,,,,,,,,,,,,,,,,,,
1720084011,32,0,4599.615234,4476.410156,4480.256348,4440.769043,4425.769043,4431.153809,4441.025879,4438.077148,4462.94873,4414.102539,4510.384766,4633.846191,4511.922852,4564.230957,,,,,,,,,,,,,,,,,,,,,,,,,,,,,,,,,,,,,,,,,,,,,,,,,,,,,,,,,,,,,,,,,,,,,,
1720084011,33,0,4606.282227,4477.820313,4484.358887,4444.615234,4427.05127,4432.179688,4440,4438.717773,4473.717773,4413.205078,4511.153809,4641.538574,4524.615234,4579.102539,,,,,,,,,,,,,,,,,,,,,,,,,,,,,,,,,,,,,,,,,,,,,,,,,,,,,,,,,,,,,,,,,,,,,,
1720084011,34,0,4616.025879,4487.307617,4483.333496,4444.102539,4426.282227,4431.794922,4437.436035,4437.563965,4484.487305,4406.538574,4504.230957,4639.871582,4524.487305,4594.358887,,,,,,,,,,,,,,,,,,,,,,,,,,,,,,,,,,,,,,,,,,,,,,,,,,,,,,,,,,,,,,,,,,,,,,
1720084011,35,0,4609.102539,4482.307617,4478.333496,4441.538574,4427.05127,4432.436035,4433.461426,4428.846191,4499.358887,4405.641113,4498.461426,4630.897461,4515.256348,4588.846191,,,,,,,,,,,,,,,,,,,,,,,,,,,,,,,,,,,,,,,,,,,,,,,,,,,,,,,,,,,,,,,,,,,,,,
1720084011,36,0,4603.205078,4472.94873,4476.666504,4443.205078,4427.436035,4432.94873,4439.487305,4431.538574,4510.641113,4403.589844,4492.307617,4628.205078,4507.820313,4572.436035,,,,,,,,,,,,,,,,,,,,,,,,,,,,,,,,,,,,,,,,,,,,,,,,,,,,,,,,,,,,,,,,,,,,,,
1720084011,37,0,4607.307617,4476.922852,4476.282227,4446.794922,4426.282227,4430.256348,4444.230957,4443.077148,4507.436035,4400.384766,4492.307617,4629.230957,4508.205078,4570,,,,,,,,,,,,,,,,,,,,,,,,,,,,,,,,,,,,,,,,,,,,,,,,,,,,,,,,,,,,,,,,,,,,,,
1720084011,38,0,4598.333496,4480.641113,4467.94873,4445.512695,4429.615234,4427.436035,4430,4428.974121,4501.410156,4396.282227,4486.025879,4617.05127,4507.307617,4559.743652,,,,,,,,,,,,,,,,,,,,,,,,,,,,,,,,,,,,,,,,,,,,,,,,,,,,,,,,,,,,,,,,,,,,,,
1720084011,39,0,4577.94873,4468.461426,4455.256348,4438.333496,4427.179688,4427.436035,4425.384766,4422.05127,4511.922852,4386.282227,4471.666504,4606.153809,4493.717773,4540.128418,,,,,,,,,,,,,,,,,,,,,,,,,,,,,,,,,,,,,,,,,,,,,,,,,,,,,,,,,,,,,,,,,,,,,,
1720084011,40,0,4562.179688,4456.538574,4446.025879,4430.641113,4414.358887,4426.538574,4430.641113,4431.153809,4528.077148,4380.256348,4465.512695,4603.077148,4477.820313,4528.205078,2.847621,1.604379,0.208494,0.302249,0.135364,1.202787,0.581907,0.140599,0.160652,0.097302,2.080034,1.206149,0.274949,0.416517,0.134361,1.399082,0.826161,0.35035,0.121331,0.113839,0.301151,0.639986,0.229979,0.08713,0.067548,0.144917,0.366189,0.058643,0.061498,0.049928,0.403558,0.902101,0.139,0.091225,0.12708,0.456935,0.511817,0.125656,0.128489,0.281109,1.671794,1.179146,0.335351,0.2201,0.112737,1.034711,0.818966,0.539566,0.240295,0.156602,2.572595,1.550013,0.590345,0.474143,0.247623,2.093507,1.231005,0.308985,0.402238,0.236541,2.29813,1.672795,1.341687,0.515382,0.255487,3.408794,1.800853,0.522775,0.406458,0.260195
1720084011,41,0,4551.794922,4457.436035,4441.794922,4426.666504,4409.230957,4426.410156,4427.820313,4425.641113,4528.974121,4383.846191,4460.512695,4599.871582,4474.871582,4512.692383,,,,,,,,,,,,,,,,,,,,,,,,,,,,,,,,,,,,,,,,,,,,,,,,,,,,,,,,,,,,,,,,,,,,,,
1720084011,42,0,4540.384766,4462.179688,4439.230957,4429.102539,4416.794922,4426.282227,4430.512695,4425,4535.256348,4383.846191,4446.794922,4597.307617,4477.94873,4486.538574,,,,,,,,,,,,,,,,,,,,,,,,,,,,,,,,,,,,,,,,,,,,,,,,,,,,,,,,,,,,,,,,,,,,,,
1720084011,43,0,4523.461426,4458.333496,4429.871582,4428.846191,4416.794922,4423.974121,4428.717773,4427.94873,4561.922852,4380.384766,4437.563965,4583.589844,4475.256348,4459.230957,,,,,,,,,,,,,,,,,,,,,,,,,,,,,,,,,,,,,,,,,,,,,,,,,,,,,,,,,,,,,,,,,,,,,,
1720084011,44,0,4502.563965,4448.205078,4414.230957,4420.128418,4410.384766,4427.436035,4416.025879,4423.846191,4584.230957,4384.487305,4447.563965,4566.410156,4458.846191,4440.512695,,,,,,,,,,,,,,,,,,,,,,,,,,,,,,,,,,,,,,,,,,,,,,,,,,,,,,,,,,,,,,,,,,,,,,
1720084011,45,0,4484.615234,4439.615234,4403.974121,4411.153809,4412.307617,4428.077148,4411.282227,4423.589844,4587.05127,4386.538574,4453.846191,4559.102539,4441.410156,4419.102539,,,,,,,,,,,,,,,,,,,,,,,,,,,,,,,,,,,,,,,,,,,,,,,,,,,,,,,,,,,,,,,,,,,,,,
1720084011,46,0,4463.974121,4427.563965,4394.358887,4402.179688,4409.102539,4417.692383,4413.589844,4419.230957,4580.256348,4379.230957,4435.256348,4546.282227,4434.743652,4392.820313,,,,,,,,,,,,,,,,,,,,,,,,,,,,,,,,,,,,,,,,,,,,,,,,,,,,,,,,,,,,,,,,,,,,,,
1720084011,47,0,4436.666504,4411.538574,4374.743652,4392.05127,4398.205078,4409.230957,4406.922852,4410.384766,4566.153809,4368.974121,4410.897461,4524.487305,4422.94873,4373.077148,,,,,,,,,,,,,,,,,,,,,,,,,,,,,,,,,,,,,,,,,,,,,,,,,,,,,,,,,,,,,,,,,,,,,,
1720084011,48,0,4415.128418,4404.230957,4360.128418,4386.794922,4395.256348,4412.436035,4396.410156,4408.974121,4557.692383,4361.666504,4400.128418,4510.512695,4406.538574,4357.563965,,,,,,,,,,,,,,,,,,,,,,,,,,,,,,,,,,,,,,,,,,,,,,,,,,,,,,,,,,,,,,,,,,,,,,
1720084011,49,0,4401.922852,4402.94873,4352.692383,4383.846191,4394.871582,4411.538574,4392.94873,4401.282227,4566.922852,4357.563965,4393.077148,4501.538574,4395.128418,4337.820313,,,,,,,,,,,,,,,,,,,,,,,,,,,,,,,,,,,,,,,,,,,,,,,,,,,,,,,,,,,,,,,,,,,,,,
1720084011,50,0,4391.153809,4393.461426,4345.641113,4375.384766,4389.102539,4404.102539,4397.307617,4395.512695,4570.512695,4351.794922,4385,4493.205078,4384.743652,4326.025879,,,,,,,,,,,,,,,,,,,,,,,,,,,,,,,,,,,,,,,,,,,,,,,,,,,,,,,,,,,,,,,,,,,,,,
1720084011,51,0,4378.077148,4386.282227,4339.615234,4369.871582,4386.666504,4407.307617,4399.615234,4407.94873,4559.358887,4345.128418,4384.487305,4491.025879,4375.384766,4329.102539,,,,,,,,,,,,,,,,,,,,,,,,,,,,,,,,,,,,,,,,,,,,,,,,,,,,,,,,,,,,,,,,,,,,,,
1720084011,52,0,4365.897461,4388.333496,4333.846191,4369.615234,4388.333496,4411.282227,4388.205078,4401.410156,4551.153809,4341.282227,4382.820313,4481.025879,4375.384766,4315,,,,,,,,,,,,,,,,,,,,,,,,,,,,,,,,,,,,,,,,,,,,,,,,,,,,,,,,,,,,,,,,,,,,,,
1720084011,53,0,4356.922852,4383.846191,4324.358887,4367.05127,4383.974121,4405.256348,4384.871582,4390.128418,4551.410156,4339.102539,4375.256348,4469.743652,4372.05127,4293.589844,,,,,,,,,,,,,,,,,,,,,,,,,,,,,,,,,,,,,,,,,,,,,,,,,,,,,,,,,,,,,,,,,,,,,,
1720084011,54,0,4347.05127,4372.820313,4315.897461,4364.102539,4379.743652,4401.410156,4394.615234,4400.512695,4561.538574,4338.461426,4370.128418,4467.179688,4358.589844,4290.769043,,,,,,,,,,,,,,,,,,,,,,,,,,,,,,,,,,,,,,,,,,,,,,,,,,,,,,,,,,,,,,,,,,,,,,
1720084011,55,0,4340.769043,4372.692383,4312.563965,4363.077148,4382.05127,4406.282227,4395.128418,4401.282227,4569.358887,4345.128418,4372.05127,4464.615234,4360.256348,4287.307617,,,,,,,,,,,,,,,,,,,,,,,,,,,,,,,,,,,,,,,,,,,,,,,,,,,,,,,,,,,,,,,,,,,,,,
1720084011,56,0,4341.025879,4375.897461,4312.05127,4361.666504,4385.897461,4408.077148,4391.282227,4396.538574,4562.05127,4350.512695,4375.384766,4465.641113,4370.384766,4279.358887,3.344821,1.633118,0.273835,0.275394,0.144181,1.2215,0.563604,0.149371,0.146077,0.104502,2.105796,1.19435,0.293305,0.370308,0.143078,1.512532,0.845709,0.385185,0.131918,0.123111,0.259689,0.534094,0.237938,0.091033,0.073649,0.134198,0.344329,0.054269,0.064755,0.053336,0.321539,0.804269,0.159361,0.100756,0.129828,0.321738,0.498885,0.134051,0.150851,0.288744,1.593192,1.32591,0.371537,0.193963,0.1169,0.864263,0.807511,0.527147,0.254872,0.156466,1.863719,1.511847,0.504823,0.472585,0.245719,1.9859,1.214046,0.281184,0.319408,0.229548,1.564064,1.434246,1.286128,0.48045,0.28084,3.908295,1.647158,0.459515,0.355706,0.256661
1720084011,57,0,4334.230957,4368.717773,4308.846191,4361.025879,4386.153809,4403.205078,4388.974121,4398.333496,4550.512695,4337.05127,4365.128418,4462.94873,4360.641113,4271.922852,,,,,,,,,,,,,,,,,,,,,,,,,,,,,,,,,,,,,,,,,,,,,,,,,,,,,,,,,,,,,,,,,,,,,,
1720084011,58,0,4324.102539,4363.717773,4302.94873,4356.538574,4382.820313,4402.820313,4386.666504,4395.128418,4550.256348,4324.615234,4355.256348,4455.256348,4345.256348,4268.333496,,,,,,,,,,,,,,,,,,,,,,,,,,,,,,,,,,,,,,,,,,,,,,,,,,,,,,,,,,,,,,,,,,,,,,
1720084011,59,0,4325.384766,4369.102539,4302.820313,4349.615234,4381.666504,4403.974121,4390,4392.563965,4554.102539,4330.641113,4361.153809,4453.589844,4350.256348,4274.743652,,,,,,,,,,,,,,,,,,,,,,,,,,,,,,,,,,,,,,,,,,,,,,,,,,,,,,,,,,,,,,,,,,,,,,
1720084011,60,0,4323.461426,4368.077148,4304.871582,4350.128418,4381.153809,4401.282227,4391.666504,4395,4550.641113,4332.307617,4361.153809,4449.871582,4352.563965,4269.871582,,,,,,,,,,,,,,,,,,,,,,,,,,,,,,,,,,,,,,,,,,,,,,,,,,,,,,,,,,,,,,,,,,,,,,
1720084011,61,0,4314.743652,4356.922852,4298.974121,4351.153809,4378.461426,4400.384766,4384.102539,4390.641113,4544.358887,4323.974121,4352.436035,4438.333496,4340.769043,4252.692383,,,,,,,,,,,,,,,,,,,,,,,,,,,,,,,,,,,,,,,,,,,,,,,,,,,,,,,,,,,,,,,,,,,,,,
1720084011,62,0,4317.179688,4359.102539,4294.871582,4344.102539,4382.05127,4404.487305,4380.641113,4389.615234,4540,4328.205078,4349.743652,4440.641113,4340.641113,4256.794922,,,,,,,,,,,,,,,,,,,,,,,,,,,,,,,,,,,,,,,,,,,,,,,,,,,,,,,,,,,,,,,,,,,,,,
1720084012,63,0,4316.666504,4370,4296.153809,4340,4388.461426,4404.743652,4382.563965,4391.410156,4540.256348,4332.692383,4342.94873,4446.153809,4338.974121,4260.897461,,,,,,,,,,,,,,,,,,,,,,,,,,,,,,,,,,,,,,,,,,,,,,,,,,,,,,,,,,,,,,,,,,,,,,
1720084012,64,0,4308.333496,4365.384766,4295.641113,4341.410156,4385.512695,4403.333496,4386.153809,4387.820313,4546.538574,4333.974121,4342.820313,4440.897461,4332.563965,4250.769043,,,,,,,,,,,,,,,,,,,,,,,,,,,,,,,,,,,,,,,,,,,,,,,,,,,,,,,,,,,,,,,,,,,,,,
1720084012,65,0,4309.871582,4359.615234,4296.794922,4342.820313,4380.128418,4406.153809,4397.179688,4397.692383,4556.025879,4344.487305,4365.641113,4444.358887,4343.461426,4261.153809,,,,,,,,,,,,,,,,,,,,,,,,,,,,,,,,,,,,,,,,,,,,,,,,,,,,,,,,,,,,,,,,,,,,,,
1720084012,66,0,4311.922852,4363.333496,4297.692383,4339.487305,4380.128418,4405.384766,4399.487305,4406.153809,4555.641113,4347.692383,4370.256348,4447.820313,4351.922852,4268.589844,,,,,,,,,,,,,,,,,,,,,,,,,,,,,,,,,,,,,,,,,,,,,,,,,,,,,,,,,,,,,,,,,,,,,,
1720084012,67,0,4310,4365.128418,4296.282227,4339.230957,4379.358887,4405.512695,4395.128418,4408.846191,4550.128418,4346.538574,4355.897461,4451.410156,4350.128418,4262.307617,,,,,,,,,,,,,,,,,,,,,,,,,,,,,,,,,,,,,,,,,,,,,,,,,,,,,,,,,,,,,,,,,,,,,,
1720084012,68,0,4324.230957,4371.282227,4306.153809,4350.641113,4382.307617,4412.307617,4399.743652,4415,4549.487305,4354.102539,4369.230957,4464.871582,4362.94873,4279.615234,,,,,,,,,,,,,,,,,,,,,,,,,,,,,,,,,,,,,,,,,,,,,,,,,,,,,,,,,,,,,,,,,,,,,,
1720084012,69,0,4337.05127,4383.333496,4321.410156,4361.538574,4387.179688,4411.922852,4404.230957,4412.05127,4543.205078,4354.743652,4387.820313,4467.307617,4374.487305,4293.974121,,,,,,,,,,,,,,,,,,,,,,,,,,,,,,,,,,,,,,,,,,,,,,,,,,,,,,,,,,,,,,,,,,,,,,
1720084012,70,0,4331.794922,4384.358887,4321.794922,4359.487305,4385,4404.743652,4403.717773,4411.153809,4536.538574,4351.153809,4383.077148,4464.230957,4364.743652,4286.794922,,,,,,,,,,,,,,,,,,,,,,,,,,,,,,,,,,,,,,,,,,,,,,,,,,,,,,,,,,,,,,,,,,,,,,
1720084012,71,0,4329.487305,4379.743652,4313.974121,4356.282227,4383.077148,4406.153809,4404.743652,4413.717773,4537.820313,4352.05127,4382.307617,4470.256348,4363.333496,4286.410156,,,,,,,,,,,,,,,,,,,,,,,,,,,,,,,,,,,,,,,,,,,,,,,,,,,,,,,,,,,,,,,,,,,,,,
1720084012,72,0,4333.974121,4382.436035,4311.410156,4357.692383,4387.820313,4407.179688,4402.94873,4411.922852,4538.974121,4341.410156,4382.307617,4468.974121,4368.077148,4291.538574,4.552783,1.953965,0.405129,0.258268,0.155253,1.256174,0.602548,0.198519,0.14027,0.119751,2.292651,1.247931,0.338322,0.323139,0.151274,1.603699,0.838533,0.410185,0.142272,0.128183,0.250573,0.411586,0.247864,0.095623,0.080803,0.169137,0.301634,0.048264,0.067388,0.055487,0.275008,0.675231,0.180026,0.103481,0.130667,0.273288,0.53242,0.154163,0.17034,0.295617,1.425637,1.545305,0.421809,0.173051,0.119691,0.740161,0.903858,0.51659,0.268884,0.15142,1.533761,1.624645,0.47686,0.488683,0.241622,2.402907,1.28456,0.31034,0.257207,0.224525,1.455528,1.348517,1.276986,0.46704,0.296828,6.679664,2.060612,0.568058,0.335848,0.257376
1720084012,73,0,4331.794922,4386.794922,4313.846191,4355.512695,4386.922852,4400.256348,4397.436035,4410,4537.692383,4333.077148,4364.743652,4458.205078,4354.487305,4286.666504,,,,,,,,,,,,,,,,,,,,,,,,,,,,,,,,,,,,,,,,,,,,,,,,,,,,,,,,,,,,,,,,,,,,,,
1720084012,74,0,4326.794922,4386.538574,4320.512695,4353.589844,4381.282227,4400.897461,4399.615234,4411.922852,4534.102539,4341.794922,4355.897461,4458.846191,4341.025879,4276.922852,,,,,,,,,,,,,,,,,,,,,,,,,,,,,,,,,,,,,,,,,,,,,,,,,,,,,,,,,,,,,,,,,,,,,,
1720084012,75,0,4324.615234,4385.128418,4325.512695,4359.358887,4382.307617,4404.743652,4406.538574,4414.487305,4524.615234,4338.974121,4366.282227,4462.179688,4342.692383,4274.615234,,,,,,,,,,,,,,,,,,,,,,,,,,,,,,,,,,,,,,,,,,,,,,,,,,,,,,,,,,,,,,,,,,,,,,
1720084012,76,0,4327.05127,4386.794922,4324.230957,4362.179688,4388.589844,4404.358887,4404.358887,4413.846191,4523.205078,4333.974121,4372.692383,4461.538574,4357.563965,4287.820313,,,,,,,,,,,,,,,,,,,,,,,,,,,,,,,,,,,,,,,,,,,,,,,,,,,,,,,,,,,,,,,,,,,,,,
1720084012,77,0,4335,4390.384766,4325.128418,4357.94873,4391.153809,4406.025879,4399.871582,4408.333496,4534.743652,4352.820313,4378.461426,4466.538574,4380.897461,4304.230957,,,,,,,,,,,,,,,,,,,,,,,,,,,,,,,,,,,,,,,,,,,,,,,,,,,,,,,,,,,,,,,,,,,,,,
1720084012,78,0,4339.487305,4390,4328.589844,4353.974121,4387.820313,4406.153809,4405.641113,4411.794922,4535,4370.897461,4395.128418,4473.461426,4397.436035,4311.282227,,,,,,,,,,,,,,,,,,,,,,,,,,,,,,,,,,,,,,,,,,,,,,,,,,,,,,,,,,,,,,,,,,,,,,
1720084012,79,0,4338.717773,4388.461426,4328.846191,4356.153809,4388.077148,4402.05127,4412.179688,4427.179688,4530.128418,4363.589844,4404.487305,4483.846191,4398.077148,4323.461426,,,,,,,,,,,,,,,,,,,,,,,,,,,,,,,,,,,,,,,,,,,,,,,,,,,,,,,,,,,,,,,,,,,,,,
1720084012,80,0,4341.538574,4391.282227,4331.666504,4358.846191,4393.077148,4402.563965,4402.563965,4414.871582,4537.563965,4354.743652,4397.307617,4487.94873,4397.05127,4330.769043,,,,,,,,,,,,,,,,,,,,,,,,,,,,,,,,,,,,,,,,,,,,,,,,,,,,,,,,,,,,,,,,,,,,,,
1720084012,81,0,4346.282227,4393.974121,4338.846191,4357.05127,4390.641113,4405.897461,4396.025879,4398.589844,4543.205078,4360.384766,4393.333496,4482.820313,4396.794922,4328.077148,,,,,,,,,,,,,,,,,,,,,,,,,,,,,,,,,,,,,,,,,,,,,,,,,,,,,,,,,,,,,,,,,,,,,,
1720084012,82,0,4348.461426,4395.512695,4338.205078,4357.94873,4386.538574,4403.461426,4403.717773,4412.563965,4534.102539,4367.436035,4391.922852,4480.256348,4390.512695,4335.769043,,,,,,,,,,,,,,,,,,,,,,,,,,,,,,,,,,,,,,,,,,,,,,,,,,,,,,,,,,,,,,,,,,,,,,
1720084012,83,0,4349.230957,4400.512695,4336.538574,4363.461426,4394.230957,4402.820313,4406.666504,4414.102539,4533.077148,4372.692383,4386.538574,4484.615234,4394.871582,4344.102539,,,,,,,,,,,,,,,,,,,,,,,,,,,,,,,,,,,,,,,,,,,,,,,,,,,,,,,,,,,,,,,,,,,,,,
1720084012,84,0,4353.974121,4401.282227,4346.025879,4368.077148,4401.153809,4409.615234,4408.333496,4409.871582,4546.282227,4380.769043,4390.384766,4494.743652,4410.641113,4358.717773,,,,,,,,,,,,,,,,,,,,,,,,,,,,,,,,,,,,,,,,,,,,,,,,,,,,,,,,,,,,,,,,,,,,,,
1720084012,85,0,4357.436035,4395.384766,4351.410156,4367.307617,4397.307617,4410.897461,4411.666504,4415.512695,4533.205078,4387.05127,4396.410156,4496.794922,4412.94873,4371.794922,,,,,,,,,,,,,,,,,,,,,,,,,,,,,,,,,,,,,,,,,,,,,,,,,,,,,,,,,,,,,,,,,,,,,,
1720084012,86,0,4356.794922,4400,4347.563965,4368.205078,4397.94873,4406.025879,4407.820313,4409.358887,4503.461426,4394.871582,4391.922852,4490.641113,4404.615234,4368.205078,,,,,,,,,,,,,,,,,,,,,,,,,,,,,,,,,,,,,,,,,,,,,,,,,,,,,,,,,,,,,,,,,,,,,,
1720084012,87,0,4358.461426,4409.102539,4349.102539,4377.436035,4405,4407.436035,4407.436035,4408.205078,4504.102539,4413.205078,4401.538574,4494.230957,4412.307617,4379.615234,,,,,,,,,,,,,,,,,,,,,,,,,,,,,,,,,,,,,,,,,,,,,,,,,,,,,,,,,,,,,,,,,,,,,,
1720084012,88,0,4365.512695,4409.230957,4357.94873,4382.179688,4410.512695,4413.461426,4416.666504,4424.871582,4523.974121,4434.487305,4427.05127,4507.94873,4431.410156,4416.410156,7.1408,2.656594,0.606197,0.241878,0.16472,1.355961,0.664713,0.28016,0.139814,0.141173,2.803937,1.325611,0.408099,0.280359,0.156342,1.690795,0.810687,0.431427,0.14779,0.129962,0.254298,0.290156,0.260366,0.099048,0.087221,0.223005,0.254525,0.044073,0.067808,0.056809,0.26434,0.550705,0.191012,0.099748,0.129073,0.3083,0.593197,0.177005,0.183974,0.298109,1.368215,1.836458,0.483884,0.161639,0.122683,0.704525,1.117289,0.520991,0.283427,0.142032,1.694328,1.822405,0.503128,0.525181,0.238509,3.469662,1.360316,0.390509,0.222072,0.218629,2.048495,1.375172,1.365483,0.47168,0.297275,13.016737,3.057592,0.83684,0.333513,0.2598
1720084012,89,0,4372.05127,4410.256348,4359.358887,4378.717773,4412.692383,4412.563965,4415.641113,4423.589844,4527.05127,4445,4426.794922,4504.102539,4434.871582,4435,,,,,,,,,,,,,,,,,,,,,,,,,,,,,,,,,,,,,,,,,,,,,,,,,,,,,,,,,,,,,,,,,,,,,,
1720084012,90,0,4369.743652,4407.692383,4350.512695,4371.025879,4408.077148,4410.512695,4406.922852,4410.769043,4520.128418,4444.743652,4412.179688,4489.615234,4431.666504,4433.333496,,,,,,,,,,,,,,,,,,,,,,,,,,,,,,,,,,,,,,,,,,,,,,,,,,,,,,,,,,,,,,,,,,,,,,
1720084012,91,0,4368.461426,4398.717773,4349.358887,4364.358887,4402.692383,4413.846191,4409.871582,4416.025879,4525.897461,4443.077148,4420.641113,4494.615234,4436.538574,4448.461426,,,,,,,,,,,,,,,,,,,,,,,,,,,,,,,,,,,,,,,,,,,,,,,,,,,,,,,,,,,,,,,,,,,,,,
1720084012,92,0,4374.743652,4404.615234,4357.94873,4366.538574,4406.025879,4411.410156,4411.153809,4420.384766,4530.384766,4445.128418,4426.538574,4505,4433.205078,4464.358887,,,,,,,,,,,,,,,,,,,,,,,,,,,,,,,,,,,,,,,,,,,,,,,,,,,,,,,,,,,,,,,,,,,,,,
1720084012,93,0,4381.666504,4414.102539,4366.410156,4375.897461,4410.128418,4410.512695,4411.025879,4424.230957,4527.94873,4443.846191,4413.589844,4513.205078,4429.358887,4470.897461,,,,,,,,,,,,,,,,,,,,,,,,,,,,,,,,,,,,,,,,,,,,,,,,,,,,,,,,,,,,,,,,,,,,,,
1720084012,94,0,4392.563965,4409.487305,4376.538574,4386.025879,4412.307617,4422.307617,4421.153809,4429.615234,4531.410156,4443.717773,4421.025879,4527.692383,4445.897461,4489.230957,,,,,,,,,,,,,,,,,,,,,,,,,,,,,,,,,,,,,,,,,,,,,,,,,,,,,,,,,,,,,,,,,,,,,,
1720084012,95,0,4404.358887,4417.563965,4387.692383,4392.05127,4416.538574,4427.94873,4426.794922,4429.102539,4528.589844,4446.922852,4444.358887,4541.153809,4457.563965,4511.794922,,,,,,,,,,,,,,,,,,,,,,,,,,,,,,,,,,,,,,,,,,,,,,,,,,,,,,,,,,,,,,,,,,,,,,
1720084012,96,0,4405.641113,4429.615234,4386.538574,4391.922852,4417.563965,4417.436035,4420,4429.487305,4513.333496,4443.589844,4436.025879,4539.487305,4450.128418,4522.179688,,,,,,,,,,,,,,,,,,,,,,,,,,,,,,,,,,,,,,,,,,,,,,,,,,,,,,,,,,,,,,,,,,,,,,
1720084012,97,0,4397.05127,4414.102539,4380.384766,4388.589844,4415.769043,4414.743652,4420.897461,4429.615234,4509.358887,4440.256348,4412.05127,4533.205078,4444.487305,4518.717773,,,,,,,,,,,,,,,,,,,,,,,,,,,,,,,,,,,,,,,,,,,,,,,,,,,,,,,,,,,,,,,,,,,,,,
1720084012,98,0,4394.615234,4400.512695,4382.820313,4384.230957,4414.230957,4422.692383,4431.282227,4433.333496,4517.820313,4448.589844,4417.307617,4538.333496,4441.025879,4518.717773,,,,,,,,,,,,,,,,,,,,,,,,,,,,,,,,,,,,,,,,,,,,,,,,,,,,,,,,,,,,,,,,,,,,,,
1720084012,99,0,4402.94873,4417.94873,4385.897461,4385.512695,4410.769043,4418.589844,4424.230957,4432.692383,4514.358887,4452.563965,4429.615234,4536.922852,4438.205078,4525.769043,,,,,,,,,,,,,,,,,,,,,,,,,,,,,,,,,,,,,,,,,,,,,,,,,,,,,,,,,,,,,,,,,,,,,,
1720084012,100,0,4411.538574,4430.641113,4383.205078,4392.179688,4408.974121,4411.794922,4412.692383,4424.487305,4501.025879,4443.846191,4417.692383,4526.153809,4432.179688,4520.128418,,,,,,,,,,,,,,,,,,,,,,,,,,,,,,,,,,,,,,,,,,,,,,,,,,,,,,,,,,,,,,,,,,,,,,
1720084012,101,0,4412.820313,4426.025879,4374.615234,4392.179688,4409.102539,4412.179688,4411.153809,4423.589844,4495.256348,4435.897461,4402.179688,4523.205078,4413.589844,4505.384766,,,,,,,,,,,,,,,,,,,,,,,,,,,,,,,,,,,,,,,,,,,,,,,,,,,,,,,,,,,,,,,,,,,,,,
1720084012,102,0,4416.794922,4434.743652,4370.384766,4387.563965,4404.615234,4407.05127,4406.282227,4425.512695,4494.615234,4434.358887,4398.077148,4520.384766,4404.743652,4500.128418,,,,,,,,,,,,,,,,,,,,,,,,,,,,,,,,,,,,,,,,,,,,,,,,,,,,,,,,,,,,,,,,,,,,,,
1720084012,103,0,4427.94873,4450.128418,4377.436035,4396.025879,4405.384766,4406.282227,4404.358887,4421.666504,4497.05127,4434.871582,4390.512695,4511.282227,4407.692383,4501.410156,,,,,,,,,,,,,,,,,,,,,,,,,,,,,,,,,,,,,,,,,,,,,,,,,,,,,,,,,,,,,,,,,,,,,,
1720084012,104,0,4429.230957,4446.282227,4381.153809,4401.922852,4409.230957,4412.94873,4407.307617,4421.666504,4496.922852,4428.589844,4377.179688,4510,4396.410156,4501.153809,10.790305,3.692884,0.854735,0.221324,0.170535,1.498058,0.72162,0.376506,0.144434,0.165429,3.547569,1.402179,0.486395,0.245429,0.156732,1.741929,0.785066,0.445184,0.148767,0.129959,0.262225,0.186571,0.270171,0.101498,0.091495,0.286863,0.217374,0.04457,0.064874,0.057955,0.281654,0.462768,0.184278,0.091587,0.126397,0.39107,0.662443,0.190584,0.190135,0.293332,1.5246,2.172004,0.564364,0.166618,0.130251,0.79549,1.440146,0.549623,0.301637,0.131308,2.277162,2.095571,0.577996,0.587272,0.241026,4.961056,1.429061,0.502517,0.209988,0.208866,3.140887,1.516185,1.563098,0.495147,0.284156,21.719082,4.507106,1.227637,0.337397,0.262425
1720084012,105,0,4409.230957,4428.077148,4366.282227,4386.025879,4402.563965,4407.692383,4398.461426,4416.922852,4494.615234,4412.692383,4363.333496,4497.94873,4372.307617,4485.128418,,,,,,,,,,,,,,,,,,,,,,,,,,,,,,,,,,,,,,,,,,,,,,,,,,,,,,,,,,,,,,,,,,,,,,
1720084012,106,0,4381.410156,4410.897461,4340.384766,4370.128418,4393.589844,4396.922852,4387.179688,4397.820313,4492.820313,4407.179688,4345.641113,4463.205078,4354.358887,4448.846191,,,,,,,,,,,,,,,,,,,,,,,,,,,,,,,,,,,,,,,,,,,,,,,,,,,,,,,,,,,,,,,,,,,,,,
1720084012,107,0,4367.307617,4397.692383,4324.230957,4364.871582,4389.102539,4396.282227,4389.358887,4398.974121,4482.436035,4400.897461,4327.692383,4449.871582,4340,4435.128418,,,,,,,,,,,,,,,,,,,,,,,,,,,,,,,,,,,,,,,,,,,,,,,,,,,,,,,,,,,,,,,,,,,,,,
1720084012,108,0,4364.102539,4390.512695,4320.512695,4359.230957,4387.179688,4394.615234,4384.358887,4407.820313,4463.974121,4363.717773,4315,4455.641113,4327.05127,4442.820313,,,,,,,,,,,,,,,,,,,,,,,,,,,,,,,,,,,,,,,,,,,,,,,,,,,,,,,,,,,,,,,,,,,,,,
1720084012,109,0,4354.487305,4389.871582,4316.538574,4354.102539,4387.436035,4390.769043,4374.102539,4396.410156,4445.897461,4326.410156,4306.666504,4444.743652,4322.820313,4432.94873,,,,,,,,,,,,,,,,,,,,,,,,,,,,,,,,,,,,,,,,,,,,,,,,,,,,,,,,,,,,,,,,,,,,,,
1720084012,110,0,4343.717773,4388.077148,4309.102539,4352.436035,4386.666504,4393.589844,4382.307617,4393.205078,4430.256348,4323.589844,4307.436035,4437.436035,4324.230957,4430.128418,,,,,,,,,,,,,,,,,,,,,,,,,,,,,,,,,,,,,,,,,,,,,,,,,,,,,,,,,,,,,,,,,,,,,,
1720084012,111,0,4339.743652,4382.179688,4306.410156,4348.717773,4385.256348,4394.358887,4387.05127,4397.94873,4413.077148,4329.102539,4309.102539,4440.256348,4323.846191,4430.641113,,,,,,,,,,,,,,,,,,,,,,,,,,,,,,,,,,,,,,,,,,,,,,,,,,,,,,,,,,,,,,,,,,,,,,
1720084012,112,0,4339.871582,4376.922852,4308.461426,4344.102539,4387.307617,4390.641113,4382.94873,4399.487305,4396.794922,4332.563965,4310.769043,4443.461426,4328.589844,4426.538574,,,,,,,,,,,,,,,,,,,,,,,,,,,,,,,,,,,,,,,,,,,,,,,,,,,,,,,,,,,,,,,,,,,,,,
1720084012,113,0,4338.461426,4375.769043,4308.077148,4344.358887,4387.436035,4394.487305,4387.692383,4407.307617,4391.282227,4348.205078,4319.871582,4450.256348,4337.820313,4436.153809,,,,,,,,,,,,,,,,,,,,,,,,,,,,,,,,,,,,,,,,,,,,,,,,,,,,,,,,,,,,,,,,,,,,,,
1720084012,114,0,4332.436035,4371.666504,4304.358887,4343.589844,4383.589844,4397.820313,4393.589844,4408.846191,4388.205078,4353.205078,4321.666504,4448.589844,4336.282227,4423.717773,,,,,,,,,,,,,,,,,,,,,,,,,,,,,,,,,,,,,,,,,,,,,,,,,,,,,,,,,,,,,,,,,,,,,,
1720084012,115,0,4332.307617,4369.102539,4304.871582,4342.307617,4386.025879,4391.282227,4393.077148,4404.487305,4369.102539,4345,4320.641113,4446.922852,4334.487305,4393.205078,,,,,,,,,,,,,,,,,,,,,,,,,,,,,,,,,,,,,,,,,,,,,,,,,,,,,,,,,,,,,,,,,,,,,,
1720084012,116,0,4342.820313,4372.692383,4312.436035,4342.436035,4389.230957,4387.307617,4392.692383,4411.922852,4340.897461,4344.102539,4326.538574,4462.94873,4345.384766,4398.461426,,,,,,,,,,,,,,,,,,,,,,,,,,,,,,,,,,,,,,,,,,,,,,,,,,,,,,,,,,,,,,,,,,,,,,
1720084012,117,0,4346.153809,4373.205078,4315,4340.897461,4387.692383,4389.358887,4386.025879,4406.666504,4322.436035,4336.794922,4321.410156,4464.230957,4344.615234,4405.769043,,,,,,,,,,,,,,,,,,,,,,,,,,,,,,,,,,,,,,,,,,,,,,,,,,,,,,,,,,,,,,,,,,,,,,
1720084012,118,0,4341.922852,4372.94873,4310.256348,4341.538574,4387.820313,4388.205078,4378.717773,4389.615234,4314.102539,4326.410156,4308.077148,4445.128418,4336.538574,4381.153809,,,,,,,,,,,,,,,,,,,,,,,,,,,,,,,,,,,,,,,,,,,,,,,,,,,,,,,,,,,,,,,,,,,,,,
1720084012,119,0,4343.461426,4373.461426,4310.641113,4343.589844,4389.358887,4383.077148,4378.974121,4392.436035,4300.641113,4337.307617,4304.358887,4442.692383,4346.666504,4374.743652,,,,,,,,,,,,,,,,,,,,,,,,,,,,,,,,,,,,,,,,,,,,,,,,,,,,,,,,,,,,,,,,,,,,,,
1720084012,120,0,4347.179688,4373.333496,4313.077148,4343.589844,4383.077148,4380.512695,4374.487305,4392.307617,4280.256348,4344.230957,4304.615234,4446.410156,4353.077148,4382.692383,15.120161,4.846655,1.104579,0.198138,0.172261,1.693199,0.768644,0.467967,0.155503,0.18862,4.499829,1.453456,0.559644,0.219502,0.152061,1.763654,0.790561,0.455931,0.148952,0.128903,0.282445,0.112076,0.271281,0.104747,0.093186,0.346535,0.197803,0.05127,0.058723,0.059648,0.351432,0.42963,0.16375,0.081903,0.125778,0.530884,0.725982,0.190745,0.189171,0.281612,1.962018,2.5065,0.666692,0.193081,0.148497,1.095253,1.838307,0.60734,0.325205,0.124296,3.353558,2.45689,0.708146,0.671199,0.254231,6.736397,1.51623,0.624901,0.21258,0.194682,4.734571,1.804025,1.848017,0.540556,0.266195,32.600418,6.070632,1.679953,0.343244,0.266047
1720084012,121,0,4348.077148,4375.128418,4310.128418,4344.487305,4374.871582,4380.769043,4368.974121,4382.820313,4270.769043,4310.769043,4304.615234,4438.077148,4348.589844,4379.358887,,,,,,,,,,,,,,,,,,,,,,,,,,,,,,,,,,,,,,,,,,,,,,,,,,,,,,,,,,,,,,,,,,,,,,
1720084012,122,0,4353.846191,4379.358887,4312.820313,4349.743652,4375.384766,4381.538574,4375.128418,4386.922852,4279.230957,4283.461426,4314.487305,4442.436035,4360.256348,4383.333496,,,,,,,,,,,,,,,,,,,,,,,,,,,,,,,,,,,,,,,,,,,,,,,,,,,,,,,,,,,,,,,,,,,,,,
1720084012,123,0,4362.820313,4384.743652,4323.846191,4352.436035,4384.102539,4385.128418,4383.333496,4396.025879,4293.205078,4298.974121,4322.179688,4456.282227,4371.282227,4390.128418,,,,,,,,,,,,,,,,,,,,,,,,,,,,,,,,,,,,,,,,,,,,,,,,,,,,,,,,,,,,,,,,,,,,,,
1720084012,124,0,4358.077148,4383.205078,4322.94873,4348.077148,4400.128418,4386.025879,4385,4397.692383,4295.512695,4296.922852,4314.102539,4455.128418,4354.743652,4385,,,,,,,,,,,,,,,,,,,,,,,,,,,,,,,,,,,,,,,,,,,,,,,,,,,,,,,,,,,,,,,,,,,,,,
1720084012,125,0,4341.666504,4372.563965,4306.666504,4340.256348,4412.307617,4381.410156,4380.256348,4388.333496,4281.666504,4254.102539,4302.179688,4441.282227,4333.974121,4368.333496,,,,,,,,,,,,,,,,,,,,,,,,,,,,,,,,,,,,,,,,,,,,,,,,,,,,,,,,,,,,,,,,,,,,,,
1720084012,126,0,4341.922852,4369.743652,4301.410156,4337.307617,4412.820313,4380,4377.820313,4382.05127,4274.871582,4234.871582,4303.077148,4437.94873,4334.871582,4361.153809,,,,,,,,,,,,,,,,,,,,,,,,,,,,,,,,,,,,,,,,,,,,,,,,,,,,,,,,,,,,,,,,,,,,,,
1720084012,127,0,4359.615234,4384.102539,4318.333496,4345.128418,4417.179688,4385,4385.641113,4391.538574,4288.589844,4257.94873,4313.717773,4453.846191,4348.974121,4375.897461,,,,,,,,,,,,,,,,,,,,,,,,,,,,,,,,,,,,,,,,,,,,,,,,,,,,,,,,,,,,,,,,,,,,,,
1720084012,0,0,4371.538574,4395.384766,4335.769043,4357.692383,4427.820313,4388.589844,4394.102539,4398.974121,4299.102539,4268.461426,4320.641113,4470.256348,4362.436035,4395.384766,,,,,,,,,,,,,,,,,,,,,,,,,,,,,,,,,,,,,,,,,,,,,,,,,,,,,,,,,,,,,,,,,,,,,,
1720084012,1,0,4380.769043,4396.794922,4342.436035,4364.358887,4428.589844,4388.461426,4390.897461,4393.077148,4293.717773,4259.487305,4327.307617,4476.794922,4365,4407.436035,,,,,,,,,,,,,,,,,,,,,,,,,,,,,,,,,,,,,,,,,,,,,,,,,,,,,,,,,,,,,,,,,,,,,,
1720084012,2,0,4393.974121,4404.230957,4351.538574,4366.794922,4425,4387.05127,4388.333496,4392.692383,4297.436035,4269.743652,4338.205078,4486.666504,4367.820313,4422.05127,,,,,,,,,,,,,,,,,,,,,,,,,,,,,,,,,,,,,,,,,,,,,,,,,,,,,,,,,,,,,,,,,,,,,,
1720084012,3,0,4399.102539,4412.820313,4360.512695,4371.153809,4427.436035,4387.05127,4390.384766,4396.025879,4307.05127,4280.384766,4344.230957,4494.743652,4379.871582,4432.692383,,,,,,,,,,,,,,,,,,,,,,,,,,,,,,,,,,,,,,,,,,,,,,,,,,,,,,,,,,,,,,,,,,,,,,
1720084012,4,0,4403.205078,4414.743652,4360.641113,4375.897461,4426.794922,4390.512695,4391.025879,4397.05127,4301.538574,4268.461426,4340.769043,4493.461426,4382.692383,4435,,,,,,,,,,,,,,,,,,,,,,,,,,,,,,,,,,,,,,,,,,,,,,,,,,,,,,,,,,,,,,,,,,,,,,
1720084012,5,0,4418.461426,4414.102539,4364.102539,4374.487305,4425,4390.128418,4395.128418,4405,4300,4267.563965,4338.717773,4497.563965,4383.205078,4449.871582,,,,,,,,,,,,,,,,,,,,,,,,,,,,,,,,,,,,,,,,,,,,,,,,,,,,,,,,,,,,,,,,,,,,,,
1720084012,6,0,4425.641113,4412.563965,4366.025879,4369.743652,4426.410156,4382.05127,4393.205078,4397.820313,4308.589844,4282.05127,4343.205078,4500.512695,4389.615234,4453.461426,,,,,,,,,,,,,,,,,,,,,,,,,,,,,,,,,,,,,,,,,,,,,,,,,,,,,,,,,,,,,,,,,,,,,,
1720084012,7,0,4412.436035,4405.512695,4350,4362.307617,4424.743652,4383.205078,4386.922852,4389.230957,4309.743652,4279.358887,4344.615234,4490.641113,4383.846191,4433.461426,,,,,,,,,,,,,,,,,,,,,,,,,,,,,,,,,,,,,,,,,,,,,,,,,,,,,,,,,,,,,,,,,,,,,,
1720084012,8,0,4402.436035,4399.871582,4338.333496,4357.563965,4425.384766,4392.563965,4390.512695,4402.94873,4307.820313,4272.307617,4340.256348,4485.256348,4375.769043,4426.922852,19.065966,5.811648,1.289965,0.178003,0.170844,1.915059,0.822451,0.540871,0.174479,0.208414,5.526329,1.469136,0.615208,0.202824,0.144892,1.767663,0.846389,0.47012,0.153771,0.126872,0.338043,0.072113,0.263532,0.111174,0.092799,0.39869,0.193575,0.064239,0.051354,0.06313,0.506261,0.449667,0.145214,0.074298,0.130784,0.736247,0.77214,0.180645,0.182764,0.267158,2.747506,2.784375,0.780199,0.241856,0.181704,1.805085,2.269809,0.685852,0.351334,0.126485,4.856195,2.873033,0.874136,0.75562,0.282623,8.655637,1.64887,0.732029,0.222778,0.180656,6.689946,2.237925,2.141136,0.600396,0.253711,42.750282,7.315675,2.076541,0.350104,0.275105
1720084012,9,0,4409.487305,4404.743652,4347.692383,4366.282227,4429.615234,4392.563965,4397.436035,4406.794922,4310.128418,4278.205078,4339.358887,4490.641113,4377.307617,4438.589844,,,,,,,,,,,,,,,,,,,,,,,,,,,,,,,,,,,,,,,,,,,,,,,,,,,,,,,,,,,,,,,,,,,,,,
1720084012,10,0,4428.717773,4413.974121,4358.333496,4379.615234,4431.410156,4392.307617,4401.410156,4401.666504,4309.358887,4278.589844,4351.025879,4497.820313,4380.897461,4455,,,,,,,,,,,,,,,,,,,,,,,,,,,,,,,,,,,,,,,,,,,,,,,,,,,,,,,,,,,,,,,,,,,,,,
1720084012,11,0,4458.974121,4422.436035,4368.333496,4385.384766,4435,4396.410156,4401.410156,4406.794922,4308.205078,4277.563965,4362.436035,4506.538574,4390.384766,4489.743652,,,,,,,,,,,,,,,,,,,,,,,,,,,,,,,,,,,,,,,,,,,,,,,,,,,,,,,,,,,,,,,,,,,,,,
1720084012,12,0,4489.358887,4430.128418,4385.897461,4384.230957,4440.384766,4396.922852,4402.179688,4408.461426,4310.641113,4282.692383,4365.384766,4520.641113,4400.384766,4541.794922,,,,,,,,,,,,,,,,,,,,,,,,,,,,,,,,,,,,,,,,,,,,,,,,,,,,,,,,,,,,,,,,,,,,,,
1720084012,13,0,4511.410156,4437.820313,4400.384766,4388.077148,4442.05127,4399.487305,4407.179688,4405.128418,4307.179688,4282.436035,4370.769043,4533.846191,4396.922852,4580.641113,,,,,,,,,,,,,,,,,,,,,,,,,,,,,,,,,,,,,,,,,,,,,,,,,,,,,,,,,,,,,,,,,,,,,,
1720084012,14,0,4536.025879,4445.897461,4411.922852,4404.615234,4442.820313,4403.717773,4412.94873,4410.512695,4307.94873,4280.641113,4378.846191,4542.94873,4401.794922,4602.436035,,,,,,,,,,,,,,,,,,,,,,,,,,,,,,,,,,,,,,,,,,,,,,,,,,,,,,,,,,,,,,,,,,,,,,
1720084012,15,0,4561.025879,4450.256348,4425.128418,4417.307617,4440.512695,4400.512695,4410.128418,4410,4318.461426,4282.307617,4383.846191,4548.461426,4415.512695,4618.846191,,,,,,,,,,,,,,,,,,,,,,,,,,,,,,,,,,,,,,,,,,,,,,,,,,,,,,,,,,,,,,,,,,,,,,
1720084012,16,0,4571.538574,4450,4430.897461,4411.538574,4434.743652,4395.897461,4405.256348,4405.128418,4322.179688,4279.230957,4385.512695,4555,4411.410156,4632.436035,,,,,,,,,,,,,,,,,,,,,,,,,,,,,,,,,,,,,,,,,,,,,,,,,,,,,,,,,,,,,,,,,,,,,,
1720084012,17,0,4579.230957,4452.820313,4435.128418,4406.410156,4436.282227,4397.692383,4406.410156,4407.179688,4317.692383,4277.436035,4387.820313,4564.487305,4412.179688,4644.230957,,,,,,,,,,,,,,,,,,,,,,,,,,,,,,,,,,,,,,,,,,,,,,,,,,,,,,,,,,,,,,,,,,,,,,
1720084012,18,0,4597.307617,4462.307617,4447.94873,4414.230957,4444.102539,4403.589844,4409.102539,4407.94873,4323.461426,4287.436035,4395.769043,4574.743652,4431.538574,4656.282227,,,,,,,,,,,,,,,,,,,,,,,,,,,,,,,,,,,,,,,,,,,,,,,,,,,,,,,,,,,,,,,,,,,,,,
1720084012,19,0,4600,4465.384766,4452.563965,4422.179688,4443.846191,4408.461426,4413.974121,4414.230957,4334.230957,4293.717773,4407.563965,4582.820313,4432.692383,4664.871582,,,,,,,,,,,,,,,,,,,,,,,,,,,,,,,,,,,,,,,,,,,,,,,,,,,,,,,,,,,,,,,,,,,,,,
1720084012,20,0,4579.615234,4457.05127,4435.512695,4415.769043,4436.410156,4404.102539,4412.692383,4416.153809,4333.205078,4288.846191,4406.025879,4570.128418,4415,4650,,,,,,,,,,,,,,,,,,,,,,,,,,,,,,,,,,,,,,,,,,,,,,,,,,,,,,,,,,,,,,,,,,,,,,
1720084012,21,0,4562.436035,4445.641113,4417.692383,4400.384766,4434.615234,4399.871582,4408.589844,4409.358887,4333.717773,4288.205078,4390.512695,4546.538574,4409.871582,4629.102539,,,,,,,,,,,,,,,,,,,,,,,,,,,,,,,,,,,,,,,,,,,,,,,,,,,,,,,,,,,,,,,,,,,,,,
1720084012,22,0,4560.769043,4445.384766,4419.102539,4399.743652,4440.512695,4406.282227,4411.794922,4410.128418,4346.794922,4295.256348,4390.641113,4545.897461,4413.846191,4635.128418,,,,,,,,,,,,,,,,,,,,,,,,,,,,,,,,,,,,,,,,,,,,,,,,,,,,,,,,,,,,,,,,,,,,,,
1720084012,23,0,4558.974121,4447.307617,4422.179688,4409.102539,4444.230957,4407.307617,4413.846191,4413.461426,4353.589844,4297.307617,4400.512695,4551.666504,4410.897461,4642.820313,,,,,,,,,,,,,,,,,,,,,,,,,,,,,,,,,,,,,,,,,,,,,,,,,,,,,,,,,,,,,,,,,,,,,,
1720084012,24,0,4549.102539,4440.769043,4411.410156,4400.128418,4439.487305,4398.205078,4410.769043,4412.820313,4349.102539,4294.871582,4396.666504,4542.94873,4408.846191,4629.358887,21.639397,6.28265,1.389061,0.16938,0.168352,2.255315,0.899467,0.598497,0.202382,0.224245,6.547073,1.44098,0.658992,0.195517,0.14024,1.823214,0.940649,0.495855,0.165993,0.124058,0.46128,0.065903,0.249501,0.122267,0.091231,0.464656,0.194242,0.08171,0.045403,0.069433,0.768808,0.505371,0.143725,0.070583,0.142661,1.029626,0.794121,0.167178,0.17222,0.255634,3.992708,2.97748,0.889015,0.305624,0.229117,3.075481,2.76718,0.788452,0.382603,0.145834,6.721306,3.277011,1.054485,0.809789,0.325066,10.464724,1.830328,0.814606,0.23668,0.174443,9.068675,2.740391,2.373102,0.654136,0.253029,50.125668,7.856351,2.372793,0.357232,0.295411
1720084012,25,0,4546.410156,4437.820313,4403.461426,4380.128418,4433.461426,4396.538574,4404.743652,4409.230957,4347.179688,4295,4389.615234,4535,4415,4622.307617,,,,,,,,,,,,,,,,,,,,,,,,,,,,,,,,,,,,,,,,,,,,,,,,,,,,,,,,,,,,,,,,,,,,,,
1720084012,26,0,4551.282227,4438.974121,4409.487305,4369.487305,4431.153809,4400,4402.563965,4408.205078,4349.487305,4296.410156,4393.717773,4538.717773,4418.846191,4628.846191,,,,,,,,,,,,,,,,,,,,,,,,,,,,,,,,,,,,,,,,,,,,,,,,,,,,,,,,,,,,,,,,,,,,,,
1720084012,27,0,4548.333496,4433.589844,4416.153809,4359.230957,4429.615234,4394.743652,4401.538574,4405.128418,4348.589844,4295.769043,4398.205078,4546.025879,4413.333496,4632.05127,,,,,,,,,,,,,,,,,,,,,,,,,,,,,,,,,,,,,,,,,,,,,,,,,,,,,,,,,,,,,,,,,,,,,,
1720084012,28,0,4540.641113,4428.846191,4414.358887,4341.025879,4424.358887,4388.974121,4396.153809,4400.256348,4348.205078,4293.717773,4397.563965,4550.256348,4411.538574,4632.820313,,,,,,,,,,,,,,,,,,,,,,,,,,,,,,,,,,,,,,,,,,,,,,,,,,,,,,,,,,,,,,,,,,,,,,
1720084012,29,0,4536.282227,4430.128418,4410.641113,4328.589844,4417.94873,4392.94873,4392.820313,4399.358887,4351.666504,4298.077148,4397.692383,4546.282227,4418.077148,4631.025879,,,,,,,,,,,,,,,,,,,,,,,,,,,,,,,,,,,,,,,,,,,,,,,,,,,,,,,,,,,,,,,,,,,,,,
1720084012,30,0,4530.128418,4427.692383,4410.384766,4324.358887,4420.769043,4396.666504,4400.256348,4405.641113,4353.846191,4302.94873,4392.692383,4542.307617,4416.410156,4625.641113,,,,,,,,,,,,,,,,,,,,,,,,,,,,,,,,,,,,,,,,,,,,,,,,,,,,,,,,,,,,,,,,,,,,,,
1720084012,31,0,4523.974121,4420.128418,4410.769043,4318.205078,4428.846191,4394.487305,4404.230957,4406.025879,4350.641113,4301.282227,4385.128418,4542.692383,4405.128418,4617.307617,,,,,,,,,,,,,,,,,,,,,,,,,,,,,,,,,,,,,,,,,,,,,,,,,,,,,,,,,,,,,,,,,,,,,,
1720084012,32,0,4522.820313,4417.94873,4408.461426,4310.769043,4428.205078,4397.179688,4399.102539,4397.820313,4350.256348,4301.666504,4383.846191,4541.025879,4398.333496,4604.871582,,,,,,,,,,,,,,,,,,,,,,,,,,,,,,,,,,,,,,,,,,,,,,,,,,,,,,,,,,,,,,,,,,,,,,
1720084012,33,0,4516.538574,4414.615234,4403.846191,4308.333496,4422.563965,4403.461426,4408.205078,4410.128418,4355,4306.282227,4387.692383,4544.487305,4396.666504,4605.641113,,,,,,,,,,,,,,,,,,,,,,,,,,,,,,,,,,,,,,,,,,,,,,,,,,,,,,,,,,,,,,,,,,,,,,
1720084012,34,0,4506.666504,4411.922852,4399.487305,4309.102539,4423.077148,4398.717773,4414.487305,4416.282227,4351.153809,4304.102539,4386.794922,4544.743652,4397.692383,4603.589844,,,,,,,,,,,,,,,,,,,,,,,,,,,,,,,,,,,,,,,,,,,,,,,,,,,,,,,,,,,,,,,,,,,,,,
1720084012,35,0,4507.436035,4420.384766,4397.436035,4311.025879,4427.05127,4392.820313,4402.563965,4397.94873,4340.769043,4302.179688,4382.436035,4533.077148,4396.666504,4585.897461,,,,,,,,,,,,,,,,,,,,,,,,,,,,,,,,,,,,,,,,,,,,,,,,,,,,,,,,,,,,,,,,,,,,,,
1720084012,36,0,4514.487305,4425.512695,4399.230957,4310.384766,4427.436035,4394.230957,4396.538574,4397.179688,4339.615234,4310,4387.307617,4533.589844,4394.615234,4586.410156,,,,,,,,,,,,,,,,,,,,,,,,,,,,,,,,,,,,,,,,,,,,,,,,,,,,,,,,,,,,,,,,,,,,,,
1720084012,37,0,4514.230957,4419.615234,4405.256348,4309.102539,4426.666504,4392.05127,4397.94873,4405.769043,4346.794922,4315.769043,4399.230957,4543.077148,4401.922852,4599.871582,,,,,,,,,,,,,,,,,,,,,,,,,,,,,,,,,,,,,,,,,,,,,,,,,,,,,,,,,,,,,,,,,,,,,,
1720084012,38,0,4508.589844,4415.641113,4407.307617,4313.461426,4426.410156,4389.615234,4400,4404.487305,4345.897461,4313.589844,4399.615234,4543.077148,4407.05127,4599.358887,,,,,,,,,,,,,,,,,,,,,,,,,,,,,,,,,,,,,,,,,,,,,,,,,,,,,,,,,,,,,,,,,,,,,,
1720084012,39,0,4508.077148,4415.128418,4400.769043,4314.358887,4425.897461,4394.743652,4402.692383,4405.128418,4333.717773,4309.615234,4387.307617,4538.333496,4399.871582,4588.717773,,,,,,,,,,,,,,,,,,,,,,,,,,,,,,,,,,,,,,,,,,,,,,,,,,,,,,,,,,,,,,,,,,,,,,
1720084012,40,0,4510.384766,4415.256348,4401.410156,4309.487305,4427.692383,4398.974121,4402.436035,4405.897461,4324.102539,4310,4386.025879,4539.615234,4401.538574,4587.05127,21.554317,6.155372,1.436124,0.184016,0.167253,2.685691,1.018414,0.663405,0.238481,0.235635,7.217638,1.424196,0.709814,0.198738,0.14282,1.909068,1.047293,0.546511,0.183761,0.121249,0.637277,0.10741,0.23582,0.138391,0.089234,0.529314,0.192858,0.101981,0.042226,0.078618,1.088113,0.581757,0.168731,0.06982,0.159041,1.355014,0.794813,0.161176,0.15826,0.251584,5.687343,3.0415,0.978592,0.371521,0.284504,4.899861,3.390763,0.922892,0.427065,0.193346,8.495049,3.593512,1.227659,0.809224,0.373144,11.741794,2.090108,0.868178,0.254881,0.181862,11.359824,3.171859,2.491047,0.68145,0.264042,50.642021,7.603027,2.597757,0.370099,0.330414
1720084012,41,0,4509.230957,4418.077148,4410,4313.974121,4428.333496,4398.846191,4403.077148,4402.692383,4321.025879,4312.692383,4399.487305,4546.025879,4413.717773,4594.871582,,,,,,,,,,,,,,,,,,,,,,,,,,,,,,,,,,,,,,,,,,,,,,,,,,,,,,,,,,,,,,,,,,,,,,
1720084012,42,0,4505.769043,4417.692383,4407.05127,4318.974121,4422.563965,4396.410156,4404.743652,4403.205078,4312.563965,4308.077148,4403.717773,4546.282227,4413.717773,4592.563965,,,,,,,,,,,,,,,,,,,,,,,,,,,,,,,,,,,,,,,,,,,,,,,,,,,,,,,,,,,,,,,,,,,,,,
1720084012,43,0,4496.282227,4412.563965,4391.025879,4315.128418,4417.436035,4389.487305,4393.589844,4396.025879,4297.436035,4297.563965,4387.563965,4530.769043,4399.230957,4570.897461,,,,,,,,,,,,,,,,,,,,,,,,,,,,,,,,,,,,,,,,,,,,,,,,,,,,,,,,,,,,,,,,,,,,,,
1720084012,44,0,4477.820313,4407.436035,4377.436035,4313.461426,4418.589844,4388.974121,4387.179688,4387.436035,4289.871582,4290.769043,4369.230957,4512.820313,4382.820313,4546.794922,,,,,,,,,,,,,,,,,,,,,,,,,,,,,,,,,,,,,,,,,,,,,,,,,,,,,,,,,,,,,,,,,,,,,,
1720084012,45,0,4466.410156,4398.846191,4371.538574,4311.666504,4418.846191,4396.538574,4397.820313,4397.692383,4291.922852,4290.641113,4364.230957,4508.974121,4375.256348,4540,,,,,,,,,,,,,,,,,,,,,,,,,,,,,,,,,,,,,,,,,,,,,,,,,,,,,,,,,,,,,,,,,,,,,,
1720084012,46,0,4469.487305,4399.743652,4371.538574,4308.717773,4414.230957,4397.05127,4397.436035,4404.487305,4295.384766,4293.461426,4372.692383,4511.282227,4386.025879,4539.487305,,,,,,,,,,,,,,,,,,,,,,,,,,,,,,,,,,,,,,,,,,,,,,,,,,,,,,,,,,,,,,,,,,,,,,
1720084012,47,0,4477.307617,4412.94873,4380,4320.769043,4417.692383,4394.871582,4392.94873,4403.461426,4294.230957,4296.538574,4380.641113,4517.307617,4391.794922,4543.205078,,,,,,,,,,,,,,,,,,,,,,,,,,,,,,,,,,,,,,,,,,,,,,,,,,,,,,,,,,,,,,,,,,,,,,
1720084012,48,0,4483.589844,4414.230957,4391.538574,4339.871582,4427.820313,4398.461426,4397.307617,4403.205078,4284.230957,4294.102539,4376.538574,4528.974121,4385.128418,4545.769043,,,,,,,,,,,,,,,,,,,,,,,,,,,,,,,,,,,,,,,,,,,,,,,,,,,,,,,,,,,,,,,,,,,,,,
1720084012,49,0,4488.333496,4409.487305,4397.94873,4343.205078,4427.307617,4398.974121,4396.153809,4398.333496,4272.179688,4289.102539,4375.512695,4532.05127,4390.128418,4543.589844,,,,,,,,,,,,,,,,,,,,,,,,,,,,,,,,,,,,,,,,,,,,,,,,,,,,,,,,,,,,,,,,,,,,,,
1720084012,50,0,4492.563965,4419.487305,4397.692383,4338.461426,4418.589844,4392.692383,4388.333496,4395.897461,4267.179688,4293.974121,4384.230957,4527.94873,4406.922852,4549.358887,,,,,,,,,,,,,,,,,,,,,,,,,,,,,,,,,,,,,,,,,,,,,,,,,,,,,,,,,,,,,,,,,,,,,,
1720084012,51,0,4490.641113,4425.256348,4395.769043,4340.384766,4414.743652,4387.820313,4381.153809,4391.410156,4259.743652,4297.820313,4378.077148,4521.282227,4412.820313,4547.563965,,,,,,,,,,,,,,,,,,,,,,,,,,,,,,,,,,,,,,,,,,,,,,,,,,,,,,,,,,,,,,,,,,,,,,
1720084012,52,0,4478.846191,4409.743652,4388.974121,4340,4410.384766,4388.077148,4378.717773,4384.358887,4243.846191,4287.05127,4361.282227,4513.974121,4408.205078,4531.025879,,,,,,,,,,,,,,,,,,,,,,,,,,,,,,,,,,,,,,,,,,,,,,,,,,,,,,,,,,,,,,,,,,,,,,
1720084012,53,0,4466.025879,4398.846191,4375.256348,4334.871582,4401.538574,4389.358887,4379.871582,4383.846191,4225.641113,4276.282227,4357.436035,4506.794922,4407.820313,4518.333496,,,,,,,,,,,,,,,,,,,,,,,,,,,,,,,,,,,,,,,,,,,,,,,,,,,,,,,,,,,,,,,,,,,,,,
1720084012,54,0,4458.333496,4403.333496,4370.512695,4335.897461,4400.128418,4388.461426,4379.615234,4385,4208.461426,4276.025879,4352.94873,4501.538574,4404.230957,4512.307617,,,,,,,,,,,,,,,,,,,,,,,,,,,,,,,,,,,,,,,,,,,,,,,,,,,,,,,,,,,,,,,,,,,,,,
1720084012,55,0,4453.974121,4400.128418,4376.153809,4340.128418,4406.025879,4388.589844,4379.230957,4386.794922,4195.512695,4276.153809,4350.384766,4503.589844,4401.282227,4502.436035,,,,,,,,,,,,,,,,,,,,,,,,,,,,,,,,,,,,,,,,,,,,,,,,,,,,,,,,,,,,,,,,,,,,,,
1720084012,56,0,4456.025879,4395.897461,4379.743652,4346.666504,4412.436035,4391.666504,4384.230957,4390.897461,4194.743652,4272.436035,4362.820313,4510.769043,4406.282227,4499.230957,19.36845,5.727021,1.479081,0.231031,0.170492,3.157903,1.20022,0.756216,0.278549,0.241647,7.549453,1.57793,0.780604,0.215149,0.155773,2.024474,1.159217,0.629583,0.201856,0.121316,0.854218,0.216229,0.230021,0.158005,0.087422,0.59002,0.190092,0.122916,0.041558,0.08983,1.401327,0.670939,0.218208,0.069695,0.175108,1.646,0.782014,0.169113,0.141623,0.256092,7.678512,2.93846,1.03745,0.424483,0.337014,7.037076,4.158297,1.090257,0.490612,0.274117,9.87321,3.766258,1.375553,0.746721,0.413192,12.348317,2.501012,0.895964,0.281962,0.204157,13.276324,3.416904,2.487311,0.672791,0.28221,45.913986,7.021508,2.827895,0.401653,0.378591
1720084012,57,0,4455.512695,4408.846191,4378.589844,4355.769043,4415.641113,4393.589844,4386.666504,4390.256348,4205.512695,4274.102539,4365,4510.641113,4412.05127,4498.717773,,,,,,,,,,,,,,,,,,,,,,,,,,,,,,,,,,,,,,,,,,,,,,,,,,,,,,,,,,,,,,,,,,,,,,
1720084012,58,0,4448.077148,4414.487305,4378.205078,4357.436035,4414.358887,4396.153809,4390,4392.563965,4213.333496,4279.487305,4357.563965,4506.282227,4411.282227,4496.666504,,,,,,,,,,,,,,,,,,,,,,,,,,,,,,,,,,,,,,,,,,,,,,,,,,,,,,,,,,,,,,,,,,,,,,
1720084012,59,0,4452.692383,4405,4388.077148,4361.410156,4414.230957,4400.256348,4397.820313,4402.820313,4217.179688,4279.487305,4362.307617,4515.641113,4407.307617,4506.794922,,,,,,,,,,,,,,,,,,,,,,,,,,,,,,,,,,,,,,,,,,,,,,,,,,,,,,,,,,,,,,,,,,,,,,
1720084012,60,0,4465.128418,4407.179688,4400.641113,4369.871582,4416.922852,4396.538574,4392.692383,4397.307617,4221.538574,4281.666504,4369.487305,4526.922852,4415.897461,4510.897461,,,,,,,,,,,,,,,,,,,,,,,,,,,,,,,,,,,,,,,,,,,,,,,,,,,,,,,,,,,,,,,,,,,,,,
1720084012,61,0,4463.589844,4414.743652,4400.769043,4364.102539,4409.615234,4390.641113,4386.025879,4389.871582,4219.615234,4288.461426,4372.05127,4531.410156,4430.384766,4511.538574,,,,,,,,,,,,,,,,,,,,,,,,,,,,,,,,,,,,,,,,,,,,,,,,,,,,,,,,,,,,,,,,,,,,,,
1720084012,62,0,4461.922852,4415.384766,4395.769043,4357.94873,4402.05127,4393.974121,4389.743652,4393.717773,4216.025879,4292.820313,4376.410156,4535,4437.820313,4519.871582,,,,,,,,,,,,,,,,,,,,,,,,,,,,,,,,,,,,,,,,,,,,,,,,,,,,,,,,,,,,,,,,,,,,,,
1720084013,63,0,4465.897461,4412.94873,4400.641113,4367.05127,4407.307617,4398.461426,4392.307617,4388.717773,4215.512695,4293.461426,4376.794922,4531.794922,4431.025879,4514.102539,,,,,,,,,,,,,,,,,,,,,,,,,,,,,,,,,,,,,,,,,,,,,,,,,,,,,,,,,,,,,,,,,,,,,,
1720084013,64,0,4457.436035,4403.589844,4397.179688,4367.436035,4408.974121,4395.641113,4391.410156,4386.794922,4209.230957,4288.589844,4372.05127,4526.153809,4424.102539,4501.922852,,,,,,,,,,,,,,,,,,,,,,,,,,,,,,,,,,,,,,,,,,,,,,,,,,,,,,,,,,,,,,,,,,,,,,
1720084013,65,0,4444.743652,4398.717773,4378.846191,4359.487305,4400.897461,4391.410156,4386.410156,4389.358887,4198.589844,4279.487305,4362.179688,4517.05127,4427.05127,4494.743652,,,,,,,,,,,,,,,,,,,,,,,,,,,,,,,,,,,,,,,,,,,,,,,,,,,,,,,,,,,,,,,,,,,,,,
1720084013,66,0,4440.641113,4405.641113,4371.025879,4366.410156,4396.538574,4389.358887,4382.820313,4386.666504,4201.538574,4279.102539,4353.333496,4508.333496,4425.384766,4487.436035,,,,,,,,,,,,,,,,,,,,,,,,,,,,,,,,,,,,,,,,,,,,,,,,,,,,,,,,,,,,,,,,,,,,,,
1720084013,67,0,4441.538574,4407.307617,4377.05127,4375.128418,4398.333496,4388.846191,4390.512695,4393.846191,4213.717773,4290.641113,4355.641113,4511.025879,4421.538574,4485.769043,,,,,,,,,,,,,,,,,,,,,,,,,,,,,,,,,,,,,,,,,,,,,,,,,,,,,,,,,,,,,,,,,,,,,,
1720084013,68,0,4442.692383,4402.94873,4383.205078,4374.230957,4402.05127,4390.256348,4396.794922,4401.538574,4218.717773,4296.153809,4362.94873,4515.384766,4425.512695,4485.384766,,,,,,,,,,,,,,,,,,,,,,,,,,,,,,,,,,,,,,,,,,,,,,,,,,,,,,,,,,,,,,,,,,,,,,
1720084013,69,0,4443.589844,4404.743652,4380.641113,4369.230957,4402.563965,4389.615234,4386.538574,4391.025879,4223.077148,4294.743652,4369.487305,4508.717773,4431.282227,4475.641113,,,,,,,,,,,,,,,,,,,,,,,,,,,,,,,,,,,,,,,,,,,,,,,,,,,,,,,,,,,,,,,,,,,,,,
1720084013,70,0,4442.307617,4404.358887,4372.307617,4364.743652,4396.410156,4388.717773,4378.077148,4384.615234,4229.615234,4296.794922,4372.179688,4504.358887,4429.230957,4472.436035,,,,,,,,,,,,,,,,,,,,,,,,,,,,,,,,,,,,,,,,,,,,,,,,,,,,,,,,,,,,,,,,,,,,,,
1720084013,71,0,4444.487305,4405.769043,4376.153809,4370.512695,4395,4388.461426,4380,4389.615234,4233.461426,4294.743652,4364.102539,4510.897461,4428.205078,4480,,,,,,,,,,,,,,,,,,,,,,,,,,,,,,,,,,,,,,,,,,,,,,,,,,,,,,,,,,,,,,,,,,,,,,
1720084013,72,0,4450.897461,4413.589844,4389.487305,4382.307617,4403.974121,4388.205078,4384.615234,4390.384766,4238.589844,4290.512695,4363.461426,4519.358887,4435.897461,4478.846191,16.548428,5.462094,1.542732,0.310123,0.179871,3.603527,1.441341,0.873739,0.315883,0.241058,7.632859,2.058936,0.869258,0.246347,0.178692,2.353016,1.270725,0.734965,0.214983,0.128405,1.050353,0.396186,0.235298,0.176802,0.086257,0.616929,0.190483,0.142306,0.042781,0.101453,1.625274,0.763,0.277548,0.069599,0.186069,1.831721,0.758475,0.188102,0.124949,0.266618,9.73882,2.66668,1.064046,0.452723,0.375237,9.047705,4.963177,1.26283,0.56655,0.379502,10.559375,3.767652,1.475353,0.638981,0.433195,12.318477,3.108357,0.905835,0.322694,0.237243,14.342731,3.442986,2.365945,0.632157,0.302088,37.819962,6.788863,3.088346,0.461873,0.432449
1720084013,73,0,4451.922852,4409.230957,4385.897461,4383.077148,4405.641113,4389.871582,4388.846191,4391.794922,4243.333496,4289.358887,4382.179688,4523.461426,4444.615234,4478.205078,,,,,,,,,,,,,,,,,,,,,,,,,,,,,,,,,,,,,,,,,,,,,,,,,,,,,,,,,,,,,,,,,,,,,,
1720084013,74,0,4445.256348,4400.384766,4373.333496,4372.94873,4396.922852,4389.230957,4384.358887,4389.871582,4245.256348,4288.974121,4388.333496,4521.794922,4446.538574,4480.128418,,,,,,,,,,,,,,,,,,,,,,,,,,,,,,,,,,,,,,,,,,,,,,,,,,,,,,,,,,,,,,,,,,,,,,
1720084013,75,0,4433.333496,4398.974121,4372.436035,4369.615234,4390.897461,4385.769043,4379.358887,4383.589844,4246.025879,4285.769043,4370.512695,4519.230957,4435,4471.282227,,,,,,,,,,,,,,,,,,,,,,,,,,,,,,,,,,,,,,,,,,,,,,,,,,,,,,,,,,,,,,,,,,,,,,
1720084013,76,0,4426.025879,4397.820313,4369.615234,4372.307617,4392.05127,4384.871582,4381.282227,4382.94873,4246.666504,4275.641113,4352.307617,4511.153809,4418.717773,4455.897461,,,,,,,,,,,,,,,,,,,,,,,,,,,,,,,,,,,,,,,,,,,,,,,,,,,,,,,,,,,,,,,,,,,,,,
1720084013,77,0,4424.487305,4393.846191,4359.743652,4370.384766,4396.153809,4388.333496,4382.436035,4383.589844,4245,4269.102539,4350.897461,4492.692383,4410.769043,4444.358887,,,,,,,,,,,,,,,,,,,,,,,,,,,,,,,,,,,,,,,,,,,,,,,,,,,,,,,,,,,,,,,,,,,,,,
1720084013,78,0,4419.358887,4388.717773,4357.563965,4369.871582,4393.717773,4387.563965,4381.025879,4382.94873,4245.897461,4273.974121,4356.282227,4485,4410.384766,4443.333496,,,,,,,,,,,,,,,,,,,,,,,,,,,,,,,,,,,,,,,,,,,,,,,,,,,,,,,,,,,,,,,,,,,,,,
1720084013,79,0,4417.307617,4389.871582,4363.333496,4375.128418,4387.179688,4382.563965,4381.025879,4384.487305,4254.615234,4279.871582,4354.615234,4496.922852,4412.179688,4447.692383,,,,,,,,,,,,,,,,,,,,,,,,,,,,,,,,,,,,,,,,,,,,,,,,,,,,,,,,,,,,,,,,,,,,,,
1720084013,80,0,4417.820313,4394.102539,4366.153809,4376.794922,4382.692383,4380.384766,4379.230957,4385.769043,4260.769043,4280.128418,4353.974121,4504.615234,4413.077148,4447.307617,,,,,,,,,,,,,,,,,,,,,,,,,,,,,,,,,,,,,,,,,,,,,,,,,,,,,,,,,,,,,,,,,,,,,,
1720084013,81,0,4417.05127,4392.05127,4366.025879,4373.846191,4383.461426,4380.897461,4376.282227,4383.461426,4266.538574,4280,4359.487305,4501.025879,4411.794922,4443.205078,,,,,,,,,,,,,,,,,,,,,,,,,,,,,,,,,,,,,,,,,,,,,,,,,,,,,,,,,,,,,,,,,,,,,,
1720084013,82,0,4416.794922,4386.282227,4365.128418,4371.538574,4386.282227,4380.128418,4376.922852,4381.282227,4276.282227,4279.102539,4364.102539,4500.512695,4414.615234,4443.077148,,,,,,,,,,,,,,,,,,,,,,,,,,,,,,,,,,,,,,,,,,,,,,,,,,,,,,,,,,,,,,,,,,,,,,
1720084013,83,0,4418.205078,4387.692383,4363.461426,4369.743652,4385,4380.128418,4377.307617,4379.871582,4279.358887,4275.256348,4361.794922,4505,4426.538574,4445.384766,,,,,,,,,,,,,,,,,,,,,,,,,,,,,,,,,,,,,,,,,,,,,,,,,,,,,,,,,,,,,,,,,,,,,,
1720084013,84,0,4424.358887,4393.717773,4367.307617,4372.436035,4382.820313,4383.077148,4380.256348,4386.282227,4281.794922,4279.102539,4366.922852,4514.743652,4439.102539,4457.692383,,,,,,,,,,,,,,,,,,,,,,,,,,,,,,,,,,,,,,,,,,,,,,,,,,,,,,,,,,,,,,,,,,,,,,
1720084013,85,0,4430.897461,4402.820313,4375.641113,4384.615234,4385.512695,4383.333496,4383.974121,4390.512695,4295.769043,4286.410156,4381.282227,4522.307617,4444.615234,4466.922852,,,,,,,,,,,,,,,,,,,,,,,,,,,,,,,,,,,,,,,,,,,,,,,,,,,,,,,,,,,,,,,,,,,,,,
1720084013,86,0,4433.461426,4418.333496,4378.333496,4393.333496,4387.94873,4380.512695,4379.871582,4379.743652,4306.922852,4278.846191,4381.282227,4515.384766,4447.94873,4456.410156,,,,,,,,,,,,,,,,,,,,,,,,,,,,,,,,,,,,,,,,,,,,,,,,,,,,,,,,,,,,,,,,,,,,,,
1720084013,87,0,4439.871582,4426.538574,4373.077148,4397.94873,4386.410156,4378.846191,4376.410156,4374.487305,4303.589844,4265.128418,4365.641113,4505.384766,4441.410156,4452.563965,,,,,,,,,,,,,,,,,,,,,,,,,,,,,,,,,,,,,,,,,,,,,,,,,,,,,,,,,,,,,,,,,,,,,,
1720084013,88,0,4441.666504,4426.282227,4372.05127,4401.538574,4389.743652,4378.974121,4376.922852,4375.128418,4306.153809,4268.589844,4358.461426,4505.128418,4427.94873,4450.897461,14.644128,5.73506,1.618945,0.410442,0.194356,3.932935,1.70562,0.986074,0.344701,0.233425,7.597101,2.917078,0.970677,0.290033,0.207231,3.107989,1.376866,0.836599,0.221399,0.144996,1.203632,0.618392,0.252009,0.190579,0.086373,0.602596,0.1981,0.158711,0.046165,0.111326,1.704583,0.841497,0.329196,0.071208,0.189249,1.83984,0.724361,0.213035,0.112471,0.277193,11.704836,2.304855,1.069853,0.452727,0.391255,10.331102,5.601093,1.386998,0.635122,0.48596,10.412313,3.607223,1.504694,0.523319,0.428904,11.723139,3.883785,0.913606,0.377715,0.272544,14.408072,3.320396,2.1514,0.577015,0.318637,29.776327,7.428435,3.355873,0.54591,0.480039
1720084013,89,0,4436.538574,4425.128418,4377.436035,4397.307617,4398.205078,4384.487305,4378.589844,4372.94873,4318.974121,4278.589844,4364.871582,4511.666504,4431.922852,4448.717773,,,,,,,,,,,,,,,,,,,,,,,,,,,,,,,,,,,,,,,,,,,,,,,,,,,,,,,,,,,,,,,,,,,,,,
1720084013,90,0,4446.922852,4426.538574,4383.205078,4398.589844,4400.769043,4389.102539,4384.743652,4377.05127,4335.384766,4280.384766,4365,4517.307617,4445.641113,4463.717773,,,,,,,,,,,,,,,,,,,,,,,,,,,,,,,,,,,,,,,,,,,,,,,,,,,,,,,,,,,,,,,,,,,,,,
1720084013,91,0,4463.333496,4437.05127,4389.871582,4411.410156,4397.179688,4385.641113,4390.512695,4380,4356.153809,4285.512695,4370.512695,4521.794922,4454.358887,4473.589844,,,,,,,,,,,,,,,,,,,,,,,,,,,,,,,,,,,,,,,,,,,,,,,,,,,,,,,,,,,,,,,,,,,,,,
1720084013,92,0,4462.563965,4442.05127,4397.179688,4418.717773,4395.769043,4384.615234,4392.692383,4383.846191,4378.461426,4295.769043,4394.743652,4531.282227,4469.487305,4478.205078,,,,,,,,,,,,,,,,,,,,,,,,,,,,,,,,,,,,,,,,,,,,,,,,,,,,,,,,,,,,,,,,,,,,,,
1720084013,93,0,4456.025879,4433.461426,4397.692383,4414.615234,4398.333496,4388.589844,4392.94873,4391.538574,4396.282227,4304.487305,4408.717773,4537.563965,4480.641113,4487.94873,,,,,,,,,,,,,,,,,,,,,,,,,,,,,,,,,,,,,,,,,,,,,,,,,,,,,,,,,,,,,,,,,,,,,,
1720084013,94,0,4450.769043,4426.153809,4388.717773,4405.384766,4398.077148,4385.769043,4387.179688,4387.436035,4401.282227,4310.641113,4396.794922,4530.384766,4471.538574,4478.461426,,,,,,,,,,,,,,,,,,,,,,,,,,,,,,,,,,,,,,,,,,,,,,,,,,,,,,,,,,,,,,,,,,,,,,
1720084013,95,0,4441.153809,4423.717773,4376.282227,4396.025879,4394.487305,4379.615234,4379.230957,4374.743652,4392.436035,4305.897461,4383.205078,4515.384766,4455.897461,4456.025879,,,,,,,,,,,,,,,,,,,,,,,,,,,,,,,,,,,,,,,,,,,,,,,,,,,,,,,,,,,,,,,,,,,,,,
1720084013,96,0,4433.717773,4414.102539,4369.743652,4392.563965,4392.179688,4380.384766,4379.743652,4372.563965,4383.461426,4294.871582,4380.256348,4508.205078,4440.641113,4451.410156,,,,,,,,,,,,,,,,,,,,,,,,,,,,,,,,,,,,,,,,,,,,,,,,,,,,,,,,,,,,,,,,,,,,,,
1720084013,97,0,4429.743652,4406.025879,4371.538574,4395,4390.256348,4380.769043,4382.05127,4374.358887,4382.05127,4295.512695,4380.256348,4513.717773,4434.487305,4452.307617,,,,,,,,,,,,,,,,,,,,,,,,,,,,,,,,,,,,,,,,,,,,,,,,,,,,,,,,,,,,,,,,,,,,,,
1720084013,98,0,4428.077148,4411.282227,4376.282227,4393.589844,4390.769043,4378.974121,4382.05127,4373.077148,4381.666504,4297.307617,4382.436035,4519.871582,4440.128418,4446.922852,,,,,,,,,,,,,,,,,,,,,,,,,,,,,,,,,,,,,,,,,,,,,,,,,,,,,,,,,,,,,,,,,,,,,,
1720084013,99,0,4426.794922,4411.153809,4372.820313,4392.563965,4396.538574,4381.410156,4383.717773,4375.769043,4383.333496,4294.743652,4377.820313,4511.538574,4436.153809,4436.922852,,,,,,,,,,,,,,,,,,,,,,,,,,,,,,,,,,,,,,,,,,,,,,,,,,,,,,,,,,,,,,,,,,,,,,
1720084013,100,0,4419.230957,4403.589844,4365.769043,4394.102539,4397.94873,4382.820313,4380.897461,4376.666504,4389.615234,4302.692383,4368.846191,4502.05127,4431.025879,4428.589844,,,,,,,,,,,,,,,,,,,,,,,,,,,,,,,,,,,,,,,,,,,,,,,,,,,,,,,,,,,,,,,,,,,,,,
1720084013,101,0,4416.538574,4407.563965,4369.487305,4398.461426,4391.538574,4379.358887,4378.333496,4376.922852,4392.307617,4309.358887,4371.153809,4510.769043,4435.512695,4435.897461,,,,,,,,,,,,,,,,,,,,,,,,,,,,,,,,,,,,,,,,,,,,,,,,,,,,,,,,,,,,,,,,,,,,,,
1720084013,102,0,4416.922852,4410.128418,4367.820313,4398.717773,4385.512695,4374.358887,4373.333496,4371.666504,4384.871582,4303.333496,4366.666504,4509.102539,4425.512695,4430,,,,,,,,,,,,,,,,,,,,,,,,,,,,,,,,,,,,,,,,,,,,,,,,,,,,,,,,,,,,,,,,,,,,,,
1720084013,103,0,4403.077148,4398.077148,4351.666504,4386.538574,4382.436035,4371.153809,4362.307617,4359.743652,4368.974121,4293.333496,4341.666504,4479.743652,4405.384766,4402.436035,,,,,,,,,,,,,,,,,,,,,,,,,,,,,,,,,,,,,,,,,,,,,,,,,,,,,,,,,,,,,,,,,,,,,,
1720084013,104,0,4382.820313,4385.769043,4337.307617,4377.05127,4381.282227,4370,4356.666504,4352.05127,4356.922852,4282.94873,4325.384766,4452.94873,4395.641113,4382.94873,14.487484,6.568447,1.671318,0.509631,0.20879,4.063959,1.93286,1.050266,0.360774,0.220151,7.467476,4.005922,1.08002,0.337827,0.234364,4.276334,1.468602,0.905438,0.223039,0.169181,1.278905,0.828716,0.278022,0.196023,0.088616,0.547164,0.212363,0.171439,0.052164,0.117224,1.639498,0.884426,0.362072,0.076427,0.185283,1.683193,0.682024,0.240669,0.107202,0.281016,12.705113,2.003803,1.084618,0.429743,0.382413,10.586893,5.854166,1.415349,0.6701,0.56197,9.439322,3.33809,1.453182,0.440238,0.405646,10.663526,4.690384,0.936151,0.441125,0.298889,13.307364,3.160631,1.875129,0.522951,0.327507,24.111862,8.906157,3.534662,0.633293,0.507563
1720084013,105,0,4369.871582,4380.384766,4332.307617,4376.025879,4378.589844,4370.512695,4358.333496,4347.179688,4355.128418,4278.077148,4326.153809,4450.128418,4388.461426,4370,,,,,,,,,,,,,,,,,,,,,,,,,,,,,,,,,,,,,,,,,,,,,,,,,,,,,,,,,,,,,,,,,,,,,,
1720084013,106,0,4360.641113,4368.077148,4323.717773,4363.589844,4365.769043,4367.05127,4356.922852,4350.769043,4359.615234,4285.897461,4326.025879,4457.05127,4386.025879,4364.743652,,,,,,,,,,,,,,,,,,,,,,,,,,,,,,,,,,,,,,,,,,,,,,,,,,,,,,,,,,,,,,,,,,,,,,
1720084013,107,0,4350.641113,4353.717773,4309.102539,4345.641113,4349.871582,4358.717773,4351.025879,4358.077148,4360.897461,4295.769043,4324.358887,4452.307617,4387.05127,4366.025879,,,,,,,,,,,,,,,,,,,,,,,,,,,,,,,,,,,,,,,,,,,,,,,,,,,,,,,,,,,,,,,,,,,,,,
1720084013,108,0,4344.102539,4350.256348,4305.641113,4348.461426,4350.128418,4357.05127,4349.871582,4354.102539,4352.307617,4293.461426,4319.230957,4435.897461,4377.436035,4350.128418,,,,,,,,,,,,,,,,,,,,,,,,,,,,,,,,,,,,,,,,,,,,,,,,,,,,,,,,,,,,,,,,,,,,,,
1720084013,109,0,4340.384766,4348.846191,4310,4359.743652,4359.615234,4365.128418,4357.05127,4350.512695,4342.692383,4290,4310.128418,4433.205078,4369.230957,4331.410156,,,,,,,,,,,,,,,,,,,,,,,,,,,,,,,,,,,,,,,,,,,,,,,,,,,,,,,,,,,,,,,,,,,,,,
1720084013,110,0,4341.922852,4346.025879,4310,4357.307617,4357.436035,4371.025879,4368.077148,4361.666504,4336.922852,4291.410156,4313.205078,4450.641113,4372.563965,4341.410156,,,,,,,,,,,,,,,,,,,,,,,,,,,,,,,,,,,,,,,,,,,,,,,,,,,,,,,,,,,,,,,,,,,,,,
1720084013,111,0,4349.102539,4353.333496,4314.102539,4356.282227,4353.974121,4368.333496,4369.102539,4363.461426,4332.820313,4294.743652,4331.666504,4457.563965,4379.487305,4349.615234,,,,,,,,,,,,,,,,,,,,,,,,,,,,,,,,,,,,,,,,,,,,,,,,,,,,,,,,,,,,,,,,,,,,,,
1720084013,112,0,4354.871582,4360.256348,4324.871582,4363.974121,4361.538574,4367.179688,4362.94873,4352.820313,4325.128418,4295.512695,4333.461426,4455,4382.563965,4340.512695,,,,,,,,,,,,,,,,,,,,,,,,,,,,,,,,,,,,,,,,,,,,,,,,,,,,,,,,,,,,,,,,,,,,,,
1720084013,113,0,4351.922852,4350.769043,4321.666504,4363.974121,4363.589844,4364.871582,4356.025879,4350,4314.871582,4285.769043,4311.282227,4452.94873,4374.358887,4337.05127,,,,,,,,,,,,,,,,,,,,,,,,,,,,,,,,,,,,,,,,,,,,,,,,,,,,,,,,,,,,,,,,,,,,,,
1720084013,114,0,4346.025879,4347.307617,4309.615234,4357.692383,4357.563965,4357.820313,4346.666504,4347.05127,4307.820313,4281.282227,4308.077148,4447.563965,4368.589844,4333.589844,,,,,,,,,,,,,,,,,,,,,,,,,,,,,,,,,,,,,,,,,,,,,,,,,,,,,,,,,,,,,,,,,,,,,,
1720084013,115,0,4350.897461,4357.820313,4319.487305,4356.666504,4356.410156,4360,4349.871582,4350.641113,4307.563965,4292.692383,4332.307617,4453.589844,4378.589844,4341.922852,,,,,,,,,,,,,,,,,,,,,,,,,,,,,,,,,,,,,,,,,,,,,,,,,,,,,,,,,,,,,,,,,,,,,,
1720084013,116,0,4353.717773,4352.307617,4329.102539,4361.153809,4356.025879,4369.230957,4363.717773,4361.922852,4312.820313,4301.794922,4341.282227,4462.692383,4385.897461,4356.025879,,,,,,,,,,,,,,,,,,,,,,,,,,,,,,,,,,,,,,,,,,,,,,,,,,,,,,,,,,,,,,,,,,,,,,
1720084013,117,0,4343.333496,4337.436035,4317.05127,4363.333496,4350.641113,4372.94873,4368.589844,4361.025879,4311.666504,4296.794922,4325.641113,4455.256348,4384.871582,4347.436035,,,,,,,,,,,,,,,,,,,,,,,,,,,,,,,,,,,,,,,,,,,,,,,,,,,,,,,,,,,,,,,,,,,,,,
1720084013,118,0,4341.282227,4340.512695,4312.563965,4360.384766,4350.641113,4371.538574,4365.512695,4357.820313,4303.077148,4290.128418,4321.153809,4451.410156,4383.461426,4338.333496,,,,,,,,,,,,,,,,,,,,,,,,,,,,,,,,,,,,,,,,,,,,,,,,,,,,,,,,,,,,,,,,,,,,,,
1720084013,119,0,4347.820313,4347.692383,4320.256348,4358.333496,4356.153809,4365.256348,4362.307617,4355.512695,4296.410156,4292.307617,4326.282227,4456.922852,4379.358887,4341.538574,,,,,,,,,,,,,,,,,,,,,,,,,,,,,,,,,,,,,,,,,,,,,,,,,,,,,,,,,,,,,,,,,,,,,,
1720084013,120,0,4341.025879,4343.974121,4316.794922,4357.94873,4352.179688,4359.102539,4358.205078,4347.436035,4288.974121,4294.871582,4325.128418,4449.743652,4378.333496,4338.077148,15.198144,7.597522,1.680242,0.581574,0.216614,3.834581,2.057431,1.040036,0.363372,0.204765,7.038957,5.026873,1.20159,0.377931,0.253785,5.532288,1.518082,0.922558,0.225142,0.194891,1.261992,0.972855,0.308132,0.191444,0.093687,0.45864,0.229458,0.179272,0.060421,0.117579,1.461682,0.875221,0.375586,0.085914,0.176767,1.381547,0.636803,0.271308,0.109969,0.273134,12.77615,1.946128,1.139699,0.394324,0.350886,9.729022,5.574111,1.33276,0.651025,0.582012,7.854797,3.038605,1.350485,0.413032,0.374978,9.162924,5.332813,1.001945,0.50139,0.308163,11.385166,3.046663,1.613968,0.482854,0.326663,20.62402,10.641918,3.562144,0.69549,0.505401
1720084013,121,0,4330.128418,4335.128418,4303.717773,4353.717773,4343.461426,4359.743652,4355.256348,4344.358887,4280.769043,4292.563965,4327.179688,4439.102539,4378.333496,4328.717773,,,,,,,,,,,,,,,,,,,,,,,,,,,,,,,,,,,,,,,,,,,,,,,,,,,,,,,,,,,,,,,,,,,,,,
1720084013,122,0,4327.436035,4326.666504,4296.666504,4344.487305,4341.794922,4360.897461,4353.589844,4347.179688,4274.871582,4291.410156,4323.333496,4438.333496,4371.282227,4325.897461,,,,,,,,,,,,,,,,,,,,,,,,,,,,,,,,,,,,,,,,,,,,,,,,,,,,,,,,,,,,,,,,,,,,,,
1720084013,123,0,4323.974121,4326.538574,4293.077148,4340.769043,4342.563965,4361.538574,4353.846191,4348.333496,4271.282227,4291.153809,4314.615234,4439.487305,4365.769043,4330.128418,,,,,,,,,,,,,,,,,,,,,,,,,,,,,,,,,,,,,,,,,,,,,,,,,,,,,,,,,,,,,,,,,,,,,,
1720084013,124,0,4322.94873,4329.230957,4292.94873,4346.025879,4339.358887,4363.461426,4356.666504,4348.846191,4265.256348,4285.512695,4316.922852,4438.333496,4368.589844,4331.153809,,,,,,,,,,,,,,,,,,,,,,,,,,,,,,,,,,,,,,,,,,,,,,,,,,,,,,,,,,,,,,,,,,,,,,
1720084013,125,0,4328.333496,4326.922852,4301.282227,4351.282227,4340,4359.615234,4353.461426,4344.230957,4260,4280.256348,4319.743652,4435.769043,4368.205078,4328.077148,,,,,,,,,,,,,,,,,,,,,,,,,,,,,,,,,,,,,,,,,,,,,,,,,,,,,,,,,,,,,,,,,,,,,,
1720084013,126,0,4328.333496,4326.794922,4305.641113,4347.436035,4342.692383,4355.641113,4350.256348,4341.666504,4260.128418,4277.820313,4309.230957,4434.358887,4360.769043,4327.179688,,,,,,,,,,,,,,,,,,,,,,,,,,,,,,,,,,,,,,,,,,,,,,,,,,,,,,,,,,,,,,,,,,,,,,
1720084013,127,0,4325.769043,4331.025879,4301.538574,4341.666504,4339.615234,4357.820313,4353.589844,4351.025879,4262.94873,4279.615234,4302.179688,4434.102539,4352.820313,4331.794922,,,,,,,,,,,,,,,,,,,,,,,,,,,,,,,,,,,,,,,,,,,,,,,,,,,,,,,,,,,,,,,,,,,,,,
1720084013,0,0,4325.897461,4328.077148,4296.666504,4341.538574,4336.666504,4356.666504,4352.94873,4348.589844,4266.025879,4289.487305,4305.769043,4429.358887,4348.077148,4327.05127,,,,,,,,,,,,,,,,,,,,,,,,,,,,,,,,,,,,,,,,,,,,,,,,,,,,,,,,,,,,,,,,,,,,,,
1720084013,1,0,4315.769043,4317.05127,4293.333496,4340.256348,4338.333496,4355,4351.538574,4342.563965,4264.230957,4295.897461,4309.230957,4428.974121,4347.94873,4322.820313,,,,,,,,,,,,,,,,,,,,,,,,,,,,,,,,,,,,,,,,,,,,,,,,,,,,,,,,,,,,,,,,,,,,,,
1720084013,2,0,4306.410156,4315.641113,4290.769043,4339.615234,4345.512695,4359.487305,4355.769043,4352.94873,4265.128418,4294.358887,4310.384766,4431.794922,4349.102539,4329.358887,,,,,,,,,,,,,,,,,,,,,,,,,,,,,,,,,,,,,,,,,,,,,,,,,,,,,,,,,,,,,,,,,,,,,,
1720084013,3,0,4312.307617,4323.974121,4293.846191,4344.743652,4349.358887,4364.487305,4356.794922,4357.05127,4268.205078,4296.153809,4304.102539,4428.077148,4349.358887,4327.563965,,,,,,,,,,,,,,,,,,,,,,,,,,,,,,,,,,,,,,,,,,,,,,,,,,,,,,,,,,,,,,,,,,,,,,
1720084013,4,0,4317.05127,4326.538574,4295.641113,4344.230957,4342.563965,4367.307617,4355.641113,4352.94873,4268.589844,4297.563965,4303.205078,4426.794922,4345.769043,4321.153809,,,,,,,,,,,,,,,,,,,,,,,,,,,,,,,,,,,,,,,,,,,,,,,,,,,,,,,,,,,,,,,,,,,,,,
1720084013,5,0,4316.794922,4325.384766,4293.461426,4340.641113,4335.512695,4365.641113,4358.333496,4354.230957,4272.05127,4296.153809,4314.358887,4432.563965,4341.538574,4320.897461,,,,,,,,,,,,,,,,,,,,,,,,,,,,,,,,,,,,,,,,,,,,,,,,,,,,,,,,,,,,,,,,,,,,,,
1720084013,6,0,4326.666504,4330.128418,4303.077148,4350,4337.436035,4365.256348,4361.410156,4355.256348,4276.794922,4302.307617,4315.128418,4437.307617,4346.538574,4327.307617,,,,,,,,,,,,,,,,,,,,,,,,,,,,,,,,,,,,,,,,,,,,,,,,,,,,,,,,,,,,,,,,,,,,,,
1720084013,7,0,4335.512695,4336.538574,4315.384766,4361.410156,4340.512695,4367.179688,4360.512695,4355.128418,4276.410156,4305.128418,4309.487305,4441.153809,4353.974121,4331.538574,,,,,,,,,,,,,,,,,,,,,,,,,,,,,,,,,,,,,,,,,,,,,,,,,,,,,,,,,,,,,,,,,,,,,,
1720084013,8,0,4327.94873,4340.384766,4312.179688,4359.743652,4338.974121,4364.102539,4358.333496,4356.922852,4274.743652,4299.230957,4318.205078,4442.05127,4356.538574,4327.307617,15.759851,8.278518,1.650129,0.607475,0.213304,3.410599,2.066955,0.960079,0.355809,0.191189,6.3969,5.663253,1.342576,0.401889,0.261876,6.447168,1.52124,0.889471,0.235317,0.214716,1.207017,1.024028,0.338424,0.179852,0.101421,0.36823,0.243535,0.18092,0.070349,0.112051,1.27263,0.811162,0.379855,0.099341,0.165995,1.032622,0.592285,0.310847,0.12014,0.252659,12.100705,2.187787,1.249467,0.363359,0.302864,8.139915,4.798365,1.179211,0.582049,0.538597,6.190822,2.777456,1.248806,0.444183,0.349814,7.571188,5.63317,1.138505,0.547671,0.30055,9.244446,3.012861,1.455772,0.469312,0.315321,18.755968,11.77586,3.405257,0.713834,0.4728
1720084013,9,0,4318.333496,4339.615234,4303.461426,4356.025879,4337.179688,4358.717773,4356.282227,4350.897461,4272.563965,4296.282227,4322.436035,4436.538574,4353.077148,4320.384766,,,,,,,,,,,,,,,,,,,,,,,,,,,,,,,,,,,,,,,,,,,,,,,,,,,,,,,,,,,,,,,,,,,,,,
1720084013,10,0,4318.717773,4331.922852,4298.077148,4359.487305,4334.102539,4360.897461,4357.94873,4352.692383,4265.512695,4295.897461,4310.641113,4434.487305,4345.384766,4324.102539,,,,,,,,,,,,,,,,,,,,,,,,,,,,,,,,,,,,,,,,,,,,,,,,,,,,,,,,,,,,,,,,,,,,,,
1720084013,11,0,4319.615234,4328.077148,4295.641113,4359.358887,4333.461426,4363.077148,4361.538574,4363.461426,4260.384766,4294.230957,4307.692383,4436.025879,4343.717773,4328.205078,,,,,,,,,,,,,,,,,,,,,,,,,,,,,,,,,,,,,,,,,,,,,,,,,,,,,,,,,,,,,,,,,,,,,,
1720084013,12,0,4313.205078,4329.487305,4291.410156,4352.692383,4338.333496,4358.461426,4360.128418,4357.820313,4266.153809,4293.846191,4315.897461,4432.692383,4352.179688,4319.615234,,,,,,,,,,,,,,,,,,,,,,,,,,,,,,,,,,,,,,,,,,,,,,,,,,,,,,,,,,,,,,,,,,,,,,
1720084013,13,0,4306.794922,4326.025879,4282.307617,4348.077148,4339.487305,4360.897461,4357.179688,4355.128418,4272.820313,4296.153809,4318.333496,4431.666504,4356.410156,4324.871582,,,,,,,,,,,,,,,,,,,,,,,,,,,,,,,,,,,,,,,,,,,,,,,,,,,,,,,,,,,,,,,,,,,,,,
1720084013,14,0,4305.641113,4324.102539,4276.153809,4348.461426,4335.384766,4365.769043,4353.717773,4357.05127,4270.384766,4294.871582,4311.153809,4425.641113,4347.436035,4331.538574,,,,,,,,,,,,,,,,,,,,,,,,,,,,,,,,,,,,,,,,,,,,,,,,,,,,,,,,,,,,,,,,,,,,,,
1720084013,15,0,4309.615234,4327.820313,4279.230957,4352.05127,4337.436035,4361.410156,4353.461426,4351.153809,4262.94873,4285.897461,4298.717773,4414.102539,4331.025879,4318.461426,,,,,,,,,,,,,,,,,,,,,,,,,,,,,,,,,,,,,,,,,,,,,,,,,,,,,,,,,,,,,,,,,,,,,,
1720084013,16,0,4312.94873,4327.820313,4283.974121,4350.769043,4337.307617,4355.641113,4354.615234,4348.589844,4260.897461,4278.589844,4299.230957,4416.666504,4327.94873,4316.282227,,,,,,,,,,,,,,,,,,,,,,,,,,,,,,,,,,,,,,,,,,,,,,,,,,,,,,,,,,,,,,,,,,,,,,
1720084013,17,0,4312.94873,4330.769043,4287.820313,4350.769043,4328.589844,4356.794922,4350,4348.717773,4263.974121,4280.128418,4315,4427.94873,4344.230957,4332.179688,,,,,,,,,,,,,,,,,,,,,,,,,,,,,,,,,,,,,,,,,,,,,,,,,,,,,,,,,,,,,,,,,,,,,,
1720084013,18,0,4315.897461,4340.641113,4289.871582,4359.487305,4327.94873,4357.692383,4348.589844,4346.410156,4261.666504,4280.641113,4315.512695,4428.205078,4351.282227,4342.05127,,,,,,,,,,,,,,,,,,,,,,,,,,,,,,,,,,,,,,,,,,,,,,,,,,,,,,,,,,,,,,,,,,,,,,
1720084013,19,0,4323.589844,4342.563965,4294.487305,4366.538574,4336.538574,4356.282227,4356.410156,4346.794922,4256.794922,4279.230957,4302.563965,4424.743652,4345,4338.974121,,,,,,,,,,,,,,,,,,,,,,,,,,,,,,,,,,,,,,,,,,,,,,,,,,,,,,,,,,,,,,,,,,,,,,
1720084013,20,0,4329.615234,4342.94873,4306.025879,4363.717773,4339.487305,4362.307617,4365.897461,4352.307617,4262.307617,4287.307617,4316.666504,4440.384766,4354.230957,4347.179688,,,,,,,,,,,,,,,,,,,,,,,,,,,,,,,,,,,,,,,,,,,,,,,,,,,,,,,,,,,,,,,,,,,,,,
1720084013,21,0,4332.307617,4349.615234,4314.358887,4367.307617,4338.205078,4367.179688,4368.077148,4358.333496,4273.717773,4295.256348,4341.153809,4458.461426,4367.307617,4365.897461,,,,,,,,,,,,,,,,,,,,,,,,,,,,,,,,,,,,,,,,,,,,,,,,,,,,,,,,,,,,,,,,,,,,,,
1720084013,22,0,4329.487305,4347.692383,4311.282227,4374.102539,4338.846191,4362.94873,4363.974121,4364.487305,4281.794922,4295.256348,4333.333496,4454.487305,4362.05127,4364.743652,,,,,,,,,,,,,,,,,,,,,,,,,,,,,,,,,,,,,,,,,,,,,,,,,,,,,,,,,,,,,,,,,,,,,,
1720084013,23,0,4324.871582,4340.769043,4309.230957,4366.666504,4338.461426,4357.436035,4360.897461,4368.974121,4289.743652,4297.94873,4322.692383,4450.384766,4356.410156,4356.282227,,,,,,,,,,,,,,,,,,,,,,,,,,,,,,,,,,,,,,,,,,,,,,,,,,,,,,,,,,,,,,,,,,,,,,
1720084013,24,0,4325.641113,4339.358887,4308.461426,4356.410156,4337.692383,4358.846191,4359.230957,4368.974121,4297.436035,4303.077148,4333.205078,4452.692383,4358.589844,4359.102539,15.449643,8.195713,1.605182,0.58168,0.198979,3.128178,2.005324,0.843304,0.341526,0.182615,5.73426,5.714976,1.499667,0.405894,0.259423,6.798519,1.497344,0.826191,0.257232,0.223521,1.153091,0.994756,0.366735,0.166268,0.110548,0.311042,0.247964,0.176663,0.08274,0.101714,1.168153,0.701141,0.393825,0.1184,0.154021,0.75378,0.545029,0.368174,0.138083,0.223513,11.21382,2.615372,1.393828,0.353256,0.24702,6.325537,3.726724,1.016738,0.49159,0.446776,4.94067,2.569465,1.189603,0.516813,0.342073,6.326368,5.486288,1.346297,0.572816,0.286161,7.599077,2.995042,1.459619,0.488465,0.294299,17.138575,11.647784,3.101479,0.68828,0.421203
1720084013,25,0,4324.743652,4337.307617,4299.743652,4357.436035,4335.769043,4359.871582,4356.666504,4360.512695,4297.692383,4306.794922,4332.820313,4443.717773,4358.589844,4355.256348,,,,,,,,,,,,,,,,,,,,,,,,,,,,,,,,,,,,,,,,,,,,,,,,,,,,,,,,,,,,,,,,,,,,,,
1720084013,26,0,4317.820313,4332.94873,4292.05127,4358.717773,4332.179688,4357.307617,4352.563965,4350.384766,4295.512695,4309.358887,4319.487305,4434.743652,4358.333496,4347.820313,,,,,,,,,,,,,,,,,,,,,,,,,,,,,,,,,,,,,,,,,,,,,,,,,,,,,,,,,,,,,,,,,,,,,,
1720084013,27,0,4318.717773,4333.333496,4296.794922,4354.230957,4332.692383,4356.282227,4350.256348,4355.384766,4295.384766,4309.102539,4322.179688,4441.025879,4357.307617,4360.128418,,,,,,,,,,,,,,,,,,,,,,,,,,,,,,,,,,,,,,,,,,,,,,,,,,,,,,,,,,,,,,,,,,,,,,
1720084013,28,0,4327.179688,4337.820313,4307.563965,4359.871582,4339.230957,4357.436035,4348.717773,4354.230957,4294.358887,4308.077148,4329.230957,4440.897461,4360.128418,4368.333496,,,,,,,,,,,,,,,,,,,,,,,,,,,,,,,,,,,,,,,,,,,,,,,,,,,,,,,,,,,,,,,,,,,,,,
1720084013,29,0,4333.333496,4342.436035,4312.179688,4372.563965,4343.333496,4363.205078,4353.846191,4350.641113,4295,4313.077148,4331.410156,4443.974121,4374.102539,4369.871582,,,,,,,,,,,,,,,,,,,,,,,,,,,,,,,,,,,,,,,,,,,,,,,,,,,,,,,,,,,,,,,,,,,,,,
1720084013,30,0,4336.282227,4348.974121,4314.102539,4374.358887,4340.897461,4367.563965,4361.282227,4360,4300,4320.641113,4337.94873,4458.205078,4380.641113,4383.846191,,,,,,,,,,,,,,,,,,,,,,,,,,,,,,,,,,,,,,,,,,,,,,,,,,,,,,,,,,,,,,,,,,,,,,
1720084013,31,0,4343.205078,4356.794922,4325,4376.922852,4341.666504,4365.512695,4362.307617,4361.282227,4304.102539,4325.769043,4343.717773,4462.05127,4372.820313,4387.436035,,,,,,,,,,,,,,,,,,,,,,,,,,,,,,,,,,,,,,,,,,,,,,,,,,,,,,,,,,,,,,,,,,,,,,
1720084013,32,0,4346.666504,4353.974121,4331.666504,4381.794922,4342.692383,4364.230957,4367.05127,4359.358887,4303.077148,4324.358887,4346.922852,4465,4370.769043,4386.794922,,,,,,,,,,,,,,,,,,,,,,,,,,,,,,,,,,,,,,,,,,,,,,,,,,,,,,,,,,,,,,,,,,,,,,
1720084013,33,0,4336.282227,4342.692383,4318.461426,4372.307617,4337.436035,4365.256348,4368.717773,4361.794922,4296.794922,4315.512695,4338.717773,4461.794922,4371.666504,4387.820313,,,,,,,,,,,,,,,,,,,,,,,,,,,,,,,,,,,,,,,,,,,,,,,,,,,,,,,,,,,,,,,,,,,,,,
1720084013,34,0,4324.102539,4339.743652,4304.102539,4360.769043,4337.307617,4364.615234,4362.563965,4359.358887,4292.05127,4311.410156,4324.615234,4445.897461,4360.512695,4376.153809,,,,,,,,,,,,,,,,,,,,,,,,,,,,,,,,,,,,,,,,,,,,,,,,,,,,,,,,,,,,,,,,,,,,,,
1720084013,35,0,4328.589844,4342.820313,4307.436035,4368.205078,4342.692383,4366.410156,4365.128418,4361.666504,4302.05127,4319.487305,4329.230957,4447.179688,4354.102539,4372.307617,,,,,,,,,,,,,,,,,,,,,,,,,,,,,,,,,,,,,,,,,,,,,,,,,,,,,,,,,,,,,,,,,,,,,,
1720084013,36,0,4337.94873,4345.769043,4314.487305,4375.384766,4343.846191,4369.871582,4369.871582,4366.410156,4312.563965,4326.282227,4339.743652,4459.871582,4362.436035,4380.897461,,,,,,,,,,,,,,,,,,,,,,,,,,,,,,,,,,,,,,,,,,,,,,,,,,,,,,,,,,,,,,,,,,,,,,
1720084013,37,0,4332.436035,4349.487305,4306.794922,4367.179688,4342.307617,4365.769043,4357.436035,4351.410156,4303.461426,4321.410156,4323.589844,4448.205078,4363.333496,4367.307617,,,,,,,,,,,,,,,,,,,,,,,,,,,,,,,,,,,,,,,,,,,,,,,,,,,,,,,,,,,,,,,,,,,,,,
1720084013,38,0,4324.615234,4347.179688,4294.358887,4362.692383,4342.179688,4360.897461,4344.743652,4338.589844,4294.615234,4318.846191,4308.589844,4431.794922,4350,4355.256348,,,,,,,,,,,,,,,,,,,,,,,,,,,,,,,,,,,,,,,,,,,,,,,,,,,,,,,,,,,,,,,,,,,,,,
1720084013,39,0,4327.436035,4340.384766,4292.692383,4371.025879,4342.179688,4362.563965,4347.94873,4347.692383,4301.410156,4328.974121,4319.358887,4438.589844,4343.333496,4369.743652,,,,,,,,,,,,,,,,,,,,,,,,,,,,,,,,,,,,,,,,,,,,,,,,,,,,,,,,,,,,,,,,,,,,,,
1720084013,40,0,4329.743652,4341.410156,4297.820313,4374.871582,4343.333496,4363.974121,4350.128418,4348.461426,4302.307617,4337.820313,4326.410156,4445.128418,4353.333496,4371.410156,14.097146,7.320639,1.58236,0.514879,0.178375,3.169525,1.938919,0.730013,0.323671,0.180289,5.30057,5.215981,1.650121,0.391986,0.250772,6.490576,1.470905,0.753477,0.286422,0.220343,1.151728,0.921189,0.388701,0.155944,0.119062,0.302884,0.23839,0.169695,0.099602,0.088557,1.183862,0.563088,0.434484,0.145765,0.14058,0.596093,0.487417,0.448913,0.163575,0.192134,10.20909,3.016285,1.533796,0.371053,0.192775,4.822458,2.623558,0.896423,0.416425,0.336684,4.516474,2.387886,1.186587,0.603831,0.358244,5.782755,4.938108,1.590552,0.573292,0.277872,6.988913,2.900559,1.630445,0.53623,0.266682,15.360361,10.225357,2.752894,0.633919,0.368372
1720084013,41,0,4332.563965,4346.666504,4305,4365.641113,4342.436035,4363.589844,4352.94873,4350.897461,4293.205078,4336.922852,4329.102539,4446.922852,4368.461426,4372.563965,,,,,,,,,,,,,,,,,,,,,,,,,,,,,,,,,,,,,,,,,,,,,,,,,,,,,,,,,,,,,,,,,,,,,,
1720084013,42,0,4341.153809,4352.179688,4315.897461,4364.743652,4338.589844,4362.820313,4362.307617,4361.666504,4295.512695,4335.769043,4340.256348,4457.307617,4374.743652,4387.563965,,,,,,,,,,,,,,,,,,,,,,,,,,,,,,,,,,,,,,,,,,,,,,,,,,,,,,,,,,,,,,,,,,,,,,
1720084013,43,0,4345.769043,4353.589844,4324.743652,4376.666504,4340,4365.256348,4368.846191,4365.384766,4309.615234,4342.307617,4355,4473.974121,4378.205078,4391.282227,,,,,,,,,,,,,,,,,,,,,,,,,,,,,,,,,,,,,,,,,,,,,,,,,,,,,,,,,,,,,,,,,,,,,,
1720084013,44,0,4341.153809,4348.077148,4321.410156,4382.436035,4341.538574,4368.974121,4370.897461,4370.256348,4314.871582,4346.025879,4360,4477.692383,4380.641113,4387.05127,,,,,,,,,,,,,,,,,,,,,,,,,,,,,,,,,,,,,,,,,,,,,,,,,,,,,,,,,,,,,,,,,,,,,,
1720084013,45,0,4337.307617,4348.974121,4315,4379.743652,4342.307617,4368.589844,4369.102539,4370,4305.512695,4342.820313,4345.897461,4462.94873,4371.025879,4380,,,,,,,,,,,,,,,,,,,,,,,,,,,,,,,,,,,,,,,,,,,,,,,,,,,,,,,,,,,,,,,,,,,,,,
1720084013,46,0,4335.256348,4350.384766,4313.205078,4376.025879,4346.666504,4367.820313,4364.743652,4361.538574,4300,4338.846191,4327.692383,4452.436035,4358.333496,4370.512695,,,,,,,,,,,,,,,,,,,,,,,,,,,,,,,,,,,,,,,,,,,,,,,,,,,,,,,,,,,,,,,,,,,,,,
1720084013,47,0,4328.333496,4341.666504,4306.666504,4370.897461,4347.307617,4368.461426,4359.358887,4356.410156,4302.05127,4337.05127,4323.333496,4450,4355.128418,4361.538574,,,,,,,,,,,,,,,,,,,,,,,,,,,,,,,,,,,,,,,,,,,,,,,,,,,,,,,,,,,,,,,,,,,,,,
1720084013,48,0,4323.077148,4336.666504,4294.487305,4363.205078,4341.282227,4365,4352.692383,4352.692383,4299.358887,4337.307617,4325.384766,4442.05127,4351.538574,4355.256348,,,,,,,,,,,,,,,,,,,,,,,,,,,,,,,,,,,,,,,,,,,,,,,,,,,,,,,,,,,,,,,,,,,,,,
1720084013,49,0,4321.922852,4338.717773,4287.436035,4357.436035,4337.436035,4361.538574,4351.282227,4349.743652,4299.102539,4336.666504,4320.641113,4434.230957,4344.871582,4356.794922,,,,,,,,,,,,,,,,,,,,,,,,,,,,,,,,,,,,,,,,,,,,,,,,,,,,,,,,,,,,,,,,,,,,,,
1720084013,50,0,4319.102539,4339.358887,4290.128418,4357.307617,4342.820313,4361.410156,4355.512695,4351.410156,4303.589844,4334.871582,4316.538574,4434.102539,4336.538574,4358.589844,,,,,,,,,,,,,,,,,,,,,,,,,,,,,,,,,,,,,,,,,,,,,,,,,,,,,,,,,,,,,,,,,,,,,,
1720084013,51,0,4316.922852,4340.128418,4291.538574,4359.102539,4342.94873,4355.769043,4347.820313,4342.436035,4299.358887,4331.922852,4310.641113,4427.820313,4327.179688,4347.820313,,,,,,,,,,,,,,,,,,,,,,,,,,,,,,,,,,,,,,,,,,,,,,,,,,,,,,,,,,,,,,,,,,,,,,
1720084013,52,0,4320.897461,4344.871582,4287.692383,4357.94873,4333.077148,4349.102539,4336.282227,4335.128418,4291.410156,4328.717773,4305.128418,4425.769043,4333.077148,4347.563965,,,,,,,,,,,,,,,,,,,,,,,,,,,,,,,,,,,,,,,,,,,,,,,,,,,,,,,,,,,,,,,,,,,,,,
1720084013,53,0,4330.256348,4347.563965,4298.717773,4367.05127,4330.641113,4351.410156,4341.922852,4347.563965,4292.94873,4327.563965,4313.333496,4442.436035,4350.128418,4363.461426,,,,,,,,,,,,,,,,,,,,,,,,,,,,,,,,,,,,,,,,,,,,,,,,,,,,,,,,,,,,,,,,,,,,,,
1720084013,54,0,4334.230957,4347.179688,4313.205078,4378.717773,4335.128418,4352.563965,4349.358887,4345.128418,4289.358887,4322.05127,4327.692383,4450.897461,4351.282227,4360.641113,,,,,,,,,,,,,,,,,,,,,,,,,,,,,,,,,,,,,,,,,,,,,,,,,,,,,,,,,,,,,,,,,,,,,,
1720084013,55,0,4325.256348,4341.025879,4303.974121,4368.077148,4332.307617,4349.871582,4350.256348,4337.436035,4280.256348,4310.512695,4325.256348,4439.743652,4338.077148,4348.461426,,,,,,,,,,,,,,,,,,,,,,,,,,,,,,,,,,,,,,,,,,,,,,,,,,,,,,,,,,,,,,,,,,,,,,
1720084013,56,0,4321.282227,4341.153809,4298.077148,4356.410156,4328.461426,4352.307617,4354.743652,4351.153809,4286.153809,4310.512695,4311.666504,4436.410156,4332.436035,4348.077148,12.153364,5.967775,1.562899,0.429949,0.158137,3.50857,1.933493,0.640151,0.305093,0.182864,5.118361,4.396284,1.736563,0.365503,0.240921,5.657812,1.467003,0.68285,0.313277,0.208445,1.195085,0.841825,0.396356,0.153182,0.124866,0.332357,0.216727,0.165673,0.122353,0.074932,1.281372,0.424377,0.507094,0.18237,0.125143,0.576201,0.416955,0.550618,0.194326,0.164277,9.366139,3.211691,1.642167,0.411637,0.148081,3.847707,1.71943,0.844839,0.382714,0.239006,4.777906,2.188137,1.220323,0.67706,0.397354,5.879898,4.133549,1.800113,0.54836,0.28323,7.160258,2.669323,1.907208,0.600253,0.238852,13.443376,7.962279,2.436969,0.568896,0.329978
1720084013,57,0,4331.282227,4353.077148,4313.205078,4370.128418,4334.871582,4358.333496,4363.077148,4360.641113,4298.077148,4324.230957,4314.871582,4451.025879,4339.615234,4356.794922,,,,,,,,,,,,,,,,,,,,,,,,,,,,,,,,,,,,,,,,,,,,,,,,,,,,,,,,,,,,,,,,,,,,,,
1720084013,58,0,4328.461426,4353.205078,4307.94873,4379.358887,4338.461426,4359.230957,4361.410156,4352.05127,4290.769043,4323.461426,4319.743652,4446.410156,4342.820313,4361.282227,,,,,,,,,,,,,,,,,,,,,,,,,,,,,,,,,,,,,,,,,,,,,,,,,,,,,,,,,,,,,,,,,,,,,,
1720084013,59,0,4309.615234,4342.05127,4279.615234,4361.666504,4335,4355.512695,4346.794922,4339.487305,4279.230957,4308.846191,4298.077148,4415,4330.128418,4340.897461,,,,,,,,,,,,,,,,,,,,,,,,,,,,,,,,,,,,,,,,,,,,,,,,,,,,,,,,,,,,,,,,,,,,,,
1720084013,60,0,4303.077148,4342.307617,4267.05127,4351.153809,4334.358887,4355.512695,4340.128418,4336.153809,4287.820313,4311.410156,4286.410156,4405.512695,4317.179688,4323.589844,,,,,,,,,,,,,,,,,,,,,,,,,,,,,,,,,,,,,,,,,,,,,,,,,,,,,,,,,,,,,,,,,,,,,,
1720084013,61,0,4307.179688,4339.358887,4267.563965,4353.333496,4333.205078,4356.794922,4341.282227,4336.922852,4297.692383,4327.692383,4304.230957,4416.410156,4323.333496,4329.230957,,,,,,,,,,,,,,,,,,,,,,,,,,,,,,,,,,,,,,,,,,,,,,,,,,,,,,,,,,,,,,,,,,,,,,
1720084013,62,0,4301.922852,4326.282227,4263.205078,4346.025879,4330,4353.589844,4337.179688,4329.487305,4295.384766,4331.282227,4304.615234,4406.410156,4325.641113,4324.615234,,,,,,,,,,,,,,,,,,,,,,,,,,,,,,,,,,,,,,,,,,,,,,,,,,,,,,,,,,,,,,,,,,,,,,
1720084014,63,0,4296.538574,4327.05127,4264.230957,4346.025879,4327.94873,4349.871582,4335.384766,4326.153809,4292.692383,4325.128418,4288.461426,4394.230957,4315.384766,4315.256348,,,,,,,,,,,,,,,,,,,,,,,,,,,,,,,,,,,,,,,,,,,,,,,,,,,,,,,,,,,,,,,,,,,,,,
1720084014,64,0,4301.794922,4330.769043,4273.333496,4351.922852,4327.436035,4350.897461,4344.358887,4341.025879,4297.307617,4323.589844,4296.666504,4409.615234,4314.743652,4326.922852,,,,,,,,,,,,,,,,,,,,,,,,,,,,,,,,,,,,,,,,,,,,,,,,,,,,,,,,,,,,,,,,,,,,,,
1720084014,65,0,4306.025879,4327.563965,4279.743652,4347.94873,4327.94873,4351.538574,4352.820313,4347.05127,4304.487305,4328.333496,4311.025879,4422.436035,4326.666504,4329.358887,,,,,,,,,,,,,,,,,,,,,,,,,,,,,,,,,,,,,,,,,,,,,,,,,,,,,,,,,,,,,,,,,,,,,,
1720084014,66,0,4309.230957,4336.922852,4285.128418,4352.692383,4327.563965,4351.153809,4355.512695,4342.692383,4304.871582,4330,4312.692383,4422.820313,4336.794922,4324.615234,,,,,,,,,,,,,,,,,,,,,,,,,,,,,,,,,,,,,,,,,,,,,,,,,,,,,,,,,,,,,,,,,,,,,,
1720084014,67,0,4319.358887,4347.563965,4293.333496,4365.256348,4327.05127,4351.666504,4355.769043,4348.717773,4295.128418,4324.102539,4311.794922,4427.179688,4337.179688,4340.256348,,,,,,,,,,,,,,,,,,,,,,,,,,,,,,,,,,,,,,,,,,,,,,,,,,,,,,,,,,,,,,,,,,,,,,
1720084014,68,0,4320.256348,4341.794922,4289.487305,4360.769043,4327.94873,4347.563965,4344.743652,4336.794922,4284.102539,4315,4301.282227,4418.846191,4329.615234,4330.641113,,,,,,,,,,,,,,,,,,,,,,,,,,,,,,,,,,,,,,,,,,,,,,,,,,,,,,,,,,,,,,,,,,,,,,
1720084014,69,0,4297.179688,4328.461426,4265.641113,4341.538574,4320.384766,4340.641113,4334.743652,4319.230957,4276.794922,4302.179688,4283.077148,4401.282227,4310.897461,4305.384766,,,,,,,,,,,,,,,,,,,,,,,,,,,,,,,,,,,,,,,,,,,,,,,,,,,,,,,,,,,,,,,,,,,,,,
1720084014,70,0,4275.256348,4313.333496,4248.205078,4323.717773,4307.820313,4337.563965,4330.512695,4321.153809,4270.128418,4293.846191,4270.897461,4393.077148,4293.077148,4303.205078,,,,,,,,,,,,,,,,,,,,,,,,,,,,,,,,,,,,,,,,,,,,,,,,,,,,,,,,,,,,,,,,,,,,,,
1720084014,71,0,4279.615234,4310.384766,4255.128418,4327.05127,4311.922852,4339.615234,4330.512695,4320,4270.897461,4302.436035,4265.897461,4392.94873,4288.589844,4298.461426,,,,,,,,,,,,,,,,,,,,,,,,,,,,,,,,,,,,,,,,,,,,,,,,,,,,,,,,,,,,,,,,,,,,,,
1720084014,72,0,4287.94873,4321.410156,4256.025879,4340.128418,4323.333496,4342.692383,4334.358887,4317.94873,4277.307617,4311.025879,4265.897461,4389.743652,4291.410156,4290.384766,10.351659,4.586153,1.513166,0.352131,0.143614,3.936656,2.014931,0.579069,0.288022,0.186128,5.186744,3.585681,1.702084,0.33521,0.233766,4.642375,1.505465,0.623419,0.328266,0.193841,1.239467,0.777866,0.386559,0.158051,0.126309,0.381974,0.192035,0.169578,0.149516,0.063118,1.383294,0.335154,0.599653,0.224518,0.108609,0.636966,0.356766,0.663307,0.225034,0.143562,8.629326,3.099686,1.693098,0.458287,0.117915,3.355913,1.106776,0.844342,0.39005,0.173229,5.492307,1.961234,1.235945,0.711811,0.452025,6.38699,3.307165,1.890488,0.503216,0.301642,7.907218,2.323185,2.137539,0.65909,0.218707,11.911459,5.592046,2.178789,0.506263,0.313376
1720084014,73,0,4280,4322.179688,4242.05127,4329.871582,4322.05127,4342.94873,4331.025879,4322.820313,4278.717773,4308.589844,4270.641113,4379.230957,4298.461426,4291.153809,,,,,,,,,,,,,,,,,,,,,,,,,,,,,,,,,,,,,,,,,,,,,,,,,,,,,,,,,,,,,,,,,,,,,,
1720084014,74,0,4281.922852,4324.230957,4250.897461,4322.436035,4318.846191,4341.538574,4332.563965,4329.230957,4282.94873,4314.102539,4284.487305,4388.205078,4307.94873,4304.102539,,,,,,,,,,,,,,,,,,,,,,,,,,,,,,,,,,,,,,,,,,,,,,,,,,,,,,,,,,,,,,,,,,,,,,
1720084014,75,0,4305.128418,4339.230957,4276.922852,4346.666504,4322.820313,4341.410156,4345.641113,4337.563965,4287.05127,4325.897461,4297.563965,4413.717773,4318.717773,4319.615234,,,,,,,,,,,,,,,,,,,,,,,,,,,,,,,,,,,,,,,,,,,,,,,,,,,,,,,,,,,,,,,,,,,,,,
1720084014,76,0,4317.94873,4348.461426,4288.205078,4361.666504,4325.512695,4343.205078,4351.025879,4337.94873,4286.282227,4327.820313,4299.871582,4417.05127,4330.512695,4320.512695,,,,,,,,,,,,,,,,,,,,,,,,,,,,,,,,,,,,,,,,,,,,,,,,,,,,,,,,,,,,,,,,,,,,,,
1720084014,77,0,4312.05127,4346.666504,4286.538574,4349.102539,4322.436035,4342.94873,4343.974121,4330.128418,4284.871582,4327.05127,4304.743652,4411.794922,4343.717773,4320.769043,,,,,,,,,,,,,,,,,,,,,,,,,,,,,,,,,,,,,,,,,,,,,,,,,,,,,,,,,,,,,,,,,,,,,,
1720084014,78,0,4316.282227,4351.025879,4288.077148,4350.128418,4318.333496,4341.153809,4345.512695,4334.358887,4282.692383,4326.153809,4313.077148,4423.974121,4344.743652,4333.205078,,,,,,,,,,,,,,,,,,,,,,,,,,,,,,,,,,,,,,,,,,,,,,,,,,,,,,,,,,,,,,,,,,,,,,
1720084014,79,0,4338.333496,4365.128418,4307.307617,4373.974121,4323.717773,4343.589844,4357.563965,4343.077148,4283.461426,4330,4318.461426,4439.102539,4341.153809,4347.05127,,,,,,,,,,,,,,,,,,,,,,,,,,,,,,,,,,,,,,,,,,,,,,,,,,,,,,,,,,,,,,,,,,,,,,
1720084014,80,0,4350.128418,4372.05127,4327.563965,4383.974121,4336.153809,4353.846191,4365.897461,4345.769043,4297.436035,4345.769043,4335.897461,4448.461426,4353.846191,4356.025879,,,,,,,,,,,,,,,,,,,,,,,,,,,,,,,,,,,,,,,,,,,,,,,,,,,,,,,,,,,,,,,,,,,,,,
1720084014,81,0,4333.461426,4363.717773,4311.922852,4363.974121,4338.846191,4358.974121,4366.538574,4352.692383,4307.692383,4353.974121,4347.05127,4447.820313,4363.461426,4356.282227,,,,,,,,,,,,,,,,,,,,,,,,,,,,,,,,,,,,,,,,,,,,,,,,,,,,,,,,,,,,,,,,,,,,,,
1720084014,82,0,4318.589844,4356.794922,4287.94873,4351.538574,4331.666504,4350.384766,4354.871582,4344.615234,4299.102539,4344.615234,4318.077148,4431.922852,4353.333496,4341.153809,,,,,,,,,,,,,,,,,,,,,,,,,,,,,,,,,,,,,,,,,,,,,,,,,,,,,,,,,,,,,,,,,,,,,,
