Timestamp,EEG.Counter,EEG.Interpolated,EEG.AF3,EEG.F7,EEG.F3,EEG.FC5,EEG.T7,EEG.P7,EEG.O1,EEG.O2,EEG.P8,EEG.T8,EEG.FC6,EEG.F4,EEG.F8,EEG.AF4,POW.AF3.Theta,POW.AF3.Alpha,POW.AF3.BetaL,POW.AF3.BetaH,POW.AF3.Gamma,POW.F7.Theta,POW.F7.Alpha,POW.F7.BetaL,POW.F7.BetaH,POW.F7.Gamma,POW.F3.Theta,POW.F3.Alpha,POW.F3.BetaL,POW.F3.BetaH,POW.F3.Gamma,POW.FC5.Theta,POW.FC5.Alpha,POW.FC5.BetaL,POW.FC5.BetaH,POW.FC5.Gamma,POW.T7.Theta,POW.T7.Alpha,POW.T7.BetaL,POW.T7.BetaH,POW.T7.Gamma,POW.P7.Theta,POW.P7.Alpha,POW.P7.BetaL,POW.P7.BetaH,POW.P7.Gamma,POW.O1.Theta,POW.O1.Alpha,POW.O1.BetaL,POW.O1.BetaH,POW.O1.Gamma,POW.O2.Theta,POW.O2.Alpha,POW.O2.BetaL,POW.O2.BetaH,POW.O2.Gamma,POW.P8.Theta,POW.P8.Alpha,POW.P8.BetaL,POW.P8.BetaH,POW.P8.Gamma,POW.T8.Theta,POW.T8.Alpha,POW.T8.BetaL,POW.T8.BetaH,POW.T8.Gamma,POW.FC6.Theta,POW.FC6.Alpha,POW.FC6.BetaL,POW.FC6.BetaH,POW.FC6.Gamma,POW.F4.Theta,POW.F4.Alpha,POW.F4.BetaL,POW.F4.BetaH,POW.F4.Gamma,POW.F8.Theta,POW.F8.Alpha,POW.F8.BetaL,POW.F8.BetaH,POW.F8.Gamma,POW.AF4.Theta,POW.AF4.Alpha,POW.AF4.BetaL,POW.AF4.BetaH,POW.AF4.Gamma
1720077092,38,0,4231.922852,4325.512695,4254.358887,4314.230957,4355.512695,4321.794922,4360.641113,4347.05127,4352.307617,4287.307617,4205.512695,4307.94873,4273.333496,4202.05127,,,,,,,,,,,,,,,,,,,,,,,,,,,,,,,,,,,,,,,,,,,,,,,,,,,,,,,,,,,,,,,,,,,,,,
1720077092,39,0,4254.102539,4344.487305,4277.05127,4339.102539,4358.974121,4330.769043,4371.538574,4361.922852,4377.05127,4317.179688,4227.179688,4345.512695,4306.410156,4235.512695,,,,,,,,,,,,,,,,,,,,,,,,,,,,,,,,,,,,,,,,,,,,,,,,,,,,,,,,,,,,,,,,,,,,,,
1720077092,40,0,4267.179688,4356.794922,4292.436035,4345.256348,4371.153809,4337.436035,4380.128418,4373.974121,4387.436035,4340.769043,4239.615234,4392.820313,4317.94873,4264.358887,,,,,,,,,,,,,,,,,,,,,,,,,,,,,,,,,,,,,,,,,,,,,,,,,,,,,,,,,,,,,,,,,,,,,,
1720077092,41,0,4273.333496,4358.846191,4292.563965,4336.025879,4379.615234,4337.820313,4387.436035,4377.05127,4388.717773,4343.589844,4259.487305,4370.128418,4336.282227,4268.205078,,,,,,,,,,,,,,,,,,,,,,,,,,,,,,,,,,,,,,,,,,,,,,,,,,,,,,,,,,,,,,,,,,,,,,
1720077092,42,0,4281.794922,4368.846191,4304.615234,4346.153809,4383.205078,4340.897461,4398.077148,4395.769043,4398.205078,4347.307617,4270.641113,4378.077148,4349.743652,4276.794922,,,,,,,,,,,,,,,,,,,,,,,,,,,,,,,,,,,,,,,,,,,,,,,,,,,,,,,,,,,,,,,,,,,,,,
1720077092,43,0,4286.538574,4378.205078,4312.692383,4358.846191,4382.820313,4343.077148,4400.897461,4395.256348,4401.922852,4347.307617,4263.333496,4422.307617,4341.538574,4278.717773,7.834186,1.960036,2.489025,1.706713,0.718242,2.714547,1.768305,2.468367,1.386327,0.475173,2.705846,1.120695,2.553082,1.680182,0.487074,2.251215,1.50519,2.828973,1.85345,0.595113,0.817328,0.598675,1.098646,0.534072,0.243785,1.311107,0.470835,1.294906,0.629766,0.142761,1.421083,0.630046,1.564093,2.035314,0.162946,1.588085,0.555119,1.100523,1.447084,0.427473,2.041509,1.308468,1.963244,2.32724,0.200773,1.320987,0.851997,2.617746,3.698651,0.366975,3.09917,0.679165,2.223096,2.217648,1.170386,8.401918,3.424749,4.578084,3.267778,1.436125,5.14192,1.173851,2.315253,1.562835,0.793871,9.039991,2.265859,4.279995,2.280113,0.977287
1720077092,44,0,4293.717773,4381.666504,4307.436035,4359.230957,4381.538574,4341.666504,4395.384766,4375.128418,4396.794922,4340.897461,4266.666504,4409.871582,4341.794922,4273.333496,,,,,,,,,,,,,,,,,,,,,,,,,,,,,,,,,,,,,,,,,,,,,,,,,,,,,,,,,,,,,,,,,,,,,,
1720077092,45,0,4298.846191,4386.410156,4308.717773,4365.384766,4381.153809,4341.922852,4394.102539,4387.94873,4394.230957,4342.179688,4271.922852,4380.641113,4344.102539,4282.436035,,,,,,,,,,,,,,,,,,,,,,,,,,,,,,,,,,,,,,,,,,,,,,,,,,,,,,,,,,,,,,,,,,,,,,
1720077092,46,0,4287.179688,4386.153809,4310.897461,4371.410156,4385,4343.717773,4396.922852,4386.153809,4391.794922,4345.641113,4260.512695,4384.102539,4337.820313,4290.512695,,,,,,,,,,,,,,,,,,,,,,,,,,,,,,,,,,,,,,,,,,,,,,,,,,,,,,,,,,,,,,,,,,,,,,
1720077092,47,0,4281.922852,4380.897461,4310,4361.666504,4392.820313,4346.410156,4394.871582,4370,4387.307617,4338.974121,4260,4399.230957,4349.230957,4287.820313,,,,,,,,,,,,,,,,,,,,,,,,,,,,,,,,,,,,,,,,,,,,,,,,,,,,,,,,,,,,,,,,,,,,,,
1720077092,48,0,4292.179688,4380.128418,4308.717773,4351.153809,4387.820313,4343.461426,4391.794922,4380.128418,4384.743652,4334.743652,4269.102539,4407.179688,4353.077148,4281.025879,,,,,,,,,,,,,,,,,,,,,,,,,,,,,,,,,,,,,,,,,,,,,,,,,,,,,,,,,,,,,,,,,,,,,,
1720077092,49,0,4294.358887,4382.563965,4307.692383,4356.538574,4377.436035,4333.717773,4391.025879,4382.179688,4388.717773,4340.256348,4261.282227,4405.769043,4337.05127,4281.282227,,,,,,,,,,,,,,,,,,,,,,,,,,,,,,,,,,,,,,,,,,,,,,,,,,,,,,,,,,,,,,,,,,,,,,
1720077092,50,0,4290.128418,4385.512695,4317.179688,4363.717773,4382.179688,4333.205078,4389.615234,4374.230957,4393.589844,4344.743652,4264.102539,4395.641113,4347.692383,4289.743652,,,,,,,,,,,,,,,,,,,,,,,,,,,,,,,,,,,,,,,,,,,,,,,,,,,,,,,,,,,,,,,,,,,,,,
1720077092,51,0,4291.153809,4392.05127,4326.922852,4367.179688,4390,4346.538574,4394.230957,4383.589844,4398.589844,4349.358887,4279.230957,4395.256348,4357.179688,4297.179688,,,,,,,,,,,,,,,,,,,,,,,,,,,,,,,,,,,,,,,,,,,,,,,,,,,,,,,,,,,,,,,,,,,,,,
1720077092,52,0,4292.820313,4395,4316.282227,4371.025879,4387.820313,4349.230957,4398.974121,4381.410156,4398.974121,4346.666504,4265.897461,4397.436035,4331.410156,4296.794922,,,,,,,,,,,,,,,,,,,,,,,,,,,,,,,,,,,,,,,,,,,,,,,,,,,,,,,,,,,,,,,,,,,,,,
1720077092,53,0,4293.077148,4392.692383,4304.615234,4366.794922,4387.307617,4341.153809,4393.333496,4361.538574,4384.358887,4329.487305,4247.436035,4388.589844,4327.179688,4287.563965,,,,,,,,,,,,,,,,,,,,,,,,,,,,,,,,,,,,,,,,,,,,,,,,,,,,,,,,,,,,,,,,,,,,,,
1720077092,54,0,4296.922852,4387.94873,4311.794922,4357.436035,4396.538574,4345.256348,4391.538574,4375.256348,4377.436035,4319.102539,4259.871582,4403.205078,4348.461426,4286.153809,,,,,,,,,,,,,,,,,,,,,,,,,,,,,,,,,,,,,,,,,,,,,,,,,,,,,,,,,,,,,,,,,,,,,,
1720077092,55,0,4284.487305,4381.922852,4312.307617,4356.410156,4399.615234,4347.179688,4398.589844,4386.794922,4392.563965,4334.358887,4266.666504,4417.692383,4340.897461,4292.94873,,,,,,,,,,,,,,,,,,,,,,,,,,,,,,,,,,,,,,,,,,,,,,,,,,,,,,,,,,,,,,,,,,,,,,
1720077092,56,0,4271.538574,4387.692383,4309.615234,4361.922852,4392.307617,4341.666504,4399.487305,4378.461426,4409.358887,4357.436035,4261.538574,4406.153809,4334.487305,4302.692383,,,,,,,,,,,,,,,,,,,,,,,,,,,,,,,,,,,,,,,,,,,,,,,,,,,,,,,,,,,,,,,,,,,,,,
1720077092,57,0,4286.153809,4399.871582,4321.153809,4365,4388.205078,4344.230957,4395,4383.333496,4407.05127,4360.128418,4272.307617,4408.077148,4348.846191,4306.794922,,,,,,,,,,,,,,,,,,,,,,,,,,,,,,,,,,,,,,,,,,,,,,,,,,,,,,,,,,,,,,,,,,,,,,
1720077092,58,0,4300.769043,4399.102539,4327.692383,4367.179688,4390.128418,4346.666504,4396.282227,4381.922852,4398.205078,4348.717773,4282.94873,4423.846191,4352.692383,4307.692383,,,,,,,,,,,,,,,,,,,,,,,,,,,,,,,,,,,,,,,,,,,,,,,,,,,,,,,,,,,,,,,,,,,,,,
1720077092,59,0,4301.666504,4392.563965,4323.717773,4372.179688,4390.128418,4342.05127,4399.230957,4379.230957,4399.230957,4350.641113,4277.307617,4426.794922,4348.717773,4317.436035,8.117636,1.713966,2.314011,1.559808,0.682788,3.269705,1.954544,2.438338,1.180649,0.540679,3.365671,1.133258,2.586894,1.604124,0.554894,2.704288,1.69893,2.82962,1.83212,0.686491,0.948471,0.688689,1.131203,0.558449,0.249451,1.404203,0.423926,1.231922,0.625895,0.167344,1.650174,0.658491,1.4975,2.151467,0.190419,1.796513,0.532263,1.257256,1.443209,0.440681,2.226065,1.284079,2.4678,2.360818,0.225027,1.483307,0.827481,2.481013,3.536674,0.34625,3.168274,0.542772,2.711924,2.444041,1.279181,9.788323,3.231308,4.893807,2.78766,1.664668,4.788569,1.133939,2.646939,1.616486,0.887231,7.174724,1.798615,4.422806,1.882791,0.92204
1720077092,60,0,4314.102539,4396.282227,4324.871582,4372.820313,4389.871582,4342.94873,4398.846191,4380.128418,4399.871582,4356.922852,4267.563965,4422.94873,4338.205078,4326.922852,,,,,,,,,,,,,,,,,,,,,,,,,,,,,,,,,,,,,,,,,,,,,,,,,,,,,,,,,,,,,,,,,,,,,,
1720077092,61,0,4328.333496,4401.794922,4330.641113,4369.358887,4397.563965,4349.230957,4399.487305,4377.94873,4394.358887,4345.256348,4261.794922,4425,4317.820313,4324.102539,,,,,,,,,,,,,,,,,,,,,,,,,,,,,,,,,,,,,,,,,,,,,,,,,,,,,,,,,,,,,,,,,,,,,,
1720077092,62,0,4329.102539,4400,4326.025879,4368.717773,4404.102539,4354.743652,4405.384766,4378.974121,4393.077148,4340.384766,4273.077148,4428.974121,4310.641113,4306.666504,,,,,,,,,,,,,,,,,,,,,,,,,,,,,,,,,,,,,,,,,,,,,,,,,,,,,,,,,,,,,,,,,,,,,,
1720077093,63,0,4327.179688,4391.153809,4318.717773,4367.563965,4398.589844,4358.077148,4412.05127,4384.358887,4397.436035,4352.692383,4279.871582,4431.538574,4313.461426,4294.871582,,,,,,,,,,,,,,,,,,,,,,,,,,,,,,,,,,,,,,,,,,,,,,,,,,,,,,,,,,,,,,,,,,,,,,
1720077093,64,0,4322.179688,4385,4321.282227,4365.769043,4394.743652,4358.461426,4412.436035,4389.230957,4400.384766,4352.820313,4266.794922,4433.717773,4308.077148,4301.025879,,,,,,,,,,,,,,,,,,,,,,,,,,,,,,,,,,,,,,,,,,,,,,,,,,,,,,,,,,,,,,,,,,,,,,
1720077093,65,0,4316.282227,4394.615234,4324.871582,4372.307617,4399.743652,4360.641113,4411.153809,4389.487305,4406.538574,4347.692383,4265.256348,4431.666504,4305.256348,4304.743652,,,,,,,,,,,,,,,,,,,,,,,,,,,,,,,,,,,,,,,,,,,,,,,,,,,,,,,,,,,,,,,,,,,,,,
1720077093,66,0,4317.307617,4399.871582,4321.410156,4376.410156,4399.102539,4361.282227,4411.282227,4388.077148,4412.563965,4353.205078,4275.512695,4423.461426,4306.666504,4290.384766,,,,,,,,,,,,,,,,,,,,,,,,,,,,,,,,,,,,,,,,,,,,,,,,,,,,,,,,,,,,,,,,,,,,,,
1720077093,67,0,4320.512695,4389.230957,4320.512695,4366.922852,4394.615234,4356.922852,4410.256348,4388.333496,4408.846191,4353.589844,4268.589844,4422.179688,4301.282227,4274.871582,,,,,,,,,,,,,,,,,,,,,,,,,,,,,,,,,,,,,,,,,,,,,,,,,,,,,,,,,,,,,,,,,,,,,,
1720077093,68,0,4323.974121,4387.692383,4326.538574,4364.871582,4401.538574,4359.230957,4411.410156,4389.102539,4405.384766,4346.025879,4259.615234,4435.897461,4293.205078,4276.025879,,,,,,,,,,,,,,,,,,,,,,,,,,,,,,,,,,,,,,,,,,,,,,,,,,,,,,,,,,,,,,,,,,,,,,
1720077093,69,0,4323.077148,4397.05127,4326.025879,4374.871582,4407.05127,4365.384766,4412.692383,4382.692383,4401.794922,4340.769043,4273.077148,4441.410156,4297.820313,4276.153809,,,,,,,,,,,,,,,,,,,,,,,,,,,,,,,,,,,,,,,,,,,,,,,,,,,,,,,,,,,,,,,,,,,,,,
1720077093,70,0,4320.512695,4395.384766,4328.077148,4378.589844,4403.589844,4366.666504,4411.922852,4388.333496,4399.230957,4342.179688,4284.230957,4443.461426,4305.512695,4271.666504,,,,,,,,,,,,,,,,,,,,,,,,,,,,,,,,,,,,,,,,,,,,,,,,,,,,,,,,,,,,,,,,,,,,,,
1720077093,71,0,4328.077148,4393.461426,4336.025879,4378.333496,4406.538574,4368.974121,4414.358887,4399.615234,4405.769043,4354.487305,4281.025879,4454.358887,4305.512695,4272.436035,,,,,,,,,,,,,,,,,,,,,,,,,,,,,,,,,,,,,,,,,,,,,,,,,,,,,,,,,,,,,,,,,,,,,,
1720077093,72,0,4338.205078,4403.461426,4340,4383.077148,4407.692383,4370.256348,4419.102539,4393.717773,4415.128418,4369.358887,4280.769043,4456.153809,4307.179688,4277.436035,,,,,,,,,,,,,,,,,,,,,,,,,,,,,,,,,,,,,,,,,,,,,,,,,,,,,,,,,,,,,,,,,,,,,,
1720077093,73,0,4335.128418,4405.641113,4339.743652,4388.461426,4399.358887,4369.358887,4417.179688,4402.563965,4418.077148,4370.256348,4282.820313,4462.692383,4305.384766,4278.077148,,,,,,,,,,,,,,,,,,,,,,,,,,,,,,,,,,,,,,,,,,,,,,,,,,,,,,,,,,,,,,,,,,,,,,
1720077093,74,0,4331.794922,4403.461426,4333.333496,4389.743652,4401.538574,4375.512695,4413.205078,4405.384766,4414.358887,4361.538574,4280.897461,4468.717773,4297.820313,4267.94873,,,,,,,,,,,,,,,,,,,,,,,,,,,,,,,,,,,,,,,,,,,,,,,,,,,,,,,,,,,,,,,,,,,,,,
1720077093,75,0,4331.153809,4411.666504,4327.94873,4390.256348,4406.410156,4384.743652,4420.897461,4385,4412.179688,4358.205078,4277.820313,4453.589844,4297.436035,4262.307617,8.0133,1.557291,2.263602,1.446019,0.642352,3.574582,1.983295,2.253773,0.974858,0.595207,3.739837,1.077396,2.420427,1.478648,0.624022,3.021496,1.75778,2.558291,1.705395,0.760867,1.025419,0.73917,1.041718,0.587203,0.254605,1.413003,0.380287,1.062888,0.62834,0.196251,1.759622,0.664336,1.304997,2.168906,0.224138,1.92838,0.539909,1.345996,1.400603,0.480281,2.380541,1.292863,3.124769,2.330376,0.269183,1.658975,0.852037,2.182006,3.396365,0.33396,3.147402,0.558682,3.079003,2.748708,1.475479,10.852301,3.195758,5.345427,2.74102,2.1301,4.501165,1.219931,2.836182,1.746411,1.033037,5.67566,1.697328,4.336088,1.612662,0.916943
1720077093,76,0,4335.256348,4410.128418,4332.820313,4386.666504,4400,4382.820313,4428.077148,4393.717773,4410.512695,4355.897461,4284.871582,4447.563965,4305.769043,4270.256348,,,,,,,,,,,,,,,,,,,,,,,,,,,,,,,,,,,,,,,,,,,,,,,,,,,,,,,,,,,,,,,,,,,,,,
1720077093,77,0,4353.846191,4397.179688,4339.230957,4381.025879,4398.589844,4375.128418,4423.589844,4406.666504,4415.641113,4355.897461,4295,4462.436035,4314.487305,4279.487305,,,,,,,,,,,,,,,,,,,,,,,,,,,,,,,,,,,,,,,,,,,,,,,,,,,,,,,,,,,,,,,,,,,,,,
1720077093,78,0,4357.179688,4395.897461,4335.384766,4380,4400.641113,4372.436035,4418.205078,4390.897461,4425.256348,4361.538574,4300.128418,4468.333496,4314.102539,4278.974121,,,,,,,,,,,,,,,,,,,,,,,,,,,,,,,,,,,,,,,,,,,,,,,,,,,,,,,,,,,,,,,,,,,,,,
1720077093,79,0,4337.94873,4401.794922,4332.94873,4380.256348,4396.538574,4371.666504,4414.358887,4391.282227,4420.512695,4364.615234,4292.179688,4464.358887,4298.205078,4270.897461,,,,,,,,,,,,,,,,,,,,,,,,,,,,,,,,,,,,,,,,,,,,,,,,,,,,,,,,,,,,,,,,,,,,,,
1720077093,80,0,4337.692383,4403.333496,4336.922852,4386.410156,4400.512695,4370.769043,4408.717773,4395.128418,4408.717773,4360.641113,4277.179688,4464.230957,4290.128418,4262.563965,,,,,,,,,,,,,,,,,,,,,,,,,,,,,,,,,,,,,,,,,,,,,,,,,,,,,,,,,,,,,,,,,,,,,,
1720077093,81,0,4356.025879,4404.615234,4340.128418,4398.717773,4410.641113,4373.461426,4410.897461,4383.205078,4409.358887,4359.615234,4280,4468.333496,4302.94873,4268.589844,,,,,,,,,,,,,,,,,,,,,,,,,,,,,,,,,,,,,,,,,,,,,,,,,,,,,,,,,,,,,,,,,,,,,,
1720077093,82,0,4358.333496,4402.179688,4343.589844,4393.589844,4407.692383,4379.358887,4417.692383,4394.487305,4413.077148,4356.282227,4292.820313,4481.538574,4308.077148,4287.436035,,,,,,,,,,,,,,,,,,,,,,,,,,,,,,,,,,,,,,,,,,,,,,,,,,,,,,,,,,,,,,,,,,,,,,
1720077093,83,0,4356.922852,4403.461426,4344.487305,4381.410156,4398.589844,4382.820313,4418.589844,4403.846191,4412.307617,4357.179688,4295.128418,4492.563965,4307.692383,4298.974121,,,,,,,,,,,,,,,,,,,,,,,,,,,,,,,,,,,,,,,,,,,,,,,,,,,,,,,,,,,,,,,,,,,,,,
1720077093,84,0,4361.410156,4409.102539,4337.692383,4387.05127,4402.179688,4382.179688,4417.692383,4396.410156,4414.743652,4365,4293.589844,4491.922852,4309.743652,4296.282227,,,,,,,,,,,,,,,,,,,,,,,,,,,,,,,,,,,,,,,,,,,,,,,,,,,,,,,,,,,,,,,,,,,,,,
1720077093,85,0,4343.846191,4400.641113,4328.205078,4389.102539,4407.563965,4377.307617,4412.563965,4395.769043,4411.282227,4360.384766,4298.205078,4480.384766,4303.205078,4288.589844,,,,,,,,,,,,,,,,,,,,,,,,,,,,,,,,,,,,,,,,,,,,,,,,,,,,,,,,,,,,,,,,,,,,,,
1720077093,86,0,4327.179688,4391.282227,4331.025879,4381.922852,4409.615234,4382.563965,4409.230957,4390.512695,4413.333496,4358.205078,4295,4475.384766,4289.358887,4287.179688,,,,,,,,,,,,,,,,,,,,,,,,,,,,,,,,,,,,,,,,,,,,,,,,,,,,,,,,,,,,,,,,,,,,,,
1720077093,87,0,4343.974121,4402.436035,4343.461426,4390.641113,4413.205078,4396.025879,4420.384766,4399.615234,4427.820313,4369.358887,4289.358887,4491.153809,4283.461426,4289.358887,,,,,,,,,,,,,,,,,,,,,,,,,,,,,,,,,,,,,,,,,,,,,,,,,,,,,,,,,,,,,,,,,,,,,,
1720077093,88,0,4367.820313,4406.922852,4344.871582,4401.922852,4408.846191,4389.230957,4430.512695,4414.871582,4432.436035,4373.589844,4290,4498.333496,4284.230957,4285.256348,,,,,,,,,,,,,,,,,,,,,,,,,,,,,,,,,,,,,,,,,,,,,,,,,,,,,,,,,,,,,,,,,,,,,,
1720077093,89,0,4356.025879,4394.487305,4333.717773,4388.461426,4395,4370.769043,4428.461426,4404.487305,4427.05127,4366.410156,4290.512695,4489.615234,4282.563965,4272.820313,,,,,,,,,,,,,,,,,,,,,,,,,,,,,,,,,,,,,,,,,,,,,,,,,,,,,,,,,,,,,,,,,,,,,,
1720077093,90,0,4335.384766,4402.179688,4335.512695,4378.717773,4393.974121,4375.128418,4426.025879,4392.94873,4424.230957,4358.461426,4294.230957,4492.436035,4285.256348,4267.94873,,,,,,,,,,,,,,,,,,,,,,,,,,,,,,,,,,,,,,,,,,,,,,,,,,,,,,,,,,,,,,,,,,,,,,
1720077093,91,0,4346.282227,4412.94873,4342.692383,4386.025879,4401.538574,4387.05127,4420.641113,4389.230957,4415.641113,4357.307617,4285,4492.692383,4279.871582,4265.897461,7.572104,1.575456,2.485339,1.364239,0.596488,3.544087,1.884423,1.968036,0.783521,0.626884,3.758017,0.982486,2.144122,1.335344,0.681668,3.073467,1.678397,2.10945,1.500208,0.803145,1.015279,0.747846,0.85295,0.607945,0.253259,1.260488,0.337895,0.826815,0.64605,0.220821,1.675244,0.650465,1.05726,2.094244,0.253495,1.956951,0.590056,1.382919,1.331796,0.532098,2.443816,1.380979,3.870125,2.255348,0.320384,1.85692,0.974802,1.874139,3.296651,0.325906,2.983984,0.719649,3.252375,2.988337,1.693576,11.189575,3.272827,5.704448,2.923995,2.700787,4.093329,1.414649,2.842308,1.910666,1.178922,4.60983,1.700186,3.981473,1.424651,0.941022
1720077093,92,0,4348.589844,4397.436035,4331.282227,4381.922852,4399.102539,4379.230957,4404.743652,4377.94873,4396.025879,4355.512695,4267.436035,4473.846191,4259.102539,4261.538574,,,,,,,,,,,,,,,,,,,,,,,,,,,,,,,,,,,,,,,,,,,,,,,,,,,,,,,,,,,,,,,,,,,,,,
1720077093,93,0,4338.846191,4396.282227,4328.717773,4383.461426,4403.846191,4379.743652,4403.461426,4376.538574,4391.282227,4355.128418,4278.717773,4476.922852,4261.538574,4278.589844,,,,,,,,,,,,,,,,,,,,,,,,,,,,,,,,,,,,,,,,,,,,,,,,,,,,,,,,,,,,,,,,,,,,,,
1720077093,94,0,4358.974121,4420.769043,4347.179688,4403.589844,4416.153809,4395.512695,4421.153809,4392.436035,4410.128418,4358.846191,4304.487305,4509.615234,4291.153809,4304.615234,,,,,,,,,,,,,,,,,,,,,,,,,,,,,,,,,,,,,,,,,,,,,,,,,,,,,,,,,,,,,,,,,,,,,,
1720077093,95,0,4372.820313,4415.641113,4354.487305,4402.436035,4412.692383,4393.846191,4429.358887,4405.256348,4427.563965,4361.025879,4303.589844,4528.077148,4297.563965,4304.358887,,,,,,,,,,,,,,,,,,,,,,,,,,,,,,,,,,,,,,,,,,,,,,,,,,,,,,,,,,,,,,,,,,,,,,
1720077093,96,0,4347.692383,4389.871582,4342.307617,4387.94873,4400.897461,4379.487305,4427.05127,4408.974121,4430.512695,4367.692383,4292.05127,4521.538574,4275.897461,4294.743652,,,,,,,,,,,,,,,,,,,,,,,,,,,,,,,,,,,,,,,,,,,,,,,,,,,,,,,,,,,,,,,,,,,,,,
1720077093,97,0,4334.358887,4389.871582,4332.94873,4390.512695,4398.846191,4374.615234,4424.230957,4403.717773,4433.333496,4377.179688,4293.589844,4510.641113,4267.05127,4295.641113,,,,,,,,,,,,,,,,,,,,,,,,,,,,,,,,,,,,,,,,,,,,,,,,,,,,,,,,,,,,,,,,,,,,,,
1720077093,98,0,4345,4392.179688,4326.410156,4383.589844,4405,4371.153809,4416.410156,4395.769043,4434.615234,4372.179688,4288.589844,4498.589844,4266.025879,4283.974121,,,,,,,,,,,,,,,,,,,,,,,,,,,,,,,,,,,,,,,,,,,,,,,,,,,,,,,,,,,,,,,,,,,,,,
1720077093,99,0,4339.871582,4384.487305,4320.897461,4370.897461,4411.025879,4360.384766,4409.358887,4387.563965,4425.512695,4362.820313,4277.179688,4485.769043,4260.128418,4268.974121,,,,,,,,,,,,,,,,,,,,,,,,,,,,,,,,,,,,,,,,,,,,,,,,,,,,,,,,,,,,,,,,,,,,,,
1720077093,100,0,4341.666504,4392.563965,4329.871582,4384.743652,4413.974121,4356.922852,4411.794922,4378.205078,4420.512695,4372.436035,4281.153809,4492.179688,4261.538574,4275.897461,,,,,,,,,,,,,,,,,,,,,,,,,,,,,,,,,,,,,,,,,,,,,,,,,,,,,,,,,,,,,,,,,,,,,,
1720077093,101,0,4361.025879,4402.563965,4337.820313,4390.769043,4408.461426,4357.692383,4412.94873,4388.205078,4416.922852,4369.615234,4295.384766,4513.974121,4268.846191,4284.615234,,,,,,,,,,,,,,,,,,,,,,,,,,,,,,,,,,,,,,,,,,,,,,,,,,,,,,,,,,,,,,,,,,,,,,
1720077093,102,0,4363.589844,4405,4332.820313,4387.692383,4400.128418,4349.615234,4415.897461,4396.025879,4406.666504,4351.922852,4304.743652,4520,4278.077148,4288.846191,,,,,,,,,,,,,,,,,,,,,,,,,,,,,,,,,,,,,,,,,,,,,,,,,,,,,,,,,,,,,,,,,,,,,,
1720077093,103,0,4370.641113,4416.666504,4338.333496,4406.666504,4403.077148,4343.846191,4428.461426,4393.205078,4412.94873,4369.487305,4311.794922,4520.769043,4289.102539,4298.589844,,,,,,,,,,,,,,,,,,,,,,,,,,,,,,,,,,,,,,,,,,,,,,,,,,,,,,,,,,,,,,,,,,,,,,
1720077093,104,0,4379.102539,4415.384766,4343.205078,4408.333496,4407.05127,4341.025879,4424.615234,4405,4424.230957,4386.282227,4302.94873,4519.358887,4280.128418,4288.589844,,,,,,,,,,,,,,,,,,,,,,,,,,,,,,,,,,,,,,,,,,,,,,,,,,,,,,,,,,,,,,,,,,,,,,
1720077093,105,0,4352.05127,4389.615234,4315.641113,4377.05127,4398.077148,4333.846191,4399.743652,4389.871582,4412.05127,4362.436035,4269.615234,4484.102539,4252.179688,4250.641113,,,,,,,,,,,,,,,,,,,,,,,,,,,,,,,,,,,,,,,,,,,,,,,,,,,,,,,,,,,,,,,,,,,,,,
1720077093,106,0,4321.410156,4377.820313,4292.692383,4363.333496,4394.230957,4333.461426,4388.717773,4362.820313,4407.94873,4344.102539,4256.922852,4456.282227,4242.436035,4235.897461,,,,,,,,,,,,,,,,,,,,,,,,,,,,,,,,,,,,,,,,,,,,,,,,,,,,,,,,,,,,,,,,,,,,,,
1720077093,107,0,4330.512695,4389.615234,4311.538574,4376.025879,4407.179688,4345.512695,4403.589844,4383.077148,4424.358887,4356.153809,4278.846191,4489.615234,4255.512695,4260.128418,6.995463,1.823251,3.048618,1.31758,0.555698,3.259794,1.74357,1.676702,0.635213,0.634606,3.445174,0.895751,1.878451,1.219057,0.716827,2.872921,1.514762,1.625538,1.279467,0.805938,0.917922,0.731197,0.631946,0.609965,0.245554,1.056075,0.302382,0.589063,0.673768,0.234506,1.478006,0.638363,0.837958,1.940823,0.269742,1.882448,0.689466,1.379159,1.257549,0.578188,2.437534,1.57196,4.518095,2.164224,0.361137,2.04502,1.239514,1.701681,3.229829,0.319012,2.744102,1.015618,3.215169,3.066538,1.842481,10.555355,3.380263,5.806963,3.172259,3.202781,3.647516,1.717337,2.695711,2.063496,1.27077,4.015937,1.696876,3.499282,1.331995,0.965691
1720077093,108,0,4357.179688,4406.666504,4330.384766,4391.666504,4416.538574,4355,4417.692383,4403.205078,4424.615234,4366.153809,4289.102539,4530.897461,4262.179688,4281.410156,,,,,,,,,,,,,,,,,,,,,,,,,,,,,,,,,,,,,,,,,,,,,,,,,,,,,,,,,,,,,,,,,,,,,,
1720077093,109,0,4365.384766,4412.94873,4328.077148,4395.384766,4413.077148,4350.256348,4417.05127,4386.410156,4401.025879,4355.128418,4283.974121,4535.256348,4258.846191,4281.282227,,,,,,,,,,,,,,,,,,,,,,,,,,,,,,,,,,,,,,,,,,,,,,,,,,,,,,,,,,,,,,,,,,,,,,
1720077093,110,0,4367.307617,4406.666504,4337.94873,4390,4405.897461,4336.153809,4413.717773,4390.512695,4390.128418,4350.512695,4292.563965,4538.077148,4265.384766,4282.94873,,,,,,,,,,,,,,,,,,,,,,,,,,,,,,,,,,,,,,,,,,,,,,,,,,,,,,,,,,,,,,,,,,,,,,
1720077093,111,0,4371.025879,4408.205078,4347.692383,4394.230957,4398.077148,4321.922852,4410.384766,4404.358887,4408.974121,4368.333496,4301.410156,4544.487305,4274.358887,4288.717773,,,,,,,,,,,,,,,,,,,,,,,,,,,,,,,,,,,,,,,,,,,,,,,,,,,,,,,,,,,,,,,,,,,,,,
1720077093,112,0,4367.05127,4413.205078,4332.820313,4393.846191,4394.487305,4320,4405.897461,4394.871582,4431.794922,4386.410156,4294.230957,4534.358887,4269.230957,4279.743652,,,,,,,,,,,,,,,,,,,,,,,,,,,,,,,,,,,,,,,,,,,,,,,,,,,,,,,,,,,,,,,,,,,,,,
1720077093,113,0,4358.205078,4397.179688,4321.153809,4367.563965,4402.05127,4329.871582,4401.153809,4393.461426,4435.641113,4380,4283.333496,4522.436035,4258.205078,4264.871582,,,,,,,,,,,,,,,,,,,,,,,,,,,,,,,,,,,,,,,,,,,,,,,,,,,,,,,,,,,,,,,,,,,,,,
1720077093,114,0,4356.410156,4384.871582,4325.384766,4348.205078,4406.153809,4339.871582,4398.461426,4389.230957,4430,4362.820313,4278.461426,4517.94873,4253.846191,4260,,,,,,,,,,,,,,,,,,,,,,,,,,,,,,,,,,,,,,,,,,,,,,,,,,,,,,,,,,,,,,,,,,,,,,
1720077093,115,0,4364.358887,4395.769043,4327.05127,4355.256348,4399.358887,4343.461426,4400.897461,4384.743652,4424.487305,4358.974121,4278.461426,4518.589844,4257.692383,4265.769043,,,,,,,,,,,,,,,,,,,,,,,,,,,,,,,,,,,,,,,,,,,,,,,,,,,,,,,,,,,,,,,,,,,,,,
1720077093,116,0,4382.307617,4409.102539,4335,4370,4401.666504,4342.563965,4414.358887,4399.871582,4413.974121,4359.358887,4287.94873,4527.94873,4268.846191,4284.743652,,,,,,,,,,,,,,,,,,,,,,,,,,,,,,,,,,,,,,,,,,,,,,,,,,,,,,,,,,,,,,,,,,,,,,
1720077093,117,0,4405.384766,4416.666504,4353.846191,4381.410156,4416.153809,4345.897461,4429.871582,4413.846191,4404.487305,4355.384766,4305.128418,4543.461426,4280,4304.615234,,,,,,,,,,,,,,,,,,,,,,,,,,,,,,,,,,,,,,,,,,,,,,,,,,,,,,,,,,,,,,,,,,,,,,
1720077093,118,0,4400.769043,4414.230957,4354.743652,4378.461426,4412.820313,4343.717773,4427.307617,4412.563965,4407.436035,4362.179688,4308.589844,4547.436035,4281.666504,4303.974121,,,,,,,,,,,,,,,,,,,,,,,,,,,,,,,,,,,,,,,,,,,,,,,,,,,,,,,,,,,,,,,,,,,,,,
1720077093,119,0,4382.307617,4403.846191,4339.871582,4365.769043,4396.025879,4330.512695,4412.563965,4402.179688,4421.282227,4382.820313,4295.641113,4531.025879,4275.641113,4285.769043,,,,,,,,,,,,,,,,,,,,,,,,,,,,,,,,,,,,,,,,,,,,,,,,,,,,,,,,,,,,,,,,,,,,,,
1720077093,120,0,4386.025879,4403.205078,4333.205078,4367.05127,4397.94873,4324.487305,4406.538574,4397.179688,4432.307617,4382.307617,4291.538574,4515.256348,4267.820313,4271.153809,,,,,,,,,,,,,,,,,,,,,,,,,,,,,,,,,,,,,,,,,,,,,,,,,,,,,,,,,,,,,,,,,,,,,,
1720077093,121,0,4383.846191,4401.666504,4330.128418,4367.05127,4403.846191,4327.436035,4405.384766,4393.205078,4426.794922,4358.846191,4293.846191,4512.05127,4263.717773,4273.589844,,,,,,,,,,,,,,,,,,,,,,,,,,,,,,,,,,,,,,,,,,,,,,,,,,,,,,,,,,,,,,,,,,,,,,
1720077093,122,0,4370.641113,4392.692383,4331.410156,4361.794922,4400,4334.102539,4405.641113,4393.974121,4422.563965,4359.487305,4293.077148,4522.307617,4276.666504,4299.871582,,,,,,,,,,,,,,,,,,,,,,,,,,,,,,,,,,,,,,,,,,,,,,,,,,,,,,,,,,,,,,,,,,,,,,
1720077093,123,0,4382.307617,4404.743652,4346.922852,4378.461426,4407.307617,4345.256348,4417.820313,4405.769043,4420.384766,4372.05127,4306.538574,4551.025879,4297.94873,4337.436035,6.46148,2.264264,3.868878,1.300751,0.532206,2.811574,1.644255,1.475548,0.550773,0.623372,2.930295,0.856107,1.713526,1.153902,0.719443,2.488309,1.343069,1.245157,1.103832,0.769485,0.759509,0.711632,0.452509,0.590784,0.234079,0.793103,0.287559,0.414372,0.691084,0.23528,1.20218,0.649435,0.702744,1.730756,0.268245,1.74664,0.825116,1.340309,1.199713,0.601113,2.31186,1.826682,4.854115,2.076402,0.377422,2.187296,1.62308,1.705759,3.146525,0.31355,2.52796,1.405757,3.018103,2.9541,1.851086,9.044806,3.451123,5.583138,3.36881,3.475055,3.384198,2.113441,2.472127,2.158856,1.274927,3.849741,1.712664,3.105933,1.356594,0.961472
1720077093,124,0,4421.153809,4427.563965,4378.461426,4399.358887,4420.256348,4349.230957,4430.256348,4416.794922,4399.102539,4362.179688,4331.922852,4583.846191,4316.153809,4367.179688,,,,,,,,,,,,,,,,,,,,,,,,,,,,,,,,,,,,,,,,,,,,,,,,,,,,,,,,,,,,,,,,,,,,,,
1720077093,125,0,4449.358887,4429.871582,4397.820313,4402.307617,4420.641113,4345.641113,4427.179688,4410.128418,4380.641113,4350.384766,4341.153809,4597.436035,4325.641113,4379.743652,,,,,,,,,,,,,,,,,,,,,,,,,,,,,,,,,,,,,,,,,,,,,,,,,,,,,,,,,,,,,,,,,,,,,,
1720077093,126,0,4443.205078,4416.282227,4387.692383,4396.025879,4415.897461,4349.230957,4424.871582,4408.461426,4394.871582,4361.410156,4331.538574,4593.077148,4319.871582,4379.743652,,,,,,,,,,,,,,,,,,,,,,,,,,,,,,,,,,,,,,,,,,,,,,,,,,,,,,,,,,,,,,,,,,,,,,
1720077093,127,0,4421.282227,4405.384766,4376.153809,4385.256348,4414.102539,4355.128418,4429.230957,4425,4422.692383,4381.153809,4324.871582,4589.743652,4315.128418,4383.974121,,,,,,,,,,,,,,,,,,,,,,,,,,,,,,,,,,,,,,,,,,,,,,,,,,,,,,,,,,,,,,,,,,,,,,
1720077093,0,0,4415.897461,4406.025879,4377.692383,4378.077148,4412.307617,4353.205078,4427.94873,4419.615234,4441.794922,4398.333496,4327.563965,4583.717773,4325.769043,4391.410156,,,,,,,,,,,,,,,,,,,,,,,,,,,,,,,,,,,,,,,,,,,,,,,,,,,,,,,,,,,,,,,,,,,,,,
1720077093,1,0,4426.153809,4413.461426,4380.512695,4384.230957,4416.282227,4354.615234,4432.820313,4423.333496,4450.641113,4401.666504,4334.615234,4591.282227,4337.436035,4409.358887,,,,,,,,,,,,,,,,,,,,,,,,,,,,,,,,,,,,,,,,,,,,,,,,,,,,,,,,,,,,,,,,,,,,,,
1720077093,2,0,4416.153809,4412.692383,4377.94873,4393.717773,4417.179688,4361.153809,4444.230957,4444.358887,4445.384766,4384.871582,4339.615234,4612.563965,4344.358887,4429.358887,,,,,,,,,,,,,,,,,,,,,,,,,,,,,,,,,,,,,,,,,,,,,,,,,,,,,,,,,,,,,,,,,,,,,,
1720077093,3,0,4397.94873,4405,4374.102539,4389.102539,4408.461426,4355,4438.846191,4430,4427.179688,4371.153809,4338.205078,4607.692383,4344.871582,4411.922852,,,,,,,,,,,,,,,,,,,,,,,,,,,,,,,,,,,,,,,,,,,,,,,,,,,,,,,,,,,,,,,,,,,,,,
1720077093,4,0,4400.512695,4401.922852,4370.384766,4381.410156,4406.538574,4344.615234,4426.666504,4416.410156,4405.769043,4366.922852,4327.436035,4586.025879,4331.153809,4372.436035,,,,,,,,,,,,,,,,,,,,,,,,,,,,,,,,,,,,,,,,,,,,,,,,,,,,,,,,,,,,,,,,,,,,,,
1720077093,5,0,4405.641113,4399.871582,4365.384766,4381.794922,4413.589844,4347.179688,4427.179688,4420.512695,4385.512695,4355,4303.077148,4585.512695,4314.358887,4361.025879,,,,,,,,,,,,,,,,,,,,,,,,,,,,,,,,,,,,,,,,,,,,,,,,,,,,,,,,,,,,,,,,,,,,,,
1720077093,6,0,4399.487305,4398.333496,4363.333496,4381.538574,4414.102539,4353.589844,4427.563965,4411.410156,4378.333496,4345.128418,4287.179688,4595.256348,4307.436035,4362.436035,,,,,,,,,,,,,,,,,,,,,,,,,,,,,,,,,,,,,,,,,,,,,,,,,,,,,,,,,,,,,,,,,,,,,,
1720077093,7,0,4400.128418,4396.282227,4361.538574,4370.512695,4402.820313,4349.743652,4422.05127,4410.384766,4391.666504,4355.128418,4291.153809,4581.282227,4297.307617,4340.897461,,,,,,,,,,,,,,,,,,,,,,,,,,,,,,,,,,,,,,,,,,,,,,,,,,,,,,,,,,,,,,,,,,,,,,
1720077093,8,0,4405.897461,4390.897461,4362.05127,4364.871582,4396.794922,4352.05127,4431.025879,4429.487305,4413.333496,4369.871582,4292.94873,4575.512695,4290,4324.871582,,,,,,,,,,,,,,,,,,,,,,,,,,,,,,,,,,,,,,,,,,,,,,,,,,,,,,,,,,,,,,,,,,,,,,
1720077093,9,0,4397.05127,4403.974121,4363.333496,4382.692383,4409.358887,4368.077148,4445.641113,4429.871582,4428.717773,4378.333496,4289.358887,4602.94873,4296.666504,4328.205078,,,,,,,,,,,,,,,,,,,,,,,,,,,,,,,,,,,,,,,,,,,,,,,,,,,,,,,,,,,,,,,,,,,,,,
1720077093,10,0,4389.871582,4418.717773,4361.153809,4396.282227,4420.641113,4370.641113,4437.820313,4426.794922,4428.205078,4379.102539,4286.282227,4593.461426,4301.794922,4312.179688,,,,,,,,,,,,,,,,,,,,,,,,,,,,,,,,,,,,,,,,,,,,,,,,,,,,,,,,,,,,,,,,,,,,,,
1720077093,11,0,4379.102539,4393.974121,4348.205078,4378.333496,4405.256348,4347.820313,4411.922852,4421.794922,4404.487305,4357.436035,4266.794922,4531.153809,4287.94873,4257.692383,6.067619,2.771059,4.716055,1.31441,0.533399,2.383606,1.608475,1.401158,0.523601,0.601187,2.371275,0.870479,1.664017,1.135771,0.685341,2.065995,1.217484,1.035936,1.006655,0.702939,0.599129,0.702936,0.354641,0.557276,0.222036,0.605883,0.308058,0.34212,0.681004,0.226084,0.965815,0.693982,0.65991,1.500121,0.250499,1.554035,0.967905,1.272133,1.175089,0.592196,2.121848,2.066183,4.772357,1.996485,0.366593,2.243369,2.028933,1.775116,2.981669,0.312879,2.430247,1.788845,2.733448,2.68253,1.702297,6.994543,3.436216,5.046351,3.452018,3.425732,3.371276,2.495855,2.23745,2.162589,1.189679,3.940722,1.788768,2.927879,1.478024,0.912121
1720077093,12,0,4349.871582,4363.205078,4328.974121,4352.820313,4384.743652,4332.179688,4400.384766,4394.615234,4376.666504,4332.94873,4251.794922,4494.487305,4272.692383,4228.333496,,,,,,,,,,,,,,,,,,,,,,,,,,,,,,,,,,,,,,,,,,,,,,,,,,,,,,,,,,,,,,,,,,,,,,
1720077093,13,0,4348.846191,4374.358887,4328.333496,4355.769043,4387.05127,4343.205078,4409.358887,4399.487305,4380.128418,4339.487305,4268.974121,4519.358887,4281.922852,4261.794922,,,,,,,,,,,,,,,,,,,,,,,,,,,,,,,,,,,,,,,,,,,,,,,,,,,,,,,,,,,,,,,,,,,,,,
1720077093,14,0,4371.538574,4392.692383,4332.179688,4372.307617,4395.641113,4351.410156,4413.974121,4421.922852,4398.205078,4361.025879,4280,4539.871582,4308.077148,4278.077148,,,,,,,,,,,,,,,,,,,,,,,,,,,,,,,,,,,,,,,,,,,,,,,,,,,,,,,,,,,,,,,,,,,,,,
1720077093,15,0,4376.025879,4393.205078,4336.922852,4378.589844,4402.307617,4352.179688,4416.666504,4423.589844,4402.179688,4366.666504,4282.179688,4516.410156,4340.769043,4277.563965,,,,,,,,,,,,,,,,,,,,,,,,,,,,,,,,,,,,,,,,,,,,,,,,,,,,,,,,,,,,,,,,,,,,,,
1720077093,16,0,4378.333496,4395.769043,4353.589844,4381.025879,4411.794922,4362.436035,4428.846191,4433.461426,4406.666504,4363.717773,4295.769043,4502.692383,4354.487305,4312.179688,,,,,,,,,,,,,,,,,,,,,,,,,,,,,,,,,,,,,,,,,,,,,,,,,,,,,,,,,,,,,,,,,,,,,,
1720077093,17,0,4377.179688,4392.307617,4352.692383,4380.384766,4413.589844,4368.846191,4438.205078,4441.666504,4412.692383,4364.743652,4298.333496,4521.794922,4333.077148,4322.563965,,,,,,,,,,,,,,,,,,,,,,,,,,,,,,,,,,,,,,,,,,,,,,,,,,,,,,,,,,,,,,,,,,,,,,
1720077093,18,0,4361.794922,4383.461426,4338.974121,4382.05127,4407.179688,4367.820313,4439.102539,4436.025879,4409.743652,4365.512695,4288.589844,4540,4321.153809,4279.743652,,,,,,,,,,,,,,,,,,,,,,,,,,,,,,,,,,,,,,,,,,,,,,,,,,,,,,,,,,,,,,,,,,,,,,
1720077093,19,0,4363.974121,4389.615234,4345.512695,4388.974121,4407.94873,4373.846191,4444.358887,4440.128418,4415.384766,4368.077148,4293.205078,4530.641113,4347.692383,4277.05127,,,,,,,,,,,,,,,,,,,,,,,,,,,,,,,,,,,,,,,,,,,,,,,,,,,,,,,,,,,,,,,,,,,,,,
1720077093,20,0,4367.563965,4387.179688,4345.512695,4378.461426,4410.512695,4376.025879,4444.615234,4448.205078,4426.153809,4373.717773,4296.153809,4485.641113,4362.05127,4308.846191,,,,,,,,,,,,,,,,,,,,,,,,,,,,,,,,,,,,,,,,,,,,,,,,,,,,,,,,,,,,,,,,,,,,,,
1720077093,21,0,4351.538574,4371.922852,4327.563965,4360.641113,4410.256348,4369.871582,4434.102539,4444.615234,4422.436035,4373.846191,4284.871582,4475.897461,4324.230957,4293.205078,,,,,,,,,,,,,,,,,,,,,,,,,,,,,,,,,,,,,,,,,,,,,,,,,,,,,,,,,,,,,,,,,,,,,,
1720077093,22,0,4356.025879,4380,4331.538574,4373.077148,4410.897461,4372.05127,4429.358887,4438.717773,4414.230957,4368.589844,4297.05127,4517.05127,4307.05127,4276.538574,,,,,,,,,,,,,,,,,,,,,,,,,,,,,,,,,,,,,,,,,,,,,,,,,,,,,,,,,,,,,,,,,,,,,,
1720077093,23,0,4372.692383,4397.820313,4339.743652,4387.436035,4405.897461,4377.563965,4430.512695,4430.128418,4411.410156,4370,4310.512695,4518.333496,4338.974121,4290.128418,,,,,,,,,,,,,,,,,,,,,,,,,,,,,,,,,,,,,,,,,,,,,,,,,,,,,,,,,,,,,,,,,,,,,,
1720077093,24,0,4361.153809,4392.307617,4328.589844,4373.461426,4402.692383,4373.205078,4427.307617,4422.820313,4404.230957,4370.641113,4284.871582,4483.333496,4352.05127,4285,,,,,,,,,,,,,,,,,,,,,,,,,,,,,,,,,,,,,,,,,,,,,,,,,,,,,,,,,,,,,,,,,,,,,,
1720077093,25,0,4352.307617,4384.615234,4332.179688,4369.615234,4408.205078,4368.205078,4425.256348,4425.384766,4399.102539,4365.512695,4260.384766,4491.922852,4335.256348,4269.102539,,,,,,,,,,,,,,,,,,,,,,,,,,,,,,,,,,,,,,,,,,,,,,,,,,,,,,,,,,,,,,,,,,,,,,
1720077093,26,0,4362.94873,4392.692383,4346.410156,4382.94873,4411.794922,4373.589844,4431.794922,4434.615234,4406.538574,4366.025879,4281.410156,4512.436035,4337.179688,4275.128418,,,,,,,,,,,,,,,,,,,,,,,,,,,,,,,,,,,,,,,,,,,,,,,,,,,,,,,,,,,,,,,,,,,,,,
1720077093,27,0,4372.436035,4395.769043,4348.589844,4385.384766,4411.538574,4379.487305,4437.179688,4450.641113,4412.05127,4364.871582,4309.102539,4502.05127,4357.692383,4290.641113,5.700902,3.156938,5.317405,1.377734,0.558883,1.988239,1.59629,1.424713,0.539097,0.577092,1.839624,0.917243,1.678194,1.153299,0.621325,1.698562,1.138016,0.98062,0.999193,0.623855,0.464361,0.697898,0.335721,0.52169,0.213222,0.514803,0.366492,0.386856,0.6464,0.21347,0.776364,0.749594,0.676706,1.298516,0.224466,1.332388,1.084383,1.186058,1.187348,0.556177,1.808185,2.220514,4.401643,1.935134,0.339591,2.132276,2.323814,1.805376,2.709874,0.325541,2.382195,2.04408,2.426106,2.337613,1.43522,4.777138,3.352159,4.320219,3.457436,3.067672,3.522226,2.741805,2.018352,2.082223,1.041739,4.228077,1.963973,2.943943,1.677924,0.823404
1720077093,28,0,4377.179688,4393.333496,4343.461426,4385.641113,4411.794922,4379.743652,4433.717773,4443.846191,4407.563965,4359.743652,4301.410156,4479.102539,4366.282227,4288.846191,,,,,,,,,,,,,,,,,,,,,,,,,,,,,,,,,,,,,,,,,,,,,,,,,,,,,,,,,,,,,,,,,,,,,,
1720077093,29,0,4366.153809,4387.94873,4338.589844,4384.615234,4405.512695,4376.666504,4427.692383,4426.282227,4399.871582,4354.743652,4282.179688,4468.205078,4365.769043,4269.230957,,,,,,,,,,,,,,,,,,,,,,,,,,,,,,,,,,,,,,,,,,,,,,,,,,,,,,,,,,,,,,,,,,,,,,
1720077093,30,0,4361.410156,4379.230957,4341.922852,4379.487305,4401.025879,4374.102539,4425.769043,4436.153809,4395,4346.153809,4265.256348,4494.487305,4344.102539,4257.94873,,,,,,,,,,,,,,,,,,,,,,,,,,,,,,,,,,,,,,,,,,,,,,,,,,,,,,,,,,,,,,,,,,,,,,
1720077093,31,0,4383.205078,4383.717773,4348.974121,4389.358887,4408.974121,4376.410156,4426.794922,4438.846191,4397.05127,4345,4264.358887,4510.384766,4327.820313,4270,,,,,,,,,,,,,,,,,,,,,,,,,,,,,,,,,,,,,,,,,,,,,,,,,,,,,,,,,,,,,,,,,,,,,,
1720077093,32,0,4384.615234,4389.102539,4343.205078,4394.615234,4408.205078,4379.487305,4426.794922,4431.666504,4401.666504,4350.384766,4276.538574,4485.641113,4341.538574,4272.563965,,,,,,,,,,,,,,,,,,,,,,,,,,,,,,,,,,,,,,,,,,,,,,,,,,,,,,,,,,,,,,,,,,,,,,
1720077093,33,0,4358.077148,4383.205078,4335.512695,4380.897461,4403.846191,4375,4426.538574,4436.922852,4398.461426,4345.641113,4272.05127,4487.307617,4329.358887,4251.538574,,,,,,,,,,,,,,,,,,,,,,,,,,,,,,,,,,,,,,,,,,,,,,,,,,,,,,,,,,,,,,,,,,,,,,
1720077093,34,0,4347.692383,4377.692383,4329.743652,4372.436035,4407.307617,4367.692383,4419.871582,4433.717773,4388.846191,4339.358887,4259.743652,4483.589844,4305.256348,4234.487305,,,,,,,,,,,,,,,,,,,,,,,,,,,,,,,,,,,,,,,,,,,,,,,,,,,,,,,,,,,,,,,,,,,,,,
1720077093,35,0,4340.512695,4373.846191,4316.410156,4372.436035,4403.461426,4365,4409.230957,4422.179688,4385.641113,4340,4262.94873,4442.692383,4321.794922,4230.769043,,,,,,,,,,,,,,,,,,,,,,,,,,,,,,,,,,,,,,,,,,,,,,,,,,,,,,,,,,,,,,,,,,,,,,
1720077093,36,0,4313.205078,4367.179688,4306.538574,4365.897461,4394.487305,4363.974121,4408.205078,4428.205078,4387.05127,4339.487305,4263.077148,4456.025879,4326.538574,4220.769043,,,,,,,,,,,,,,,,,,,,,,,,,,,,,,,,,,,,,,,,,,,,,,,,,,,,,,,,,,,,,,,,,,,,,,
1720077093,37,0,4303.205078,4372.820313,4306.794922,4362.307617,4398.461426,4368.205078,4413.974121,4435.897461,4382.94873,4338.589844,4242.179688,4486.922852,4290.641113,4196.538574,,,,,,,,,,,,,,,,,,,,,,,,,,,,,,,,,,,,,,,,,,,,,,,,,,,,,,,,,,,,,,,,,,,,,,
1720077093,38,0,4317.692383,4386.794922,4312.563965,4371.025879,4407.05127,4375.128418,4414.358887,4433.717773,4382.820313,4340.641113,4240.128418,4464.743652,4283.205078,4185.897461,,,,,,,,,,,,,,,,,,,,,,,,,,,,,,,,,,,,,,,,,,,,,,,,,,,,,,,,,,,,,,,,,,,,,,
1720077093,39,0,4315.641113,4377.179688,4310.512695,4371.666504,4400.769043,4373.974121,4417.692383,4440.641113,4390.769043,4341.153809,4252.820313,4457.692383,4293.589844,4197.94873,,,,,,,,,,,,,,,,,,,,,,,,,,,,,,,,,,,,,,,,,,,,,,,,,,,,,,,,,,,,,,,,,,,,,,
1720077093,40,0,4318.589844,4363.461426,4302.436035,4365.512695,4394.358887,4371.794922,4426.922852,4446.025879,4397.563965,4342.820313,4245.128418,4478.077148,4281.794922,4207.179688,,,,,,,,,,,,,,,,,,,,,,,,,,,,,,,,,,,,,,,,,,,,,,,,,,,,,,,,,,,,,,,,,,,,,,
1720077093,41,0,4347.179688,4378.205078,4309.615234,4377.307617,4400.256348,4377.307617,4425.384766,4447.563965,4397.179688,4343.717773,4251.282227,4468.846191,4292.436035,4209.743652,,,,,,,,,,,,,,,,,,,,,,,,,,,,,,,,,,,,,,,,,,,,,,,,,,,,,,,,,,,,,,,,,,,,,,
1720077093,42,0,4366.922852,4396.282227,4324.487305,4404.102539,4404.102539,4381.922852,4419.230957,4444.102539,4391.666504,4344.358887,4272.307617,4459.871582,4313.205078,4218.077148,,,,,,,,,,,,,,,,,,,,,,,,,,,,,,,,,,,,,,,,,,,,,,,,,,,,,,,,,,,,,,,,,,,,,,
1720077093,43,0,4376.538574,4391.153809,4328.077148,4411.794922,4399.358887,4379.487305,4421.666504,4437.820313,4388.205078,4340.384766,4258.974121,4479.615234,4291.794922,4218.589844,5.248519,3.282106,5.50916,1.51816,0.602766,1.667146,1.53338,1.471889,0.59374,0.560043,1.51687,0.975291,1.68398,1.208451,0.544629,1.501988,1.071896,0.98948,1.083589,0.554067,0.39221,0.675314,0.363091,0.497762,0.212154,0.58906,0.450572,0.534432,0.61082,0.205024,0.69843,0.778584,0.707918,1.1753,0.201555,1.131372,1.139152,1.097039,1.230414,0.510076,1.475358,2.237498,4.081141,1.92895,0.314459,1.888249,2.39082,1.817116,2.371397,0.361865,2.478996,2.080985,2.123464,2.038687,1.123684,3.338106,3.244951,3.56313,3.494799,2.519782,3.85824,2.780321,1.810762,1.973205,0.87496,5.521368,2.255969,3.042616,1.980054,0.724042
1720077093,44,0,4406.794922,4392.563965,4338.333496,4409.615234,4403.205078,4383.717773,4425.512695,4448.974121,4390.512695,4332.436035,4246.538574,4503.717773,4268.974121,4234.487305,,,,,,,,,,,,,,,,,,,,,,,,,,,,,,,,,,,,,,,,,,,,,,,,,,,,,,,,,,,,,,,,,,,,,,
1720077093,45,0,4450.384766,4416.025879,4368.589844,4428.333496,4412.436035,4395.128418,4432.307617,4467.563965,4398.077148,4338.589844,4279.102539,4533.717773,4285.512695,4277.820313,,,,,,,,,,,,,,,,,,,,,,,,,,,,,,,,,,,,,,,,,,,,,,,,,,,,,,,,,,,,,,,,,,,,,,
1720077093,46,0,4477.436035,4428.205078,4390.897461,4444.743652,4409.102539,4397.436035,4442.692383,4478.717773,4403.717773,4354.102539,4304.487305,4567.05127,4306.410156,4306.538574,,,,,,,,,,,,,,,,,,,,,,,,,,,,,,,,,,,,,,,,,,,,,,,,,,,,,,,,,,,,,,,,,,,,,,
1720077093,47,0,4495.256348,4437.692383,4402.307617,4454.102539,4415.769043,4395.769043,4449.615234,4484.487305,4408.333496,4360.641113,4309.102539,4589.615234,4314.743652,4336.794922,,,,,,,,,,,,,,,,,,,,,,,,,,,,,,,,,,,,,,,,,,,,,,,,,,,,,,,,,,,,,,,,,,,,,,
1720077093,48,0,4503.846191,4447.94873,4412.692383,4463.205078,4428.589844,4403.846191,4450.641113,4491.410156,4413.077148,4361.666504,4321.410156,4586.282227,4322.563965,4374.487305,,,,,,,,,,,,,,,,,,,,,,,,,,,,,,,,,,,,,,,,,,,,,,,,,,,,,,,,,,,,,,,,,,,,,,
1720077093,49,0,4494.487305,4434.615234,4414.487305,4457.179688,4417.179688,4404.102539,4447.307617,4495,4408.077148,4354.743652,4311.666504,4580.897461,4318.077148,4369.743652,,,,,,,,,,,,,,,,,,,,,,,,,,,,,,,,,,,,,,,,,,,,,,,,,,,,,,,,,,,,,,,,,,,,,,
1720077093,50,0,4496.282227,4427.563965,4420.384766,4451.794922,4410.641113,4398.461426,4444.102539,4492.563965,4400.384766,4349.487305,4305,4589.358887,4322.692383,4355.128418,,,,,,,,,,,,,,,,,,,,,,,,,,,,,,,,,,,,,,,,,,,,,,,,,,,,,,,,,,,,,,,,,,,,,,
1720077093,51,0,4513.974121,4446.153809,4429.230957,4463.205078,4430.769043,4404.358887,4445.256348,4491.410156,4399.358887,4359.871582,4322.179688,4598.717773,4324.743652,4370.128418,,,,,,,,,,,,,,,,,,,,,,,,,,,,,,,,,,,,,,,,,,,,,,,,,,,,,,,,,,,,,,,,,,,,,,
1720077093,52,0,4513.333496,4448.461426,4426.282227,4465.641113,4437.94873,4408.077148,4447.05127,4498.974121,4403.846191,4364.871582,4322.820313,4604.230957,4299.487305,4377.692383,,,,,,,,,,,,,,,,,,,,,,,,,,,,,,,,,,,,,,,,,,,,,,,,,,,,,,,,,,,,,,,,,,,,,,
1720077093,53,0,4496.282227,4434.358887,4415.128418,4455,4425.512695,4403.077148,4445.897461,4503.461426,4407.94873,4355.384766,4316.410156,4589.487305,4298.717773,4357.820313,,,,,,,,,,,,,,,,,,,,,,,,,,,,,,,,,,,,,,,,,,,,,,,,,,,,,,,,,,,,,,,,,,,,,,
1720077093,54,0,4497.436035,4441.025879,4412.05127,4459.871582,4424.487305,4402.05127,4448.077148,4495.512695,4408.205078,4355.641113,4327.94873,4577.05127,4325.641113,4336.922852,,,,,,,,,,,,,,,,,,,,,,,,,,,,,,,,,,,,,,,,,,,,,,,,,,,,,,,,,,,,,,,,,,,,,,
1720077093,55,0,4496.153809,4446.922852,4411.922852,4465.256348,4424.230957,4401.922852,4445.512695,4500.641113,4402.563965,4362.563965,4318.205078,4586.538574,4307.05127,4316.538574,,,,,,,,,,,,,,,,,,,,,,,,,,,,,,,,,,,,,,,,,,,,,,,,,,,,,,,,,,,,,,,,,,,,,,
1720077093,56,0,4465.128418,4432.436035,4388.974121,4449.358887,4412.436035,4396.922852,4433.333496,4496.153809,4392.94873,4356.025879,4280.384766,4571.538574,4260.641113,4284.871582,,,,,,,,,,,,,,,,,,,,,,,,,,,,,,,,,,,,,,,,,,,,,,,,,,,,,,,,,,,,,,,,,,,,,,
1720077093,57,0,4423.589844,4422.563965,4372.307617,4437.436035,4412.179688,4397.820313,4426.922852,4477.692383,4386.922852,4349.615234,4278.717773,4525.384766,4263.846191,4263.333496,,,,,,,,,,,,,,,,,,,,,,,,,,,,,,,,,,,,,,,,,,,,,,,,,,,,,,,,,,,,,,,,,,,,,,
1720077093,58,0,4404.230957,4428.846191,4387.563965,4448.333496,4419.743652,4403.717773,4432.307617,4492.563965,4390.128418,4356.025879,4303.461426,4531.282227,4282.179688,4261.794922,,,,,,,,,,,,,,,,,,,,,,,,,,,,,,,,,,,,,,,,,,,,,,,,,,,,,,,,,,,,,,,,,,,,,,
1720077093,59,0,4375.128418,4430.256348,4392.05127,4455.256348,4417.179688,4403.077148,4434.487305,4501.025879,4391.153809,4361.922852,4289.487305,4570.897461,4267.179688,4234.358887,4.841031,3.203678,5.332887,1.742419,0.658024,1.392676,1.370753,1.49343,0.69589,0.556815,1.536499,1.05417,1.662821,1.3115,0.474847,1.510161,0.995634,0.986564,1.248752,0.510784,0.394507,0.615881,0.403104,0.496707,0.221787,0.810396,0.534757,0.758449,0.601989,0.205803,0.723567,0.759446,0.748432,1.154278,0.191221,0.977511,1.118656,1.030283,1.292933,0.471776,1.196659,2.134347,4.153363,2.023993,0.305379,1.601772,2.209084,1.917441,2.046719,0.424071,2.93453,1.921933,1.827789,1.892463,0.847364,3.037992,3.154184,2.954514,3.658001,1.97064,4.542086,2.708155,1.611206,1.908772,0.74057,9.238535,2.773675,3.123647,2.419528,0.656588
1720077093,60,0,4343.974121,4410.128418,4362.692383,4432.179688,4407.692383,4396.025879,4421.794922,4482.94873,4380.256348,4351.922852,4258.205078,4564.871582,4245.384766,4191.410156,,,,,,,,,,,,,,,,,,,,,,,,,,,,,,,,,,,,,,,,,,,,,,,,,,,,,,,,,,,,,,,,,,,,,,
1720077093,61,0,4368.974121,4393.333496,4336.538574,4412.179688,4403.846191,4388.974121,4408.589844,4480,4373.717773,4341.282227,4266.922852,4527.307617,4241.538574,4200,,,,,,,,,,,,,,,,,,,,,,,,,,,,,,,,,,,,,,,,,,,,,,,,,,,,,,,,,,,,,,,,,,,,,,
1720077093,62,0,4396.794922,4396.153809,4342.563965,4420,4409.230957,4389.615234,4413.333496,4486.794922,4378.846191,4349.743652,4290.128418,4512.820313,4250.641113,4205.769043,,,,,,,,,,,,,,,,,,,,,,,,,,,,,,,,,,,,,,,,,,,,,,,,,,,,,,,,,,,,,,,,,,,,,,
1720077094,63,0,4385.384766,4400.897461,4357.307617,4433.717773,4412.692383,4396.410156,4427.05127,4487.563965,4382.94873,4354.487305,4276.538574,4541.282227,4247.179688,4161.922852,,,,,,,,,,,,,,,,,,,,,,,,,,,,,,,,,,,,,,,,,,,,,,,,,,,,,,,,,,,,,,,,,,,,,,
1720077094,64,0,4384.615234,4395.512695,4350.512695,4430,4406.794922,4399.487305,4424.487305,4495.512695,4384.102539,4343.205078,4263.461426,4548.205078,4229.871582,4162.179688,,,,,,,,,,,,,,,,,,,,,,,,,,,,,,,,,,,,,,,,,,,,,,,,,,,,,,,,,,,,,,,,,,,,,,
1720077094,65,0,4392.179688,4392.692383,4325.512695,4414.487305,4401.153809,4395,4404.102539,4487.563965,4379.358887,4338.461426,4265,4517.94873,4214.358887,4192.179688,,,,,,,,,,,,,,,,,,,,,,,,,,,,,,,,,,,,,,,,,,,,,,,,,,,,,,,,,,,,,,,,,,,,,,
1720077094,66,0,4372.94873,4398.974121,4317.692383,4409.743652,4407.307617,4393.589844,4398.077148,4467.94873,4369.230957,4344.102539,4261.025879,4508.717773,4214.487305,4178.205078,,,,,,,,,,,,,,,,,,,,,,,,,,,,,,,,,,,,,,,,,,,,,,,,,,,,,,,,,,,,,,,,,,,,,,
1720077094,67,0,4367.692383,4398.461426,4328.717773,4417.436035,4411.922852,4399.487305,4406.666504,4479.743652,4366.666504,4344.102539,4260.512695,4509.743652,4222.05127,4161.538574,,,,,,,,,,,,,,,,,,,,,,,,,,,,,,,,,,,,,,,,,,,,,,,,,,,,,,,,,,,,,,,,,,,,,,
1720077094,68,0,4379.871582,4390.256348,4330.641113,4420.641113,4400.256348,4397.307617,4408.077148,4488.461426,4370,4342.94873,4262.94873,4502.563965,4217.05127,4160.512695,,,,,,,,,,,,,,,,,,,,,,,,,,,,,,,,,,,,,,,,,,,,,,,,,,,,,,,,,,,,,,,,,,,,,,
1720077094,69,0,4368.077148,4386.666504,4332.307617,4416.025879,4390.641113,4391.538574,4407.820313,4485.897461,4369.358887,4342.692383,4268.333496,4520.897461,4216.282227,4145,,,,,,,,,,,,,,,,,,,,,,,,,,,,,,,,,,,,,,,,,,,,,,,,,,,,,,,,,,,,,,,,,,,,,,
1720077094,70,0,4366.794922,4391.153809,4342.563965,4419.743652,4394.102539,4393.717773,4413.974121,4500,4371.282227,4342.94873,4283.333496,4537.05127,4226.025879,4144.230957,,,,,,,,,,,,,,,,,,,,,,,,,,,,,,,,,,,,,,,,,,,,,,,,,,,,,,,,,,,,,,,,,,,,,,
1720077094,71,0,4373.589844,4391.282227,4341.282227,4429.358887,4396.538574,4390.641113,4414.230957,4504.102539,4367.05127,4346.794922,4283.461426,4527.436035,4218.333496,4163.461426,,,,,,,,,,,,,,,,,,,,,,,,,,,,,,,,,,,,,,,,,,,,,,,,,,,,,,,,,,,,,,,,,,,,,,
1720077094,72,0,4368.589844,4383.974121,4334.871582,4430.897461,4395.769043,4383.589844,4411.025879,4499.230957,4356.025879,4344.615234,4261.025879,4543.077148,4197.307617,4172.692383,,,,,,,,,,,,,,,,,,,,,,,,,,,,,,,,,,,,,,,,,,,,,,,,,,,,,,,,,,,,,,,,,,,,,,
1720077094,73,0,4365.769043,4384.487305,4338.846191,4427.436035,4402.179688,4390.128418,4414.102539,4502.436035,4360,4343.077148,4266.153809,4556.794922,4197.563965,4176.153809,,,,,,,,,,,,,,,,,,,,,,,,,,,,,,,,,,,,,,,,,,,,,,,,,,,,,,,,,,,,,,,,,,,,,,
1720077094,74,0,4367.563965,4393.333496,4338.077148,4420.769043,4404.358887,4396.794922,4413.589844,4504.871582,4366.410156,4343.717773,4288.077148,4538.717773,4212.179688,4174.743652,,,,,,,,,,,,,,,,,,,,,,,,,,,,,,,,,,,,,,,,,,,,,,,,,,,,,,,,,,,,,,,,,,,,,,
1720077094,75,0,4357.692383,4399.615234,4331.410156,4415.512695,4396.538574,4395,4411.282227,4499.743652,4358.846191,4337.94873,4267.05127,4538.846191,4203.974121,4165.769043,5.280179,3.128688,4.997279,2.021161,0.719793,1.302148,1.102336,1.491115,0.844053,0.570984,2.238996,1.178303,1.668244,1.460599,0.424379,1.824815,0.911433,0.958983,1.462946,0.50091,0.478289,0.521547,0.445941,0.51948,0.241449,1.156608,0.593627,1.008816,0.629253,0.215436,0.889309,0.707137,0.825073,1.217422,0.195563,0.989561,1.045344,1.025737,1.36434,0.449371,1.129688,1.957793,4.763528,2.240016,0.314234,1.447881,1.845672,2.183983,1.800981,0.499909,4.122618,1.674433,1.555056,1.938776,0.664129,4.183673,3.117115,2.657457,3.970547,1.595703,5.918056,2.717485,1.435072,1.933509,0.683514,16.635246,3.669692,3.183355,2.983823,0.656195
1720077094,76,0,4339.358887,4395.897461,4327.692383,4414.358887,4394.102539,4401.538574,4410.384766,4495.897461,4354.230957,4336.794922,4239.743652,4541.025879,4182.05127,4147.307617,,,,,,,,,,,,,,,,,,,,,,,,,,,,,,,,,,,,,,,,,,,,,,,,,,,,,,,,,,,,,,,,,,,,,,
1720077094,77,0,4337.436035,4384.230957,4313.846191,4410.641113,4402.94873,4413.333496,4403.974121,4493.846191,4357.563965,4335.897461,4247.307617,4519.358887,4167.179688,4132.436035,,,,,,,,,,,,,,,,,,,,,,,,,,,,,,,,,,,,,,,,,,,,,,,,,,,,,,,,,,,,,,,,,,,,,,
1720077094,78,0,4342.563965,4379.615234,4295.641113,4405.384766,4406.794922,4413.846191,4397.179688,4486.666504,4355.256348,4326.153809,4255.769043,4511.410156,4159.871582,4138.333496,,,,,,,,,,,,,,,,,,,,,,,,,,,,,,,,,,,,,,,,,,,,,,,,,,,,,,,,,,,,,,,,,,,,,,
1720077094,79,0,4350,4388.974121,4300.384766,4413.846191,4397.563965,4410.512695,4401.025879,4486.410156,4355.128418,4330.256348,4245.897461,4523.717773,4155.256348,4130.897461,,,,,,,,,,,,,,,,,,,,,,,,,,,,,,,,,,,,,,,,,,,,,,,,,,,,,,,,,,,,,,,,,,,,,,
1720077094,80,0,4377.94873,4397.692383,4319.102539,4430.256348,4389.615234,4414.358887,4412.436035,4499.487305,4363.846191,4350,4247.820313,4532.307617,4144.743652,4104.871582,,,,,,,,,,,,,,,,,,,,,,,,,,,,,,,,,,,,,,,,,,,,,,,,,,,,,,,,,,,,,,,,,,,,,,
1720077094,81,0,4410,4401.666504,4326.410156,4432.05127,4394.615234,4409.102539,4414.871582,4507.94873,4359.358887,4344.487305,4261.153809,4543.077148,4134.615234,4107.692383,,,,,,,,,,,,,,,,,,,,,,,,,,,,,,,,,,,,,,,,,,,,,,,,,,,,,,,,,,,,,,,,,,,,,,
1720077094,82,0,4417.05127,4411.282227,4328.205078,4426.153809,4405.641113,4395.897461,4409.743652,4497.820313,4343.974121,4325.897461,4259.487305,4548.717773,4137.436035,4122.436035,,,,,,,,,,,,,,,,,,,,,,,,,,,,,,,,,,,,,,,,,,,,,,,,,,,,,,,,,,,,,,,,,,,,,,
1720077094,83,0,4413.333496,4419.743652,4338.461426,4432.05127,4412.692383,4403.205078,4411.666504,4498.077148,4344.102539,4329.102539,4262.05127,4539.743652,4150.256348,4107.436035,,,,,,,,,,,,,,,,,,,,,,,,,,,,,,,,,,,,,,,,,,,,,,,,,,,,,,,,,,,,,,,,,,,,,,
1720077094,84,0,4409.743652,4412.820313,4346.153809,4440.384766,4413.205078,4415.512695,4413.461426,4508.077148,4349.358887,4332.820313,4261.538574,4546.666504,4137.05127,4089.358887,,,,,,,,,,,,,,,,,,,,,,,,,,,,,,,,,,,,,,,,,,,,,,,,,,,,,,,,,,,,,,,,,,,,,,
1720077094,85,0,4389.230957,4396.025879,4331.282227,4430.512695,4409.230957,4401.538574,4401.666504,4494.487305,4344.358887,4328.974121,4240.641113,4544.615234,4107.692383,4090.128174,,,,,,,,,,,,,,,,,,,,,,,,,,,,,,,,,,,,,,,,,,,,,,,,,,,,,,,,,,,,,,,,,,,,,,
1720077094,86,0,4380.128418,4392.94873,4325.384766,4421.410156,4411.666504,4394.102539,4396.666504,4491.153809,4344.615234,4332.05127,4241.410156,4520.897461,4116.410156,4100.128418,,,,,,,,,,,,,,,,,,,,,,,,,,,,,,,,,,,,,,,,,,,,,,,,,,,,,,,,,,,,,,,,,,,,,,
1720077094,87,0,4402.692383,4412.05127,4342.307617,4439.230957,4418.846191,4411.794922,4408.205078,4503.077148,4349.615234,4333.846191,4255.256348,4532.179688,4127.307617,4112.05127,,,,,,,,,,,,,,,,,,,,,,,,,,,,,,,,,,,,,,,,,,,,,,,,,,,,,,,,,,,,,,,,,,,,,,
1720077094,88,0,4415.897461,4420,4347.563965,4449.102539,4414.358887,4412.692383,4411.282227,4503.077148,4344.615234,4326.794922,4236.410156,4562.179688,4102.179688,4101.794922,,,,,,,,,,,,,,,,,,,,,,,,,,,,,,,,,,,,,,,,,,,,,,,,,,,,,,,,,,,,,,,,,,,,,,
1720077094,89,0,4410.897461,4404.487305,4339.615234,4432.05127,4410.897461,4402.820313,4404.230957,4500,4340.641113,4321.025879,4226.282227,4553.974121,4098.077148,4080.384521,,,,,,,,,,,,,,,,,,,,,,,,,,,,,,,,,,,,,,,,,,,,,,,,,,,,,,,,,,,,,,,,,,,,,,
1720077094,90,0,4414.230957,4405.641113,4343.333496,4427.436035,4418.974121,4407.307617,4400.384766,4497.563965,4343.333496,4322.307617,4256.282227,4539.230957,4132.307617,4093.333252,,,,,,,,,,,,,,,,,,,,,,,,,,,,,,,,,,,,,,,,,,,,,,,,,,,,,,,,,,,,,,,,,,,,,,
1720077094,91,0,4401.410156,4410.641113,4346.922852,4433.974121,4419.358887,4404.871582,4397.05127,4492.94873,4340.384766,4321.282227,4263.974121,4546.922852,4132.563965,4118.589844,8.758297,3.263871,4.735084,2.272413,0.781445,1.572197,0.791778,1.473834,1.005235,0.601083,4.202309,1.38268,1.738721,1.613774,0.398355,2.58534,0.86477,0.918312,1.663435,0.522695,0.666637,0.425665,0.485801,0.55488,0.267082,1.578109,0.622029,1.217833,0.674835,0.22855,1.230544,0.661932,0.947449,1.306678,0.209737,1.223234,0.965216,1.105915,1.428994,0.439555,1.316127,1.754748,5.696794,2.534792,0.329393,1.533883,1.421736,2.558809,1.641546,0.565755,6.354653,1.468979,1.330743,2.1201,0.596278,6.838587,3.215993,2.711877,4.343266,1.486461,8.306463,2.95091,1.301,2.029718,0.729353,29.207289,4.973685,3.250409,3.569652,0.736214
1720077094,92,0,4367.179688,4397.94873,4337.94873,4429.743652,4410.769043,4399.615234,4396.538574,4500.512695,4341.410156,4322.692383,4246.282227,4548.974121,4103.205078,4106.282227,,,,,,,,,,,,,,,,,,,,,,,,,,,,,,,,,,,,,,,,,,,,,,,,,,,,,,,,,,,,,,,,,,,,,,
1720077094,93,0,4349.358887,4390.641113,4328.077148,4425.897461,4408.589844,4403.077148,4397.563965,4500.897461,4343.205078,4325.641113,4244.743652,4540.384766,4098.077148,4078.974365,,,,,,,,,,,,,,,,,,,,,,,,,,,,,,,,,,,,,,,,,,,,,,,,,,,,,,,,,,,,,,,,,,,,,,
1720077094,94,0,4349.615234,4389.102539,4321.922852,4424.871582,4408.461426,4398.589844,4393.077148,4486.282227,4331.794922,4324.871582,4237.563965,4531.282227,4094.102539,4078.205078,,,,,,,,,,,,,,,,,,,,,,,,,,,,,,,,,,,,,,,,,,,,,,,,,,,,,,,,,,,,,,,,,,,,,,
1720077094,95,0,4358.589844,4385.897461,4323.461426,4418.846191,4407.820313,4394.230957,4392.05127,4491.282227,4328.205078,4322.94873,4228.461426,4530.384766,4083.461426,4092.179443,,,,,,,,,,,,,,,,,,,,,,,,,,,,,,,,,,,,,,,,,,,,,,,,,,,,,,,,,,,,,,,,,,,,,,
1720077094,96,0,4372.179688,4383.717773,4322.94873,4408.205078,4412.692383,4404.230957,4393.333496,4494.871582,4335.384766,4326.025879,4239.871582,4530.128418,4086.281982,4095.256348,,,,,,,,,,,,,,,,,,,,,,,,,,,,,,,,,,,,,,,,,,,,,,,,,,,,,,,,,,,,,,,,,,,,,,
1720077094,97,0,4372.436035,4385.128418,4316.282227,4402.179688,4413.589844,4408.974121,4388.205078,4487.179688,4333.205078,4331.282227,4249.487305,4523.333496,4090.128174,4098.461426,,,,,,,,,,,,,,,,,,,,,,,,,,,,,,,,,,,,,,,,,,,,,,,,,,,,,,,,,,,,,,,,,,,,,,
1720077094,98,0,4379.230957,4395.897461,4326.794922,4418.589844,4409.871582,4403.461426,4382.94873,4493.333496,4326.153809,4324.871582,4254.487305,4536.410156,4099.230957,4115.641113,,,,,,,,,,,,,,,,,,,,,,,,,,,,,,,,,,,,,,,,,,,,,,,,,,,,,,,,,,,,,,,,,,,,,,
1720077094,99,0,4393.461426,4408.077148,4339.487305,4435.641113,4414.615234,4400.256348,4378.205078,4493.205078,4326.282227,4320.641113,4255.384766,4553.589844,4107.436035,4124.230957,,,,,,,,,,,,,,,,,,,,,,,,,,,,,,,,,,,,,,,,,,,,,,,,,,,,,,,,,,,,,,,,,,,,,,
1720077094,100,0,4380.641113,4408.589844,4329.230957,4422.820313,4418.333496,4396.538574,4368.717773,4480.641113,4323.077148,4325.128418,4252.692383,4544.615234,4097.436035,4121.153809,,,,,,,,,,,,,,,,,,,,,,,,,,,,,,,,,,,,,,,,,,,,,,,,,,,,,,,,,,,,,,,,,,,,,,
1720077094,101,0,4375.897461,4413.717773,4327.436035,4416.922852,4409.102539,4395.384766,4368.461426,4479.871582,4321.282227,4325,4257.05127,4551.538574,4091.666748,4128.717773,,,,,,,,,,,,,,,,,,,,,,,,,,,,,,,,,,,,,,,,,,,,,,,,,,,,,,,,,,,,,,,,,,,,,,
1720077094,102,0,4396.153809,4421.538574,4345,4431.922852,4406.794922,4398.205078,4375.641113,4489.487305,4325.769043,4327.436035,4262.436035,4575.641113,4105.256348,4142.563965,,,,,,,,,,,,,,,,,,,,,,,,,,,,,,,,,,,,,,,,,,,,,,,,,,,,,,,,,,,,,,,,,,,,,,
1720077094,103,0,4389.871582,4407.820313,4341.410156,4418.846191,4422.94873,4396.794922,4370.512695,4489.358887,4317.05127,4328.717773,4263.589844,4555.256348,4111.666504,4145.128418,,,,,,,,,,,,,,,,,,,,,,,,,,,,,,,,,,,,,,,,,,,,,,,,,,,,,,,,,,,,,,,,,,,,,,
1720077094,104,0,4372.820313,4396.666504,4320.897461,4381.282227,4428.589844,4393.333496,4362.436035,4479.358887,4304.615234,4314.871582,4258.974121,4523.077148,4102.307617,4135,,,,,,,,,,,,,,,,,,,,,,,,,,,,,,,,,,,,,,,,,,,,,,,,,,,,,,,,,,,,,,,,,,,,,,
1720077094,105,0,4395.384766,4415,4324.358887,4375.256348,4412.436035,4394.487305,4365.897461,4477.563965,4310.256348,4308.461426,4255.512695,4534.743652,4093.461426,4132.563965,,,,,,,,,,,,,,,,,,,,,,,,,,,,,,,,,,,,,,,,,,,,,,,,,,,,,,,,,,,,,,,,,,,,,,
1720077094,106,0,4425.512695,4432.179688,4338.589844,4403.589844,4408.589844,4397.820313,4368.974121,4486.666504,4315.769043,4321.794922,4261.922852,4561.666504,4089.743652,4147.436035,,,,,,,,,,,,,,,,,,,,,,,,,,,,,,,,,,,,,,,,,,,,,,,,,,,,,,,,,,,,,,,,,,,,,,
1720077094,107,0,4428.461426,4423.589844,4334.358887,4416.153809,4420.641113,4396.153809,4361.282227,4479.358887,4302.05127,4323.846191,4261.153809,4560.512695,4085.256348,4156.410156,17.446804,3.642297,4.722773,2.390611,0.833699,2.465492,0.513663,1.431739,1.125769,0.638643,7.905698,1.640215,1.844198,1.703208,0.396681,4.002034,0.885788,0.865583,1.768915,0.564991,0.962182,0.35482,0.507277,0.584289,0.293101,2.000663,0.621762,1.321286,0.703369,0.238013,1.781368,0.655607,1.095978,1.352748,0.225986,1.816092,0.914679,1.248156,1.458945,0.432886,1.743704,1.546269,6.500762,2.800584,0.334605,1.873861,1.042749,2.879508,1.529456,0.597848,9.614854,1.379597,1.149214,2.313065,0.633737,11.015303,3.465819,2.969462,4.594111,1.624254,11.488445,3.394506,1.198622,2.12936,0.873148,47.057541,6.506445,3.304946,4.012203,0.882663
1720077094,108,0,4439.487305,4426.410156,4327.307617,4409.358887,4417.436035,4395,4354.102539,4465.384766,4290.256348,4310.641113,4252.692383,4540.769043,4088.718018,4156.025879,,,,,,,,,,,,,,,,,,,,,,,,,,,,,,,,,,,,,,,,,,,,,,,,,,,,,,,,,,,,,,,,,,,,,,
1720077094,109,0,4466.922852,4450.256348,4338.333496,4422.436035,4409.102539,4395.897461,4355.384766,4470.641113,4294.487305,4309.615234,4255.128418,4546.025879,4098.974121,4162.05127,,,,,,,,,,,,,,,,,,,,,,,,,,,,,,,,,,,,,,,,,,,,,,,,,,,,,,,,,,,,,,,,,,,,,,
1720077094,110,0,4480.384766,4454.358887,4356.153809,4446.025879,4420.897461,4392.563965,4357.179688,4468.717773,4297.179688,4312.307617,4257.05127,4560.384766,4097.179688,4167.307617,,,,,,,,,,,,,,,,,,,,,,,,,,,,,,,,,,,,,,,,,,,,,,,,,,,,,,,,,,,,,,,,,,,,,,
1720077094,111,0,4478.205078,4445.641113,4350.256348,4453.846191,4427.692383,4387.436035,4352.820313,4464.871582,4290.256348,4301.025879,4245.897461,4546.922852,4086.666748,4168.846191,,,,,,,,,,,,,,,,,,,,,,,,,,,,,,,,,,,,,,,,,,,,,,,,,,,,,,,,,,,,,,,,,,,,,,
1720077094,112,0,4469.358887,4444.230957,4312.307617,4447.436035,4415,4386.666504,4342.692383,4467.563965,4281.922852,4284.743652,4233.205078,4515.512695,4076.153809,4156.025879,,,,,,,,,,,,,,,,,,,,,,,,,,,,,,,,,,,,,,,,,,,,,,,,,,,,,,,,,,,,,,,,,,,,,,
1720077094,113,0,4452.692383,4429.743652,4273.974121,4431.153809,4409.615234,4390.897461,4338.846191,4448.589844,4275.897461,4277.563965,4207.820313,4488.974121,4051.923096,4120.512695,,,,,,,,,,,,,,,,,,,,,,,,,,,,,,,,,,,,,,,,,,,,,,,,,,,,,,,,,,,,,,,,,,,,,,
1720077094,114,0,4451.794922,4422.563965,4279.743652,4429.358887,4414.615234,4398.846191,4352.179688,4447.692383,4278.461426,4280.769043,4200.769043,4504.743652,4035.769287,4111.666504,,,,,,,,,,,,,,,,,,,,,,,,,,,,,,,,,,,,,,,,,,,,,,,,,,,,,,,,,,,,,,,,,,,,,,
1720077094,115,0,4477.05127,4446.538574,4307.563965,4453.205078,4417.179688,4406.282227,4368.461426,4470.256348,4289.871582,4286.153809,4233.589844,4534.615234,4061.281982,4137.179688,,,,,,,,,,,,,,,,,,,,,,,,,,,,,,,,,,,,,,,,,,,,,,,,,,,,,,,,,,,,,,,,,,,,,,
1720077094,116,0,4501.922852,4465,4312.307617,4465,4423.717773,4406.153809,4365.769043,4464.743652,4296.538574,4297.307617,4244.615234,4523.717773,4089.743652,4146.153809,,,,,,,,,,,,,,,,,,,,,,,,,,,,,,,,,,,,,,,,,,,,,,,,,,,,,,,,,,,,,,,,,,,,,,
1720077094,117,0,4522.436035,4474.358887,4315.384766,4465.256348,4430.256348,4404.743652,4357.179688,4454.487305,4295.769043,4307.436035,4237.307617,4508.974121,4091.410156,4142.820313,,,,,,,,,,,,,,,,,,,,,,,,,,,,,,,,,,,,,,,,,,,,,,,,,,,,,,,,,,,,,,,,,,,,,,
1720077094,118,0,4540,4488.461426,4334.358887,4477.820313,4427.436035,4407.05127,4359.358887,4461.666504,4293.461426,4302.563965,4247.94873,4527.820313,4092.692383,4142.05127,,,,,,,,,,,,,,,,,,,,,,,,,,,,,,,,,,,,,,,,,,,,,,,,,,,,,,,,,,,,,,,,,,,,,,
1720077094,119,0,4547.436035,4493.589844,4341.282227,4478.846191,4427.05127,4404.230957,4362.05127,4455.769043,4291.794922,4292.05127,4253.846191,4540.641113,4098.846191,4140.256348,,,,,,,,,,,,,,,,,,,,,,,,,,,,,,,,,,,,,,,,,,,,,,,,,,,,,,,,,,,,,,,,,,,,,,
1720077094,120,0,4552.563965,4491.153809,4331.025879,4467.179688,4429.230957,4400.641113,4358.846191,4447.820313,4291.538574,4293.974121,4243.077148,4530.769043,4097.05127,4148.974121,,,,,,,,,,,,,,,,,,,,,,,,,,,,,,,,,,,,,,,,,,,,,,,,,,,,,,,,,,,,,,,,,,,,,,
1720077094,121,0,4557.563965,4489.615234,4332.692383,4469.743652,4425,4398.461426,4357.307617,4455.897461,4290.128418,4308.589844,4237.307617,4518.846191,4090.256348,4151.282227,,,,,,,,,,,,,,,,,,,,,,,,,,,,,,,,,,,,,,,,,,,,,,,,,,,,,,,,,,,,,,,,,,,,,,
1720077094,122,0,4556.153809,4494.871582,4341.666504,4477.563965,4424.230957,4397.05127,4358.461426,4453.077148,4287.820313,4309.615234,4238.589844,4514.743652,4088.205078,4134.230957,,,,,,,,,,,,,,,,,,,,,,,,,,,,,,,,,,,,,,,,,,,,,,,,,,,,,,,,,,,,,,,,,,,,,,
1720077094,123,0,4552.436035,4505.384766,4336.794922,4477.307617,4428.205078,4402.05127,4361.153809,4451.922852,4289.487305,4297.692383,4238.589844,4523.205078,4090,4127.307617,31.714426,4.160226,5.039352,2.325865,0.865263,3.997528,0.31897,1.363863,1.161461,0.669238,13.115947,1.888305,1.919204,1.678771,0.413903,5.957326,0.98096,0.807444,1.72193,0.611115,1.334378,0.319336,0.498458,0.590748,0.314073,2.379754,0.605982,1.293279,0.6834,0.240081,2.489401,0.69589,1.223803,1.309697,0.237177,2.663821,0.907271,1.385757,1.420437,0.420515,2.28072,1.334748,6.715283,2.896988,0.31913,2.330688,0.762247,2.971803,1.416543,0.584371,13.282794,1.389627,1.013255,2.396708,0.745464,16.23605,3.810828,3.242191,4.555607,1.902134,14.808682,3.847486,1.124758,2.158624,1.081351,67.88092,7.851466,3.282539,4.151613,1.060035
1720077094,124,0,4553.974121,4508.205078,4329.743652,4475.128418,4427.820313,4412.05127,4365.384766,4457.307617,4295.897461,4298.974121,4241.794922,4523.717773,4096.153809,4140.128418,,,,,,,,,,,,,,,,,,,,,,,,,,,,,,,,,,,,,,,,,,,,,,,,,,,,,,,,,,,,,,,,,,,,,,
1720077094,125,0,4557.307617,4503.717773,4333.846191,4473.333496,4432.436035,4415.128418,4367.820313,4453.974121,4300.512695,4303.589844,4254.743652,4513.717773,4107.563965,4156.794922,,,,,,,,,,,,,,,,,,,,,,,,,,,,,,,,,,,,,,,,,,,,,,,,,,,,,,,,,,,,,,,,,,,,,,
1720077094,126,0,4554.615234,4503.717773,4342.563965,4476.666504,4439.102539,4411.025879,4365.256348,4453.974121,4293.461426,4294.743652,4268.717773,4517.94873,4113.205078,4169.871582,,,,,,,,,,,,,,,,,,,,,,,,,,,,,,,,,,,,,,,,,,,,,,,,,,,,,,,,,,,,,,,,,,,,,,
1720077094,127,0,4558.077148,4510.897461,4344.102539,4475.641113,4435.256348,4411.666504,4362.05127,4454.487305,4281.282227,4298.846191,4263.205078,4524.358887,4110.512695,4178.077148,,,,,,,,,,,,,,,,,,,,,,,,,,,,,,,,,,,,,,,,,,,,,,,,,,,,,,,,,,,,,,,,,,,,,,
1720077094,0,0,4569.487305,4510,4343.589844,4464.230957,4428.846191,4410.256348,4361.666504,4450.769043,4283.461426,4315.641113,4257.94873,4517.436035,4109.102539,4184.358887,,,,,,,,,,,,,,,,,,,,,,,,,,,,,,,,,,,,,,,,,,,,,,,,,,,,,,,,,,,,,,,,,,,,,,
1720077094,1,0,4561.666504,4490.128418,4342.05127,4456.410156,4427.94873,4404.487305,4364.743652,4444.102539,4291.282227,4306.153809,4265.128418,4507.179688,4114.102539,4185.769043,,,,,,,,,,,,,,,,,,,,,,,,,,,,,,,,,,,,,,,,,,,,,,,,,,,,,,,,,,,,,,,,,,,,,,
1720077094,2,0,4547.307617,4476.538574,4337.307617,4453.846191,4429.743652,4406.153809,4369.871582,4443.205078,4293.333496,4296.282227,4263.077148,4509.871582,4123.333496,4188.333496,,,,,,,,,,,,,,,,,,,,,,,,,,,,,,,,,,,,,,,,,,,,,,,,,,,,,,,,,,,,,,,,,,,,,,
1720077094,3,0,4548.589844,4489.743652,4334.358887,4452.692383,4431.794922,4413.846191,4369.358887,4446.538574,4294.615234,4310.384766,4260.769043,4517.820313,4125.512695,4194.102539,,,,,,,,,,,,,,,,,,,,,,,,,,,,,,,,,,,,,,,,,,,,,,,,,,,,,,,,,,,,,,,,,,,,,,
1720077094,4,0,4545.769043,4496.410156,4335,4452.179688,4430.256348,4414.230957,4363.077148,4438.717773,4286.025879,4307.94873,4260.769043,4508.589844,4108.077148,4188.333496,,,,,,,,,,,,,,,,,,,,,,,,,,,,,,,,,,,,,,,,,,,,,,,,,,,,,,,,,,,,,,,,,,,,,,
1720077094,5,0,4534.743652,4478.717773,4328.333496,4450,4423.846191,4406.794922,4358.846191,4423.589844,4266.410156,4287.05127,4246.794922,4486.922852,4090.128174,4178.333496,,,,,,,,,,,,,,,,,,,,,,,,,,,,,,,,,,,,,,,,,,,,,,,,,,,,,,,,,,,,,,,,,,,,,,
1720077094,6,0,4534.743652,4466.538574,4314.230957,4437.563965,4422.179688,4400.897461,4352.05127,4416.922852,4256.410156,4275.769043,4233.077148,4477.563965,4096.153809,4184.358887,,,,,,,,,,,,,,,,,,,,,,,,,,,,,,,,,,,,,,,,,,,,,,,,,,,,,,,,,,,,,,,,,,,,,,
1720077094,7,0,4542.94873,4472.05127,4308.717773,4432.05127,4420.512695,4397.05127,4340.641113,4413.846191,4259.615234,4273.333496,4240.641113,4478.974121,4110,4196.538574,,,,,,,,,,,,,,,,,,,,,,,,,,,,,,,,,,,,,,,,,,,,,,,,,,,,,,,,,,,,,,,,,,,,,,
1720077094,8,0,4554.487305,4479.487305,4313.333496,4451.922852,4412.307617,4394.743652,4339.743652,4409.230957,4268.717773,4279.102539,4251.282227,4479.358887,4111.282227,4201.666504,,,,,,,,,,,,,,,,,,,,,,,,,,,,,,,,,,,,,,,,,,,,,,,,,,,,,,,,,,,,,,,,,,,,,,
1720077094,9,0,4560,4472.563965,4317.563965,4460.641113,4414.102539,4393.717773,4352.563965,4419.230957,4280.512695,4296.153809,4249.102539,4476.153809,4105,4202.563965,,,,,,,,,,,,,,,,,,,,,,,,,,,,,,,,,,,,,,,,,,,,,,,,,,,,,,,,,,,,,,,,,,,,,,
1720077094,10,0,4558.205078,4470.256348,4318.589844,4445.384766,4421.025879,4400.512695,4363.846191,4419.743652,4283.974121,4297.94873,4241.794922,4470,4106.282227,4201.025879,,,,,,,,,,,,,,,,,,,,,,,,,,,,,,,,,,,,,,,,,,,,,,,,,,,,,,,,,,,,,,,,,,,,,,
1720077094,11,0,4562.307617,4482.436035,4317.692383,4441.538574,4414.743652,4407.692383,4364.743652,4410.897461,4279.102539,4281.025879,4237.179688,4470.256348,4107.692383,4195.128418,49.401485,4.587514,5.665477,2.124035,0.868774,6.016259,0.211823,1.302683,1.099314,0.680102,18.768671,2.021872,1.914027,1.538854,0.445565,8.215751,1.111722,0.782048,1.524063,0.649275,1.699417,0.311064,0.456775,0.567545,0.326731,2.633776,0.586011,1.155773,0.604929,0.235404,3.181401,0.753627,1.270684,1.169737,0.240408,3.587986,0.919737,1.443476,1.293692,0.399405,2.694458,1.11303,6.124369,2.728591,0.283375,2.69607,0.570623,2.740122,1.26893,0.528744,16.3599,1.402546,0.955134,2.317014,0.890723,21.497709,4.075067,3.410884,4.174671,2.186131,17.280544,4.035224,1.089908,2.082611,1.298458,87.364471,8.564857,3.127512,3.91064,1.222988
1720077094,12,0,4555.384766,4479.230957,4309.743652,4449.230957,4412.436035,4407.692383,4362.307617,4418.461426,4278.461426,4276.666504,4236.922852,4473.205078,4100.128418,4178.717773,,,,,,,,,,,,,,,,,,,,,,,,,,,,,,,,,,,,,,,,,,,,,,,,,,,,,,,,,,,,,,,,,,,,,,
1720077094,13,0,4541.025879,4466.922852,4299.743652,4434.230957,4422.692383,4410.384766,4358.846191,4408.717773,4281.153809,4281.282227,4239.102539,4463.717773,4100,4167.94873,,,,,,,,,,,,,,,,,,,,,,,,,,,,,,,,,,,,,,,,,,,,,,,,,,,,,,,,,,,,,,,,,,,,,,
1720077094,14,0,4542.179688,4462.692383,4298.077148,4408.205078,4420,4408.974121,4349.487305,4391.666504,4273.717773,4276.025879,4235,4453.205078,4105.769043,4179.230957,,,,,,,,,,,,,,,,,,,,,,,,,,,,,,,,,,,,,,,,,,,,,,,,,,,,,,,,,,,,,,,,,,,,,,
1720077094,15,0,4545.641113,4456.282227,4299.743652,4410.641113,4407.05127,4402.94873,4341.794922,4389.230957,4263.461426,4275.512695,4228.717773,4450,4107.94873,4195.256348,,,,,,,,,,,,,,,,,,,,,,,,,,,,,,,,,,,,,,,,,,,,,,,,,,,,,,,,,,,,,,,,,,,,,,
1720077094,16,0,4545.512695,4461.410156,4299.615234,4434.743652,4408.589844,4406.794922,4347.05127,4386.410156,4268.589844,4277.820313,4246.153809,4454.358887,4116.922852,4210.128418,,,,,,,,,,,,,,,,,,,,,,,,,,,,,,,,,,,,,,,,,,,,,,,,,,,,,,,,,,,,,,,,,,,,,,
1720077094,17,0,4547.307617,4479.743652,4302.436035,4448.077148,4414.871582,4414.102539,4360.512695,4397.307617,4280,4275.128418,4271.410156,4466.025879,4134.102539,4223.717773,,,,,,,,,,,,,,,,,,,,,,,,,,,,,,,,,,,,,,,,,,,,,,,,,,,,,,,,,,,,,,,,,,,,,,
1720077094,18,0,4529.615234,4471.922852,4300.128418,4431.922852,4413.589844,4410.897461,4363.333496,4411.282227,4278.077148,4281.922852,4256.922852,4458.717773,4125.128418,4217.563965,,,,,,,,,,,,,,,,,,,,,,,,,,,,,,,,,,,,,,,,,,,,,,,,,,,,,,,,,,,,,,,,,,,,,,
1720077094,19,0,4505,4458.717773,4294.230957,4420.256348,4412.179688,4411.538574,4360.384766,4403.974121,4281.794922,4296.025879,4230.128418,4442.563965,4101.922852,4205.897461,,,,,,,,,,,,,,,,,,,,,,,,,,,,,,,,,,,,,,,,,,,,,,,,,,,,,,,,,,,,,,,,,,,,,,
1720077094,20,0,4507.179688,4476.410156,4296.025879,4436.153809,4411.794922,4414.743652,4361.922852,4393.589844,4291.794922,4291.922852,4240.641113,4446.538574,4108.974121,4212.563965,,,,,,,,,,,,,,,,,,,,,,,,,,,,,,,,,,,,,,,,,,,,,,,,,,,,,,,,,,,,,,,,,,,,,,
1720077094,21,0,4522.820313,4493.461426,4299.871582,4447.179688,4411.794922,4411.025879,4362.692383,4394.102539,4277.436035,4271.794922,4255.897461,4451.025879,4129.743652,4223.717773,,,,,,,,,,,,,,,,,,,,,,,,,,,,,,,,,,,,,,,,,,,,,,,,,,,,,,,,,,,,,,,,,,,,,,
1720077094,22,0,4535.769043,4496.794922,4303.205078,4447.563965,4412.307617,4418.461426,4364.871582,4388.974121,4255.769043,4266.922852,4249.871582,4447.179688,4135.384766,4233.717773,,,,,,,,,,,,,,,,,,,,,,,,,,,,,,,,,,,,,,,,,,,,,,,,,,,,,,,,,,,,,,,,,,,,,,
1720077094,23,0,4536.282227,4495.256348,4303.461426,4440.641113,4415.641113,4429.871582,4371.922852,4389.871582,4258.461426,4280.897461,4258.974121,4459.615234,4134.871582,4249.230957,,,,,,,,,,,,,,,,,,,,,,,,,,,,,,,,,,,,,,,,,,,,,,,,,,,,,,,,,,,,,,,,,,,,,,
1720077094,24,0,4531.666504,4493.461426,4295.512695,4433.205078,4422.179688,4426.794922,4373.717773,4396.153809,4272.05127,4292.692383,4278.205078,4470.128418,4146.025879,4254.487305,,,,,,,,,,,,,,,,,,,,,,,,,,,,,,,,,,,,,,,,,,,,,,,,,,,,,,,,,,,,,,,,,,,,,,
1720077094,25,0,4532.563965,4489.871582,4285,4439.102539,4415.384766,4421.922852,4367.94873,4388.974121,4283.846191,4297.307617,4271.538574,4455.384766,4152.307617,4244.102539,,,,,,,,,,,,,,,,,,,,,,,,,,,,,,,,,,,,,,,,,,,,,,,,,,,,,,,,,,,,,,,,,,,,,,
1720077094,26,0,4532.692383,4480.897461,4282.436035,4443.589844,4402.436035,4425.384766,4368.846191,4386.538574,4294.230957,4293.974121,4254.102539,4445,4143.461426,4236.922852,,,,,,,,,,,,,,,,,,,,,,,,,,,,,,,,,,,,,,,,,,,,,,,,,,,,,,,,,,,,,,,,,,,,,,
1720077094,27,0,4530.128418,4470.897461,4280.512695,4431.153809,4405.512695,4428.846191,4375.128418,4385.384766,4296.666504,4282.94873,4246.025879,4441.410156,4130.897461,4228.077148,65.305359,4.773004,6.55559,1.878975,0.844892,7.901425,0.176408,1.311409,0.962252,0.665727,23.288227,2.017422,1.861812,1.334198,0.490754,10.11409,1.242931,0.85221,1.233727,0.678383,1.960489,0.31455,0.388318,0.518641,0.330526,2.705803,0.566796,0.963593,0.484139,0.227164,3.639275,0.786604,1.200496,0.964688,0.237886,4.246266,0.919452,1.378974,1.092122,0.374545,2.847419,0.881058,4.874568,2.315104,0.239039,2.824773,0.445296,2.222967,1.087059,0.449904,17.962788,1.351991,0.994982,2.085089,1.026219,25.302252,4.125213,3.427516,3.518519,2.363862,18.033314,3.792555,1.114645,1.919855,1.460436,100.376991,8.405898,2.868353,3.341416,1.337418
1720077094,28,0,4520.256348,4473.205078,4271.538574,4420.256348,4414.358887,4433.077148,4378.461426,4383.333496,4292.692383,4274.358887,4245.512695,4432.820313,4125.128418,4211.153809,,,,,,,,,,,,,,,,,,,,,,,,,,,,,,,,,,,,,,,,,,,,,,,,,,,,,,,,,,,,,,,,,,,,,,
1720077094,29,0,4510.128418,4487.436035,4260.769043,4434.230957,4413.846191,4434.615234,4378.846191,4385.769043,4282.563965,4280.256348,4249.487305,4440.897461,4132.563965,4215.384766,,,,,,,,,,,,,,,,,,,,,,,,,,,,,,,,,,,,,,,,,,,,,,,,,,,,,,,,,,,,,,,,,,,,,,
1720077094,30,0,4515.897461,4496.666504,4259.871582,4447.94873,4411.282227,4425.512695,4375.384766,4376.410156,4255.769043,4277.820313,4251.666504,4461.153809,4148.846191,4239.487305,,,,,,,,,,,,,,,,,,,,,,,,,,,,,,,,,,,,,,,,,,,,,,,,,,,,,,,,,,,,,,,,,,,,,,
1720077094,31,0,4533.333496,4497.05127,4269.487305,4436.666504,4404.358887,4420.769043,4371.922852,4364.615234,4235.769043,4263.205078,4251.794922,4464.102539,4160.256348,4246.153809,,,,,,,,,,,,,,,,,,,,,,,,,,,,,,,,,,,,,,,,,,,,,,,,,,,,,,,,,,,,,,,,,,,,,,
1720077094,32,0,4539.230957,4489.102539,4267.436035,4413.333496,4394.102539,4425.128418,4371.922852,4368.974121,4252.307617,4269.487305,4255.384766,4449.871582,4160.897461,4234.487305,,,,,,,,,,,,,,,,,,,,,,,,,,,,,,,,,,,,,,,,,,,,,,,,,,,,,,,,,,,,,,,,,,,,,,
1720077094,33,0,4532.94873,4481.538574,4248.846191,4405.512695,4396.794922,4430.128418,4377.563965,4373.717773,4282.820313,4291.410156,4249.871582,4443.077148,4151.794922,4230.256348,,,,,,,,,,,,,,,,,,,,,,,,,,,,,,,,,,,,,,,,,,,,,,,,,,,,,,,,,,,,,,,,,,,,,,
1720077094,34,0,4516.922852,4480.256348,4236.410156,4411.794922,4400.256348,4431.153809,4381.153809,4371.666504,4293.461426,4297.820313,4244.102539,4440.128418,4142.94873,4231.410156,,,,,,,,,,,,,,,,,,,,,,,,,,,,,,,,,,,,,,,,,,,,,,,,,,,,,,,,,,,,,,,,,,,,,,
1720077094,35,0,4505.256348,4478.077148,4239.743652,4413.333496,4395.769043,4431.282227,4376.922852,4369.871582,4290.641113,4293.333496,4249.487305,4439.743652,4141.410156,4227.563965,,,,,,,,,,,,,,,,,,,,,,,,,,,,,,,,,,,,,,,,,,,,,,,,,,,,,,,,,,,,,,,,,,,,,,
1720077094,36,0,4511.153809,4478.205078,4241.922852,4412.563965,4397.820313,4437.05127,4374.358887,4359.358887,4290.128418,4296.282227,4247.307617,4441.922852,4147.179688,4228.333496,,,,,,,,,,,,,,,,,,,,,,,,,,,,,,,,,,,,,,,,,,,,,,,,,,,,,,,,,,,,,,,,,,,,,,
1720077094,37,0,4509.615234,4482.563965,4240.897461,4410.128418,4401.282227,4446.922852,4385.128418,4367.436035,4282.563965,4296.025879,4245.512695,4448.589844,4146.794922,4246.153809,,,,,,,,,,,,,,,,,,,,,,,,,,,,,,,,,,,,,,,,,,,,,,,,,,,,,,,,,,,,,,,,,,,,,,
1720077094,38,0,4512.436035,4489.615234,4248.205078,4416.410156,4403.717773,4446.538574,4397.436035,4381.666504,4264.743652,4289.615234,4253.333496,4473.589844,4150.897461,4261.153809,,,,,,,,,,,,,,,,,,,,,,,,,,,,,,,,,,,,,,,,,,,,,,,,,,,,,,,,,,,,,,,,,,,,,,
1720077094,39,0,4537.307617,4493.589844,4258.333496,4432.820313,4407.436035,4432.563965,4399.230957,4369.102539,4266.410156,4296.282227,4269.230957,4487.05127,4177.563965,4257.820313,,,,,,,,,,,,,,,,,,,,,,,,,,,,,,,,,,,,,,,,,,,,,,,,,,,,,,,,,,,,,,,,,,,,,,
1720077094,40,0,4531.153809,4489.358887,4257.179688,4438.589844,4404.358887,4423.974121,4398.461426,4375.512695,4297.692383,4314.871582,4284.871582,4485.128418,4178.589844,4264.358887,,,,,,,,,,,,,,,,,,,,,,,,,,,,,,,,,,,,,,,,,,,,,,,,,,,,,,,,,,,,,,,,,,,,,,
1720077094,41,0,4491.282227,4479.102539,4241.025879,4430.897461,4395,4430.897461,4395.641113,4382.307617,4320.256348,4325,4275.128418,4474.230957,4157.563965,4264.230957,,,,,,,,,,,,,,,,,,,,,,,,,,,,,,,,,,,,,,,,,,,,,,,,,,,,,,,,,,,,,,,,,,,,,,
1720077094,42,0,4492.820313,4466.794922,4232.05127,4424.743652,4390.641113,4439.615234,4389.102539,4359.102539,4308.461426,4310,4251.794922,4467.179688,4154.871582,4234.743652,,,,,,,,,,,,,,,,,,,,,,,,,,,,,,,,,,,,,,,,,,,,,,,,,,,,,,,,,,,,,,,,,,,,,,
1720077094,43,0,4526.410156,4466.794922,4245.384766,4433.077148,4400.256348,4448.205078,4389.743652,4353.077148,4294.743652,4292.436035,4250.897461,4470.641113,4151.282227,4215,75.042542,4.683859,7.617691,1.69221,0.800333,9.255404,0.179282,1.452164,0.802931,0.632181,25.279688,1.909226,1.879546,1.145939,0.546243,11.311563,1.335674,1.069306,0.944077,0.70538,2.031962,0.313943,0.30593,0.455213,0.326519,2.56432,0.544561,0.779944,0.354893,0.217862,3.697814,0.770855,1.031012,0.752384,0.233513,4.430151,0.876633,1.206379,0.859048,0.353144,2.69554,0.653083,3.347347,1.779857,0.201606,2.716897,0.371633,1.573134,0.899657,0.37635,17.666994,1.220051,1.149911,1.76083,1.113952,26.581533,3.882095,3.338597,2.751446,2.381343,17.128822,3.149457,1.245849,1.721485,1.517977,103.191238,7.385869,2.650199,2.611923,1.384056
1720077094,44,0,4534.743652,4476.282227,4254.615234,4440.512695,4410.897461,4455,4396.025879,4360.128418,4293.461426,4298.717773,4267.179688,4449.102539,4160.256348,4221.666504,,,,,,,,,,,,,,,,,,,,,,,,,,,,,,,,,,,,,,,,,,,,,,,,,,,,,,,,,,,,,,,,,,,,,,
1720077094,45,0,4522.692383,4477.05127,4245.769043,4431.153809,4403.205078,4454.102539,4396.922852,4358.461426,4286.153809,4303.333496,4281.922852,4421.410156,4202.05127,4229.615234,,,,,,,,,,,,,,,,,,,,,,,,,,,,,,,,,,,,,,,,,,,,,,,,,,,,,,,,,,,,,,,,,,,,,,
1720077094,46,0,4511.410156,4478.333496,4241.794922,4423.205078,4386.025879,4446.922852,4398.077148,4361.282227,4286.282227,4298.461426,4294.871582,4422.692383,4231.794922,4233.846191,,,,,,,,,,,,,,,,,,,,,,,,,,,,,,,,,,,,,,,,,,,,,,,,,,,,,,,,,,,,,,,,,,,,,,
1720077094,47,0,4506.153809,4485.128418,4248.077148,4428.205078,4386.282227,4436.282227,4400.256348,4367.436035,4309.487305,4311.922852,4288.846191,4454.615234,4214.358887,4241.410156,,,,,,,,,,,,,,,,,,,,,,,,,,,,,,,,,,,,,,,,,,,,,,,,,,,,,,,,,,,,,,,,,,,,,,
1720077094,48,0,4502.436035,4481.410156,4252.436035,4428.333496,4395.128418,4430.641113,4398.333496,4366.922852,4326.922852,4326.794922,4273.846191,4467.05127,4208.974121,4244.487305,,,,,,,,,,,,,,,,,,,,,,,,,,,,,,,,,,,,,,,,,,,,,,,,,,,,,,,,,,,,,,,,,,,,,,
1720077094,49,0,4484.102539,4474.615234,4254.102539,4426.666504,4400.128418,4444.358887,4400.897461,4370,4321.922852,4320.384766,4274.230957,4448.333496,4228.205078,4250,,,,,,,,,,,,,,,,,,,,,,,,,,,,,,,,,,,,,,,,,,,,,,,,,,,,,,,,,,,,,,,,,,,,,,
1720077094,50,0,4463.333496,4475.256348,4247.307617,4428.589844,4408.077148,4462.307617,4402.820313,4354.743652,4312.563965,4312.179688,4271.666504,4428.333496,4233.205078,4240.384766,,,,,,,,,,,,,,,,,,,,,,,,,,,,,,,,,,,,,,,,,,,,,,,,,,,,,,,,,,,,,,,,,,,,,,
1720077094,51,0,4476.282227,4469.615234,4242.05127,4429.230957,4414.102539,4459.871582,4399.102539,4337.94873,4300,4301.666504,4263.333496,4421.025879,4223.205078,4221.922852,,,,,,,,,,,,,,,,,,,,,,,,,,,,,,,,,,,,,,,,,,,,,,,,,,,,,,,,,,,,,,,,,,,,,,
1720077094,52,0,4515.384766,4468.333496,4257.179688,4441.666504,4414.102539,4457.820313,4407.05127,4355.897461,4293.333496,4292.820313,4283.589844,4443.846191,4226.538574,4247.820313,,,,,,,,,,,,,,,,,,,,,,,,,,,,,,,,,,,,,,,,,,,,,,,,,,,,,,,,,,,,,,,,,,,,,,
1720077094,53,0,4533.077148,4479.358887,4270,4445.128418,4408.974121,4467.05127,4418.846191,4363.589844,4303.077148,4302.179688,4305.769043,4451.410156,4261.153809,4275.384766,,,,,,,,,,,,,,,,,,,,,,,,,,,,,,,,,,,,,,,,,,,,,,,,,,,,,,,,,,,,,,,,,,,,,,
1720077094,54,0,4509.358887,4477.179688,4255.384766,4413.974121,4398.461426,4458.717773,4409.615234,4349.743652,4311.153809,4309.230957,4292.179688,4436.410156,4274.615234,4269.230957,,,,,,,,,,,,,,,,,,,,,,,,,,,,,,,,,,,,,,,,,,,,,,,,,,,,,,,,,,,,,,,,,,,,,,
1720077094,55,0,4488.846191,4471.538574,4246.538574,4397.307617,4391.794922,4436.922852,4394.871582,4345.897461,4317.179688,4316.538574,4290.256348,4434.102539,4263.077148,4275.769043,,,,,,,,,,,,,,,,,,,,,,,,,,,,,,,,,,,,,,,,,,,,,,,,,,,,,,,,,,,,,,,,,,,,,,
1720077094,56,0,4488.077148,4473.974121,4258.589844,4422.307617,4400.641113,4436.538574,4402.307617,4351.666504,4326.922852,4333.461426,4310.128418,4432.94873,4271.025879,4286.538574,,,,,,,,,,,,,,,,,,,,,,,,,,,,,,,,,,,,,,,,,,,,,,,,,,,,,,,,,,,,,,,,,,,,,,
1720077094,57,0,4466.794922,4465,4257.692383,4429.487305,4412.307617,4453.589844,4413.974121,4353.717773,4328.461426,4333.333496,4294.743652,4418.461426,4273.974121,4262.179688,,,,,,,,,,,,,,,,,,,,,,,,,,,,,,,,,,,,,,,,,,,,,,,,,,,,,,,,,,,,,,,,,,,,,,
1720077094,58,0,4447.692383,4454.743652,4242.307617,4414.871582,4413.077148,4462.692383,4414.358887,4352.307617,4322.307617,4319.615234,4269.230957,4407.436035,4258.846191,4243.461426,,,,,,,,,,,,,,,,,,,,,,,,,,,,,,,,,,,,,,,,,,,,,,,,,,,,,,,,,,,,,,,,,,,,,,
1720077094,59,0,4473.461426,4458.333496,4245.512695,4418.461426,4417.436035,4465.897461,4414.487305,4355.512695,4319.487305,4320.641113,4277.179688,4425.897461,4262.820313,4247.307617,74.714806,4.353611,8.654941,1.614722,0.742317,9.645713,0.226656,1.742613,0.675656,0.592899,24.26247,1.774701,2.075429,1.034879,0.60132,11.476071,1.378214,1.431348,0.736991,0.739401,1.915061,0.306151,0.229771,0.391984,0.31621,2.232886,0.524117,0.6527,0.253585,0.208339,3.339101,0.719533,0.83103,0.587596,0.229424,4.095839,0.795339,0.986819,0.647399,0.339442,2.34009,0.474214,1.989328,1.294367,0.182984,2.469754,0.366072,0.98944,0.753641,0.333634,15.724926,1.066574,1.428905,1.430273,1.129784,24.793274,3.396897,3.278713,2.053327,2.250014,14.676146,2.341168,1.521788,1.545824,1.457213,94.851685,5.818518,2.637193,1.935546,1.357336
1720077094,60,0,4497.820313,4459.871582,4259.230957,4422.307617,4424.615234,4468.974121,4406.922852,4356.025879,4317.307617,4320.256348,4280.897461,4432.05127,4284.487305,4254.615234,,,,,,,,,,,,,,,,,,,,,,,,,,,,,,,,,,,,,,,,,,,,,,,,,,,,,,,,,,,,,,,,,,,,,,
1720077094,61,0,4499.230957,4455.256348,4263.461426,4418.333496,4420.512695,4469.615234,4390.641113,4354.743652,4318.846191,4313.717773,4297.307617,4411.153809,4296.282227,4264.615234,,,,,,,,,,,,,,,,,,,,,,,,,,,,,,,,,,,,,,,,,,,,,,,,,,,,,,,,,,,,,,,,,,,,,,
1720077094,62,0,4505.512695,4456.922852,4266.410156,4421.666504,4413.589844,4470.128418,4390.512695,4358.205078,4327.179688,4325.769043,4329.871582,4426.410156,4305.769043,4262.179688,,,,,,,,,,,,,,,,,,,,,,,,,,,,,,,,,,,,,,,,,,,,,,,,,,,,,,,,,,,,,,,,,,,,,,
1720077095,63,0,4500.256348,4460.897461,4268.717773,4420.384766,4407.179688,4461.282227,4398.461426,4361.794922,4335.769043,4345.384766,4317.307617,4450.769043,4314.615234,4265.128418,,,,,,,,,,,,,,,,,,,,,,,,,,,,,,,,,,,,,,,,,,,,,,,,,,,,,,,,,,,,,,,,,,,,,,
1720077095,64,0,4479.615234,4459.743652,4265.512695,4409.230957,4396.410156,4446.538574,4394.743652,4352.820313,4345.128418,4348.846191,4286.025879,4417.563965,4313.333496,4275.256348,,,,,,,,,,,,,,,,,,,,,,,,,,,,,,,,,,,,,,,,,,,,,,,,,,,,,,,,,,,,,,,,,,,,,,
1720077095,65,0,4469.871582,4460.769043,4270,4412.563965,4399.487305,4450.384766,4391.666504,4350.512695,4344.230957,4334.230957,4290,4405.384766,4311.153809,4268.077148,,,,,,,,,,,,,,,,,,,,,,,,,,,,,,,,,,,,,,,,,,,,,,,,,,,,,,,,,,,,,,,,,,,,,,
1720077095,66,0,4474.743652,4466.282227,4275.769043,4419.615234,4413.461426,4462.307617,4392.820313,4353.077148,4330,4322.05127,4305.897461,4436.794922,4316.922852,4282.692383,,,,,,,,,,,,,,,,,,,,,,,,,,,,,,,,,,,,,,,,,,,,,,,,,,,,,,,,,,,,,,,,,,,,,,
1720077095,67,0,4479.487305,4466.922852,4271.025879,4404.102539,4418.333496,4458.974121,4391.538574,4335.641113,4325.641113,4320.897461,4292.307617,4429.871582,4311.794922,4305,,,,,,,,,,,,,,,,,,,,,,,,,,,,,,,,,,,,,,,,,,,,,,,,,,,,,,,,,,,,,,,,,,,,,,
1720077095,68,0,4478.077148,4458.846191,4266.922852,4383.077148,4418.077148,4457.05127,4393.974121,4330,4324.230957,4305.641113,4283.077148,4399.871582,4312.436035,4291.025879,,,,,,,,,,,,,,,,,,,,,,,,,,,,,,,,,,,,,,,,,,,,,,,,,,,,,,,,,,,,,,,,,,,,,,
1720077095,69,0,4482.692383,4455.256348,4266.794922,4382.436035,4416.922852,4464.230957,4398.974121,4338.717773,4318.077148,4290.769043,4284.487305,4382.820313,4323.333496,4286.282227,,,,,,,,,,,,,,,,,,,,,,,,,,,,,,,,,,,,,,,,,,,,,,,,,,,,,,,,,,,,,,,,,,,,,,
1720077095,70,0,4492.436035,4459.358887,4271.025879,4399.230957,4409.358887,4464.615234,4404.871582,4337.94873,4329.743652,4309.743652,4279.871582,4369.230957,4326.538574,4311.025879,,,,,,,,,,,,,,,,,,,,,,,,,,,,,,,,,,,,,,,,,,,,,,,,,,,,,,,,,,,,,,,,,,,,,,
1720077095,71,0,4479.358887,4453.333496,4277.179688,4399.487305,4407.179688,4458.974121,4407.05127,4343.717773,4350.897461,4337.179688,4281.282227,4385.769043,4331.666504,4317.692383,,,,,,,,,,,,,,,,,,,,,,,,,,,,,,,,,,,,,,,,,,,,,,,,,,,,,,,,,,,,,,,,,,,,,,
1720077095,72,0,4452.692383,4449.487305,4284.743652,4390,4419.615234,4467.563965,4409.871582,4351.538574,4356.794922,4342.05127,4294.871582,4410.512695,4350.384766,4316.666504,,,,,,,,,,,,,,,,,,,,,,,,,,,,,,,,,,,,,,,,,,,,,,,,,,,,,,,,,,,,,,,,,,,,,,
1720077095,73,0,4454.102539,4464.615234,4299.230957,4397.820313,4428.205078,4479.615234,4419.230957,4350.256348,4354.102539,4335.897461,4308.589844,4416.666504,4366.666504,4330.256348,,,,,,,,,,,,,,,,,,,,,,,,,,,,,,,,,,,,,,,,,,,,,,,,,,,,,,,,,,,,,,,,,,,,,,
1720077095,74,0,4458.846191,4466.282227,4300.641113,4396.282227,4420.128418,4472.307617,4421.538574,4351.922852,4355.256348,4330.769043,4291.282227,4434.358887,4356.794922,4324.102539,,,,,,,,,,,,,,,,,,,,,,,,,,,,,,,,,,,,,,,,,,,,,,,,,,,,,,,,,,,,,,,,,,,,,,
1720077095,75,0,4449.871582,4453.717773,4286.794922,4382.94873,4409.615234,4458.846191,4415,4349.871582,4356.410156,4329.615234,4292.692383,4416.025879,4364.871582,4317.05127,65.11982,3.900659,9.371279,1.641729,0.679266,9.121944,0.329111,2.128281,0.609608,0.558132,20.715157,1.674944,2.439149,1.008122,0.638822,10.782567,1.38358,1.854641,0.64573,0.783968,1.659971,0.291867,0.178823,0.346521,0.301395,1.789685,0.509035,0.605733,0.208699,0.19771,2.694943,0.662902,0.674,0.496181,0.22471,3.383734,0.693004,0.789618,0.497715,0.333924,1.973533,0.391975,1.133465,1.039221,0.187779,2.263728,0.432767,0.624812,0.703228,0.331695,12.88833,0.95855,1.771386,1.181047,1.072864,20.507263,2.801674,3.303492,1.529842,2.021304,11.817666,1.637784,1.918019,1.447436,1.303953,77.748779,4.183513,2.890255,1.483396,1.264055
1720077095,76,0,4462.820313,4465.512695,4287.436035,4391.794922,4413.974121,4459.487305,4416.153809,4340.769043,4357.94873,4335,4325,4379.615234,4388.589844,4331.794922,,,,,,,,,,,,,,,,,,,,,,,,,,,,,,,,,,,,,,,,,,,,,,,,,,,,,,,,,,,,,,,,,,,,,,
1720077095,77,0,4482.179688,4479.102539,4294.743652,4402.436035,4424.102539,4468.461426,4421.025879,4347.307617,4360,4341.410156,4316.666504,4405.897461,4374.615234,4330.128418,,,,,,,,,,,,,,,,,,,,,,,,,,,,,,,,,,,,,,,,,,,,,,,,,,,,,,,,,,,,,,,,,,,,,,
1720077095,78,0,4479.487305,4465.641113,4284.487305,4390.897461,4428.077148,4473.205078,4418.974121,4346.666504,4353.461426,4335.384766,4280.512695,4406.410156,4357.05127,4314.102539,,,,,,,,,,,,,,,,,,,,,,,,,,,,,,,,,,,,,,,,,,,,,,,,,,,,,,,,,,,,,,,,,,,,,,
1720077095,79,0,4474.230957,4462.307617,4283.333496,4389.487305,4430.769043,4473.846191,4420.641113,4336.538574,4347.436035,4326.025879,4292.692383,4366.794922,4376.025879,4318.333496,,,,,,,,,,,,,,,,,,,,,,,,,,,,,,,,,,,,,,,,,,,,,,,,,,,,,,,,,,,,,,,,,,,,,,
1720077095,80,0,4470.384766,4477.820313,4296.666504,4401.282227,4430.384766,4474.230957,4434.230957,4348.974121,4354.871582,4326.025879,4326.025879,4380.897461,4389.358887,4330.769043,,,,,,,,,,,,,,,,,,,,,,,,,,,,,,,,,,,,,,,,,,,,,,,,,,,,,,,,,,,,,,,,,,,,,,
1720077095,81,0,4449.615234,4469.487305,4296.794922,4395.256348,4424.615234,4479.230957,4444.358887,4357.307617,4367.05127,4328.974121,4311.538574,4424.102539,4367.820313,4333.717773,,,,,,,,,,,,,,,,,,,,,,,,,,,,,,,,,,,,,,,,,,,,,,,,,,,,,,,,,,,,,,,,,,,,,,
1720077095,82,0,4427.94873,4444.230957,4285.897461,4378.205078,4416.153809,4475.256348,4439.230957,4346.538574,4360.897461,4329.230957,4303.077148,4414.871582,4371.410156,4336.025879,,,,,,,,,,,,,,,,,,,,,,,,,,,,,,,,,,,,,,,,,,,,,,,,,,,,,,,,,,,,,,,,,,,,,,
1720077095,83,0,4428.077148,4446.153809,4283.077148,4371.922852,4416.666504,4461.282227,4430.769043,4335.384766,4347.563965,4337.307617,4320.641113,4375.256348,4402.692383,4342.692383,,,,,,,,,,,,,,,,,,,,,,,,,,,,,,,,,,,,,,,,,,,,,,,,,,,,,,,,,,,,,,,,,,,,,,
1720077095,84,0,4443.589844,4463.461426,4295.128418,4380.769043,4425.384766,4465.128418,4436.025879,4342.436035,4354.487305,4347.692383,4316.538574,4377.05127,4405.769043,4348.974121,,,,,,,,,,,,,,,,,,,,,,,,,,,,,,,,,,,,,,,,,,,,,,,,,,,,,,,,,,,,,,,,,,,,,,
1720077095,85,0,4459.358887,4465.769043,4307.05127,4390.128418,4429.487305,4472.820313,4443.461426,4356.282227,4370.384766,4342.692383,4305.384766,4411.410156,4389.487305,4346.538574,,,,,,,,,,,,,,,,,,,,,,,,,,,,,,,,,,,,,,,,,,,,,,,,,,,,,,,,,,,,,,,,,,,,,,
1720077095,86,0,4464.871582,4460,4304.743652,4392.94873,4430.897461,4466.538574,4444.743652,4353.461426,4374.358887,4340.384766,4316.666504,4410.512695,4391.410156,4343.461426,,,,,,,,,,,,,,,,,,,,,,,,,,,,,,,,,,,,,,,,,,,,,,,,,,,,,,,,,,,,,,,,,,,,,,
1720077095,87,0,4454.358887,4449.871582,4291.922852,4381.794922,4424.743652,4458.333496,4437.94873,4338.974121,4358.333496,4331.922852,4304.487305,4366.922852,4382.692383,4341.282227,,,,,,,,,,,,,,,,,,,,,,,,,,,,,,,,,,,,,,,,,,,,,,,,,,,,,,,,,,,,,,,,,,,,,,
1720077095,88,0,4433.205078,4427.179688,4275.128418,4359.358887,4409.615234,4450,4420.128418,4318.974121,4335.128418,4304.102539,4251.153809,4340,4346.282227,4319.743652,,,,,,,,,,,,,,,,,,,,,,,,,,,,,,,,,,,,,,,,,,,,,,,,,,,,,,,,,,,,,,,,,,,,,,
1720077095,89,0,4418.846191,4418.333496,4276.666504,4358.333496,4409.615234,4447.307617,4418.589844,4313.974121,4337.05127,4306.794922,4255.128418,4353.205078,4356.025879,4315.897461,,,,,,,,,,,,,,,,,,,,,,,,,,,,,,,,,,,,,,,,,,,,,,,,,,,,,,,,,,,,,,,,,,,,,,
1720077095,90,0,4419.871582,4437.563965,4297.94873,4381.538574,4426.410156,4465.897461,4440,4330.256348,4356.922852,4336.794922,4322.436035,4374.487305,4413.333496,4352.05127,,,,,,,,,,,,,,,,,,,,,,,,,,,,,,,,,,,,,,,,,,,,,,,,,,,,,,,,,,,,,,,,,,,,,,
1720077095,91,0,4427.05127,4446.794922,4304.871582,4388.461426,4431.666504,4480.641113,4447.820313,4337.05127,4358.974121,4335.384766,4328.205078,4381.153809,4417.436035,4363.589844,49.314728,3.445944,9.480464,1.756613,0.627027,7.951361,0.480184,2.499844,0.601596,0.530099,15.868006,1.608086,2.835245,1.023173,0.644483,9.604773,1.368736,2.208631,0.6488,0.834348,1.365246,0.272288,0.165142,0.336381,0.283934,1.371556,0.496095,0.639268,0.235332,0.186745,2.011843,0.623121,0.598527,0.472865,0.217289,2.574945,0.588804,0.660426,0.424689,0.332698,1.689446,0.417524,0.844642,1.142847,0.211822,2.169211,0.544295,0.511411,0.789159,0.36222,10.013593,0.909608,2.082253,1.0829,0.96708,15.065289,2.247532,3.373949,1.205905,1.75959,9.143828,1.181105,2.352867,1.465946,1.111741,56.646297,2.920565,3.321847,1.334165,1.123578
1720077095,92,0,4437.563965,4442.179688,4300,4379.871582,4428.333496,4471.794922,4444.358887,4330.641113,4356.794922,4323.589844,4288.974121,4383.717773,4388.077148,4352.94873,,,,,,,,,,,,,,,,,,,,,,,,,,,,,,,,,,,,,,,,,,,,,,,,,,,,,,,,,,,,,,,,,,,,,,
1720077095,93,0,4454.487305,4451.025879,4313.974121,4384.487305,4432.94873,4473.717773,4455.641113,4343.717773,4381.538574,4346.922852,4312.05127,4408.461426,4404.230957,4369.102539,,,,,,,,,,,,,,,,,,,,,,,,,,,,,,,,,,,,,,,,,,,,,,,,,,,,,,,,,,,,,,,,,,,,,,
1720077095,94,0,4455.897461,4449.743652,4323.717773,4384.230957,4433.077148,4485.128418,4465.512695,4359.230957,4401.282227,4366.922852,4349.358887,4417.563965,4435.512695,4383.589844,,,,,,,,,,,,,,,,,,,,,,,,,,,,,,,,,,,,,,,,,,,,,,,,,,,,,,,,,,,,,,,,,,,,,,
1720077095,95,0,4450.897461,4440.512695,4319.871582,4378.333496,4427.05127,4474.743652,4457.307617,4339.102539,4393.974121,4356.922852,4334.358887,4393.974121,4443.717773,4383.846191,,,,,,,,,,,,,,,,,,,,,,,,,,,,,,,,,,,,,,,,,,,,,,,,,,,,,,,,,,,,,,,,,,,,,,
1720077095,96,0,4459.487305,4454.871582,4329.230957,4381.794922,4426.153809,4457.05127,4446.153809,4330.512695,4383.333496,4344.102539,4322.179688,4401.666504,4434.871582,4388.717773,,,,,,,,,,,,,,,,,,,,,,,,,,,,,,,,,,,,,,,,,,,,,,,,,,,,,,,,,,,,,,,,,,,,,,
1720077095,97,0,4451.922852,4461.410156,4333.077148,4371.410156,4428.846191,4455.897461,4443.717773,4343.461426,4377.05127,4341.282227,4336.282227,4419.358887,4431.153809,4391.794922,,,,,,,,,,,,,,,,,,,,,,,,,,,,,,,,,,,,,,,,,,,,,,,,,,,,,,,,,,,,,,,,,,,,,,
1720077095,98,0,4434.615234,4446.538574,4319.487305,4353.846191,4426.410156,4464.743652,4449.230957,4334.102539,4372.05127,4344.358887,4335.897461,4388.974121,4442.94873,4392.820313,,,,,,,,,,,,,,,,,,,,,,,,,,,,,,,,,,,,,,,,,,,,,,,,,,,,,,,,,,,,,,,,,,,,,,
1720077095,99,0,4440,4448.846191,4313.589844,4355.512695,4421.922852,4472.307617,4456.538574,4327.94873,4375.256348,4341.922852,4326.025879,4367.563965,4444.871582,4387.436035,,,,,,,,,,,,,,,,,,,,,,,,,,,,,,,,,,,,,,,,,,,,,,,,,,,,,,,,,,,,,,,,,,,,,,
1720077095,100,0,4456.794922,4462.692383,4317.94873,4373.077148,4426.538574,4484.102539,4461.153809,4340.512695,4384.487305,4341.410156,4324.487305,4382.94873,4428.461426,4371.410156,,,,,,,,,,,,,,,,,,,,,,,,,,,,,,,,,,,,,,,,,,,,,,,,,,,,,,,,,,,,,,,,,,,,,,
1720077095,101,0,4458.717773,4460.641113,4319.871582,4376.666504,4434.871582,4490.641113,4460.769043,4338.461426,4390.256348,4348.461426,4328.974121,4388.974121,4431.666504,4372.692383,,,,,,,,,,,,,,,,,,,,,,,,,,,,,,,,,,,,,,,,,,,,,,,,,,,,,,,,,,,,,,,,,,,,,,
1720077095,102,0,4455.256348,4457.563965,4318.333496,4357.94873,4432.692383,4481.025879,4448.846191,4326.410156,4386.794922,4346.794922,4333.077148,4375,4457.692383,4396.538574,,,,,,,,,,,,,,,,,,,,,,,,,,,,,,,,,,,,,,,,,,,,,,,,,,,,,,,,,,,,,,,,,,,,,,
1720077095,103,0,4457.05127,4460.769043,4315.512695,4342.563965,4425.769043,4466.922852,4437.94873,4326.282227,4382.692383,4349.102539,4320.128418,4374.230957,4445.897461,4404.102539,,,,,,,,,,,,,,,,,,,,,,,,,,,,,,,,,,,,,,,,,,,,,,,,,,,,,,,,,,,,,,,,,,,,,,
1720077095,104,0,4460.641113,4466.922852,4320.897461,4351.922852,4427.179688,4460.384766,4447.692383,4325.641113,4390,4368.846191,4313.974121,4387.307617,4419.871582,4396.153809,,,,,,,,,,,,,,,,,,,,,,,,,,,,,,,,,,,,,,,,,,,,,,,,,,,,,,,,,,,,,,,,,,,,,,
1720077095,105,0,4458.846191,4473.333496,4334.358887,4377.307617,4430.512695,4463.974121,4464.743652,4334.615234,4396.666504,4374.102539,4330.384766,4392.563965,4425,4396.153809,,,,,,,,,,,,,,,,,,,,,,,,,,,,,,,,,,,,,,,,,,,,,,,,,,,,,,,,,,,,,,,,,,,,,,
1720077095,106,0,4440.641113,4457.179688,4323.717773,4380.641113,4429.487305,4464.871582,4459.358887,4334.358887,4383.717773,4354.615234,4333.333496,4373.974121,4423.974121,4386.794922,,,,,,,,,,,,,,,,,,,,,,,,,,,,,,,,,,,,,,,,,,,,,,,,,,,,,,,,,,,,,,,,,,,,,,
1720077095,107,0,4425.384766,4439.102539,4306.666504,4361.666504,4426.666504,4463.205078,4447.692383,4316.666504,4371.666504,4344.743652,4315,4362.563965,4396.666504,4360.641113,32.244301,3.044136,8.961816,1.968256,0.603596,6.506328,0.6485,2.738571,0.631342,0.505123,11.15237,1.525798,3.07992,1.027278,0.616302,8.265015,1.335679,2.376687,0.695727,0.882122,1.105598,0.253754,0.205041,0.371803,0.26462,1.039263,0.485918,0.747129,0.331526,0.179339,1.521854,0.60956,0.599704,0.493352,0.206058,1.895779,0.513342,0.611339,0.418831,0.332308,1.574139,0.52263,0.968028,1.606476,0.245923,2.212231,0.662021,0.597813,1.01142,0.406521,7.66692,0.885249,2.300309,1.165691,0.860724,9.849596,1.882147,3.45371,1.070721,1.530912,7.150513,0.968174,2.733346,1.607569,0.94061,36.748882,2.220152,3.746132,1.457358,0.964174
1720077095,108,0,4421.922852,4442.94873,4310.897461,4353.461426,4421.922852,4465.641113,4455.641113,4323.974121,4382.05127,4354.743652,4305.641113,4380.769043,4380.128418,4346.538574,,,,,,,,,,,,,,,,,,,,,,,,,,,,,,,,,,,,,,,,,,,,,,,,,,,,,,,,,,,,,,,,,,,,,,
1720077095,109,0,4425.641113,4440.641113,4313.846191,4355.256348,4412.820313,4462.94873,4461.538574,4335.384766,4398.846191,4367.820313,4313.205078,4385.384766,4401.410156,4356.922852,,,,,,,,,,,,,,,,,,,,,,,,,,,,,,,,,,,,,,,,,,,,,,,,,,,,,,,,,,,,,,,,,,,,,,
1720077095,110,0,4439.487305,4431.922852,4311.922852,4351.794922,4410.769043,4453.846191,4452.692383,4330.128418,4401.282227,4371.282227,4337.94873,4372.563965,4431.666504,4372.820313,,,,,,,,,,,,,,,,,,,,,,,,,,,,,,,,,,,,,,,,,,,,,,,,,,,,,,,,,,,,,,,,,,,,,,
1720077095,111,0,4446.153809,4436.666504,4310.384766,4349.102539,4422.94873,4453.717773,4447.563965,4317.820313,4390,4364.615234,4349.487305,4373.846191,4418.205078,4360.384766,,,,,,,,,,,,,,,,,,,,,,,,,,,,,,,,,,,,,,,,,,,,,,,,,,,,,,,,,,,,,,,,,,,,,,
1720077095,112,0,4452.179688,4447.436035,4311.025879,4365.897461,4430.641113,4462.94873,4449.358887,4308.461426,4379.615234,4353.717773,4317.820313,4379.743652,4386.794922,4334.102539,,,,,,,,,,,,,,,,,,,,,,,,,,,,,,,,,,,,,,,,,,,,,,,,,,,,,,,,,,,,,,,,,,,,,,
1720077095,113,0,4464.487305,4448.077148,4315,4381.410156,4424.615234,4462.05127,4445.512695,4306.538574,4374.615234,4338.974121,4293.974121,4370.512695,4399.743652,4331.153809,,,,,,,,,,,,,,,,,,,,,,,,,,,,,,,,,,,,,,,,,,,,,,,,,,,,,,,,,,,,,,,,,,,,,,
1720077095,114,0,4457.563965,4439.102539,4313.333496,4373.205078,4427.307617,4450.769043,4441.538574,4303.846191,4373.589844,4335.897461,4301.794922,4358.461426,4415.641113,4331.538574,,,,,,,,,,,,,,,,,,,,,,,,,,,,,,,,,,,,,,,,,,,,,,,,,,,,,,,,,,,,,,,,,,,,,,
1720077095,115,0,4430,4428.205078,4297.05127,4356.410156,4428.846191,4444.102539,4442.563965,4304.358887,4379.230957,4354.743652,4293.974121,4352.563965,4382.94873,4310.128418,,,,,,,,,,,,,,,,,,,,,,,,,,,,,,,,,,,,,,,,,,,,,,,,,,,,,,,,,,,,,,,,,,,,,,
1720077095,116,0,4418.205078,4423.846191,4282.94873,4349.487305,4411.666504,4442.692383,4442.563965,4309.615234,4389.743652,4362.94873,4278.333496,4345.512695,4373.205078,4300.641113,,,,,,,,,,,,,,,,,,,,,,,,,,,,,,,,,,,,,,,,,,,,,,,,,,,,,,,,,,,,,,,,,,,,,,
1720077095,117,0,4426.153809,4428.077148,4286.666504,4355.897461,4402.436035,4438.846191,4442.436035,4310.128418,4390.897461,4348.974121,4287.94873,4342.692383,4403.333496,4315.128418,,,,,,,,,,,,,,,,,,,,,,,,,,,,,,,,,,,,,,,,,,,,,,,,,,,,,,,,,,,,,,,,,,,,,,
1720077095,118,0,4423.205078,4427.179688,4293.205078,4354.871582,4410,4433.461426,4441.538574,4303.461426,4379.871582,4345.897461,4290.769043,4344.743652,4396.025879,4322.05127,,,,,,,,,,,,,,,,,,,,,,,,,,,,,,,,,,,,,,,,,,,,,,,,,,,,,,,,,,,,,,,,,,,,,,
1720077095,119,0,4412.307617,4422.436035,4297.820313,4350.256348,4411.410156,4434.230957,4441.282227,4303.333496,4371.794922,4349.102539,4276.922852,4350.897461,4371.922852,4326.794922,,,,,,,,,,,,,,,,,,,,,,,,,,,,,,,,,,,,,,,,,,,,,,,,,,,,,,,,,,,,,,,,,,,,,,
1720077095,120,0,4410.897461,4425.384766,4300.897461,4360.769043,4411.282227,4435.256348,4442.05127,4303.717773,4377.692383,4343.717773,4286.666504,4355.384766,4394.487305,4339.230957,,,,,,,,,,,,,,,,,,,,,,,,,,,,,,,,,,,,,,,,,,,,,,,,,,,,,,,,,,,,,,,,,,,,,,
1720077095,121,0,4416.282227,4427.563965,4299.487305,4366.282227,4413.717773,4429.743652,4441.794922,4303.846191,4390.897461,4347.05127,4300.128418,4351.538574,4414.487305,4340.769043,,,,,,,,,,,,,,,,,,,,,,,,,,,,,,,,,,,,,,,,,,,,,,,,,,,,,,,,,,,,,,,,,,,,,,
1720077095,122,0,4410.897461,4421.153809,4291.794922,4349.230957,4409.615234,4428.205078,4443.077148,4313.461426,4394.743652,4350.769043,4293.333496,4347.94873,4394.230957,4328.205078,,,,,,,,,,,,,,,,,,,,,,,,,,,,,,,,,,,,,,,,,,,,,,,,,,,,,,,,,,,,,,,,,,,,,,
1720077095,123,0,4403.077148,4415.128418,4289.102539,4337.692383,4416.410156,4436.153809,4450.769043,4315.256348,4396.794922,4344.871582,4287.563965,4359.358887,4382.307617,4322.307617,18.129005,2.668779,8.094887,2.302373,0.618313,5.132194,0.793088,2.768196,0.679362,0.479991,7.474265,1.386019,3.045018,0.991598,0.565801,7.036234,1.281371,2.304473,0.744106,0.92069,0.927284,0.246259,0.30896,0.453799,0.244281,0.821999,0.477511,0.929789,0.482558,0.181272,1.290048,0.615063,0.638943,0.535851,0.194789,1.448678,0.490676,0.620967,0.458288,0.333423,1.546442,0.656947,1.27549,2.285834,0.284397,2.273207,0.762403,0.823987,1.324468,0.449525,6.01218,0.851315,2.424518,1.402991,0.822625,5.949892,1.810189,3.557778,1.10597,1.394659,5.931944,0.901113,2.997754,1.833916,0.841951,21.542913,2.060997,3.997233,1.743086,0.817965
1720077095,124,0,4422.563965,4421.922852,4306.410156,4356.282227,4426.538574,4446.666504,4460.256348,4317.692383,4408.974121,4356.794922,4299.230957,4372.179688,4402.94873,4338.589844,,,,,,,,,,,,,,,,,,,,,,,,,,,,,,,,,,,,,,,,,,,,,,,,,,,,,,,,,,,,,,,,,,,,,,
1720077095,125,0,4459.871582,4439.487305,4328.077148,4377.436035,4422.179688,4447.179688,4464.358887,4331.282227,4419.743652,4384.230957,4318.333496,4379.358887,4423.589844,4367.820313,,,,,,,,,,,,,,,,,,,,,,,,,,,,,,,,,,,,,,,,,,,,,,,,,,,,,,,,,,,,,,,,,,,,,,
1720077095,126,0,4469.743652,4442.436035,4334.230957,4376.282227,4422.179688,4436.410156,4462.692383,4330,4413.589844,4379.615234,4322.94873,4390.769043,4423.717773,4384.230957,,,,,,,,,,,,,,,,,,,,,,,,,,,,,,,,,,,,,,,,,,,,,,,,,,,,,,,,,,,,,,,,,,,,,,
1720077095,127,0,4450.769043,4427.436035,4333.205078,4364.615234,4430.641113,4428.205078,4461.794922,4323.846191,4406.025879,4361.282227,4318.846191,4397.307617,4416.666504,4382.820313,,,,,,,,,,,,,,,,,,,,,,,,,,,,,,,,,,,,,,,,,,,,,,,,,,,,,,,,,,,,,,,,,,,,,,
1720077095,0,0,4437.563965,4417.436035,4327.820313,4358.205078,4430.769043,4428.077148,4466.794922,4330.384766,4414.230957,4374.743652,4321.794922,4389.358887,4415.769043,4380.512695,,,,,,,,,,,,,,,,,,,,,,,,,,,,,,,,,,,,,,,,,,,,,,,,,,,,,,,,,,,,,,,,,,,,,,
1720077095,1,0,4433.333496,4421.153809,4316.153809,4363.077148,4419.230957,4429.487305,4468.333496,4325.769043,4417.94873,4380.256348,4315.128418,4375.641113,4414.230957,4373.205078,,,,,,,,,,,,,,,,,,,,,,,,,,,,,,,,,,,,,,,,,,,,,,,,,,,,,,,,,,,,,,,,,,,,,,
1720077095,2,0,4426.153809,4421.282227,4314.230957,4367.94873,4418.077148,4430.128418,4470.384766,4321.794922,4416.794922,4363.077148,4307.436035,4376.538574,4408.205078,4362.94873,,,,,,,,,,,,,,,,,,,,,,,,,,,,,,,,,,,,,,,,,,,,,,,,,,,,,,,,,,,,,,,,,,,,,,
1720077095,3,0,4426.794922,4413.077148,4321.282227,4361.666504,4429.102539,4431.153809,4476.282227,4338.205078,4426.922852,4369.743652,4319.615234,4394.871582,4410.641113,4368.717773,,,,,,,,,,,,,,,,,,,,,,,,,,,,,,,,,,,,,,,,,,,,,,,,,,,,,,,,,,,,,,,,,,,,,,
1720077095,4,0,4440.897461,4416.282227,4320.128418,4352.307617,4425.769043,4427.05127,4471.538574,4331.922852,4431.410156,4385.641113,4320,4402.307617,4417.436035,4373.461426,,,,,,,,,,,,,,,,,,,,,,,,,,,,,,,,,,,,,,,,,,,,,,,,,,,,,,,,,,,,,,,,,,,,,,
1720077095,5,0,4447.94873,4423.974121,4319.230957,4356.410156,4412.94873,4421.538574,4463.077148,4317.436035,4417.563965,4375,4303.717773,4393.846191,4410.256348,4366.538574,,,,,,,,,,,,,,,,,,,,,,,,,,,,,,,,,,,,,,,,,,,,,,,,,,,,,,,,,,,,,,,,,,,,,,
1720077095,6,0,4448.077148,4435,4331.538574,4379.358887,4421.666504,4427.692383,4472.563965,4332.179688,4415.512695,4372.05127,4319.102539,4393.077148,4414.743652,4374.358887,,,,,,,,,,,,,,,,,,,,,,,,,,,,,,,,,,,,,,,,,,,,,,,,,,,,,,,,,,,,,,,,,,,,,,
1720077095,7,0,4448.461426,4440.641113,4337.436035,4384.743652,4430.256348,4430,4480.769043,4340.384766,4428.077148,4378.461426,4337.307617,4398.333496,4434.871582,4382.820313,,,,,,,,,,,,,,,,,,,,,,,,,,,,,,,,,,,,,,,,,,,,,,,,,,,,,,,,,,,,,,,,,,,,,,
1720077095,8,0,4428.333496,4418.205078,4322.307617,4350.897461,4413.717773,4416.538574,4464.102539,4326.025879,4428.461426,4363.333496,4316.025879,4386.025879,4425.769043,4370.384766,,,,,,,,,,,,,,,,,,,,,,,,,,,,,,,,,,,,,,,,,,,,,,,,,,,,,,,,,,,,,,,,,,,,,,
1720077095,9,0,4401.666504,4395.641113,4306.410156,4325.641113,4405.512695,4407.179688,4448.589844,4312.692383,4424.487305,4357.820313,4287.692383,4371.025879,4392.179688,4363.205078,,,,,,,,,,,,,,,,,,,,,,,,,,,,,,,,,,,,,,,,,,,,,,,,,,,,,,,,,,,,,,,,,,,,,,
1720077095,10,0,4402.94873,4400.897461,4305.384766,4332.436035,4413.717773,4412.692383,4451.153809,4316.794922,4426.282227,4370.897461,4286.410156,4375.897461,4383.077148,4370.256348,,,,,,,,,,,,,,,,,,,,,,,,,,,,,,,,,,,,,,,,,,,,,,,,,,,,,,,,,,,,,,,,,,,,,,
1720077095,11,0,4424.358887,4420.256348,4314.615234,4347.820313,4415.384766,4415.641113,4462.692383,4328.077148,4429.487305,4375.769043,4305.512695,4383.589844,4412.307617,4385.384766,8.927847,2.246003,7.352052,2.731296,0.663724,3.991976,0.872987,2.589321,0.729654,0.454899,5.141145,1.195237,2.738182,0.916973,0.51174,5.969238,1.212159,2.030139,0.78127,0.946432,0.803869,0.255402,0.468069,0.568481,0.225317,0.675883,0.476812,1.183766,0.65977,0.196697,1.261635,0.631826,0.67274,0.585997,0.190932,1.245218,0.539297,0.657425,0.51751,0.341644,1.592564,0.787996,1.584685,2.956318,0.327412,2.286142,0.860141,1.153262,1.649727,0.487262,4.934666,0.841206,2.503121,1.708833,0.914073,3.837757,2.075394,3.769055,1.267504,1.386954,5.23947,0.879957,3.15101,2.071866,0.848926,12.367211,2.24148,4.03638,2.058152,0.710938
1720077095,12,0,4433.461426,4430.128418,4328.333496,4363.205078,4414.358887,4412.05127,4473.077148,4331.922852,4432.307617,4380,4325.128418,4396.666504,4443.333496,4410.897461,,,,,,,,,,,,,,,,,,,,,,,,,,,,,,,,,,,,,,,,,,,,,,,,,,,,,,,,,,,,,,,,,,,,,,
1720077095,13,0,4431.282227,4431.666504,4338.077148,4374.743652,4420,4417.05127,4476.282227,4332.563965,4426.922852,4382.307617,4329.871582,4416.794922,4444.871582,4422.94873,,,,,,,,,,,,,,,,,,,,,,,,,,,,,,,,,,,,,,,,,,,,,,,,,,,,,,,,,,,,,,,,,,,,,,
1720077095,14,0,4426.538574,4428.717773,4335.897461,4375.128418,4423.974121,4425.769043,4474.743652,4329.487305,4417.820313,4373.205078,4319.871582,4404.615234,4428.461426,4408.846191,,,,,,,,,,,,,,,,,,,,,,,,,,,,,,,,,,,,,,,,,,,,,,,,,,,,,,,,,,,,,,,,,,,,,,
1720077095,15,0,4424.743652,4426.666504,4337.436035,4377.436035,4426.538574,4427.692383,4475.897461,4330.256348,4423.077148,4369.615234,4316.794922,4383.589844,4423.717773,4401.794922,,,,,,,,,,,,,,,,,,,,,,,,,,,,,,,,,,,,,,,,,,,,,,,,,,,,,,,,,,,,,,,,,,,,,,
1720077095,16,0,4432.820313,4428.461426,4341.025879,4383.589844,4433.205078,4429.743652,4475.384766,4338.846191,4437.692383,4380.512695,4325,4391.666504,4433.717773,4406.538574,,,,,,,,,,,,,,,,,,,,,,,,,,,,,,,,,,,,,,,,,,,,,,,,,,,,,,,,,,,,,,,,,,,,,,
1720077095,17,0,4431.025879,4426.025879,4328.974121,4372.692383,4430.256348,4430.769043,4466.410156,4335.384766,4442.94873,4388.205078,4314.102539,4385.897461,4430.897461,4397.05127,,,,,,,,,,,,,,,,,,,,,,,,,,,,,,,,,,,,,,,,,,,,,,,,,,,,,,,,,,,,,,,,,,,,,,
1720077095,18,0,4423.589844,4426.025879,4317.05127,4360,4420.897461,4431.025879,4463.205078,4321.538574,4442.563965,4389.230957,4294.230957,4363.846191,4415.256348,4388.205078,,,,,,,,,,,,,,,,,,,,,,,,,,,,,,,,,,,,,,,,,,,,,,,,,,,,,,,,,,,,,,,,,,,,,,
1720077095,19,0,4437.692383,4426.025879,4333.077148,4373.589844,4426.922852,4435.256348,4472.05127,4329.358887,4441.666504,4389.487305,4301.538574,4379.358887,4416.794922,4400.256348,,,,,,,,,,,,,,,,,,,,,,,,,,,,,,,,,,,,,,,,,,,,,,,,,,,,,,,,,,,,,,,,,,,,,,
1720077095,20,0,4453.974121,4430.769043,4350.384766,4397.820313,4435.512695,4435.384766,4476.922852,4337.94873,4434.487305,4383.974121,4319.358887,4397.436035,4434.358887,4412.307617,,,,,,,,,,,,,,,,,,,,,,,,,,,,,,,,,,,,,,,,,,,,,,,,,,,,,,,,,,,,,,,,,,,,,,
1720077095,21,0,4439.743652,4442.307617,4340.256348,4400.641113,4427.692383,4429.615234,4473.077148,4323.589844,4425.256348,4375.256348,4317.820313,4384.230957,4437.94873,4405.128418,,,,,,,,,,,,,,,,,,,,,,,,,,,,,,,,,,,,,,,,,,,,,,,,,,,,,,,,,,,,,,,,,,,,,,
1720077095,22,0,4411.794922,4428.461426,4328.846191,4378.717773,4422.436035,4428.077148,4469.358887,4328.461426,4426.794922,4375,4305.384766,4386.922852,4419.102539,4398.205078,,,,,,,,,,,,,,,,,,,,,,,,,,,,,,,,,,,,,,,,,,,,,,,,,,,,,,,,,,,,,,,,,,,,,,
1720077095,23,0,4400.769043,4404.487305,4327.179688,4362.179688,4427.307617,4427.692383,4468.846191,4338.717773,4436.410156,4383.333496,4301.922852,4393.333496,4413.846191,4401.794922,,,,,,,,,,,,,,,,,,,,,,,,,,,,,,,,,,,,,,,,,,,,,,,,,,,,,,,,,,,,,,,,,,,,,,
1720077095,24,0,4412.307617,4414.358887,4328.461426,4369.230957,4429.102539,4431.922852,4473.205078,4332.436035,4444.487305,4390.384766,4320.128418,4381.025879,4429.358887,4402.307617,,,,,,,,,,,,,,,,,,,,,,,,,,,,,,,,,,,,,,,,,,,,,,,,,,,,,,,,,,,,,,,,,,,,,,
1720077095,25,0,4430.128418,4433.589844,4338.974121,4380.512695,4427.436035,4442.563965,4479.615234,4340.897461,4447.94873,4400.512695,4338.589844,4387.563965,4436.922852,4413.205078,,,,,,,,,,,,,,,,,,,,,,,,,,,,,,,,,,,,,,,,,,,,,,,,,,,,,,,,,,,,,,,,,,,,,,
1720077095,26,0,4427.563965,4432.307617,4346.794922,4383.461426,4430,4444.743652,4478.589844,4342.05127,4447.179688,4409.615234,4323.846191,4409.230957,4430.512695,4426.410156,,,,,,,,,,,,,,,,,,,,,,,,,,,,,,,,,,,,,,,,,,,,,,,,,,,,,,,,,,,,,,,,,,,,,,
1720077095,27,0,4405.512695,4419.487305,4335,4377.820313,4441.025879,4441.922852,4471.538574,4327.692383,4443.589844,4401.538574,4302.436035,4402.820313,4421.794922,4410.641113,4.429962,1.830313,7.128042,3.161735,0.717873,3.236337,0.871713,2.282389,0.781076,0.434379,3.863275,1.009766,2.295446,0.833084,0.469646,4.949997,1.128558,1.66309,0.823938,0.959505,0.718766,0.284724,0.660287,0.690916,0.210204,0.656048,0.495736,1.494955,0.831336,0.225132,1.354321,0.653897,0.679486,0.630053,0.201191,1.172956,0.654395,0.693045,0.572503,0.361048,1.674863,0.898567,1.810631,3.398666,0.374884,2.225333,0.974474,1.543514,1.904637,0.521334,4.332554,0.944568,2.593549,1.972032,1.151343,3.172401,2.607919,4.114524,1.477177,1.504178,5.098866,0.883507,3.249073,2.246301,0.973399,8.595395,2.502348,3.902647,2.29629,0.657983
1720077095,28,0,4391.794922,4409.358887,4322.692383,4373.333496,4447.05127,4443.205078,4467.436035,4326.794922,4438.589844,4386.153809,4315.256348,4382.05127,4427.05127,4400.897461,,,,,,,,,,,,,,,,,,,,,,,,,,,,,,,,,,,,,,,,,,,,,,,,,,,,,,,,,,,,,,,,,,,,,,
1720077095,29,0,4400.384766,4419.743652,4333.717773,4379.358887,4438.077148,4446.025879,4473.333496,4332.563965,4437.94873,4387.563965,4330.128418,4391.153809,4441.410156,4427.179688,,,,,,,,,,,,,,,,,,,,,,,,,,,,,,,,,,,,,,,,,,,,,,,,,,,,,,,,,,,,,,,,,,,,,,
1720077095,30,0,4411.153809,4431.282227,4342.307617,4384.230957,4430.512695,4451.153809,4481.922852,4336.666504,4442.307617,4395.641113,4327.820313,4415.256348,4451.282227,4444.743652,,,,,,,,,,,,,,,,,,,,,,,,,,,,,,,,,,,,,,,,,,,,,,,,,,,,,,,,,,,,,,,,,,,,,,
1720077095,31,0,4408.461426,4414.230957,4334.871582,4381.794922,4434.230957,4454.615234,4482.94873,4348.205078,4449.102539,4395,4333.717773,4416.666504,4458.589844,4438.205078,,,,,,,,,,,,,,,,,,,,,,,,,,,,,,,,,,,,,,,,,,,,,,,,,,,,,,,,,,,,,,,,,,,,,,
1720077095,32,0,4408.717773,4408.846191,4336.153809,4380,4435.256348,4446.025879,4477.692383,4343.589844,4459.102539,4402.94873,4347.05127,4405.384766,4467.05127,4442.307617,,,,,,,,,,,,,,,,,,,,,,,,,,,,,,,,,,,,,,,,,,,,,,,,,,,,,,,,,,,,,,,,,,,,,,
1720077095,33,0,4410.769043,4426.794922,4336.410156,4370.769043,4428.205078,4431.282227,4469.615234,4329.358887,4460.641113,4411.282227,4343.077148,4403.333496,4466.538574,4444.871582,,,,,,,,,,,,,,,,,,,,,,,,,,,,,,,,,,,,,,,,,,,,,,,,,,,,,,,,,,,,,,,,,,,,,,
1720077095,34,0,4401.922852,4418.717773,4323.461426,4355.384766,4423.461426,4424.487305,4459.230957,4332.563965,4450.512695,4407.307617,4329.358887,4399.615234,4458.077148,4433.717773,,,,,,,,,,,,,,,,,,,,,,,,,,,,,,,,,,,,,,,,,,,,,,,,,,,,,,,,,,,,,,,,,,,,,,
1720077095,35,0,4397.820313,4404.487305,4322.94873,4357.94873,4426.282227,4432.820313,4455.641113,4325.384766,4441.282227,4400.641113,4330.384766,4392.436035,4462.05127,4434.102539,,,,,,,,,,,,,,,,,,,,,,,,,,,,,,,,,,,,,,,,,,,,,,,,,,,,,,,,,,,,,,,,,,,,,,
1720077095,36,0,4399.487305,4423.205078,4337.820313,4368.205078,4436.538574,4445.769043,4466.282227,4322.436035,4442.820313,4399.102539,4336.410156,4402.179688,4469.102539,4445.384766,,,,,,,,,,,,,,,,,,,,,,,,,,,,,,,,,,,,,,,,,,,,,,,,,,,,,,,,,,,,,,,,,,,,,,
1720077095,37,0,4389.102539,4436.410156,4336.666504,4362.307617,4438.461426,4444.358887,4472.436035,4336.153809,4448.717773,4402.820313,4332.05127,4411.025879,4464.615234,4446.025879,,,,,,,,,,,,,,,,,,,,,,,,,,,,,,,,,,,,,,,,,,,,,,,,,,,,,,,,,,,,,,,,,,,,,,
1720077095,38,0,4367.563965,4412.692383,4319.230957,4343.077148,4424.102539,4432.179688,4462.307617,4333.077148,4448.333496,4396.153809,4320.641113,4391.794922,4455.256348,4425,,,,,,,,,,,,,,,,,,,,,,,,,,,,,,,,,,,,,,,,,,,,,,,,,,,,,,,,,,,,,,,,,,,,,,
1720077095,39,0,4357.692383,4389.743652,4310.128418,4330.128418,4414.487305,4424.230957,4453.333496,4321.794922,4440.641113,4384.871582,4319.358887,4373.333496,4455.641113,4404.487305,,,,,,,,,,,,,,,,,,,,,,,,,,,,,,,,,,,,,,,,,,,,,,,,,,,,,,,,,,,,,,,,,,,,,,
1720077095,40,0,4373.461426,4402.179688,4318.974121,4344.487305,4421.666504,4426.538574,4457.307617,4322.563965,4439.615234,4394.487305,4329.743652,4387.563965,4465.384766,4413.077148,,,,,,,,,,,,,,,,,,,,,,,,,,,,,,,,,,,,,,,,,,,,,,,,,,,,,,,,,,,,,,,,,,,,,,
1720077095,41,0,4384.743652,4415.641113,4333.974121,4360.512695,4428.974121,4431.282227,4461.538574,4331.153809,4447.179688,4408.974121,4332.307617,4405.641113,4466.538574,4429.871582,,,,,,,,,,,,,,,,,,,,,,,,,,,,,,,,,,,,,,,,,,,,,,,,,,,,,,,,,,,,,,,,,,,,,,
1720077095,42,0,4363.461426,4402.94873,4328.205078,4349.487305,4426.666504,4428.846191,4458.461426,4327.94873,4444.615234,4395.512695,4319.102539,4386.282227,4454.615234,4416.025879,,,,,,,,,,,,,,,,,,,,,,,,,,,,,,,,,,,,,,,,,,,,,,,,,,,,,,,,,,,,,,,,,,,,,,
1720077095,43,0,4347.820313,4394.358887,4315.641113,4344.358887,4428.333496,4430.128418,4458.717773,4320.897461,4437.436035,4383.846191,4307.179688,4364.615234,4445,4397.436035,2.778987,1.591882,7.452509,3.492117,0.754775,2.786647,0.802932,1.956065,0.839101,0.425678,3.209017,0.899981,1.883906,0.783495,0.445518,3.927446,1.040501,1.325993,0.905846,0.965765,0.652759,0.335773,0.850088,0.789525,0.200809,0.686677,0.544503,1.815521,0.961936,0.25863,1.470586,0.682285,0.662918,0.655242,0.226439,1.228733,0.807073,0.715394,0.606682,0.391341,1.814373,0.982979,1.929411,3.482489,0.424071,2.143471,1.109122,1.931145,2.036419,0.555493,4.109776,1.247157,2.714616,2.101849,1.493103,3.393153,3.256622,4.499186,1.651195,1.697019,5.32656,0.968666,3.339171,2.301863,1.202955,7.98103,2.664197,3.650514,2.407731,0.656049
1720077095,44,0,4357.179688,4403.974121,4321.538574,4363.974121,4428.589844,4441.282227,4463.589844,4329.615234,4447.179688,4397.94873,4311.025879,4381.410156,4445.512695,4405.769043,,,,,,,,,,,,,,,,,,,,,,,,,,,,,,,,,,,,,,,,,,,,,,,,,,,,,,,,,,,,,,,,,,,,,,
1720077095,45,0,4364.615234,4410,4328.461426,4370.512695,4422.436035,4443.589844,4466.282227,4341.794922,4463.077148,4408.077148,4322.820313,4398.205078,4455.384766,4418.077148,,,,,,,,,,,,,,,,,,,,,,,,,,,,,,,,,,,,,,,,,,,,,,,,,,,,,,,,,,,,,,,,,,,,,,
1720077095,46,0,4371.410156,4408.974121,4326.282227,4359.487305,4418.846191,4430.512695,4458.717773,4333.589844,4456.666504,4400.256348,4332.563965,4387.05127,4467.94873,4421.025879,,,,,,,,,,,,,,,,,,,,,,,,,,,,,,,,,,,,,,,,,,,,,,,,,,,,,,,,,,,,,,,,,,,,,,
1720077095,47,0,4380,4412.307617,4325.641113,4356.282227,4415.128418,4419.487305,4444.230957,4316.410156,4435.128418,4396.282227,4330.384766,4382.820313,4467.307617,4414.871582,,,,,,,,,,,,,,,,,,,,,,,,,,,,,,,,,,,,,,,,,,,,,,,,,,,,,,,,,,,,,,,,,,,,,,
1720077095,48,0,4373.333496,4412.307617,4322.692383,4358.205078,4415,4419.358887,4439.743652,4309.615234,4432.563965,4409.487305,4320.769043,4386.922852,4458.333496,4403.846191,,,,,,,,,,,,,,,,,,,,,,,,,,,,,,,,,,,,,,,,,,,,,,,,,,,,,,,,,,,,,,,,,,,,,,
1720077095,49,0,4359.615234,4396.666504,4312.436035,4358.333496,4424.102539,4430,4448.974121,4301.666504,4444.230957,4413.205078,4313.461426,4365.897461,4452.820313,4394.743652,,,,,,,,,,,,,,,,,,,,,,,,,,,,,,,,,,,,,,,,,,,,,,,,,,,,,,,,,,,,,,,,,,,,,,
1720077095,50,0,4360,4383.205078,4312.820313,4354.358887,4432.436035,4442.820313,4460,4314.358887,4452.307617,4399.487305,4310.512695,4359.743652,4448.205078,4392.436035,,,,,,,,,,,,,,,,,,,,,,,,,,,,,,,,,,,,,,,,,,,,,,,,,,,,,,,,,,,,,,,,,,,,,,
1720077095,51,0,4371.538574,4396.410156,4327.436035,4353.717773,4430.384766,4440.769043,4467.563965,4339.487305,4457.563965,4402.307617,4317.94873,4384.615234,4451.922852,4398.589844,,,,,,,,,,,,,,,,,,,,,,,,,,,,,,,,,,,,,,,,,,,,,,,,,,,,,,,,,,,,,,,,,,,,,,
1720077095,52,0,4370.128418,4412.307617,4332.563965,4357.94873,4422.94873,4431.666504,4474.487305,4342.94873,4463.717773,4422.05127,4328.205078,4394.615234,4459.871582,4406.410156,,,,,,,,,,,,,,,,,,,,,,,,,,,,,,,,,,,,,,,,,,,,,,,,,,,,,,,,,,,,,,,,,,,,,,
1720077095,53,0,4354.743652,4415.512695,4333.077148,4363.461426,4421.794922,4433.333496,4478.333496,4345.769043,4466.025879,4422.179688,4334.743652,4398.589844,4465.384766,4416.153809,,,,,,,,,,,,,,,,,,,,,,,,,,,,,,,,,,,,,,,,,,,,,,,,,,,,,,,,,,,,,,,,,,,,,,
1720077095,54,0,4353.077148,4421.666504,4342.05127,4369.102539,4427.94873,4436.922852,4472.563965,4342.307617,4456.282227,4408.589844,4344.743652,4412.307617,4480.256348,4429.230957,,,,,,,,,,,,,,,,,,,,,,,,,,,,,,,,,,,,,,,,,,,,,,,,,,,,,,,,,,,,,,,,,,,,,,
1720077095,55,0,4365.384766,4422.563965,4348.589844,4370.897461,4431.538574,4430.769043,4462.820313,4328.974121,4450.641113,4410.256348,4350.384766,4416.794922,4492.436035,4437.820313,,,,,,,,,,,,,,,,,,,,,,,,,,,,,,,,,,,,,,,,,,,,,,,,,,,,,,,,,,,,,,,,,,,,,,
1720077095,56,0,4366.538574,4410.512695,4341.538574,4366.410156,4428.974121,4425.384766,4457.179688,4325.641113,4454.102539,4418.589844,4334.102539,4405.256348,4480.512695,4426.666504,,,,,,,,,,,,,,,,,,,,,,,,,,,,,,,,,,,,,,,,,,,,,,,,,,,,,,,,,,,,,,,,,,,,,,
1720077095,57,0,4360.384766,4408.589844,4331.410156,4359.487305,4430,4434.230957,4458.846191,4323.974121,4449.487305,4416.153809,4317.94873,4391.538574,4466.282227,4413.846191,,,,,,,,,,,,,,,,,,,,,,,,,,,,,,,,,,,,,,,,,,,,,,,,,,,,,,,,,,,,,,,,,,,,,,
1720077095,58,0,4361.282227,4416.922852,4333.461426,4358.846191,4431.282227,4444.230957,4464.102539,4320,4445.897461,4410.641113,4322.820313,4387.436035,4469.102539,4417.563965,,,,,,,,,,,,,,,,,,,,,,,,,,,,,,,,,,,,,,,,,,,,,,,,,,,,,,,,,,,,,,,,,,,,,,
1720077095,59,0,4350.897461,4406.282227,4336.025879,4353.974121,4427.563965,4440.897461,4462.94873,4328.461426,4455.897461,4411.666504,4320.512695,4391.410156,4464.487305,4414.230957,2.469299,1.634807,7.989926,3.645856,0.759435,2.617388,0.696854,1.692098,0.9074,0.436999,2.87848,0.891177,1.606936,0.802084,0.436281,3.021241,0.970134,1.101097,1.05637,0.973029,0.634367,0.409361,0.992621,0.834525,0.198714,0.791318,0.628291,2.069376,1.026601,0.284695,1.593164,0.718508,0.644101,0.657492,0.260237,1.305005,0.946165,0.726727,0.61191,0.426793,2.042251,1.030487,1.934927,3.205552,0.467068,2.142426,1.237665,2.223881,2.032643,0.590649,4.280495,1.720831,2.84741,2.068282,1.849885,3.86123,3.821766,4.757111,1.735241,1.878849,5.936958,1.133432,3.428751,2.230431,1.493597,8.67847,2.693229,3.33824,2.407364,0.683142
1720077095,60,0,4332.563965,4398.846191,4331.153809,4351.794922,4428.974121,4432.94873,4458.974121,4333.974121,4463.077148,4414.743652,4315.769043,4395.384766,4458.461426,4410.256348,,,,,,,,,,,,,,,,,,,,,,,,,,,,,,,,,,,,,,,,,,,,,,,,,,,,,,,,,,,,,,,,,,,,,,
1720077095,61,0,4335.512695,4416.922852,4335.897461,4366.025879,4431.410156,4428.974121,4458.077148,4326.153809,4459.871582,4415.897461,4329.230957,4402.307617,4474.871582,4424.871582,,,,,,,,,,,,,,,,,,,,,,,,,,,,,,,,,,,,,,,,,,,,,,,,,,,,,,,,,,,,,,,,,,,,,,
1720077095,62,0,4352.179688,4427.05127,4348.974121,4373.461426,4432.692383,4427.307617,4459.615234,4328.333496,4454.230957,4418.077148,4337.563965,4412.179688,4491.410156,4436.538574,,,,,,,,,,,,,,,,,,,,,,,,,,,,,,,,,,,,,,,,,,,,,,,,,,,,,,,,,,,,,,,,,,,,,,
1720077096,63,0,4357.179688,4420.641113,4350.384766,4368.333496,4435.769043,4425.128418,4457.820313,4326.666504,4442.307617,4417.692383,4329.871582,4405.512695,4486.410156,4427.436035,,,,,,,,,,,,,,,,,,,,,,,,,,,,,,,,,,,,,,,,,,,,,,,,,,,,,,,,,,,,,,,,,,,,,,
1720077096,64,0,4339.102539,4408.717773,4326.794922,4351.794922,4423.205078,4417.692383,4445.256348,4311.282227,4425.384766,4399.358887,4305,4376.153809,4456.538574,4396.410156,,,,,,,,,,,,,,,,,,,,,,,,,,,,,,,,,,,,,,,,,,,,,,,,,,,,,,,,,,,,,,,,,,,,,,
1720077096,65,0,4310.384766,4382.05127,4296.794922,4319.871582,4402.05127,4405,4426.153809,4299.487305,4417.179688,4375.128418,4266.410156,4338.333496,4418.717773,4355.384766,,,,,,,,,,,,,,,,,,,,,,,,,,,,,,,,,,,,,,,,,,,,,,,,,,,,,,,,,,,,,,,,,,,,,,
1720077096,66,0,4302.179688,4360.641113,4292.820313,4306.922852,4402.820313,4404.615234,4428.974121,4305.512695,4431.666504,4383.717773,4264.487305,4338.461426,4419.615234,4354.102539,,,,,,,,,,,,,,,,,,,,,,,,,,,,,,,,,,,,,,,,,,,,,,,,,,,,,,,,,,,,,,,,,,,,,,
1720077096,67,0,4317.94873,4379.102539,4311.666504,4333.846191,4416.922852,4420,4452.94873,4331.538574,4461.666504,4419.358887,4306.666504,4380,4457.307617,4394.230957,,,,,,,,,,,,,,,,,,,,,,,,,,,,,,,,,,,,,,,,,,,,,,,,,,,,,,,,,,,,,,,,,,,,,,
1720077096,68,0,4326.282227,4396.538574,4317.307617,4347.820313,4418.077148,4429.230957,4456.538574,4337.692383,4472.307617,4433.846191,4318.974121,4391.025879,4470.256348,4407.94873,,,,,,,,,,,,,,,,,,,,,,,,,,,,,,,,,,,,,,,,,,,,,,,,,,,,,,,,,,,,,,,,,,,,,,
1720077096,69,0,4322.179688,4394.102539,4314.102539,4336.794922,4416.282227,4426.538574,4448.205078,4324.615234,4459.743652,4423.461426,4301.666504,4377.436035,4455.769043,4399.230957,,,,,,,,,,,,,,,,,,,,,,,,,,,,,,,,,,,,,,,,,,,,,,,,,,,,,,,,,,,,,,,,,,,,,,
