Timestamp,EEG.Counter,EEG.Interpolated,EEG.AF3,EEG.F7,EEG.F3,EEG.FC5,EEG.T7,EEG.P7,EEG.O1,EEG.O2,EEG.P8,EEG.T8,EEG.FC6,EEG.F4,EEG.F8,EEG.AF4,POW.AF3.Theta,POW.AF3.Alpha,POW.AF3.BetaL,POW.AF3.BetaH,POW.AF3.Gamma,POW.F7.Theta,POW.F7.Alpha,POW.F7.BetaL,POW.F7.BetaH,POW.F7.Gamma,POW.F3.Theta,POW.F3.Alpha,POW.F3.BetaL,POW.F3.BetaH,POW.F3.Gamma,POW.FC5.Theta,POW.FC5.Alpha,POW.FC5.BetaL,POW.FC5.BetaH,POW.FC5.Gamma,POW.T7.Theta,POW.T7.Alpha,POW.T7.BetaL,POW.T7.BetaH,POW.T7.Gamma,POW.P7.Theta,POW.P7.Alpha,POW.P7.BetaL,POW.P7.BetaH,POW.P7.Gamma,POW.O1.Theta,POW.O1.Alpha,POW.O1.BetaL,POW.O1.BetaH,POW.O1.Gamma,POW.O2.Theta,POW.O2.Alpha,POW.O2.BetaL,POW.O2.BetaH,POW.O2.Gamma,POW.P8.Theta,POW.P8.Alpha,POW.P8.BetaL,POW.P8.BetaH,POW.P8.Gamma,POW.T8.Theta,POW.T8.Alpha,POW.T8.BetaL,POW.T8.BetaH,POW.T8.Gamma,POW.FC6.Theta,POW.FC6.Alpha,POW.FC6.BetaL,POW.FC6.BetaH,POW.FC6.Gamma,POW.F4.Theta,POW.F4.Alpha,POW.F4.BetaL,POW.F4.BetaH,POW.F4.Gamma,POW.F8.Theta,POW.F8.Alpha,POW.F8.BetaL,POW.F8.BetaH,POW.F8.Gamma,POW.AF4.Theta,POW.AF4.Alpha,POW.AF4.BetaL,POW.AF4.BetaH,POW.AF4.Gamma
1720415980,85,0,4325.256348,4280.641113,4279.615234,4272.820313,4229.743652,4236.282227,4246.282227,4244.358887,4235.384766,4217.94873,4485.256348,4449.871582,4344.487305,4212.179688,,,,,,,,,,,,,,,,,,,,,,,,,,,,,,,,,,,,,,,,,,,,,,,,,,,,,,,,,,,,,,,,,,,,,,
1720415980,86,0,4329.743652,4276.282227,4280.769043,4261.922852,4232.179688,4237.820313,4245.897461,4241.025879,4233.205078,4220,4485.641113,4452.05127,4345,4244.358887,,,,,,,,,,,,,,,,,,,,,,,,,,,,,,,,,,,,,,,,,,,,,,,,,,,,,,,,,,,,,,,,,,,,,,
1720415980,87,0,4326.153809,4265.256348,4275.897461,4245.384766,4232.94873,4229.102539,4231.025879,4230.384766,4220.641113,4218.589844,4468.974121,4438.717773,4340.128418,4276.666504,,,,,,,,,,,,,,,,,,,,,,,,,,,,,,,,,,,,,,,,,,,,,,,,,,,,,,,,,,,,,,,,,,,,,,
1720415980,88,0,4322.820313,4270.512695,4274.358887,4250.384766,4230,4229.871582,4227.820313,4230.256348,4220.128418,4214.487305,4466.922852,4440.769043,4341.410156,4323.205078,,,,,,,,,,,,,,,,,,,,,,,,,,,,,,,,,,,,,,,,,,,,,,,,,,,,,,,,,,,,,,,,,,,,,,
1720415980,89,0,4329.230957,4285.128418,4280.769043,4268.205078,4233.589844,4240.897461,4242.94873,4241.922852,4233.717773,4215.512695,4479.102539,4454.102539,4349.743652,4380.641113,,,,,,,,,,,,,,,,,,,,,,,,,,,,,,,,,,,,,,,,,,,,,,,,,,,,,,,,,,,,,,,,,,,,,,
1720415980,90,0,4327.436035,4281.410156,4278.974121,4258.846191,4239.358887,4245.256348,4245.769043,4244.358887,4234.102539,4219.871582,4476.794922,4451.025879,4351.794922,4423.461426,,,,,,,,,,,,,,,,,,,,,,,,,,,,,,,,,,,,,,,,,,,,,,,,,,,,,,,,,,,,,,,,,,,,,,
1720415980,91,0,4315.512695,4273.333496,4267.436035,4242.692383,4232.820313,4240.512695,4237.820313,4237.436035,4229.230957,4226.538574,4472.307617,4440.512695,4345.897461,4449.230957,,,,,,,,,,,,,,,,,,,,,,,,,,,,,,,,,,,,,,,,,,,,,,,,,,,,,,,,,,,,,,,,,,,,,,
1720415980,92,0,4313.974121,4278.205078,4268.077148,4252.820313,4230.384766,4235.769043,4239.102539,4241.282227,4240.769043,4231.153809,4480.384766,4443.205078,4345.769043,4481.666504,,,,,,,,,,,,,,,,,,,,,,,,,,,,,,,,,,,,,,,,,,,,,,,,,,,,,,,,,,,,,,,,,,,,,,
1720415980,93,0,4320,4278.333496,4278.974121,4261.153809,4244.358887,4234.743652,4241.282227,4247.179688,4250,4224.358887,4479.230957,4450,4346.538574,4523.974121,,,,,,,,,,,,,,,,,,,,,,,,,,,,,,,,,,,,,,,,,,,,,,,,,,,,,,,,,,,,,,,,,,,,,,
1720415980,94,0,4316.666504,4277.94873,4278.717773,4255.512695,4251.666504,4238.974121,4238.333496,4237.179688,4244.358887,4216.282227,4470.384766,4444.871582,4340.641113,4550.769043,,,,,,,,,,,,,,,,,,,,,,,,,,,,,,,,,,,,,,,,,,,,,,,,,,,,,,,,,,,,,,,,,,,,,,
1720415980,95,0,4322.563965,4292.563965,4284.743652,4265.897461,4246.538574,4246.794922,4244.230957,4237.05127,4245.128418,4221.538574,4480.512695,4449.487305,4346.153809,4583.205078,1.146129,2.520443,0.874371,0.447763,0.185817,1.560422,3.885657,1.881258,0.608095,0.382129,1.53186,3.075033,1.19609,0.481428,0.351331,1.108638,2.518024,1.001839,0.66118,0.576405,0.542704,0.727972,0.663039,0.372137,0.35666,0.574518,0.849695,0.460131,0.502204,0.261888,0.904369,0.96573,0.75645,0.241389,0.208528,1.205803,0.972602,0.531751,0.164293,0.221393,0.834412,0.590958,0.348948,0.219297,0.201784,0.640436,1.02225,0.460667,0.416183,0.421539,1.299528,2.370858,1.208388,0.768844,0.449662,2.292082,4.803154,1.725594,0.868903,0.4568,0.955857,1.760495,0.594427,0.455957,0.295783,227.117615,13.207246,5.513724,0.938799,0.432853
1720415980,96,0,4331.153809,4301.538574,4301.282227,4280.512695,4245,4249.230957,4253.717773,4252.307617,4251.282227,4234.358887,4490.256348,4466.538574,4358.333496,4613.589844,,,,,,,,,,,,,,,,,,,,,,,,,,,,,,,,,,,,,,,,,,,,,,,,,,,,,,,,,,,,,,,,,,,,,,
1720415980,97,0,4319.230957,4293.205078,4300.256348,4278.974121,4248.205078,4254.615234,4251.538574,4249.871582,4247.179688,4237.436035,4485.128418,4465.769043,4355.769043,4608.077148,,,,,,,,,,,,,,,,,,,,,,,,,,,,,,,,,,,,,,,,,,,,,,,,,,,,,,,,,,,,,,,,,,,,,,
1720415980,98,0,4317.692383,4296.410156,4297.436035,4279.487305,4254.358887,4267.179688,4258.333496,4244.230957,4242.94873,4232.563965,4488.717773,4465.512695,4357.436035,4617.820313,,,,,,,,,,,,,,,,,,,,,,,,,,,,,,,,,,,,,,,,,,,,,,,,,,,,,,,,,,,,,,,,,,,,,,
1720415980,99,0,4331.666504,4310.512695,4302.179688,4284.230957,4262.436035,4265,4265.641113,4251.410156,4246.538574,4233.333496,4496.666504,4476.025879,4371.025879,4650.769043,,,,,,,,,,,,,,,,,,,,,,,,,,,,,,,,,,,,,,,,,,,,,,,,,,,,,,,,,,,,,,,,,,,,,,
1720415980,100,0,4327.820313,4304.102539,4294.743652,4278.333496,4256.922852,4249.615234,4253.461426,4252.179688,4246.922852,4234.230957,4491.922852,4469.615234,4366.282227,4656.794922,,,,,,,,,,,,,,,,,,,,,,,,,,,,,,,,,,,,,,,,,,,,,,,,,,,,,,,,,,,,,,,,,,,,,,
1720415980,101,0,4318.333496,4296.282227,4289.743652,4276.153809,4246.666504,4245.256348,4247.563965,4248.205078,4246.666504,4237.94873,4489.487305,4458.077148,4357.307617,4654.871582,,,,,,,,,,,,,,,,,,,,,,,,,,,,,,,,,,,,,,,,,,,,,,,,,,,,,,,,,,,,,,,,,,,,,,
1720415980,102,0,4326.666504,4307.692383,4296.025879,4281.922852,4252.563965,4248.974121,4255.128418,4250.897461,4249.743652,4248.717773,4488.717773,4463.846191,4363.589844,4674.358887,,,,,,,,,,,,,,,,,,,,,,,,,,,,,,,,,,,,,,,,,,,,,,,,,,,,,,,,,,,,,,,,,,,,,,
1720415980,103,0,4330,4311.922852,4297.307617,4282.94873,4258.717773,4248.717773,4255.128418,4250.512695,4249.871582,4246.410156,4482.179688,4467.05127,4366.794922,4695,,,,,,,,,,,,,,,,,,,,,,,,,,,,,,,,,,,,,,,,,,,,,,,,,,,,,,,,,,,,,,,,,,,,,,
1720415980,104,0,4318.077148,4304.871582,4288.974121,4285.769043,4248.846191,4248.205078,4247.820313,4246.794922,4247.307617,4229.358887,4481.794922,4456.282227,4358.974121,4706.666504,,,,,,,,,,,,,,,,,,,,,,,,,,,,,,,,,,,,,,,,,,,,,,,,,,,,,,,,,,,,,,,,,,,,,,
1720415980,105,0,4311.794922,4303.589844,4283.077148,4288.974121,4240.641113,4246.410156,4247.563965,4246.410156,4245.897461,4227.692383,4484.102539,4449.487305,4356.666504,4707.05127,,,,,,,,,,,,,,,,,,,,,,,,,,,,,,,,,,,,,,,,,,,,,,,,,,,,,,,,,,,,,,,,,,,,,,
1720415980,106,0,4315.128418,4303.717773,4285,4282.820313,4249.487305,4247.94873,4248.461426,4248.333496,4247.179688,4241.538574,4489.102539,4456.666504,4363.717773,4706.025879,,,,,,,,,,,,,,,,,,,,,,,,,,,,,,,,,,,,,,,,,,,,,,,,,,,,,,,,,,,,,,,,,,,,,,
1720415980,107,0,4317.436035,4299.615234,4286.666504,4277.436035,4256.922852,4252.179688,4247.436035,4247.820313,4247.307617,4239.871582,4490.384766,4463.333496,4364.615234,4720.128418,,,,,,,,,,,,,,,,,,,,,,,,,,,,,,,,,,,,,,,,,,,,,,,,,,,,,,,,,,,,,,,,,,,,,,
1720415980,108,0,4311.153809,4297.563965,4280.128418,4280.384766,4251.282227,4253.333496,4248.717773,4245.256348,4246.666504,4231.538574,4473.846191,4453.589844,4358.205078,4713.333496,,,,,,,,,,,,,,,,,,,,,,,,,,,,,,,,,,,,,,,,,,,,,,,,,,,,,,,,,,,,,,,,,,,,,,
1720415980,109,0,4304.102539,4293.461426,4272.179688,4277.436035,4246.282227,4248.589844,4245.641113,4242.436035,4247.179688,4230.512695,4463.589844,4441.794922,4353.717773,4688.717773,,,,,,,,,,,,,,,,,,,,,,,,,,,,,,,,,,,,,,,,,,,,,,,,,,,,,,,,,,,,,,,,,,,,,,
1720415980,110,0,4306.922852,4293.077148,4276.282227,4272.94873,4250.769043,4245.384766,4244.487305,4241.666504,4248.205078,4234.871582,4479.230957,4448.077148,4358.846191,4684.871582,,,,,,,,,,,,,,,,,,,,,,,,,,,,,,,,,,,,,,,,,,,,,,,,,,,,,,,,,,,,,,,,,,,,,,
1720415980,111,0,4313.589844,4303.974121,4282.179688,4286.025879,4250.384766,4254.743652,4248.717773,4242.94873,4249.230957,4245.769043,4492.820313,4458.205078,4366.794922,4689.230957,1.035467,2.121333,0.714868,0.380489,0.185816,1.415603,3.752198,1.943301,0.604392,0.372971,1.867171,2.511114,0.979784,0.404482,0.355173,1.095827,2.217875,0.925837,0.588374,0.567897,0.64966,0.60775,0.527923,0.312993,0.354857,0.630987,0.584011,0.428245,0.463025,0.24377,0.990463,0.721635,0.701861,0.237731,0.203511,1.225391,0.83599,0.439094,0.153469,0.230053,0.886481,0.569012,0.317967,0.22069,0.183969,0.694643,0.948475,0.353959,0.394939,0.411367,1.33821,2.101491,1.159519,0.715897,0.414252,2.409932,3.963466,1.444332,0.72874,0.422918,1.011855,1.493841,0.531186,0.386001,0.265576,244.338928,13.502788,5.407086,1.051597,0.422127
1720415980,112,0,4316.666504,4307.94873,4282.436035,4296.282227,4243.205078,4261.794922,4251.282227,4245.641113,4246.666504,4247.307617,4492.820313,4462.692383,4368.846191,4684.871582,,,,,,,,,,,,,,,,,,,,,,,,,,,,,,,,,,,,,,,,,,,,,,,,,,,,,,,,,,,,,,,,,,,,,,
1720415980,113,0,4314.871582,4301.666504,4285.256348,4286.282227,4251.025879,4255.256348,4248.077148,4246.410156,4243.589844,4240.256348,4490.641113,4466.410156,4371.794922,4669.102539,,,,,,,,,,,,,,,,,,,,,,,,,,,,,,,,,,,,,,,,,,,,,,,,,,,,,,,,,,,,,,,,,,,,,,
1720415980,114,0,4314.743652,4299.487305,4290.128418,4277.820313,4266.410156,4253.205078,4250.897461,4247.692383,4248.077148,4245.769043,4491.153809,4473.333496,4376.794922,4659.487305,,,,,,,,,,,,,,,,,,,,,,,,,,,,,,,,,,,,,,,,,,,,,,,,,,,,,,,,,,,,,,,,,,,,,,
1720415980,115,0,4315.256348,4300.897461,4288.205078,4284.230957,4265.128418,4257.692383,4257.179688,4250.769043,4255.128418,4255.641113,4492.94873,4478.846191,4376.538574,4660.512695,,,,,,,,,,,,,,,,,,,,,,,,,,,,,,,,,,,,,,,,,,,,,,,,,,,,,,,,,,,,,,,,,,,,,,
1720415980,116,0,4309.102539,4295.256348,4280.128418,4288.333496,4252.179688,4250.512695,4251.666504,4248.717773,4250.384766,4248.461426,4488.846191,4474.487305,4368.589844,4644.358887,,,,,,,,,,,,,,,,,,,,,,,,,,,,,,,,,,,,,,,,,,,,,,,,,,,,,,,,,,,,,,,,,,,,,,
1720415980,117,0,4309.230957,4297.692383,4288.589844,4289.102539,4245.256348,4247.179688,4246.922852,4248.333496,4248.077148,4245.641113,4494.487305,4475.256348,4369.358887,4625,,,,,,,,,,,,,,,,,,,,,,,,,,,,,,,,,,,,,,,,,,,,,,,,,,,,,,,,,,,,,,,,,,,,,,
1720415980,118,0,4317.563965,4307.179688,4298.589844,4296.538574,4245.512695,4255,4250,4253.077148,4258.974121,4257.563965,4505.897461,4485.769043,4383.205078,4625.769043,,,,,,,,,,,,,,,,,,,,,,,,,,,,,,,,,,,,,,,,,,,,,,,,,,,,,,,,,,,,,,,,,,,,,,
1720415980,119,0,4311.410156,4301.025879,4282.94873,4293.205078,4246.538574,4251.538574,4246.538574,4249.487305,4259.358887,4254.743652,4493.077148,4476.538574,4379.358887,4609.230957,,,,,,,,,,,,,,,,,,,,,,,,,,,,,,,,,,,,,,,,,,,,,,,,,,,,,,,,,,,,,,,,,,,,,,
1720415980,120,0,4303.846191,4293.717773,4270.641113,4283.589844,4247.179688,4245.384766,4243.717773,4243.974121,4248.974121,4242.692383,4476.025879,4459.743652,4362.692383,4591.794922,,,,,,,,,,,,,,,,,,,,,,,,,,,,,,,,,,,,,,,,,,,,,,,,,,,,,,,,,,,,,,,,,,,,,,
1720415980,121,0,4312.563965,4293.717773,4279.615234,4281.410156,4246.538574,4249.487305,4249.230957,4247.307617,4246.922852,4242.05127,4482.94873,4466.025879,4368.205078,4603.077148,,,,,,,,,,,,,,,,,,,,,,,,,,,,,,,,,,,,,,,,,,,,,,,,,,,,,,,,,,,,,,,,,,,,,,
1720415980,122,0,4314.487305,4295.769043,4283.205078,4285.128418,4250.128418,4258.333496,4250.897461,4250,4252.179688,4247.436035,4496.153809,4475.769043,4379.487305,4588.205078,,,,,,,,,,,,,,,,,,,,,,,,,,,,,,,,,,,,,,,,,,,,,,,,,,,,,,,,,,,,,,,,,,,,,,
1720415980,123,0,4309.487305,4298.974121,4278.205078,4292.94873,4253.589844,4260.641113,4249.871582,4253.333496,4251.410156,4246.153809,4490.512695,4470.769043,4370.256348,4563.333496,,,,,,,,,,,,,,,,,,,,,,,,,,,,,,,,,,,,,,,,,,,,,,,,,,,,,,,,,,,,,,,,,,,,,,
1720415980,124,0,4311.666504,4297.94873,4282.692383,4297.307617,4249.871582,4257.179688,4251.794922,4259.487305,4249.102539,4248.846191,4475.897461,4473.333496,4361.922852,4571.153809,,,,,,,,,,,,,,,,,,,,,,,,,,,,,,,,,,,,,,,,,,,,,,,,,,,,,,,,,,,,,,,,,,,,,,
1720415980,125,0,4306.666504,4294.871582,4283.717773,4291.025879,4246.282227,4255.384766,4249.102539,4252.94873,4249.230957,4248.077148,4477.05127,4475.769043,4368.333496,4574.871582,,,,,,,,,,,,,,,,,,,,,,,,,,,,,,,,,,,,,,,,,,,,,,,,,,,,,,,,,,,,,,,,,,,,,,
1720415980,126,0,4301.410156,4291.922852,4280.256348,4279.487305,4247.563965,4253.077148,4247.436035,4245.641113,4247.179688,4236.153809,4491.538574,4467.307617,4369.871582,4569.230957,,,,,,,,,,,,,,,,,,,,,,,,,,,,,,,,,,,,,,,,,,,,,,,,,,,,,,,,,,,,,,,,,,,,,,
1720415980,127,0,4307.05127,4288.461426,4282.05127,4276.794922,4247.179688,4248.461426,4250.256348,4253.205078,4246.282227,4237.563965,4493.461426,4463.589844,4366.794922,4560.641113,0.973445,1.626614,0.52868,0.327568,0.189409,1.354959,3.316492,1.785515,0.571401,0.364618,2.17403,1.958066,0.77449,0.359412,0.35899,1.146789,1.842879,0.837159,0.544586,0.557623,0.735691,0.500037,0.410699,0.273575,0.347658,0.658963,0.35456,0.406903,0.428226,0.217781,1.028184,0.522534,0.646916,0.242678,0.200774,1.216134,0.676399,0.420403,0.158532,0.242058,0.922463,0.578859,0.332949,0.214844,0.176987,0.745603,0.799759,0.310587,0.375387,0.390164,1.388769,1.792484,1.172418,0.661168,0.38748,2.554146,3.033035,1.225581,0.61585,0.391731,1.112751,1.196535,0.4827,0.332662,0.245867,235.741531,14.065571,5.283899,1.129142,0.428966
1720415980,0,0,4310.769043,4288.589844,4285.512695,4284.871582,4243.846191,4248.717773,4249.615234,4261.410156,4250.256348,4249.102539,4487.94873,4471.922852,4373.589844,4548.333496,,,,,,,,,,,,,,,,,,,,,,,,,,,,,,,,,,,,,,,,,,,,,,,,,,,,,,,,,,,,,,,,,,,,,,
1720415980,1,0,4312.179688,4294.871582,4291.410156,4293.333496,4242.820313,4253.077148,4252.692383,4261.153809,4256.282227,4247.179688,4497.820313,4483.717773,4381.282227,4544.871582,,,,,,,,,,,,,,,,,,,,,,,,,,,,,,,,,,,,,,,,,,,,,,,,,,,,,,,,,,,,,,,,,,,,,,
1720415981,2,0,4313.205078,4296.025879,4289.230957,4295.512695,4244.871582,4249.358887,4256.025879,4260.128418,4257.179688,4240.897461,4505,4481.922852,4379.743652,4530.256348,,,,,,,,,,,,,,,,,,,,,,,,,,,,,,,,,,,,,,,,,,,,,,,,,,,,,,,,,,,,,,,,,,,,,,
1720415981,3,0,4308.461426,4293.974121,4282.307617,4294.230957,4248.846191,4250,4253.589844,4261.282227,4259.230957,4252.05127,4506.282227,4476.025879,4376.538574,4500.512695,,,,,,,,,,,,,,,,,,,,,,,,,,,,,,,,,,,,,,,,,,,,,,,,,,,,,,,,,,,,,,,,,,,,,,
1720415981,4,0,4303.077148,4297.05127,4283.589844,4295,4249.743652,4258.077148,4256.410156,4263.333496,4260,4252.820313,4504.230957,4479.358887,4377.563965,4475.897461,,,,,,,,,,,,,,,,,,,,,,,,,,,,,,,,,,,,,,,,,,,,,,,,,,,,,,,,,,,,,,,,,,,,,,
1720415981,5,0,4305.512695,4298.846191,4289.743652,4296.282227,4246.666504,4255.128418,4257.179688,4264.102539,4256.922852,4236.794922,4491.794922,4482.05127,4382.820313,4438.717773,,,,,,,,,,,,,,,,,,,,,,,,,,,,,,,,,,,,,,,,,,,,,,,,,,,,,,,,,,,,,,,,,,,,,,
1720415981,6,0,4304.743652,4295.128418,4289.358887,4294.615234,4242.307617,4245.128418,4249.487305,4261.153809,4255.897461,4235.641113,4483.205078,4477.436035,4380.897461,4389.743652,,,,,,,,,,,,,,,,,,,,,,,,,,,,,,,,,,,,,,,,,,,,,,,,,,,,,,,,,,,,,,,,,,,,,,
1720415981,7,0,4300.897461,4289.102539,4288.846191,4291.794922,4242.05127,4251.538574,4253.333496,4261.282227,4259.871582,4250.512695,4484.102539,4476.538574,4371.794922,4370.512695,,,,,,,,,,,,,,,,,,,,,,,,,,,,,,,,,,,,,,,,,,,,,,,,,,,,,,,,,,,,,,,,,,,,,,
1720415981,8,0,4302.307617,4288.974121,4292.436035,4290.256348,4247.692383,4263.846191,4263.461426,4264.230957,4265.641113,4258.333496,4489.230957,4484.743652,4370,4358.974121,,,,,,,,,,,,,,,,,,,,,,,,,,,,,,,,,,,,,,,,,,,,,,,,,,,,,,,,,,,,,,,,,,,,,,
1720415981,9,0,4306.410156,4293.974121,4292.94873,4289.230957,4249.358887,4260.384766,4262.563965,4264.615234,4265.256348,4251.794922,4498.846191,4488.077148,4379.615234,4336.922852,,,,,,,,,,,,,,,,,,,,,,,,,,,,,,,,,,,,,,,,,,,,,,,,,,,,,,,,,,,,,,,,,,,,,,
1720415981,10,0,4309.615234,4295.769043,4294.358887,4294.102539,4245.512695,4254.230957,4257.307617,4265.512695,4259.230957,4251.153809,4504.230957,4491.153809,4387.436035,4321.025879,,,,,,,,,,,,,,,,,,,,,,,,,,,,,,,,,,,,,,,,,,,,,,,,,,,,,,,,,,,,,,,,,,,,,,
1720415981,11,0,4306.538574,4294.102539,4295.512695,4295.512695,4244.487305,4252.179688,4254.230957,4264.871582,4252.692383,4249.743652,4498.589844,4489.358887,4382.307617,4297.563965,,,,,,,,,,,,,,,,,,,,,,,,,,,,,,,,,,,,,,,,,,,,,,,,,,,,,,,,,,,,,,,,,,,,,,
1720415981,12,0,4299.615234,4288.333496,4295.128418,4281.538574,4246.666504,4250.128418,4256.025879,4261.922852,4249.102539,4239.230957,4495.128418,4480.897461,4372.436035,4275.256348,,,,,,,,,,,,,,,,,,,,,,,,,,,,,,,,,,,,,,,,,,,,,,,,,,,,,,,,,,,,,,,,,,,,,,
1720415981,13,0,4297.820313,4286.410156,4294.743652,4275,4247.307617,4253.589844,4258.974121,4258.717773,4245.897461,4236.922852,4499.102539,4480.128418,4369.615234,4261.410156,,,,,,,,,,,,,,,,,,,,,,,,,,,,,,,,,,,,,,,,,,,,,,,,,,,,,,,,,,,,,,,,,,,,,,
1720415981,14,0,4309.871582,4304.102539,4303.077148,4300.256348,4248.333496,4257.94873,4262.05127,4262.179688,4246.794922,4247.94873,4506.538574,4495.384766,4381.153809,4247.692383,,,,,,,,,,,,,,,,,,,,,,,,,,,,,,,,,,,,,,,,,,,,,,,,,,,,,,,,,,,,,,,,,,,,,,
1720415981,15,0,4318.846191,4316.153809,4312.179688,4315.512695,4251.153809,4259.615234,4269.871582,4268.205078,4250.769043,4254.871582,4513.333496,4506.794922,4390.641113,4231.153809,0.957622,1.13273,0.369796,0.290702,0.193484,1.338862,2.638101,1.46333,0.516706,0.355379,2.354756,1.469283,0.639368,0.340335,0.357169,1.240224,1.458637,0.752129,0.526142,0.546677,0.758858,0.407039,0.343658,0.25233,0.330633,0.641424,0.207493,0.421477,0.40221,0.192709,0.992925,0.391283,0.610763,0.25023,0.201309,1.164696,0.542388,0.475729,0.17105,0.253044,0.963089,0.641219,0.3953,0.200661,0.180498,0.790141,0.618986,0.334536,0.362302,0.36157,1.413772,1.498412,1.24686,0.603717,0.373471,2.641213,2.165761,1.142083,0.537232,0.367534,1.206949,0.932319,0.469815,0.30003,0.238197,203.982803,14.744616,5.126032,1.153119,0.450334
1720415981,16,0,4306.538574,4299.487305,4301.153809,4296.794922,4250,4259.358887,4268.717773,4264.871582,4247.94873,4250.128418,4505.769043,4496.666504,4381.025879,4199.871582,,,,,,,,,,,,,,,,,,,,,,,,,,,,,,,,,,,,,,,,,,,,,,,,,,,,,,,,,,,,,,,,,,,,,,
1720415981,17,0,4299.871582,4294.871582,4289.615234,4293.589844,4247.820313,4254.871582,4258.077148,4258.974121,4243.846191,4247.94873,4495.897461,4486.410156,4371.666504,4163.333496,,,,,,,,,,,,,,,,,,,,,,,,,,,,,,,,,,,,,,,,,,,,,,,,,,,,,,,,,,,,,,,,,,,,,,
1720415981,18,0,4311.025879,4309.487305,4296.153809,4307.436035,4248.589844,4249.487305,4252.94873,4261.666504,4247.692383,4245.897461,4492.692383,4486.025879,4372.436035,4135.769043,,,,,,,,,,,,,,,,,,,,,,,,,,,,,,,,,,,,,,,,,,,,,,,,,,,,,,,,,,,,,,,,,,,,,,
1720415981,19,0,4310.512695,4303.846191,4298.717773,4297.179688,4250,4249.487305,4251.666504,4265.128418,4256.538574,4246.794922,4488.333496,4487.179688,4371.922852,4109.230957,,,,,,,,,,,,,,,,,,,,,,,,,,,,,,,,,,,,,,,,,,,,,,,,,,,,,,,,,,,,,,,,,,,,,,
1720415981,20,0,4298.077148,4294.487305,4292.820313,4286.282227,4248.333496,4251.794922,4251.538574,4262.05127,4263.205078,4252.179688,4492.179688,4488.589844,4370.128418,4076.538574,,,,,,,,,,,,,,,,,,,,,,,,,,,,,,,,,,,,,,,,,,,,,,,,,,,,,,,,,,,,,,,,,,,,,,
1720415981,21,0,4308.205078,4308.461426,4302.820313,4303.333496,4251.538574,4258.846191,4262.05127,4265.897461,4265.769043,4251.282227,4507.307617,4495.384766,4378.846191,4061.025635,,,,,,,,,,,,,,,,,,,,,,,,,,,,,,,,,,,,,,,,,,,,,,,,,,,,,,,,,,,,,,,,,,,,,,
1720415981,22,0,4318.333496,4316.025879,4312.307617,4310.512695,4253.846191,4265.128418,4267.436035,4273.077148,4259.358887,4248.589844,4505.769043,4496.153809,4381.794922,4044.871826,,,,,,,,,,,,,,,,,,,,,,,,,,,,,,,,,,,,,,,,,,,,,,,,,,,,,,,,,,,,,,,,,,,,,,
1720415981,23,0,4303.077148,4305.256348,4298.974121,4293.846191,4240.256348,4257.94873,4255.897461,4263.589844,4249.743652,4251.410156,4491.282227,4481.922852,4370.641113,4016.794922,,,,,,,,,,,,,,,,,,,,,,,,,,,,,,,,,,,,,,,,,,,,,,,,,,,,,,,,,,,,,,,,,,,,,,
1720415981,24,0,4297.179688,4305.512695,4290.897461,4293.589844,4230,4248.333496,4251.922852,4251.153809,4246.153809,4245.256348,4493.077148,4471.922852,4367.05127,4007.435791,,,,,,,,,,,,,,,,,,,,,,,,,,,,,,,,,,,,,,,,,,,,,,,,,,,,,,,,,,,,,,,,,,,,,,
1720415981,25,0,4303.461426,4313.205078,4295.128418,4305,4239.487305,4247.94873,4253.974121,4249.102539,4239.871582,4232.307617,4491.538574,4474.102539,4365.897461,3993.589844,,,,,,,,,,,,,,,,,,,,,,,,,,,,,,,,,,,,,,,,,,,,,,,,,,,,,,,,,,,,,,,,,,,,,,
1720415981,26,0,4298.717773,4305.256348,4291.153809,4297.94873,4246.922852,4247.563965,4250.769043,4250.128418,4230.897461,4229.358887,4481.538574,4472.563965,4357.436035,3964.358887,,,,,,,,,,,,,,,,,,,,,,,,,,,,,,,,,,,,,,,,,,,,,,,,,,,,,,,,,,,,,,,,,,,,,,
1720415981,27,0,4295.256348,4298.077148,4288.077148,4288.077148,4246.153809,4248.333496,4247.563965,4254.102539,4238.205078,4234.743652,4490.641113,4472.05127,4359.358887,3956.923096,,,,,,,,,,,,,,,,,,,,,,,,,,,,,,,,,,,,,,,,,,,,,,,,,,,,,,,,,,,,,,,,,,,,,,
1720415981,28,0,4300.512695,4305.128418,4295.256348,4293.333496,4247.94873,4250.128418,4245.897461,4256.922852,4250,4241.025879,4498.589844,4477.94873,4367.94873,3955.128174,,,,,,,,,,,,,,,,,,,,,,,,,,,,,,,,,,,,,,,,,,,,,,,,,,,,,,,,,,,,,,,,,,,,,,
1720415981,29,0,4303.077148,4308.461426,4297.05127,4297.307617,4249.358887,4247.436035,4248.974121,4255.769043,4244.487305,4246.282227,4493.589844,4481.538574,4368.461426,3933.333252,,,,,,,,,,,,,,,,,,,,,,,,,,,,,,,,,,,,,,,,,,,,,,,,,,,,,,,,,,,,,,,,,,,,,,
1720415981,30,0,4306.025879,4306.794922,4296.025879,4300.512695,4248.974121,4251.410156,4256.538574,4258.461426,4240.769043,4250.128418,4500,4486.666504,4371.538574,3919.615479,,,,,,,,,,,,,,,,,,,,,,,,,,,,,,,,,,,,,,,,,,,,,,,,,,,,,,,,,,,,,,,,,,,,,,
1720415981,31,0,4311.282227,4306.410156,4297.94873,4304.615234,4250.641113,4261.282227,4257.05127,4264.358887,4249.230957,4248.205078,4514.743652,4491.922852,4376.666504,3919.487061,0.892578,0.723795,0.269126,0.268387,0.196222,1.300275,1.850884,1.073364,0.456099,0.343204,2.412049,1.073318,0.584024,0.334992,0.346508,1.361231,1.122319,0.676705,0.529783,0.534325,0.721869,0.327869,0.326609,0.245539,0.305543,0.596533,0.153482,0.47618,0.382617,0.17646,0.910489,0.322915,0.591412,0.253937,0.204645,1.092282,0.455059,0.570085,0.182536,0.257996,1.023849,0.735789,0.487941,0.180404,0.190033,0.828153,0.45758,0.399573,0.359166,0.331529,1.393482,1.275844,1.343062,0.551734,0.371519,2.687695,1.470639,1.183874,0.488955,0.353397,1.243481,0.741088,0.490961,0.284907,0.241815,155.51918,15.087242,4.832967,1.11923,0.47847
1720415981,32,0,4306.922852,4298.077148,4295.256348,4298.333496,4246.153809,4255.256348,4250.641113,4259.230957,4247.179688,4238.333496,4505.128418,4482.436035,4368.205078,3902.692383,,,,,,,,,,,,,,,,,,,,,,,,,,,,,,,,,,,,,,,,,,,,,,,,,,,,,,,,,,,,,,,,,,,,,,
1720415981,33,0,4301.282227,4290.512695,4293.077148,4291.410156,4233.461426,4245,4247.820313,4249.102539,4235.512695,4229.358887,4485.641113,4470.769043,4356.153809,3882.94873,,,,,,,,,,,,,,,,,,,,,,,,,,,,,,,,,,,,,,,,,,,,,,,,,,,,,,,,,,,,,,,,,,,,,,
1720415981,34,0,4302.692383,4292.05127,4299.102539,4295.641113,4229.487305,4256.922852,4252.94873,4255.384766,4240.897461,4240.256348,4488.077148,4480.641113,4356.025879,3886.281982,,,,,,,,,,,,,,,,,,,,,,,,,,,,,,,,,,,,,,,,,,,,,,,,,,,,,,,,,,,,,,,,,,,,,,
1720415981,35,0,4305.512695,4290,4302.307617,4294.743652,4241.922852,4263.846191,4258.717773,4265.769043,4252.307617,4252.307617,4497.820313,4492.436035,4361.410156,3899.102539,,,,,,,,,,,,,,,,,,,,,,,,,,,,,,,,,,,,,,,,,,,,,,,,,,,,,,,,,,,,,,,,,,,,,,
1720415981,36,0,4298.333496,4288.205078,4295.769043,4288.333496,4248.974121,4248.333496,4252.692383,4257.05127,4244.230957,4237.05127,4491.410156,4481.794922,4359.615234,3902.179443,,,,,,,,,,,,,,,,,,,,,,,,,,,,,,,,,,,,,,,,,,,,,,,,,,,,,,,,,,,,,,,,,,,,,,
1720415981,37,0,4289.615234,4292.307617,4291.153809,4291.538574,4241.794922,4241.794922,4242.307617,4245.512695,4235.128418,4224.871582,4484.615234,4469.871582,4352.563965,3916.666748,,,,,,,,,,,,,,,,,,,,,,,,,,,,,,,,,,,,,,,,,,,,,,,,,,,,,,,,,,,,,,,,,,,,,,
1720415981,38,0,4298.589844,4296.025879,4296.410156,4295.897461,4245.384766,4250.128418,4248.461426,4254.615234,4244.230957,4239.871582,4495.769043,4481.922852,4354.487305,3946.666748,,,,,,,,,,,,,,,,,,,,,,,,,,,,,,,,,,,,,,,,,,,,,,,,,,,,,,,,,,,,,,,,,,,,,,
1720415981,39,0,4312.307617,4301.922852,4298.589844,4296.922852,4255.384766,4253.205078,4255.897461,4263.077148,4249.230957,4250.256348,4500.641113,4492.307617,4359.102539,3956.538574,,,,,,,,,,,,,,,,,,,,,,,,,,,,,,,,,,,,,,,,,,,,,,,,,,,,,,,,,,,,,,,,,,,,,,
1720415981,40,0,4310.641113,4302.692383,4294.102539,4302.307617,4249.743652,4249.615234,4248.205078,4257.820313,4240.641113,4238.589844,4500.384766,4481.282227,4356.794922,3953.589844,,,,,,,,,,,,,,,,,,,,,,,,,,,,,,,,,,,,,,,,,,,,,,,,,,,,,,,,,,,,,,,,,,,,,,
1720415981,41,0,4302.179688,4293.333496,4293.077148,4301.538574,4244.871582,4249.871582,4245.256348,4253.717773,4236.794922,4229.487305,4504.358887,4470.769043,4351.922852,3960.128174,,,,,,,,,,,,,,,,,,,,,,,,,,,,,,,,,,,,,,,,,,,,,,,,,,,,,,,,,,,,,,,,,,,,,,
1720415981,42,0,4306.922852,4294.230957,4295.384766,4295.512695,4251.153809,4250.384766,4248.461426,4250.769043,4238.974121,4237.820313,4497.436035,4474.102539,4351.153809,3980.641113,,,,,,,,,,,,,,,,,,,,,,,,,,,,,,,,,,,,,,,,,,,,,,,,,,,,,,,,,,,,,,,,,,,,,,
1720415981,43,0,4313.717773,4300.384766,4293.205078,4294.743652,4246.666504,4250.769043,4247.692383,4248.717773,4237.05127,4244.230957,4489.230957,4474.358887,4354.743652,4009.487061,,,,,,,,,,,,,,,,,,,,,,,,,,,,,,,,,,,,,,,,,,,,,,,,,,,,,,,,,,,,,,,,,,,,,,
1720415981,44,0,4303.333496,4288.846191,4284.102539,4290,4236.666504,4251.922852,4245.641113,4246.794922,4231.922852,4237.436035,4490.641113,4464.487305,4354.358887,4034.358887,,,,,,,,,,,,,,,,,,,,,,,,,,,,,,,,,,,,,,,,,,,,,,,,,,,,,,,,,,,,,,,,,,,,,,
1720415981,45,0,4289.358887,4271.153809,4272.179688,4276.794922,4239.230957,4248.077148,4243.717773,4241.922852,4228.974121,4223.717773,4482.820313,4454.102539,4342.692383,4068.333252,,,,,,,,,,,,,,,,,,,,,,,,,,,,,,,,,,,,,,,,,,,,,,,,,,,,,,,,,,,,,,,,,,,,,,
1720415981,46,0,4295.512695,4279.487305,4276.153809,4281.025879,4253.974121,4252.05127,4252.436035,4250.769043,4238.077148,4221.282227,4477.692383,4461.025879,4340.128418,4141.410156,,,,,,,,,,,,,,,,,,,,,,,,,,,,,,,,,,,,,,,,,,,,,,,,,,,,,,,,,,,,,,,,,,,,,,
1720415981,47,0,4309.871582,4298.717773,4291.794922,4300.769043,4262.436035,4265.641113,4267.563965,4267.692383,4251.282227,4231.153809,4495.769043,4477.436035,4353.333496,4222.820313,0.798022,0.449312,0.229076,0.257564,0.198065,1.250871,1.126925,0.72215,0.405916,0.327455,2.393921,0.790937,0.578768,0.333718,0.327107,1.489879,0.88288,0.608372,0.55456,0.518138,0.648496,0.267672,0.341383,0.246964,0.277317,0.547417,0.175368,0.551636,0.365636,0.171824,0.818371,0.301807,0.57231,0.251634,0.208263,1.008871,0.409407,0.65368,0.187879,0.252945,1.09068,0.82021,0.581745,0.159365,0.198216,0.857474,0.353088,0.464344,0.367962,0.307038,1.33738,1.163628,1.409658,0.523598,0.37604,2.713429,1.008462,1.280065,0.464286,0.348223,1.204155,0.635648,0.5263,0.282323,0.253415,104.918259,14.942759,4.367429,1.04071,0.504346
1720415981,48,0,4303.077148,4291.410156,4284.615234,4296.538574,4252.05127,4262.05127,4262.307617,4261.794922,4245.897461,4235.256348,4493.205078,4467.179688,4345.769043,4263.589844,,,,,,,,,,,,,,,,,,,,,,,,,,,,,,,,,,,,,,,,,,,,,,,,,,,,,,,,,,,,,,,,,,,,,,
1720415981,49,0,4295.512695,4279.358887,4272.94873,4283.717773,4249.102539,4250.128418,4251.666504,4253.846191,4235.641113,4228.846191,4475.128418,4452.179688,4333.461426,4311.666504,,,,,,,,,,,,,,,,,,,,,,,,,,,,,,,,,,,,,,,,,,,,,,,,,,,,,,,,,,,,,,,,,,,,,,
1720415981,50,0,4303.333496,4289.230957,4285.384766,4290.128418,4262.820313,4255.384766,4259.230957,4263.077148,4243.974121,4227.692383,4484.871582,4469.230957,4348.589844,4391.153809,,,,,,,,,,,,,,,,,,,,,,,,,,,,,,,,,,,,,,,,,,,,,,,,,,,,,,,,,,,,,,,,,,,,,,
1720415981,51,0,4311.282227,4300.641113,4298.589844,4300.256348,4262.94873,4260.128418,4264.230957,4268.333496,4253.333496,4238.846191,4497.179688,4490.512695,4357.692383,4461.794922,,,,,,,,,,,,,,,,,,,,,,,,,,,,,,,,,,,,,,,,,,,,,,,,,,,,,,,,,,,,,,,,,,,,,,
1720415981,52,0,4313.974121,4297.94873,4301.153809,4297.563965,4254.743652,4258.205078,4260,4270.384766,4250.128418,4249.102539,4494.615234,4489.358887,4350.769043,4512.436035,,,,,,,,,,,,,,,,,,,,,,,,,,,,,,,,,,,,,,,,,,,,,,,,,,,,,,,,,,,,,,,,,,,,,,
1720415981,53,0,4309.102539,4293.333496,4300.769043,4289.358887,4267.05127,4259.615234,4259.871582,4275.128418,4247.820313,4251.282227,4501.538574,4485.384766,4357.563965,4540.512695,,,,,,,,,,,,,,,,,,,,,,,,,,,,,,,,,,,,,,,,,,,,,,,,,,,,,,,,,,,,,,,,,,,,,,
1720415981,54,0,4306.282227,4294.102539,4299.743652,4289.871582,4275.256348,4255.769043,4261.794922,4271.153809,4250.641113,4248.461426,4511.282227,4493.077148,4368.717773,4554.487305,,,,,,,,,,,,,,,,,,,,,,,,,,,,,,,,,,,,,,,,,,,,,,,,,,,,,,,,,,,,,,,,,,,,,,
1720415981,55,0,4310.384766,4297.179688,4303.717773,4296.794922,4266.282227,4253.333496,4261.282227,4263.717773,4248.077148,4245,4505.512695,4494.487305,4361.410156,4553.974121,,,,,,,,,,,,,,,,,,,,,,,,,,,,,,,,,,,,,,,,,,,,,,,,,,,,,,,,,,,,,,,,,,,,,,
1720415981,56,0,4312.94873,4305.128418,4311.794922,4304.487305,4270.128418,4262.692383,4259.743652,4263.461426,4243.717773,4246.538574,4505,4490.512695,4356.282227,4541.922852,,,,,,,,,,,,,,,,,,,,,,,,,,,,,,,,,,,,,,,,,,,,,,,,,,,,,,,,,,,,,,,,,,,,,,
1720415981,57,0,4317.94873,4311.794922,4315.128418,4308.589844,4275.641113,4268.333496,4260.641113,4270,4251.410156,4248.846191,4512.05127,4499.871582,4362.94873,4542.563965,,,,,,,,,,,,,,,,,,,,,,,,,,,,,,,,,,,,,,,,,,,,,,,,,,,,,,,,,,,,,,,,,,,,,,
1720415981,58,0,4320.256348,4308.333496,4312.307617,4306.153809,4267.563965,4266.025879,4263.333496,4272.94873,4261.025879,4249.743652,4507.692383,4507.307617,4363.461426,4542.820313,,,,,,,,,,,,,,,,,,,,,,,,,,,,,,,,,,,,,,,,,,,,,,,,,,,,,,,,,,,,,,,,,,,,,,
1720415981,59,0,4304.743652,4294.871582,4299.871582,4295,4261.025879,4264.230957,4262.94873,4266.153809,4253.333496,4246.666504,4500,4490.512695,4354.230957,4521.410156,,,,,,,,,,,,,,,,,,,,,,,,,,,,,,,,,,,,,,,,,,,,,,,,,,,,,,,,,,,,,,,,,,,,,,
1720415981,60,0,4293.974121,4287.820313,4290.769043,4287.05127,4261.666504,4260,4264.102539,4266.922852,4245.384766,4245.256348,4501.538574,4478.333496,4352.563965,4516.025879,,,,,,,,,,,,,,,,,,,,,,,,,,,,,,,,,,,,,,,,,,,,,,,,,,,,,,,,,,,,,,,,,,,,,,
1720415981,61,0,4307.307617,4297.820313,4303.589844,4298.589844,4266.410156,4262.179688,4271.538574,4280.897461,4258.077148,4246.282227,4508.717773,4494.102539,4369.871582,4536.410156,,,,,,,,,,,,,,,,,,,,,,,,,,,,,,,,,,,,,,,,,,,,,,,,,,,,,,,,,,,,,,,,,,,,,,
1720415981,62,0,4312.179688,4305.256348,4313.589844,4311.025879,4264.487305,4269.102539,4270.128418,4282.307617,4267.563965,4250,4506.666504,4499.487305,4375,4528.846191,,,,,,,,,,,,,,,,,,,,,,,,,,,,,,,,,,,,,,,,,,,,,,,,,,,,,,,,,,,,,,,,,,,,,,
1720415981,63,0,4301.538574,4295.897461,4304.615234,4301.153809,4251.794922,4262.692383,4262.820313,4274.487305,4258.205078,4255.897461,4500.384766,4486.794922,4359.230957,4511.025879,0.695217,0.315072,0.231228,0.253792,0.201692,1.197728,0.601983,0.477023,0.374748,0.310163,2.345272,0.634362,0.580702,0.332508,0.302398,1.601574,0.763151,0.538755,0.593859,0.497401,0.562452,0.236637,0.368047,0.251243,0.2511,0.507985,0.245273,0.620507,0.351006,0.175899,0.741758,0.31332,0.537844,0.247909,0.208288,0.920323,0.388209,0.688037,0.187359,0.236963,1.131399,0.867016,0.65015,0.144237,0.199004,0.862329,0.312411,0.494703,0.387566,0.294254,1.255922,1.162226,1.416753,0.534009,0.379686,2.738033,0.789101,1.340742,0.457785,0.348085,1.100793,0.60161,0.552938,0.28872,0.267714,64.967232,14.362976,3.722162,0.939056,0.520162
1720415981,64,0,4302.94873,4292.307617,4305.897461,4292.307617,4258.717773,4261.794922,4266.794922,4280,4258.333496,4260.641113,4506.410156,4495.769043,4361.153809,4518.846191,,,,,,,,,,,,,,,,,,,,,,,,,,,,,,,,,,,,,,,,,,,,,,,,,,,,,,,,,,,,,,,,,,,,,,
1720415981,65,0,4312.563965,4308.974121,4321.410156,4307.307617,4280.512695,4274.487305,4269.871582,4283.974121,4266.410156,4258.846191,4512.563965,4508.846191,4380.256348,4526.922852,,,,,,,,,,,,,,,,,,,,,,,,,,,,,,,,,,,,,,,,,,,,,,,,,,,,,,,,,,,,,,,,,,,,,,
1720415981,66,0,4315.128418,4314.871582,4321.794922,4315.641113,4272.436035,4271.153809,4264.102539,4271.153809,4257.179688,4251.666504,4507.563965,4496.282227,4381.025879,4529.487305,,,,,,,,,,,,,,,,,,,,,,,,,,,,,,,,,,,,,,,,,,,,,,,,,,,,,,,,,,,,,,,,,,,,,,
1720415981,67,0,4312.563965,4302.563965,4313.077148,4305.897461,4258.846191,4257.179688,4262.692383,4262.05127,4244.615234,4249.871582,4513.333496,4490.384766,4372.179688,4538.589844,,,,,,,,,,,,,,,,,,,,,,,,,,,,,,,,,,,,,,,,,,,,,,,,,,,,,,,,,,,,,,,,,,,,,,
1720415981,68,0,4315.256348,4306.025879,4316.025879,4307.05127,4266.153809,4261.666504,4265.256348,4271.410156,4246.282227,4247.05127,4521.282227,4509.615234,4373.846191,4556.410156,,,,,,,,,,,,,,,,,,,,,,,,,,,,,,,,,,,,,,,,,,,,,,,,,,,,,,,,,,,,,,,,,,,,,,
1720415981,69,0,4315,4313.205078,4319.358887,4312.179688,4266.538574,4265.897461,4263.717773,4278.333496,4250,4246.025879,4510.128418,4512.563965,4367.692383,4561.538574,,,,,,,,,,,,,,,,,,,,,,,,,,,,,,,,,,,,,,,,,,,,,,,,,,,,,,,,,,,,,,,,,,,,,,
1720415981,70,0,4306.666504,4301.153809,4314.487305,4306.538574,4261.794922,4257.179688,4263.589844,4270.256348,4249.230957,4260.128418,4506.794922,4495.384766,4359.487305,4556.538574,,,,,,,,,,,,,,,,,,,,,,,,,,,,,,,,,,,,,,,,,,,,,,,,,,,,,,,,,,,,,,,,,,,,,,
1720415981,71,0,4302.307617,4291.410156,4308.846191,4302.563965,4257.94873,4255.897461,4267.307617,4264.487305,4247.179688,4264.230957,4512.307617,4492.692383,4363.846191,4572.820313,,,,,,,,,,,,,,,,,,,,,,,,,,,,,,,,,,,,,,,,,,,,,,,,,,,,,,,,,,,,,,,,,,,,,,
1720415981,72,0,4295,4292.179688,4301.666504,4298.205078,4251.025879,4263.205078,4262.436035,4264.871582,4245.897461,4248.461426,4497.94873,4491.025879,4363.589844,4587.179688,,,,,,,,,,,,,,,,,,,,,,,,,,,,,,,,,,,,,,,,,,,,,,,,,,,,,,,,,,,,,,,,,,,,,,
1720415981,73,0,4291.922852,4294.615234,4293.589844,4292.94873,4252.307617,4261.025879,4251.153809,4263.461426,4248.846191,4239.230957,4484.102539,4477.179688,4353.974121,4562.94873,,,,,,,,,,,,,,,,,,,,,,,,,,,,,,,,,,,,,,,,,,,,,,,,,,,,,,,,,,,,,,,,,,,,,,
1720415981,74,0,4303.974121,4301.666504,4297.436035,4306.153809,4255.897461,4251.922852,4248.333496,4259.615234,4250.641113,4243.333496,4490.128418,4472.563965,4355.128418,4530.512695,,,,,,,,,,,,,,,,,,,,,,,,,,,,,,,,,,,,,,,,,,,,,,,,,,,,,,,,,,,,,,,,,,,,,,
1720415981,75,0,4312.436035,4305.512695,4308.205078,4317.563965,4250.641113,4249.230957,4248.846191,4258.589844,4246.794922,4244.615234,4494.615234,4478.974121,4366.666504,4526.666504,,,,,,,,,,,,,,,,,,,,,,,,,,,,,,,,,,,,,,,,,,,,,,,,,,,,,,,,,,,,,,,,,,,,,,
1720415981,76,0,4299.743652,4292.05127,4302.692383,4295.512695,4243.846191,4248.846191,4246.282227,4256.538574,4243.589844,4243.461426,4487.179688,4473.717773,4360.384766,4516.410156,,,,,,,,,,,,,,,,,,,,,,,,,,,,,,,,,,,,,,,,,,,,,,,,,,,,,,,,,,,,,,,,,,,,,,
1720415981,77,0,4293.717773,4284.358887,4291.153809,4279.230957,4245.641113,4248.333496,4253.974121,4259.615234,4243.974121,4244.871582,4483.205078,4470.128418,4350,4495.641113,,,,,,,,,,,,,,,,,,,,,,,,,,,,,,,,,,,,,,,,,,,,,,,,,,,,,,,,,,,,,,,,,,,,,,
1720415981,78,0,4306.153809,4296.282227,4298.461426,4294.615234,4257.436035,4257.179688,4269.871582,4274.743652,4250.384766,4248.461426,4491.538574,4486.282227,4358.461426,4492.94873,,,,,,,,,,,,,,,,,,,,,,,,,,,,,,,,,,,,,,,,,,,,,,,,,,,,,,,,,,,,,,,,,,,,,,
1720415981,79,0,4302.307617,4294.743652,4301.025879,4297.436035,4256.025879,4262.820313,4265.384766,4274.615234,4251.794922,4246.538574,4490.641113,4484.743652,4357.692383,4479.487305,0.60349,0.27526,0.24753,0.251573,0.211123,1.141253,0.313017,0.343555,0.359387,0.296335,2.276112,0.567186,0.548882,0.330281,0.278477,1.649639,0.725421,0.464751,0.632693,0.474791,0.484429,0.231492,0.398614,0.255018,0.231459,0.477959,0.331953,0.65121,0.337798,0.184089,0.684794,0.337089,0.477611,0.246074,0.202373,0.824319,0.373411,0.660324,0.183392,0.214273,1.116632,0.879152,0.681078,0.139494,0.192167,0.836252,0.319818,0.476172,0.412137,0.297197,1.157427,1.219288,1.348745,0.57916,0.378928,2.768093,0.730531,1.289196,0.463829,0.351583,0.953062,0.599902,0.547718,0.299718,0.280471,42.075302,13.320651,2.942408,0.838299,0.524761
1720415981,80,0,4287.94873,4279.487305,4284.871582,4283.333496,4231.282227,4249.871582,4249.230957,4255.384766,4239.358887,4234.487305,4474.358887,4457.820313,4341.025879,4458.461426,,,,,,,,,,,,,,,,,,,,,,,,,,,,,,,,,,,,,,,,,,,,,,,,,,,,,,,,,,,,,,,,,,,,,,
1720415981,81,0,4289.358887,4284.615234,4284.358887,4289.487305,4227.94873,4242.692383,4256.410156,4252.563965,4233.077148,4231.410156,4472.307617,4452.05127,4344.358887,4460.384766,,,,,,,,,,,,,,,,,,,,,,,,,,,,,,,,,,,,,,,,,,,,,,,,,,,,,,,,,,,,,,,,,,,,,,
1720415981,82,0,4295.897461,4301.153809,4297.94873,4302.436035,4252.563965,4253.077148,4265,4264.487305,4237.179688,4238.333496,4483.461426,4467.563965,4360,4471.794922,,,,,,,,,,,,,,,,,,,,,,,,,,,,,,,,,,,,,,,,,,,,,,,,,,,,,,,,,,,,,,,,,,,,,,
1720415981,83,0,4291.538574,4294.487305,4294.358887,4294.102539,4254.230957,4252.179688,4255.256348,4260.641113,4233.846191,4231.922852,4483.077148,4468.589844,4357.820313,4471.666504,,,,,,,,,,,,,,,,,,,,,,,,,,,,,,,,,,,,,,,,,,,,,,,,,,,,,,,,,,,,,,,,,,,,,,
1720415981,84,0,4293.077148,4287.820313,4292.05127,4289.743652,4241.922852,4244.871582,4252.05127,4257.94873,4236.922852,4231.666504,4488.846191,4470.512695,4357.94873,4477.05127,,,,,,,,,,,,,,,,,,,,,,,,,,,,,,,,,,,,,,,,,,,,,,,,,,,,,,,,,,,,,,,,,,,,,,
1720415981,85,0,4302.436035,4296.666504,4301.538574,4299.230957,4243.077148,4249.487305,4258.974121,4268.589844,4250,4247.05127,4498.717773,4484.615234,4364.615234,4487.307617,,,,,,,,,,,,,,,,,,,,,,,,,,,,,,,,,,,,,,,,,,,,,,,,,,,,,,,,,,,,,,,,,,,,,,
1720415981,86,0,4292.436035,4289.358887,4295,4295.512695,4244.358887,4253.717773,4259.230957,4265.769043,4241.666504,4238.717773,4480.769043,4475.384766,4352.05127,4469.102539,,,,,,,,,,,,,,,,,,,,,,,,,,,,,,,,,,,,,,,,,,,,,,,,,,,,,,,,,,,,,,,,,,,,,,
1720415981,87,0,4281.282227,4280.769043,4287.307617,4286.153809,4243.333496,4249.743652,4252.563965,4255.128418,4226.538574,4219.871582,4467.436035,4457.436035,4340.128418,4444.230957,,,,,,,,,,,,,,,,,,,,,,,,,,,,,,,,,,,,,,,,,,,,,,,,,,,,,,,,,,,,,,,,,,,,,,
1720415981,88,0,4295,4293.846191,4302.179688,4291.410156,4247.307617,4247.05127,4252.179688,4259.358887,4238.589844,4236.153809,4485.769043,4469.487305,4352.179688,4450.384766,,,,,,,,,,,,,,,,,,,,,,,,,,,,,,,,,,,,,,,,,,,,,,,,,,,,,,,,,,,,,,,,,,,,,,
1720415981,89,0,4307.179688,4302.05127,4310.897461,4299.487305,4249.615234,4249.102539,4258.333496,4266.410156,4250.384766,4253.461426,4490.897461,4482.436035,4362.307617,4457.436035,,,,,,,,,,,,,,,,,,,,,,,,,,,,,,,,,,,,,,,,,,,,,,,,,,,,,,,,,,,,,,,,,,,,,,
1720415981,90,0,4294.743652,4292.692383,4296.153809,4293.205078,4246.538574,4246.922852,4254.487305,4255.512695,4236.025879,4228.461426,4474.102539,4464.358887,4351.666504,4437.436035,,,,,,,,,,,,,,,,,,,,,,,,,,,,,,,,,,,,,,,,,,,,,,,,,,,,,,,,,,,,,,,,,,,,,,
1720415981,91,0,4288.589844,4286.922852,4286.922852,4288.974121,4246.025879,4245,4246.153809,4246.666504,4226.410156,4211.922852,4468.974121,4451.666504,4341.666504,4427.307617,,,,,,,,,,,,,,,,,,,,,,,,,,,,,,,,,,,,,,,,,,,,,,,,,,,,,,,,,,,,,,,,,,,,,,
1720415981,92,0,4298.589844,4286.538574,4289.743652,4292.692383,4250.384766,4247.307617,4247.05127,4248.717773,4231.538574,4225.512695,4469.615234,4457.436035,4345.641113,4428.717773,,,,,,,,,,,,,,,,,,,,,,,,,,,,,,,,,,,,,,,,,,,,,,,,,,,,,,,,,,,,,,,,,,,,,,
1720415981,93,0,4295.512695,4278.717773,4281.538574,4283.077148,4251.282227,4247.563965,4243.846191,4240.384766,4225.769043,4225.128418,4458.846191,4446.538574,4347.436035,4406.538574,,,,,,,,,,,,,,,,,,,,,,,,,,,,,,,,,,,,,,,,,,,,,,,,,,,,,,,,,,,,,,,,,,,,,,
1720415981,94,0,4286.794922,4275,4273.589844,4275.256348,4244.871582,4244.743652,4235.769043,4232.563965,4213.461426,4209.743652,4452.820313,4432.563965,4340.769043,4389.871582,,,,,,,,,,,,,,,,,,,,,,,,,,,,,,,,,,,,,,,,,,,,,,,,,,,,,,,,,,,,,,,,,,,,,,
1720415981,95,0,4296.794922,4287.94873,4284.743652,4292.692383,4245.641113,4246.794922,4243.205078,4241.538574,4218.333496,4212.692383,4466.538574,4448.333496,4345.128418,4394.487305,0.523561,0.283577,0.264088,0.245262,0.230086,1.051966,0.223476,0.300651,0.34779,0.293483,2.161731,0.551945,0.475399,0.326573,0.262655,1.58225,0.713158,0.408982,0.653757,0.45681,0.414283,0.248649,0.436469,0.254096,0.223161,0.444211,0.403729,0.624478,0.324608,0.193573,0.626452,0.352765,0.396027,0.248875,0.191691,0.718255,0.358981,0.58603,0.181718,0.19325,1.041418,0.876949,0.677059,0.146362,0.183702,0.784609,0.356963,0.41964,0.436143,0.315497,1.04883,1.275981,1.218783,0.638251,0.375022,2.760618,0.738329,1.115661,0.478313,0.363126,0.811171,0.599838,0.506312,0.311881,0.292225,38.021137,11.98724,2.198102,0.76146,0.525884
1720415981,96,0,4309.871582,4301.282227,4298.717773,4305.897461,4255.128418,4251.666504,4253.846191,4253.589844,4232.692383,4232.563965,4484.487305,4469.230957,4360.641113,4396.025879,,,,,,,,,,,,,,,,,,,,,,,,,,,,,,,,,,,,,,,,,,,,,,,,,,,,,,,,,,,,,,,,,,,,,,
1720415981,97,0,4307.05127,4295.128418,4299.230957,4296.282227,4248.333496,4248.333496,4252.05127,4255.512695,4236.153809,4239.358887,4486.794922,4468.205078,4363.077148,4384.102539,,,,,,,,,,,,,,,,,,,,,,,,,,,,,,,,,,,,,,,,,,,,,,,,,,,,,,,,,,,,,,,,,,,,,,
1720415981,98,0,4301.538574,4285.128418,4294.102539,4291.410156,4231.922852,4245,4248.717773,4252.94873,4231.538574,4226.538574,4483.205078,4464.615234,4358.333496,4364.487305,,,,,,,,,,,,,,,,,,,,,,,,,,,,,,,,,,,,,,,,,,,,,,,,,,,,,,,,,,,,,,,,,,,,,,
1720415981,99,0,4301.794922,4284.358887,4291.410156,4287.307617,4230.384766,4247.307617,4248.461426,4247.94873,4230.384766,4214.102539,4483.717773,4469.230957,4363.205078,4344.743652,,,,,,,,,,,,,,,,,,,,,,,,,,,,,,,,,,,,,,,,,,,,,,,,,,,,,,,,,,,,,,,,,,,,,,
1720415981,100,0,4300.641113,4281.922852,4288.077148,4280.897461,4238.717773,4246.794922,4246.538574,4248.333496,4235.897461,4219.358887,4482.307617,4470.897461,4360.769043,4325.641113,,,,,,,,,,,,,,,,,,,,,,,,,,,,,,,,,,,,,,,,,,,,,,,,,,,,,,,,,,,,,,,,,,,,,,
1720415981,101,0,4303.333496,4280.512695,4292.692383,4289.358887,4246.538574,4247.307617,4247.563965,4260.512695,4242.692383,4237.05127,4479.743652,4470,4355.256348,4305.897461,,,,,,,,,,,,,,,,,,,,,,,,,,,,,,,,,,,,,,,,,,,,,,,,,,,,,,,,,,,,,,,,,,,,,,
1720415981,102,0,4302.563965,4280.641113,4294.102539,4288.077148,4248.846191,4249.487305,4250.512695,4261.282227,4235.641113,4237.436035,4480,4465.769043,4358.461426,4285.384766,,,,,,,,,,,,,,,,,,,,,,,,,,,,,,,,,,,,,,,,,,,,,,,,,,,,,,,,,,,,,,,,,,,,,,
1720415981,103,0,4292.94873,4276.666504,4285,4275.769043,4241.153809,4248.846191,4250.128418,4251.794922,4220.769043,4218.205078,4469.358887,4458.205078,4352.307617,4262.820313,,,,,,,,,,,,,,,,,,,,,,,,,,,,,,,,,,,,,,,,,,,,,,,,,,,,,,,,,,,,,,,,,,,,,,
1720415981,104,0,4292.820313,4278.846191,4285.641113,4287.820313,4242.563965,4248.333496,4246.538574,4253.205078,4222.179688,4213.974121,4467.05127,4463.589844,4348.461426,4248.974121,,,,,,,,,,,,,,,,,,,,,,,,,,,,,,,,,,,,,,,,,,,,,,,,,,,,,,,,,,,,,,,,,,,,,,
1720415981,105,0,4301.025879,4283.717773,4291.666504,4298.333496,4248.846191,4249.743652,4242.563965,4257.179688,4235.512695,4227.563965,4486.153809,4474.102539,4360.256348,4259.871582,,,,,,,,,,,,,,,,,,,,,,,,,,,,,,,,,,,,,,,,,,,,,,,,,,,,,,,,,,,,,,,,,,,,,,
1720415981,106,0,4297.94873,4279.487305,4287.436035,4286.538574,4238.333496,4247.436035,4242.307617,4247.820313,4232.692383,4224.743652,4482.307617,4466.666504,4361.153809,4265.897461,,,,,,,,,,,,,,,,,,,,,,,,,,,,,,,,,,,,,,,,,,,,,,,,,,,,,,,,,,,,,,,,,,,,,,
1720415981,107,0,4290.897461,4278.333496,4285.897461,4285.128418,4234.358887,4244.615234,4245.128418,4242.307617,4218.846191,4216.025879,4464.871582,4455.897461,4353.974121,4240.897461,,,,,,,,,,,,,,,,,,,,,,,,,,,,,,,,,,,,,,,,,,,,,,,,,,,,,,,,,,,,,,,,,,,,,,
1720415981,108,0,4295.897461,4283.077148,4292.820313,4295.384766,4242.563965,4247.307617,4246.922852,4249.487305,4217.563965,4218.333496,4479.615234,4463.589844,4360.769043,4228.846191,,,,,,,,,,,,,,,,,,,,,,,,,,,,,,,,,,,,,,,,,,,,,,,,,,,,,,,,,,,,,,,,,,,,,,
1720415981,109,0,4301.922852,4280.897461,4295.384766,4294.358887,4241.282227,4248.461426,4250.641113,4250.256348,4223.077148,4218.974121,4491.794922,4475.897461,4360.512695,4237.05127,,,,,,,,,,,,,,,,,,,,,,,,,,,,,,,,,,,,,,,,,,,,,,,,,,,,,,,,,,,,,,,,,,,,,,
1720415981,110,0,4300.512695,4277.436035,4294.615234,4288.461426,4244.615234,4249.102539,4256.666504,4249.102539,4227.563965,4223.461426,4481.794922,4477.436035,4352.307617,4230.641113,,,,,,,,,,,,,,,,,,,,,,,,,,,,,,,,,,,,,,,,,,,,,,,,,,,,,,,,,,,,,,,,,,,,,,
1720415981,111,0,4293.846191,4275.512695,4286.538574,4280.256348,4249.358887,4248.077148,4254.743652,4251.666504,4228.846191,4225.384766,4474.487305,4464.358887,4353.205078,4213.333496,0.445472,0.317277,0.287029,0.234416,0.259541,0.925156,0.258945,0.315701,0.329633,0.307817,1.997963,0.577761,0.3866,0.322824,0.260369,1.39049,0.68486,0.396139,0.645661,0.452159,0.358288,0.284418,0.483826,0.245854,0.230914,0.394084,0.434745,0.543733,0.311697,0.203512,0.555503,0.350049,0.315838,0.258521,0.180892,0.615951,0.354117,0.497906,0.189014,0.182958,0.914566,0.878393,0.644631,0.163442,0.181717,0.720229,0.416731,0.351173,0.455573,0.343381,0.956645,1.316377,1.07136,0.683191,0.371681,2.726209,0.783763,0.880536,0.502366,0.388719,0.695151,0.601432,0.445764,0.323403,0.306396,47.679726,10.883302,1.604083,0.727554,0.5367
1720415981,112,0,4281.794922,4268.461426,4272.820313,4273.846191,4233.461426,4239.230957,4240.897461,4245.256348,4222.692383,4208.333496,4462.307617,4440.384766,4342.820313,4192.307617,,,,,,,,,,,,,,,,,,,,,,,,,,,,,,,,,,,,,,,,,,,,,,,,,,,,,,,,,,,,,,,,,,,,,,
1720415981,113,0,4291.794922,4278.589844,4287.436035,4292.307617,4234.230957,4246.666504,4245,4251.666504,4230.769043,4211.538574,4461.666504,4450.769043,4343.333496,4195,,,,,,,,,,,,,,,,,,,,,,,,,,,,,,,,,,,,,,,,,,,,,,,,,,,,,,,,,,,,,,,,,,,,,,
1720415981,114,0,4316.666504,4303.205078,4312.94873,4316.153809,4262.05127,4273.205078,4271.410156,4277.179688,4257.692383,4247.179688,4495.512695,4491.410156,4370.897461,4229.615234,,,,,,,,,,,,,,,,,,,,,,,,,,,,,,,,,,,,,,,,,,,,,,,,,,,,,,,,,,,,,,,,,,,,,,
1720415981,115,0,4319.230957,4308.717773,4309.358887,4314.487305,4269.230957,4282.307617,4277.820313,4285,4270,4265.897461,4516.538574,4500.641113,4383.077148,4252.563965,,,,,,,,,,,,,,,,,,,,,,,,,,,,,,,,,,,,,,,,,,,,,,,,,,,,,,,,,,,,,,,,,,,,,,
1720415981,116,0,4316.794922,4305.641113,4305.641113,4313.333496,4263.717773,4274.615234,4267.05127,4277.307617,4264.102539,4260.384766,4512.563965,4494.358887,4381.538574,4252.94873,,,,,,,,,,,,,,,,,,,,,,,,,,,,,,,,,,,,,,,,,,,,,,,,,,,,,,,,,,,,,,,,,,,,,,
1720415981,117,0,4330.897461,4312.436035,4320.897461,4331.794922,4264.102539,4278.974121,4274.743652,4283.589844,4265.769043,4263.205078,4517.563965,4502.94873,4389.487305,4254.487305,,,,,,,,,,,,,,,,,,,,,,,,,,,,,,,,,,,,,,,,,,,,,,,,,,,,,,,,,,,,,,,,,,,,,,
1720415981,118,0,4331.282227,4315.128418,4320.512695,4335.641113,4264.743652,4285,4282.05127,4287.436035,4266.922852,4268.589844,4517.436035,4502.820313,4390.256348,4251.922852,,,,,,,,,,,,,,,,,,,,,,,,,,,,,,,,,,,,,,,,,,,,,,,,,,,,,,,,,,,,,,,,,,,,,,
1720415981,119,0,4320.641113,4307.94873,4308.717773,4315,4272.692383,4274.358887,4269.743652,4276.922852,4260.769043,4264.230957,4513.461426,4496.025879,4383.589844,4241.922852,,,,,,,,,,,,,,,,,,,,,,,,,,,,,,,,,,,,,,,,,,,,,,,,,,,,,,,,,,,,,,,,,,,,,,
1720415981,120,0,4325.641113,4300.128418,4315.384766,4306.666504,4282.94873,4267.94873,4270,4280.256348,4264.102539,4262.692383,4525.384766,4507.820313,4390.641113,4245.128418,,,,,,,,,,,,,,,,,,,,,,,,,,,,,,,,,,,,,,,,,,,,,,,,,,,,,,,,,,,,,,,,,,,,,,
1720415981,121,0,4330.384766,4302.307617,4326.794922,4320.641113,4276.666504,4275.128418,4282.307617,4292.05127,4265.641113,4262.436035,4533.974121,4519.743652,4398.461426,4245.512695,,,,,,,,,,,,,,,,,,,,,,,,,,,,,,,,,,,,,,,,,,,,,,,,,,,,,,,,,,,,,,,,,,,,,,
1720415981,122,0,4331.922852,4312.94873,4334.102539,4334.487305,4269.358887,4280.641113,4287.692383,4295.897461,4261.410156,4261.153809,4539.871582,4522.94873,4397.94873,4247.820313,,,,,,,,,,,,,,,,,,,,,,,,,,,,,,,,,,,,,,,,,,,,,,,,,,,,,,,,,,,,,,,,,,,,,,
1720415981,123,0,4339.358887,4320.512695,4343.205078,4336.538574,4276.666504,4282.563965,4290.256348,4300.897461,4270.897461,4272.179688,4551.538574,4531.666504,4407.307617,4265.128418,,,,,,,,,,,,,,,,,,,,,,,,,,,,,,,,,,,,,,,,,,,,,,,,,,,,,,,,,,,,,,,,,,,,,,
1720415981,124,0,4334.358887,4311.922852,4332.692383,4327.820313,4272.692383,4280.128418,4283.461426,4297.05127,4275.512695,4273.974121,4536.025879,4524.871582,4407.179688,4262.820313,,,,,,,,,,,,,,,,,,,,,,,,,,,,,,,,,,,,,,,,,,,,,,,,,,,,,,,,,,,,,,,,,,,,,,
1720415981,125,0,4320.256348,4299.487305,4313.974121,4317.692383,4258.589844,4277.820313,4272.05127,4283.717773,4262.436035,4258.461426,4511.410156,4504.615234,4386.922852,4252.692383,,,,,,,,,,,,,,,,,,,,,,,,,,,,,,,,,,,,,,,,,,,,,,,,,,,,,,,,,,,,,,,,,,,,,,
1720415981,126,0,4311.794922,4293.589844,4308.205078,4310.256348,4258.333496,4276.025879,4266.794922,4275.769043,4253.205078,4251.666504,4511.794922,4487.436035,4373.461426,4248.205078,,,,,,,,,,,,,,,,,,,,,,,,,,,,,,,,,,,,,,,,,,,,,,,,,,,,,,,,,,,,,,,,,,,,,,
1720415981,127,0,4311.282227,4288.974121,4308.717773,4305.256348,4261.922852,4270.641113,4265.384766,4276.922852,4253.333496,4254.230957,4512.179688,4483.077148,4374.871582,4252.05127,0.373842,0.372929,0.323066,0.222098,0.29731,0.771324,0.355088,0.363356,0.306391,0.339837,1.81384,0.65261,0.315555,0.319067,0.273569,1.110628,0.626804,0.426875,0.607527,0.465733,0.317092,0.329322,0.534593,0.229977,0.257299,0.326424,0.416955,0.431808,0.299569,0.214077,0.483203,0.334685,0.26212,0.271523,0.175313,0.55528,0.376179,0.424852,0.208383,0.188985,0.769462,0.905052,0.591637,0.187339,0.193001,0.663087,0.500659,0.29661,0.469887,0.376379,0.918566,1.358212,0.943677,0.694311,0.372996,2.68458,0.884208,0.659166,0.535625,0.431423,0.638049,0.623434,0.388722,0.332633,0.326502,65.090889,10.605034,1.199569,0.750093,0.566324
1720415981,0,0,4313.461426,4291.282227,4309.487305,4308.461426,4260,4265.769043,4264.230957,4277.692383,4250,4248.333496,4502.05127,4488.589844,4375,4277.307617,,,,,,,,,,,,,,,,,,,,,,,,,,,,,,,,,,,,,,,,,,,,,,,,,,,,,,,,,,,,,,,,,,,,,,
1720415981,1,0,4312.05127,4293.205078,4307.94873,4311.794922,4263.461426,4263.974121,4264.102539,4275.512695,4247.563965,4246.025879,4507.563965,4489.230957,4372.307617,4303.974121,,,,,,,,,,,,,,,,,,,,,,,,,,,,,,,,,,,,,,,,,,,,,,,,,,,,,,,,,,,,,,,,,,,,,,
1720415982,2,0,4311.025879,4286.410156,4308.077148,4305,4270.769043,4267.94873,4266.922852,4274.743652,4251.025879,4253.461426,4510.641113,4485.769043,4375,4316.666504,,,,,,,,,,,,,,,,,,,,,,,,,,,,,,,,,,,,,,,,,,,,,,,,,,,,,,,,,,,,,,,,,,,,,,
1720415982,3,0,4314.487305,4278.589844,4308.461426,4294.615234,4264.230957,4270.769043,4268.717773,4270.769043,4250.128418,4246.666504,4495.128418,4481.538574,4370.384766,4347.436035,,,,,,,,,,,,,,,,,,,,,,,,,,,,,,,,,,,,,,,,,,,,,,,,,,,,,,,,,,,,,,,,,,,,,,
1720415982,4,0,4311.794922,4277.179688,4301.282227,4293.333496,4257.179688,4267.94873,4262.179688,4264.358887,4246.794922,4231.538574,4490.641113,4474.871582,4362.820313,4397.692383,,,,,,,,,,,,,,,,,,,,,,,,,,,,,,,,,,,,,,,,,,,,,,,,,,,,,,,,,,,,,,,,,,,,,,
1720415982,5,0,4307.820313,4281.025879,4292.179688,4298.846191,4266.666504,4267.692383,4256.410156,4262.820313,4249.230957,4235.769043,4495.769043,4471.666504,4362.820313,4442.179688,,,,,,,,,,,,,,,,,,,,,,,,,,,,,,,,,,,,,,,,,,,,,,,,,,,,,,,,,,,,,,,,,,,,,,
1720415982,6,0,4318.077148,4287.05127,4303.077148,4302.820313,4278.974121,4274.871582,4263.589844,4271.153809,4254.871582,4254.230957,4504.615234,4485,4372.307617,4517.436035,,,,,,,,,,,,,,,,,,,,,,,,,,,,,,,,,,,,,,,,,,,,,,,,,,,,,,,,,,,,,,,,,,,,,,
1720415982,7,0,4322.94873,4293.461426,4316.538574,4308.205078,4279.230957,4273.846191,4266.794922,4276.025879,4251.794922,4255,4516.794922,4493.846191,4386.538574,4604.230957,,,,,,,,,,,,,,,,,,,,,,,,,,,,,,,,,,,,,,,,,,,,,,,,,,,,,,,,,,,,,,,,,,,,,,
1720415982,8,0,4316.025879,4290.384766,4311.153809,4307.820313,4274.743652,4264.871582,4262.307617,4272.820313,4241.666504,4243.333496,4519.487305,4488.589844,4383.461426,4650.256348,,,,,,,,,,,,,,,,,,,,,,,,,,,,,,,,,,,,,,,,,,,,,,,,,,,,,,,,,,,,,,,,,,,,,,
1720415982,9,0,4323.205078,4289.102539,4317.05127,4305.897461,4278.589844,4270.769043,4271.922852,4279.487305,4248.589844,4252.05127,4528.461426,4501.666504,4382.179688,4693.333496,,,,,,,,,,,,,,,,,,,,,,,,,,,,,,,,,,,,,,,,,,,,,,,,,,,,,,,,,,,,,,,,,,,,,,
1720415982,10,0,4334.358887,4299.358887,4329.615234,4314.230957,4283.974121,4279.871582,4279.102539,4288.589844,4262.436035,4261.025879,4540.769043,4518.461426,4398.717773,4744.358887,,,,,,,,,,,,,,,,,,,,,,,,,,,,,,,,,,,,,,,,,,,,,,,,,,,,,,,,,,,,,,,,,,,,,,
1720415982,11,0,4326.282227,4298.589844,4319.871582,4314.743652,4279.743652,4275.128418,4270.384766,4282.820313,4255.897461,4254.487305,4522.820313,4502.179688,4397.179688,4766.025879,,,,,,,,,,,,,,,,,,,,,,,,,,,,,,,,,,,,,,,,,,,,,,,,,,,,,,,,,,,,,,,,,,,,,,
1720415982,12,0,4311.025879,4282.820313,4303.333496,4298.333496,4272.563965,4271.794922,4264.102539,4272.05127,4244.230957,4245.512695,4494.743652,4476.282227,4375,4765.769043,,,,,,,,,,,,,,,,,,,,,,,,,,,,,,,,,,,,,,,,,,,,,,,,,,,,,,,,,,,,,,,,,,,,,,
1720415982,13,0,4312.05127,4279.358887,4307.820313,4292.692383,4275.384766,4275.641113,4265.384766,4272.820313,4257.692383,4247.563965,4498.205078,4477.436035,4370.769043,4770.128418,,,,,,,,,,,,,,,,,,,,,,,,,,,,,,,,,,,,,,,,,,,,,,,,,,,,,,,,,,,,,,,,,,,,,,
1720415982,14,0,4324.358887,4292.563965,4319.871582,4306.922852,4285.128418,4281.538574,4272.820313,4282.05127,4276.153809,4263.846191,4504.615234,4491.410156,4379.615234,4787.692383,,,,,,,,,,,,,,,,,,,,,,,,,,,,,,,,,,,,,,,,,,,,,,,,,,,,,,,,,,,,,,,,,,,,,,
1720415982,15,0,4326.282227,4297.436035,4319.743652,4311.666504,4283.717773,4279.871582,4273.717773,4281.666504,4271.538574,4265.512695,4503.205078,4494.871582,4386.410156,4802.692383,0.340222,0.438628,0.373794,0.213626,0.338422,0.673443,0.466117,0.43866,0.290344,0.382513,1.667472,0.753103,0.285162,0.31777,0.299837,0.846447,0.546459,0.490948,0.550295,0.495349,0.324821,0.37004,0.572459,0.213621,0.301435,0.270514,0.358927,0.31797,0.287175,0.224804,0.446758,0.308825,0.247094,0.284293,0.17813,0.584318,0.422462,0.384327,0.239624,0.211066,0.661372,0.959711,0.533886,0.214347,0.221008,0.656777,0.598491,0.276899,0.480185,0.416282,0.978582,1.394559,0.85792,0.675053,0.382495,2.699131,1.013619,0.514524,0.583426,0.490762,0.657363,0.662809,0.35806,0.340303,0.352749,85.00338,11.234132,1.012388,0.824778,0.614115
1720415982,16,0,4321.922852,4291.794922,4316.666504,4308.846191,4275,4267.179688,4259.743652,4269.358887,4259.615234,4248.333496,4513.717773,4486.025879,4393.333496,4801.538574,,,,,,,,,,,,,,,,,,,,,,,,,,,,,,,,,,,,,,,,,,,,,,,,,,,,,,,,,,,,,,,,,,,,,,
1720415982,17,0,4328.589844,4294.871582,4323.333496,4314.230957,4279.358887,4266.153809,4257.820313,4268.205078,4260.256348,4249.102539,4519.615234,4485.256348,4391.410156,4799.358887,,,,,,,,,,,,,,,,,,,,,,,,,,,,,,,,,,,,,,,,,,,,,,,,,,,,,,,,,,,,,,,,,,,,,,
1720415982,18,0,4334.615234,4305.256348,4327.179688,4319.487305,4287.05127,4277.94873,4266.282227,4272.820313,4263.846191,4259.615234,4511.025879,4491.025879,4387.820313,4800.256348,,,,,,,,,,,,,,,,,,,,,,,,,,,,,,,,,,,,,,,,,,,,,,,,,,,,,,,,,,,,,,,,,,,,,,
1720415982,19,0,4327.563965,4310.384766,4314.743652,4323.205078,4276.666504,4273.077148,4256.794922,4263.333496,4259.871582,4247.820313,4504.743652,4481.410156,4394.487305,4787.436035,,,,,,,,,,,,,,,,,,,,,,,,,,,,,,,,,,,,,,,,,,,,,,,,,,,,,,,,,,,,,,,,,,,,,,
1720415982,20,0,4332.05127,4308.205078,4315.897461,4327.05127,4269.743652,4261.410156,4250.512695,4263.333496,4258.974121,4249.102539,4515.128418,4482.307617,4400,4782.05127,,,,,,,,,,,,,,,,,,,,,,,,,,,,,,,,,,,,,,,,,,,,,,,,,,,,,,,,,,,,,,,,,,,,,,
1720415982,21,0,4351.410156,4310.769043,4339.615234,4327.94873,4285.512695,4263.717773,4264.230957,4279.743652,4265.897461,4275.512695,4531.666504,4513.589844,4405.641113,4800.769043,,,,,,,,,,,,,,,,,,,,,,,,,,,,,,,,,,,,,,,,,,,,,,,,,,,,,,,,,,,,,,,,,,,,,,
1720415982,22,0,4359.230957,4320.769043,4347.94873,4330.256348,4296.794922,4268.205078,4273.205078,4285.256348,4267.436035,4285.512695,4539.743652,4533.974121,4416.410156,4820.384766,,,,,,,,,,,,,,,,,,,,,,,,,,,,,,,,,,,,,,,,,,,,,,,,,,,,,,,,,,,,,,,,,,,,,,
1720415982,23,0,4358.589844,4328.846191,4347.05127,4339.615234,4294.102539,4275.256348,4279.743652,4284.487305,4263.461426,4279.102539,4545.641113,4528.717773,4420.128418,4828.846191,,,,,,,,,,,,,,,,,,,,,,,,,,,,,,,,,,,,,,,,,,,,,,,,,,,,,,,,,,,,,,,,,,,,,,
1720415982,24,0,4357.820313,4331.025879,4353.205078,4343.846191,4297.820313,4286.282227,4287.563965,4292.307617,4262.563965,4269.487305,4549.871582,4527.820313,4412.692383,4830.512695,,,,,,,,,,,,,,,,,,,,,,,,,,,,,,,,,,,,,,,,,,,,,,,,,,,,,,,,,,,,,,,,,,,,,,
1720415982,25,0,4348.333496,4321.922852,4346.794922,4336.282227,4298.589844,4285.641113,4283.077148,4292.692383,4264.230957,4261.282227,4541.922852,4528.205078,4404.487305,4826.025879,,,,,,,,,,,,,,,,,,,,,,,,,,,,,,,,,,,,,,,,,,,,,,,,,,,,,,,,,,,,,,,,,,,,,,
1720415982,26,0,4337.307617,4305.128418,4330.256348,4326.538574,4282.436035,4281.025879,4274.743652,4283.974121,4263.717773,4264.358887,4530.256348,4517.436035,4407.307617,4824.230957,,,,,,,,,,,,,,,,,,,,,,,,,,,,,,,,,,,,,,,,,,,,,,,,,,,,,,,,,,,,,,,,,,,,,,
1720415982,27,0,4333.205078,4291.794922,4320.897461,4314.615234,4273.333496,4279.358887,4266.538574,4280.128418,4261.410156,4265.897461,4523.846191,4505.641113,4406.153809,4827.820313,,,,,,,,,,,,,,,,,,,,,,,,,,,,,,,,,,,,,,,,,,,,,,,,,,,,,,,,,,,,,,,,,,,,,,
1720415982,28,0,4331.794922,4288.974121,4314.230957,4305.384766,4280.641113,4276.282227,4263.077148,4279.487305,4263.974121,4260.384766,4516.410156,4504.102539,4393.589844,4833.461426,,,,,,,,,,,,,,,,,,,,,,,,,,,,,,,,,,,,,,,,,,,,,,,,,,,,,,,,,,,,,,,,,,,,,,
1720415982,29,0,4331.922852,4291.025879,4308.974121,4306.410156,4277.94873,4275.384766,4267.307617,4282.692383,4274.615234,4271.666504,4519.102539,4508.717773,4396.794922,4842.692383,,,,,,,,,,,,,,,,,,,,,,,,,,,,,,,,,,,,,,,,,,,,,,,,,,,,,,,,,,,,,,,,,,,,,,
1720415982,30,0,4329.358887,4286.282227,4309.102539,4308.077148,4262.820313,4272.307617,4265.641113,4281.153809,4276.282227,4284.102539,4525.897461,4501.666504,4406.538574,4853.205078,,,,,,,,,,,,,,,,,,,,,,,,,,,,,,,,,,,,,,,,,,,,,,,,,,,,,,,,,,,,,,,,,,,,,,
1720415982,31,0,4322.94873,4277.692383,4307.05127,4305.256348,4257.563965,4263.077148,4258.846191,4268.333496,4263.974121,4264.615234,4513.077148,4487.307617,4395.897461,4862.820313,0.432304,0.499887,0.435592,0.21767,0.37704,0.72358,0.560709,0.544695,0.295111,0.423148,1.674149,0.855528,0.307727,0.329517,0.334343,0.737768,0.472463,0.589734,0.497632,0.533152,0.428103,0.405239,0.579883,0.207526,0.358205,0.287601,0.284396,0.236557,0.274914,0.233882,0.494852,0.272029,0.268511,0.297345,0.190054,0.769966,0.47479,0.378477,0.280174,0.243755,0.714763,1.023278,0.485719,0.240047,0.2641,0.813249,0.692221,0.303682,0.491094,0.469229,1.284081,1.419704,0.829946,0.655857,0.402987,2.90789,1.150013,0.48488,0.660123,0.563266,0.858283,0.703095,0.377203,0.353537,0.381425,104.071037,12.498812,1.069362,0.936052,0.672784
1720415982,32,0,4323.589844,4277.820313,4306.025879,4304.487305,4264.743652,4259.871582,4261.153809,4265.384766,4260.641113,4247.820313,4501.153809,4486.794922,4387.692383,4861.922852,,,,,,,,,,,,,,,,,,,,,,,,,,,,,,,,,,,,,,,,,,,,,,,,,,,,,,,,,,,,,,,,,,,,,,
1720415982,33,0,4328.846191,4284.871582,4308.974121,4306.538574,4270.641113,4264.743652,4266.922852,4275.512695,4266.794922,4259.102539,4508.077148,4496.153809,4398.205078,4857.307617,,,,,,,,,,,,,,,,,,,,,,,,,,,,,,,,,,,,,,,,,,,,,,,,,,,,,,,,,,,,,,,,,,,,,,
1720415982,34,0,4325.641113,4282.436035,4307.563965,4305.256348,4266.538574,4264.230957,4263.846191,4275.641113,4263.077148,4265.128418,4512.563965,4496.410156,4400.641113,4875.897461,,,,,,,,,,,,,,,,,,,,,,,,,,,,,,,,,,,,,,,,,,,,,,,,,,,,,,,,,,,,,,,,,,,,,,
1720415982,35,0,4317.692383,4277.307617,4303.717773,4307.563965,4259.743652,4259.487305,4258.461426,4263.461426,4254.871582,4257.563965,4505.897461,4490.256348,4397.94873,4892.563965,,,,,,,,,,,,,,,,,,,,,,,,,,,,,,,,,,,,,,,,,,,,,,,,,,,,,,,,,,,,,,,,,,,,,,
1720415982,36,0,4322.179688,4281.794922,4307.820313,4310.512695,4265.641113,4260.384766,4259.102539,4262.94873,4256.794922,4259.358887,4507.05127,4491.410156,4404.487305,4886.282227,,,,,,,,,,,,,,,,,,,,,,,,,,,,,,,,,,,,,,,,,,,,,,,,,,,,,,,,,,,,,,,,,,,,,,
1720415982,37,0,4335,4287.563965,4317.05127,4308.589844,4272.692383,4262.436035,4264.358887,4274.358887,4260.641113,4266.794922,4517.307617,4501.922852,4411.282227,4887.307617,,,,,,,,,,,,,,,,,,,,,,,,,,,,,,,,,,,,,,,,,,,,,,,,,,,,,,,,,,,,,,,,,,,,,,
1720415982,38,0,4335.769043,4292.94873,4318.717773,4312.692383,4267.820313,4264.230957,4271.282227,4278.846191,4256.538574,4266.794922,4516.794922,4509.743652,4411.153809,4893.205078,,,,,,,,,,,,,,,,,,,,,,,,,,,,,,,,,,,,,,,,,,,,,,,,,,,,,,,,,,,,,,,,,,,,,,
1720415982,39,0,4330.769043,4293.589844,4312.307617,4314.871582,4263.077148,4272.692383,4274.102539,4273.974121,4249.871582,4259.871582,4508.333496,4498.974121,4402.563965,4879.615234,,,,,,,,,,,,,,,,,,,,,,,,,,,,,,,,,,,,,,,,,,,,,,,,,,,,,,,,,,,,,,,,,,,,,,
1720415982,40,0,4326.410156,4282.436035,4304.743652,4302.179688,4260.512695,4276.538574,4268.717773,4261.922852,4246.666504,4248.461426,4502.179688,4478.333496,4390.512695,4861.666504,,,,,,,,,,,,,,,,,,,,,,,,,,,,,,,,,,,,,,,,,,,,,,,,,,,,,,,,,,,,,,,,,,,,,,
1720415982,41,0,4318.333496,4274.102539,4298.077148,4293.461426,4256.794922,4268.974121,4258.974121,4252.563965,4246.538574,4243.717773,4492.692383,4469.102539,4386.282227,4853.205078,,,,,,,,,,,,,,,,,,,,,,,,,,,,,,,,,,,,,,,,,,,,,,,,,,,,,,,,,,,,,,,,,,,,,,
1720415982,42,0,4315.256348,4273.461426,4294.358887,4290.897461,4256.922852,4259.871582,4252.05127,4249.102539,4248.589844,4245.128418,4480.641113,4466.153809,4385.769043,4841.666504,,,,,,,,,,,,,,,,,,,,,,,,,,,,,,,,,,,,,,,,,,,,,,,,,,,,,,,,,,,,,,,,,,,,,,
1720415982,43,0,4312.820313,4263.077148,4290.384766,4279.871582,4250,4252.94873,4244.615234,4247.563965,4247.179688,4234.102539,4472.94873,4458.077148,4376.153809,4819.615234,,,,,,,,,,,,,,,,,,,,,,,,,,,,,,,,,,,,,,,,,,,,,,,,,,,,,,,,,,,,,,,,,,,,,,
1720415982,44,0,4312.692383,4262.05127,4291.794922,4281.794922,4244.487305,4253.974121,4243.846191,4254.615234,4251.025879,4233.077148,4479.230957,4462.179688,4376.153809,4802.179688,,,,,,,,,,,,,,,,,,,,,,,,,,,,,,,,,,,,,,,,,,,,,,,,,,,,,,,,,,,,,,,,,,,,,,
1720415982,45,0,4321.153809,4278.846191,4297.692383,4299.230957,4256.025879,4266.282227,4254.871582,4266.538574,4261.922852,4252.94873,4490.384766,4474.871582,4393.589844,4797.307617,,,,,,,,,,,,,,,,,,,,,,,,,,,,,,,,,,,,,,,,,,,,,,,,,,,,,,,,,,,,,,,,,,,,,,
1720415982,46,0,4315.128418,4273.205078,4287.436035,4289.230957,4257.05127,4263.846191,4255.128418,4263.589844,4255.769043,4251.153809,4482.307617,4468.461426,4394.615234,4779.487305,,,,,,,,,,,,,,,,,,,,,,,,,,,,,,,,,,,,,,,,,,,,,,,,,,,,,,,,,,,,,,,,,,,,,,
1720415982,47,0,4299.230957,4253.846191,4275.641113,4270.641113,4241.153809,4246.538574,4239.871582,4247.563965,4235.384766,4229.871582,4462.179688,4452.94873,4377.692383,4744.102539,0.74454,0.55565,0.496785,0.240429,0.407476,1.071141,0.633385,0.670289,0.327727,0.448939,1.920502,0.955643,0.376155,0.370833,0.370953,0.949664,0.442494,0.714334,0.47473,0.568138,0.695889,0.444223,0.544484,0.218393,0.417909,0.435841,0.216918,0.208836,0.264111,0.239062,0.686183,0.227327,0.311268,0.315608,0.208652,1.157121,0.510455,0.389983,0.327568,0.278054,1.019571,1.06649,0.462497,0.259608,0.315862,1.242746,0.767263,0.376543,0.507946,0.538009,1.974688,1.460188,0.850329,0.683287,0.433979,3.449613,1.304216,0.55775,0.781622,0.639953,1.331882,0.744956,0.44702,0.382968,0.406349,119.149612,13.620667,1.352379,1.067519,0.729991
1720415982,48,0,4310.897461,4263.077148,4291.410156,4286.666504,4242.307617,4245.769043,4240,4245.769043,4233.461426,4227.436035,4470.384766,4460.897461,4380.256348,4733.333496,,,,,,,,,,,,,,,,,,,,,,,,,,,,,,,,,,,,,,,,,,,,,,,,,,,,,,,,,,,,,,,,,,,,,,
1720415982,49,0,4322.563965,4271.666504,4302.307617,4296.153809,4252.563965,4249.743652,4246.538574,4249.871582,4237.692383,4233.974121,4487.307617,4473.077148,4391.666504,4728.461426,,,,,,,,,,,,,,,,,,,,,,,,,,,,,,,,,,,,,,,,,,,,,,,,,,,,,,,,,,,,,,,,,,,,,,
1720415982,50,0,4312.307617,4263.077148,4293.717773,4284.102539,4247.436035,4245.384766,4240.384766,4245.512695,4232.692383,4230.384766,4483.205078,4471.153809,4387.692383,4703.333496,,,,,,,,,,,,,,,,,,,,,,,,,,,,,,,,,,,,,,,,,,,,,,,,,,,,,,,,,,,,,,,,,,,,,,
1720415982,51,0,4325.897461,4276.538574,4307.05127,4299.743652,4248.589844,4255.128418,4252.692383,4254.743652,4241.282227,4237.692383,4495.384766,4485.641113,4397.94873,4700.128418,,,,,,,,,,,,,,,,,,,,,,,,,,,,,,,,,,,,,,,,,,,,,,,,,,,,,,,,,,,,,,,,,,,,,,
1720415982,52,0,4346.153809,4297.436035,4325.384766,4320,4262.820313,4270.512695,4274.615234,4269.871582,4254.358887,4252.179688,4518.589844,4508.333496,4416.794922,4711.282227,,,,,,,,,,,,,,,,,,,,,,,,,,,,,,,,,,,,,,,,,,,,,,,,,,,,,,,,,,,,,,,,,,,,,,
1720415982,53,0,4335.256348,4288.461426,4317.692383,4305.128418,4263.974121,4263.846191,4271.794922,4269.615234,4251.794922,4251.666504,4510,4510,4411.538574,4694.871582,,,,,,,,,,,,,,,,,,,,,,,,,,,,,,,,,,,,,,,,,,,,,,,,,,,,,,,,,,,,,,,,,,,,,,
1720415982,54,0,4322.05127,4267.436035,4308.974121,4288.461426,4247.436035,4249.230957,4257.94873,4260.897461,4244.358887,4241.922852,4493.333496,4498.717773,4395.384766,4675.384766,,,,,,,,,,,,,,,,,,,,,,,,,,,,,,,,,,,,,,,,,,,,,,,,,,,,,,,,,,,,,,,,,,,,,,
1720415982,55,0,4323.333496,4263.589844,4308.077148,4296.282227,4244.102539,4254.615234,4257.05127,4255.256348,4239.615234,4231.922852,4499.871582,4492.692383,4397.05127,4677.436035,,,,,,,,,,,,,,,,,,,,,,,,,,,,,,,,,,,,,,,,,,,,,,,,,,,,,,,,,,,,,,,,,,,,,,
1720415982,56,0,4322.563965,4268.589844,4300.384766,4300.641113,4256.153809,4266.922852,4259.102539,4254.871582,4235.897461,4235.128418,4503.333496,4486.153809,4400.128418,4670.384766,,,,,,,,,,,,,,,,,,,,,,,,,,,,,,,,,,,,,,,,,,,,,,,,,,,,,,,,,,,,,,,,,,,,,,
1720415982,57,0,4308.205078,4259.615234,4282.436035,4281.794922,4242.436035,4258.205078,4245.384766,4247.05127,4231.410156,4234.615234,4475,4461.282227,4377.307617,4638.974121,,,,,,,,,,,,,,,,,,,,,,,,,,,,,,,,,,,,,,,,,,,,,,,,,,,,,,,,,,,,,,,,,,,,,,
1720415982,58,0,4293.205078,4241.025879,4263.333496,4260,4215.897461,4237.563965,4225.512695,4233.589844,4227.692383,4219.230957,4450.897461,4435.512695,4362.820313,4610.641113,,,,,,,,,,,,,,,,,,,,,,,,,,,,,,,,,,,,,,,,,,,,,,,,,,,,,,,,,,,,,,,,,,,,,,
1720415982,59,0,4295.128418,4236.282227,4264.230957,4258.974121,4217.05127,4229.615234,4224.487305,4233.589844,4228.333496,4219.102539,4461.410156,4435.769043,4378.461426,4606.025879,,,,,,,,,,,,,,,,,,,,,,,,,,,,,,,,,,,,,,,,,,,,,,,,,,,,,,,,,,,,,,,,,,,,,,
1720415982,60,0,4304.102539,4243.717773,4277.94873,4267.436035,4234.230957,4237.436035,4234.358887,4240.256348,4234.487305,4233.974121,4470.897461,4449.615234,4383.974121,4610.128418,,,,,,,,,,,,,,,,,,,,,,,,,,,,,,,,,,,,,,,,,,,,,,,,,,,,,,,,,,,,,,,,,,,,,,
1720415982,61,0,4298.205078,4241.410156,4272.05127,4262.820313,4235.897461,4240.897461,4229.615234,4233.205078,4232.820313,4232.692383,4460.897461,4446.153809,4371.282227,4602.307617,,,,,,,,,,,,,,,,,,,,,,,,,,,,,,,,,,,,,,,,,,,,,,,,,,,,,,,,,,,,,,,,,,,,,,
1720415982,62,0,4296.410156,4239.743652,4266.153809,4263.333496,4230.641113,4234.230957,4225.128418,4228.974121,4229.615234,4224.615234,4465.128418,4444.358887,4376.410156,4593.717773,,,,,,,,,,,,,,,,,,,,,,,,,,,,,,,,,,,,,,,,,,,,,,,,,,,,,,,,,,,,,,,,,,,,,,
1720415982,63,0,4312.436035,4252.307617,4281.410156,4280.897461,4240.512695,4233.077148,4232.179688,4237.436035,4232.436035,4228.333496,4482.692383,4462.307617,4388.205078,4597.563965,1.342479,0.629349,0.537105,0.283563,0.424643,1.802549,0.715209,0.788051,0.383431,0.452185,2.455047,1.08664,0.459827,0.452426,0.402314,1.531283,0.497959,0.839881,0.491848,0.589217,1.126478,0.513224,0.472374,0.246817,0.467857,0.718127,0.183628,0.233659,0.25634,0.239194,1.002505,0.207843,0.354599,0.345478,0.229205,1.718058,0.539997,0.39907,0.379031,0.304837,1.563683,1.063519,0.474669,0.269753,0.366838,1.954151,0.821315,0.483125,0.537587,0.617472,3.118303,1.605825,0.881901,0.795417,0.469454,4.391833,1.572386,0.677128,0.955873,0.707074,2.114237,0.824576,0.540552,0.436385,0.421515,128.945602,14.062914,1.826017,1.210909,0.771015
1720415982,64,0,4320.384766,4259.743652,4288.589844,4286.025879,4247.179688,4236.025879,4232.05127,4235.641113,4224.615234,4227.94873,4475.256348,4464.871582,4381.153809,4596.282227,,,,,,,,,,,,,,,,,,,,,,,,,,,,,,,,,,,,,,,,,,,,,,,,,,,,,,,,,,,,,,,,,,,,,,
1720415982,65,0,4317.563965,4258.077148,4286.666504,4278.077148,4239.230957,4236.025879,4231.282227,4227.307617,4212.307617,4214.615234,4461.922852,4455.128418,4376.922852,4583.333496,,,,,,,,,,,,,,,,,,,,,,,,,,,,,,,,,,,,,,,,,,,,,,,,,,,,,,,,,,,,,,,,,,,,,,
1720415982,66,0,4318.461426,4260.897461,4294.102539,4282.563965,4231.025879,4241.922852,4240.256348,4231.538574,4213.333496,4203.589844,4473.077148,4462.179688,4385,4577.692383,,,,,,,,,,,,,,,,,,,,,,,,,,,,,,,,,,,,,,,,,,,,,,,,,,,,,,,,,,,,,,,,,,,,,,
1720415982,67,0,4320.256348,4266.282227,4300.128418,4295,4234.358887,4251.794922,4250.641113,4236.922852,4215.897461,4202.563965,4479.358887,4473.333496,4391.282227,4580.128418,,,,,,,,,,,,,,,,,,,,,,,,,,,,,,,,,,,,,,,,,,,,,,,,,,,,,,,,,,,,,,,,,,,,,,
1720415982,68,0,4319.487305,4264.358887,4292.692383,4292.563965,4241.666504,4252.820313,4254.230957,4235.256348,4213.717773,4208.846191,4472.94873,4467.820313,4387.307617,4574.615234,,,,,,,,,,,,,,,,,,,,,,,,,,,,,,,,,,,,,,,,,,,,,,,,,,,,,,,,,,,,,,,,,,,,,,
1720415982,69,0,4313.846191,4253.077148,4280.512695,4280.256348,4244.743652,4248.333496,4247.307617,4236.666504,4221.025879,4212.436035,4474.230957,4452.820313,4379.615234,4555.384766,,,,,,,,,,,,,,,,,,,,,,,,,,,,,,,,,,,,,,,,,,,,,,,,,,,,,,,,,,,,,,,,,,,,,,
1720415982,70,0,4306.922852,4245.384766,4274.487305,4275.128418,4248.461426,4248.589844,4240,4246.538574,4232.692383,4216.410156,4480.384766,4450.769043,4381.410156,4528.846191,,,,,,,,,,,,,,,,,,,,,,,,,,,,,,,,,,,,,,,,,,,,,,,,,,,,,,,,,,,,,,,,,,,,,,
1720415982,71,0,4306.794922,4250.641113,4274.615234,4274.871582,4246.666504,4251.282227,4243.461426,4249.230957,4236.410156,4220.897461,4474.871582,4455.769043,4382.179688,4512.307617,,,,,,,,,,,,,,,,,,,,,,,,,,,,,,,,,,,,,,,,,,,,,,,,,,,,,,,,,,,,,,,,,,,,,,
1720415982,72,0,4302.563965,4249.102539,4268.461426,4268.974121,4239.743652,4247.179688,4238.333496,4238.461426,4231.794922,4208.077148,4452.563965,4444.102539,4366.538574,4502.820313,,,,,,,,,,,,,,,,,,,,,,,,,,,,,,,,,,,,,,,,,,,,,,,,,,,,,,,,,,,,,,,,,,,,,,
1720415982,73,0,4289.743652,4232.692383,4257.307617,4260,4230.384766,4235,4221.922852,4228.846191,4218.846191,4193.205078,4436.410156,4424.230957,4352.563965,4487.820313,,,,,,,,,,,,,,,,,,,,,,,,,,,,,,,,,,,,,,,,,,,,,,,,,,,,,,,,,,,,,,,,,,,,,,
1720415982,74,0,4288.077148,4228.077148,4259.230957,4258.333496,4218.205078,4227.692383,4222.05127,4229.102539,4215.128418,4206.025879,4444.615234,4423.974121,4358.461426,4475.512695,,,,,,,,,,,,,,,,,,,,,,,,,,,,,,,,,,,,,,,,,,,,,,,,,,,,,,,,,,,,,,,,,,,,,,
1720415982,75,0,4299.358887,4238.205078,4270.897461,4262.820313,4215.256348,4231.282227,4234.358887,4232.436035,4223.589844,4218.974121,4460.384766,4438.205078,4371.153809,4478.717773,,,,,,,,,,,,,,,,,,,,,,,,,,,,,,,,,,,,,,,,,,,,,,,,,,,,,,,,,,,,,,,,,,,,,,
1720415982,76,0,4303.077148,4242.692383,4277.692383,4263.077148,4226.153809,4232.94873,4234.487305,4235.128418,4224.615234,4210.128418,4457.94873,4441.410156,4374.102539,4479.487305,,,,,,,,,,,,,,,,,,,,,,,,,,,,,,,,,,,,,,,,,,,,,,,,,,,,,,,,,,,,,,,,,,,,,,
1720415982,77,0,4298.589844,4242.179688,4274.230957,4261.922852,4233.461426,4229.871582,4224.871582,4231.794922,4217.05127,4201.410156,4456.538574,4432.563965,4372.179688,4455.512695,,,,,,,,,,,,,,,,,,,,,,,,,,,,,,,,,,,,,,,,,,,,,,,,,,,,,,,,,,,,,,,,,,,,,,
1720415982,78,0,4302.820313,4245.512695,4273.333496,4270.641113,4235,4232.307617,4224.871582,4225.256348,4214.102539,4203.589844,4468.717773,4430.769043,4375.384766,4432.94873,,,,,,,,,,,,,,,,,,,,,,,,,,,,,,,,,,,,,,,,,,,,,,,,,,,,,,,,,,,,,,,,,,,,,,
1720415982,79,0,4313.461426,4250.384766,4290,4281.282227,4239.743652,4234.487305,4231.922852,4227.179688,4215.897461,4204.871582,4470.128418,4449.102539,4378.077148,4437.563965,2.166326,0.78814,0.548743,0.343776,0.426057,2.856577,0.890392,0.865234,0.451085,0.434273,3.198701,1.332513,0.534998,0.570463,0.422183,2.42063,0.703333,0.933807,0.543234,0.590403,1.646321,0.643453,0.386322,0.286153,0.497851,1.083725,0.219565,0.291683,0.257373,0.235242,1.397696,0.277168,0.384196,0.393153,0.247112,2.372863,0.603976,0.39716,0.433532,0.318863,2.24588,1.012828,0.523079,0.271567,0.407073,2.837752,0.867341,0.609854,0.586396,0.693658,4.568299,1.993144,0.903412,0.994444,0.500995,5.623376,2.118439,0.794966,1.171153,0.750916,3.090023,1.017012,0.631898,0.512612,0.425055,133.819794,13.863856,2.363388,1.357756,0.784107
1720415982,80,0,4319.487305,4249.615234,4307.563965,4280.256348,4238.333496,4232.94873,4235,4238.461426,4222.436035,4208.589844,4464.358887,4469.358887,4377.820313,4445.384766,,,,,,,,,,,,,,,,,,,,,,,,,,,,,,,,,,,,,,,,,,,,,,,,,,,,,,,,,,,,,,,,,,,,,,
1720415982,81,0,4320.384766,4250.897461,4312.436035,4279.102539,4236.922852,4238.461426,4240.897461,4248.717773,4232.307617,4219.871582,4472.05127,4479.230957,4383.461426,4439.615234,,,,,,,,,,,,,,,,,,,,,,,,,,,,,,,,,,,,,,,,,,,,,,,,,,,,,,,,,,,,,,,,,,,,,,
1720415982,82,0,4319.487305,4255.256348,4311.025879,4281.794922,4241.282227,4244.743652,4246.794922,4251.666504,4232.179688,4222.820313,4486.282227,4486.153809,4391.410156,4429.487305,,,,,,,,,,,,,,,,,,,,,,,,,,,,,,,,,,,,,,,,,,,,,,,,,,,,,,,,,,,,,,,,,,,,,,
1720415982,83,0,4320.256348,4254.230957,4310.384766,4281.922852,4236.282227,4243.846191,4242.820313,4245,4223.589844,4214.230957,4491.922852,4484.615234,4392.05127,4422.307617,,,,,,,,,,,,,,,,,,,,,,,,,,,,,,,,,,,,,,,,,,,,,,,,,,,,,,,,,,,,,,,,,,,,,,
1720415982,84,0,4320.512695,4250,4312.563965,4280.128418,4230.641113,4241.794922,4237.692383,4243.974121,4226.282227,4212.436035,4487.307617,4479.102539,4386.666504,4419.102539,,,,,,,,,,,,,,,,,,,,,,,,,,,,,,,,,,,,,,,,,,,,,,,,,,,,,,,,,,,,,,,,,,,,,,
1720415982,85,0,4314.487305,4249.743652,4308.846191,4280.897461,4237.563965,4239.230957,4234.615234,4246.666504,4233.077148,4219.358887,4479.102539,4475.641113,4381.794922,4415.128418,,,,,,,,,,,,,,,,,,,,,,,,,,,,,,,,,,,,,,,,,,,,,,,,,,,,,,,,,,,,,,,,,,,,,,
1720415982,86,0,4306.922852,4246.153809,4297.94873,4278.461426,4234.358887,4232.179688,4227.436035,4236.410156,4225.897461,4214.102539,4473.077148,4464.102539,4381.410156,4398.333496,,,,,,,,,,,,,,,,,,,,,,,,,,,,,,,,,,,,,,,,,,,,,,,,,,,,,,,,,,,,,,,,,,,,,,
1720415982,87,0,4310.256348,4245.641113,4297.05127,4278.846191,4224.487305,4229.230957,4226.794922,4232.05127,4218.974121,4207.307617,4476.922852,4460.897461,4385.641113,4389.743652,,,,,,,,,,,,,,,,,,,,,,,,,,,,,,,,,,,,,,,,,,,,,,,,,,,,,,,,,,,,,,,,,,,,,,
1720415982,88,0,4319.230957,4255.769043,4309.871582,4286.410156,4240,4231.666504,4236.410156,4246.025879,4228.846191,4217.05127,4487.436035,4475.384766,4391.025879,4394.871582,,,,,,,,,,,,,,,,,,,,,,,,,,,,,,,,,,,,,,,,,,,,,,,,,,,,,,,,,,,,,,,,,,,,,,
1720415982,89,0,4316.666504,4256.666504,4308.333496,4284.615234,4253.846191,4232.307617,4239.615234,4250.256348,4232.563965,4223.717773,4491.025879,4476.410156,4393.717773,4372.179688,,,,,,,,,,,,,,,,,,,,,,,,,,,,,,,,,,,,,,,,,,,,,,,,,,,,,,,,,,,,,,,,,,,,,,
1720415982,90,0,4315.384766,4253.333496,4299.871582,4280.897461,4240.384766,4234.487305,4239.615234,4244.102539,4221.666504,4220.128418,4482.563965,4465.384766,4389.358887,4360.256348,,,,,,,,,,,,,,,,,,,,,,,,,,,,,,,,,,,,,,,,,,,,,,,,,,,,,,,,,,,,,,,,,,,,,,
1720415982,91,0,4316.153809,4256.410156,4298.589844,4282.05127,4227.94873,4236.538574,4236.922852,4240.512695,4217.436035,4213.974121,4467.436035,4457.179688,4380.641113,4382.05127,,,,,,,,,,,,,,,,,,,,,,,,,,,,,,,,,,,,,,,,,,,,,,,,,,,,,,,,,,,,,,,,,,,,,,
1720415982,92,0,4302.05127,4248.077148,4288.205078,4269.487305,4237.692383,4236.922852,4228.461426,4228.077148,4213.461426,4202.692383,4460,4441.282227,4373.717773,4397.05127,,,,,,,,,,,,,,,,,,,,,,,,,,,,,,,,,,,,,,,,,,,,,,,,,,,,,,,,,,,,,,,,,,,,,,
1720415982,93,0,4290.128418,4231.410156,4277.05127,4249.358887,4241.153809,4237.179688,4228.333496,4222.179688,4207.05127,4194.743652,4460.769043,4428.589844,4367.94873,4431.025879,,,,,,,,,,,,,,,,,,,,,,,,,,,,,,,,,,,,,,,,,,,,,,,,,,,,,,,,,,,,,,,,,,,,,,
1720415982,94,0,4288.974121,4231.025879,4273.974121,4246.794922,4232.94873,4232.436035,4229.743652,4227.692383,4209.102539,4198.461426,4451.538574,4423.461426,4358.846191,4490.897461,,,,,,,,,,,,,,,,,,,,,,,,,,,,,,,,,,,,,,,,,,,,,,,,,,,,,,,,,,,,,,,,,,,,,,
1720415982,95,0,4293.333496,4247.436035,4272.94873,4258.974121,4242.179688,4233.461426,4227.820313,4225.128418,4215.128418,4199.230957,4449.102539,4419.743652,4354.871582,4542.692383,3.04005,1.124035,0.529816,0.411685,0.413632,4.018235,1.272294,0.874359,0.517235,0.405025,3.970921,1.817606,0.583951,0.701279,0.427721,3.386966,1.140285,0.961502,0.607445,0.5733,2.100412,0.859924,0.320495,0.326242,0.505607,1.423,0.362928,0.356912,0.274886,0.23018,1.758759,0.525449,0.39735,0.458841,0.260255,2.964993,0.742222,0.389438,0.490388,0.319561,2.877182,0.921873,0.610214,0.270819,0.428511,3.668426,0.904259,0.74283,0.657639,0.748652,6.00417,2.711066,0.900079,1.237431,0.523083,6.876154,3.103572,0.885231,1.390048,0.762605,4.009059,1.375548,0.695404,0.598236,0.4202,134.661453,13.506177,2.788952,1.487886,0.765257
1720415982,96,0,4302.436035,4255.384766,4278.333496,4264.358887,4254.358887,4243.461426,4230.641113,4224.615234,4215.769043,4194.743652,4460,4426.666504,4365.128418,4594.358887,,,,,,,,,,,,,,,,,,,,,,,,,,,,,,,,,,,,,,,,,,,,,,,,,,,,,,,,,,,,,,,,,,,,,,
1720415982,97,0,4300.512695,4247.307617,4281.282227,4257.692383,4250.256348,4247.307617,4232.179688,4229.487305,4214.230957,4202.692383,4456.410156,4432.820313,4373.205078,4638.974121,,,,,,,,,,,,,,,,,,,,,,,,,,,,,,,,,,,,,,,,,,,,,,,,,,,,,,,,,,,,,,,,,,,,,,
1720415982,98,0,4288.461426,4240.897461,4268.717773,4249.102539,4250.512695,4245.384766,4228.717773,4228.205078,4218.461426,4210.256348,4447.94873,4422.436035,4373.717773,4652.563965,,,,,,,,,,,,,,,,,,,,,,,,,,,,,,,,,,,,,,,,,,,,,,,,,,,,,,,,,,,,,,,,,,,,,,
1720415982,99,0,4285.641113,4246.025879,4259.487305,4250.128418,4248.846191,4242.307617,4228.333496,4225,4220.128418,4203.333496,4457.05127,4414.102539,4373.717773,4667.307617,,,,,,,,,,,,,,,,,,,,,,,,,,,,,,,,,,,,,,,,,,,,,,,,,,,,,,,,,,,,,,,,,,,,,,
1720415982,100,0,4290.384766,4248.461426,4270.384766,4259.743652,4235.769043,4234.743652,4228.461426,4227.307617,4216.282227,4202.692383,4460.128418,4417.692383,4374.743652,4693.077148,,,,,,,,,,,,,,,,,,,,,,,,,,,,,,,,,,,,,,,,,,,,,,,,,,,,,,,,,,,,,,,,,,,,,,
1720415982,101,0,4291.410156,4248.461426,4281.794922,4265.897461,4235,4231.153809,4226.153809,4225.769043,4214.358887,4215.256348,4450.128418,4423.205078,4374.487305,4701.922852,,,,,,,,,,,,,,,,,,,,,,,,,,,,,,,,,,,,,,,,,,,,,,,,,,,,,,,,,,,,,,,,,,,,,,
1720415982,102,0,4297.692383,4256.922852,4289.615234,4270.256348,4250.256348,4239.871582,4234.615234,4232.307617,4222.94873,4226.025879,4464.102539,4438.205078,4381.538574,4713.974121,,,,,,,,,,,,,,,,,,,,,,,,,,,,,,,,,,,,,,,,,,,,,,,,,,,,,,,,,,,,,,,,,,,,,,
1720415982,103,0,4306.538574,4264.230957,4296.666504,4273.717773,4257.820313,4245.641113,4241.153809,4244.871582,4231.025879,4229.743652,4483.974121,4453.717773,4396.410156,4721.922852,,,,,,,,,,,,,,,,,,,,,,,,,,,,,,,,,,,,,,,,,,,,,,,,,,,,,,,,,,,,,,,,,,,,,,
1720415982,104,0,4304.615234,4261.666504,4292.05127,4267.436035,4262.05127,4242.436035,4237.179688,4241.282227,4224.743652,4229.487305,4473.846191,4449.102539,4393.461426,4704.615234,,,,,,,,,,,,,,,,,,,,,,,,,,,,,,,,,,,,,,,,,,,,,,,,,,,,,,,,,,,,,,,,,,,,,,
1720415982,105,0,4297.820313,4259.487305,4285.128418,4262.05127,4265.512695,4244.615234,4239.358887,4232.94873,4219.743652,4228.974121,4460,4439.743652,4377.179688,4687.179688,,,,,,,,,,,,,,,,,,,,,,,,,,,,,,,,,,,,,,,,,,,,,,,,,,,,,,,,,,,,,,,,,,,,,,
1720415982,106,0,4298.461426,4262.179688,4290.641113,4271.794922,4261.153809,4248.333496,4243.077148,4234.871582,4222.820313,4231.410156,4471.538574,4443.717773,4380.897461,4683.717773,,,,,,,,,,,,,,,,,,,,,,,,,,,,,,,,,,,,,,,,,,,,,,,,,,,,,,,,,,,,,,,,,,,,,,
1720415982,107,0,4306.153809,4261.666504,4298.077148,4277.436035,4261.025879,4246.922852,4242.05127,4241.794922,4226.153809,4228.205078,4486.538574,4452.563965,4395.897461,4677.05127,,,,,,,,,,,,,,,,,,,,,,,,,,,,,,,,,,,,,,,,,,,,,,,,,,,,,,,,,,,,,,,,,,,,,,
1720415982,108,0,4307.692383,4261.282227,4297.307617,4270.897461,4263.333496,4248.077148,4245.769043,4246.666504,4229.230957,4226.666504,4488.077148,4458.846191,4397.307617,4663.589844,,,,,,,,,,,,,,,,,,,,,,,,,,,,,,,,,,,,,,,,,,,,,,,,,,,,,,,,,,,,,,,,,,,,,,
1720415982,109,0,4303.846191,4260.897461,4291.282227,4270.128418,4251.922852,4251.153809,4251.282227,4250.512695,4233.846191,4238.333496,4488.589844,4460,4392.436035,4654.487305,,,,,,,,,,,,,,,,,,,,,,,,,,,,,,,,,,,,,,,,,,,,,,,,,,,,,,,,,,,,,,,,,,,,,,
1720415982,110,0,4302.692383,4253.846191,4286.794922,4273.333496,4240.641113,4248.461426,4248.205078,4252.179688,4235.897461,4242.307617,4486.538574,4456.282227,4394.743652,4640.641113,,,,,,,,,,,,,,,,,,,,,,,,,,,,,,,,,,,,,,,,,,,,,,,,,,,,,,,,,,,,,,,,,,,,,,
1720415982,111,0,4298.974121,4247.05127,4287.179688,4266.410156,4244.743652,4246.794922,4240.641113,4249.230957,4234.102539,4233.717773,4477.436035,4454.871582,4393.333496,4617.307617,3.752165,1.6997,0.484984,0.471312,0.393183,4.982463,1.930784,0.806554,0.568903,0.377976,4.642744,2.66145,0.595135,0.809573,0.420862,4.228958,1.855828,0.904384,0.657395,0.545832,2.354058,1.159626,0.312369,0.357499,0.497107,1.631287,0.641912,0.403113,0.312989,0.227523,1.993742,1.010589,0.393829,0.534771,0.269194,3.34601,0.963284,0.39077,0.546606,0.310598,3.256163,0.805582,0.736735,0.273277,0.42744,4.211577,0.932038,0.87014,0.743031,0.768007,7.087838,3.755437,0.861552,1.455714,0.53678,7.937101,4.611516,0.947198,1.557362,0.743494,4.643509,1.912277,0.709843,0.672726,0.414108,134.650162,13.254647,3.015695,1.571583,0.721173
1720415982,112,0,4294.230957,4246.922852,4286.538574,4258.974121,4251.025879,4247.307617,4237.179688,4242.436035,4229.743652,4228.333496,4470.897461,4453.333496,4389.358887,4606.410156,,,,,,,,,,,,,,,,,,,,,,,,,,,,,,,,,,,,,,,,,,,,,,,,,,,,,,,,,,,,,,,,,,,,,,
1720415982,113,0,4296.666504,4251.410156,4287.692383,4262.692383,4248.461426,4247.179688,4242.05127,4240.384766,4230,4239.230957,4483.974121,4455.769043,4393.205078,4612.820313,,,,,,,,,,,,,,,,,,,,,,,,,,,,,,,,,,,,,,,,,,,,,,,,,,,,,,,,,,,,,,,,,,,,,,
1720415982,114,0,4298.974121,4254.487305,4292.179688,4270.128418,4247.563965,4251.922852,4242.692383,4244.615234,4234.230957,4250,4495.512695,4461.666504,4393.461426,4607.94873,,,,,,,,,,,,,,,,,,,,,,,,,,,,,,,,,,,,,,,,,,,,,,,,,,,,,,,,,,,,,,,,,,,,,,
1720415982,115,0,4294.102539,4247.692383,4286.282227,4259.871582,4248.077148,4251.153809,4233.205078,4237.563965,4227.05127,4237.94873,4474.871582,4456.538574,4381.794922,4587.94873,,,,,,,,,,,,,,,,,,,,,,,,,,,,,,,,,,,,,,,,,,,,,,,,,,,,,,,,,,,,,,,,,,,,,,
1720415982,116,0,4289.358887,4238.589844,4274.743652,4244.871582,4242.05127,4235.897461,4229.871582,4224.102539,4211.025879,4225,4455.384766,4441.153809,4374.871582,4578.205078,,,,,,,,,,,,,,,,,,,,,,,,,,,,,,,,,,,,,,,,,,,,,,,,,,,,,,,,,,,,,,,,,,,,,,
1720415982,117,0,4285.897461,4237.307617,4274.871582,4250.897461,4240.769043,4228.077148,4230.384766,4216.538574,4203.461426,4227.307617,4463.846191,4430.512695,4375.384766,4571.282227,,,,,,,,,,,,,,,,,,,,,,,,,,,,,,,,,,,,,,,,,,,,,,,,,,,,,,,,,,,,,,,,,,,,,,
1720415982,118,0,4290.897461,4244.871582,4281.153809,4265.256348,4248.717773,4238.333496,4228.846191,4216.794922,4208.461426,4237.692383,4474.230957,4434.358887,4376.025879,4573.205078,,,,,,,,,,,,,,,,,,,,,,,,,,,,,,,,,,,,,,,,,,,,,,,,,,,,,,,,,,,,,,,,,,,,,,
1720415982,119,0,4299.487305,4246.666504,4283.717773,4260.897461,4247.179688,4244.230957,4231.282227,4222.307617,4211.025879,4238.846191,4468.205078,4440.128418,4379.102539,4581.282227,,,,,,,,,,,,,,,,,,,,,,,,,,,,,,,,,,,,,,,,,,,,,,,,,,,,,,,,,,,,,,,,,,,,,,
1720415982,120,0,4301.538574,4247.820313,4288.974121,4261.410156,4247.94873,4246.538574,4237.692383,4231.153809,4214.102539,4233.846191,4468.205078,4447.307617,4383.077148,4576.794922,,,,,,,,,,,,,,,,,,,,,,,,,,,,,,,,,,,,,,,,,,,,,,,,,,,,,,,,,,,,,,,,,,,,,,
1720415982,121,0,4309.871582,4262.692383,4299.871582,4283.333496,4262.563965,4256.282227,4245.256348,4242.563965,4226.410156,4240.769043,4483.205078,4463.846191,4387.692383,4589.615234,,,,,,,,,,,,,,,,,,,,,,,,,,,,,,,,,,,,,,,,,,,,,,,,,,,,,,,,,,,,,,,,,,,,,,
1720415982,122,0,4323.589844,4272.563965,4306.282227,4294.487305,4262.94873,4259.615234,4251.282227,4248.333496,4233.589844,4255.897461,4490.128418,4475.384766,4395.128418,4613.974121,,,,,,,,,,,,,,,,,,,,,,,,,,,,,,,,,,,,,,,,,,,,,,,,,,,,,,,,,,,,,,,,,,,,,,
1720415982,123,0,4330.769043,4272.179688,4301.410156,4291.538574,4248.077148,4252.692383,4247.563965,4248.589844,4232.05127,4256.025879,4486.153809,4473.333496,4394.230957,4607.436035,,,,,,,,,,,,,,,,,,,,,,,,,,,,,,,,,,,,,,,,,,,,,,,,,,,,,,,,,,,,,,,,,,,,,,
1720415982,124,0,4330.384766,4270.897461,4294.871582,4285.897461,4247.820313,4246.153809,4238.589844,4244.615234,4227.05127,4245.128418,4486.538574,4467.05127,4383.461426,4587.179688,,,,,,,,,,,,,,,,,,,,,,,,,,,,,,,,,,,,,,,,,,,,,,,,,,,,,,,,,,,,,,,,,,,,,,
1720415982,125,0,4323.589844,4267.307617,4292.820313,4276.153809,4252.820313,4246.666504,4239.615234,4238.077148,4220,4243.974121,4488.205078,4456.666504,4378.974121,4570.641113,,,,,,,,,,,,,,,,,,,,,,,,,,,,,,,,,,,,,,,,,,,,,,,,,,,,,,,,,,,,,,,,,,,,,,
1720415982,126,0,4316.153809,4261.282227,4291.282227,4272.436035,4246.794922,4250.384766,4242.94873,4237.563965,4218.077148,4248.846191,4478.205078,4450.512695,4382.05127,4549.615234,,,,,,,,,,,,,,,,,,,,,,,,,,,,,,,,,,,,,,,,,,,,,,,,,,,,,,,,,,,,,,,,,,,,,,
1720415982,127,0,4323.589844,4264.743652,4295.769043,4281.410156,4248.461426,4251.922852,4244.871582,4247.563965,4226.538574,4253.974121,4473.589844,4466.922852,4386.282227,4549.743652,4.170979,2.463891,0.427495,0.507549,0.371032,5.559372,2.795448,0.677771,0.597192,0.362894,5.226583,3.813557,0.568521,0.864572,0.406636,4.833848,2.766001,0.772743,0.671739,0.516694,2.347077,1.497061,0.391996,0.374279,0.482219,1.652588,1.043117,0.410323,0.367665,0.228405,2.074409,1.689798,0.37525,0.605987,0.27476,3.449052,1.217862,0.415847,0.596348,0.296776,3.276162,0.679327,0.887978,0.281608,0.405174,4.347546,0.937887,0.982269,0.824263,0.746496,7.659513,4.930735,0.788525,1.587395,0.546347,8.859864,6.442618,1.001853,1.628492,0.702193,4.88322,2.538599,0.672764,0.71851,0.412295,135.469391,13.29543,2.990685,1.582984,0.666942
1720415982,0,0,4330.769043,4269.871582,4300.384766,4283.974121,4252.692383,4249.358887,4244.102539,4245.512695,4224.615234,4251.410156,4477.179688,4472.563965,4385.128418,4550.641113,,,,,,,,,,,,,,,,,,,,,,,,,,,,,,,,,,,,,,,,,,,,,,,,,,,,,,,,,,,,,,,,,,,,,,
1720415982,1,0,4324.615234,4267.436035,4294.230957,4278.846191,4245.128418,4247.307617,4240,4233.717773,4215,4243.717773,4481.025879,4456.922852,4382.563965,4521.025879,,,,,,,,,,,,,,,,,,,,,,,,,,,,,,,,,,,,,,,,,,,,,,,,,,,,,,,,,,,,,,,,,,,,,,
1720415983,2,0,4331.153809,4275.128418,4295.384766,4291.538574,4247.05127,4250.769043,4243.205078,4240.384766,4219.743652,4248.333496,4490.384766,4462.94873,4391.666504,4503.717773,,,,,,,,,,,,,,,,,,,,,,,,,,,,,,,,,,,,,,,,,,,,,,,,,,,,,,,,,,,,,,,,,,,,,,
1720415983,3,0,4334.487305,4279.743652,4297.692383,4299.487305,4250.641113,4248.205078,4244.487305,4242.692383,4221.025879,4250.128418,4488.461426,4470.641113,4393.333496,4497.436035,,,,,,,,,,,,,,,,,,,,,,,,,,,,,,,,,,,,,,,,,,,,,,,,,,,,,,,,,,,,,,,,,,,,,,
1720415983,4,0,4320.384766,4267.563965,4285.256348,4287.820313,4238.717773,4239.230957,4235.897461,4229.743652,4213.846191,4245.769043,4468.974121,4456.282227,4374.743652,4477.179688,,,,,,,,,,,,,,,,,,,,,,,,,,,,,,,,,,,,,,,,,,,,,,,,,,,,,,,,,,,,,,,,,,,,,,
1720415983,5,0,4313.333496,4255,4280.384766,4276.410156,4236.538574,4235.641113,4232.179688,4223.205078,4212.820313,4243.974121,4464.487305,4448.974121,4370.769043,4458.846191,,,,,,,,,,,,,,,,,,,,,,,,,,,,,,,,,,,,,,,,,,,,,,,,,,,,,,,,,,,,,,,,,,,,,,
1720415983,6,0,4308.333496,4250,4277.692383,4267.820313,4245.769043,4234.102539,4230,4219.615234,4208.974121,4234.615234,4469.230957,4440.769043,4376.282227,4436.282227,,,,,,,,,,,,,,,,,,,,,,,,,,,,,,,,,,,,,,,,,,,,,,,,,,,,,,,,,,,,,,,,,,,,,,
1720415983,7,0,4295.641113,4241.794922,4263.205078,4253.974121,4243.589844,4233.077148,4223.974121,4216.153809,4204.358887,4226.794922,4458.205078,4425.256348,4368.205078,4408.846191,,,,,,,,,,,,,,,,,,,,,,,,,,,,,,,,,,,,,,,,,,,,,,,,,,,,,,,,,,,,,,,,,,,,,,
1720415983,8,0,4299.487305,4241.282227,4268.717773,4257.563965,4238.717773,4242.307617,4229.615234,4228.846191,4218.461426,4237.05127,4463.205078,4443.589844,4369.871582,4405.769043,,,,,,,,,,,,,,,,,,,,,,,,,,,,,,,,,,,,,,,,,,,,,,,,,,,,,,,,,,,,,,,,,,,,,,
1720415983,9,0,4316.025879,4254.358887,4291.666504,4278.717773,4238.333496,4253.846191,4241.666504,4248.461426,4236.922852,4249.487305,4493.333496,4475.769043,4385.512695,4415.128418,,,,,,,,,,,,,,,,,,,,,,,,,,,,,,,,,,,,,,,,,,,,,,,,,,,,,,,,,,,,,,,,,,,,,,
1720415983,10,0,4310.897461,4249.102539,4289.615234,4276.153809,4232.692383,4250.897461,4242.179688,4246.922852,4231.282227,4247.692383,4494.871582,4468.333496,4382.820313,4393.589844,,,,,,,,,,,,,,,,,,,,,,,,,,,,,,,,,,,,,,,,,,,,,,,,,,,,,,,,,,,,,,,,,,,,,,
1720415983,11,0,4297.94873,4232.307617,4272.563965,4260,4229.102539,4242.820313,4235.769043,4235.769043,4219.871582,4245.128418,4467.436035,4446.794922,4370.384766,4358.205078,,,,,,,,,,,,,,,,,,,,,,,,,,,,,,,,,,,,,,,,,,,,,,,,,,,,,,,,,,,,,,,,,,,,,,
1720415983,12,0,4302.563965,4236.794922,4275,4265.384766,4232.307617,4243.717773,4234.487305,4235.769043,4223.974121,4248.589844,4462.563965,4450.641113,4375.256348,4345.256348,,,,,,,,,,,,,,,,,,,,,,,,,,,,,,,,,,,,,,,,,,,,,,,,,,,,,,,,,,,,,,,,,,,,,,
1720415983,13,0,4314.358887,4252.820313,4290,4280,4240.897461,4249.358887,4242.436035,4246.153809,4231.153809,4248.589844,4485,4467.94873,4387.436035,4346.922852,,,,,,,,,,,,,,,,,,,,,,,,,,,,,,,,,,,,,,,,,,,,,,,,,,,,,,,,,,,,,,,,,,,,,,
1720415983,14,0,4317.94873,4254.230957,4296.538574,4280.769043,4253.846191,4251.538574,4247.307617,4249.487305,4232.179688,4246.538574,4492.05127,4477.692383,4386.922852,4336.538574,,,,,,,,,,,,,,,,,,,,,,,,,,,,,,,,,,,,,,,,,,,,,,,,,,,,,,,,,,,,,,,,,,,,,,
1720415983,15,0,4309.102539,4248.205078,4292.436035,4274.230957,4257.820313,4249.743652,4242.820313,4244.743652,4230,4246.922852,4482.692383,4476.666504,4377.307617,4313.974121,4.253047,3.23433,0.371691,0.51553,0.349793,5.584042,3.643995,0.523963,0.600889,0.360179,5.800838,5.024262,0.520898,0.857525,0.389294,5.131312,3.654182,0.607017,0.64873,0.490745,2.109591,1.791147,0.569599,0.376668,0.46834,1.490051,1.494128,0.372753,0.426707,0.230277,2.014242,2.412782,0.345712,0.655446,0.276091,3.300354,1.421291,0.468684,0.631561,0.281172,2.939492,0.562995,1.035013,0.29384,0.367475,4.102838,0.89811,1.063466,0.877992,0.690169,7.741848,5.893918,0.693389,1.604638,0.556814,9.792902,8.141609,1.074292,1.593312,0.648137,4.77809,3.082352,0.6014,0.729017,0.414926,137.752182,13.602078,2.761723,1.516671,0.615631
1720415983,16,0,4308.717773,4253.589844,4299.743652,4283.717773,4251.025879,4249.871582,4246.922852,4248.846191,4233.461426,4246.922852,4482.820313,4475.256348,4381.282227,4297.307617,,,,,,,,,,,,,,,,,,,,,,,,,,,,,,,,,,,,,,,,,,,,,,,,,,,,,,,,,,,,,,,,,,,,,,
1720415983,17,0,4323.205078,4266.282227,4313.717773,4302.307617,4247.05127,4250.769043,4253.333496,4250.769043,4234.871582,4246.794922,4497.820313,4478.589844,4393.589844,4284.487305,,,,,,,,,,,,,,,,,,,,,,,,,,,,,,,,,,,,,,,,,,,,,,,,,,,,,,,,,,,,,,,,,,,,,,
1720415983,18,0,4322.563965,4263.974121,4306.794922,4299.743652,4250.128418,4248.077148,4242.563965,4238.461426,4224.487305,4245.256348,4495.384766,4474.102539,4383.846191,4261.794922,,,,,,,,,,,,,,,,,,,,,,,,,,,,,,,,,,,,,,,,,,,,,,,,,,,,,,,,,,,,,,,,,,,,,,
1720415983,19,0,4304.871582,4248.461426,4291.794922,4281.666504,4245.897461,4244.743652,4233.589844,4230.256348,4215,4238.333496,4472.179688,4455.512695,4367.692383,4231.538574,,,,,,,,,,,,,,,,,,,,,,,,,,,,,,,,,,,,,,,,,,,,,,,,,,,,,,,,,,,,,,,,,,,,,,
1720415983,20,0,4294.743652,4241.153809,4286.666504,4274.743652,4230.641113,4244.743652,4238.589844,4232.179688,4216.666504,4230.641113,4461.282227,4442.05127,4365.769043,4203.974121,,,,,,,,,,,,,,,,,,,,,,,,,,,,,,,,,,,,,,,,,,,,,,,,,,,,,,,,,,,,,,,,,,,,,,
1720415983,21,0,4295.512695,4241.025879,4281.153809,4272.820313,4235.641113,4248.717773,4242.563965,4233.461426,4220.897461,4232.563965,4461.153809,4444.871582,4362.307617,4187.307617,,,,,,,,,,,,,,,,,,,,,,,,,,,,,,,,,,,,,,,,,,,,,,,,,,,,,,,,,,,,,,,,,,,,,,
1720415983,22,0,4295.769043,4242.94873,4276.794922,4270.384766,4250.897461,4251.794922,4240.897461,4236.666504,4221.538574,4237.820313,4464.102539,4446.153809,4359.102539,4173.717773,,,,,,,,,,,,,,,,,,,,,,,,,,,,,,,,,,,,,,,,,,,,,,,,,,,,,,,,,,,,,,,,,,,,,,
1720415983,23,0,4295.512695,4247.179688,4278.077148,4277.179688,4240.897461,4248.846191,4238.717773,4242.563965,4224.487305,4242.436035,4469.615234,4439.102539,4366.153809,4155.512695,,,,,,,,,,,,,,,,,,,,,,,,,,,,,,,,,,,,,,,,,,,,,,,,,,,,,,,,,,,,,,,,,,,,,,
1720415983,24,0,4303.333496,4249.230957,4284.230957,4284.230957,4233.589844,4244.358887,4241.282227,4246.410156,4232.179688,4251.794922,4480,4450.641113,4375.897461,4152.94873,,,,,,,,,,,,,,,,,,,,,,,,,,,,,,,,,,,,,,,,,,,,,,,,,,,,,,,,,,,,,,,,,,,,,,
1720415983,25,0,4312.820313,4254.871582,4295.128418,4290.256348,4251.153809,4250.897461,4248.846191,4251.282227,4238.589844,4256.666504,4496.794922,4474.487305,4382.692383,4164.102539,,,,,,,,,,,,,,,,,,,,,,,,,,,,,,,,,,,,,,,,,,,,,,,,,,,,,,,,,,,,,,,,,,,,,,
1720415983,26,0,4312.692383,4261.922852,4295.769043,4294.871582,4258.077148,4258.333496,4247.692383,4251.922852,4237.94873,4250,4497.05127,4472.05127,4383.077148,4154.615234,,,,,,,,,,,,,,,,,,,,,,,,,,,,,,,,,,,,,,,,,,,,,,,,,,,,,,,,,,,,,,,,,,,,,,
1720415983,27,0,4307.436035,4261.922852,4282.94873,4293.589844,4246.538574,4252.307617,4240,4247.94873,4233.974121,4246.794922,4476.666504,4453.333496,4377.94873,4143.846191,,,,,,,,,,,,,,,,,,,,,,,,,,,,,,,,,,,,,,,,,,,,,,,,,,,,,,,,,,,,,,,,,,,,,,
1720415983,28,0,4307.05127,4261.794922,4281.025879,4293.205078,4243.974121,4245.641113,4241.922852,4247.05127,4230.256348,4253.589844,4467.563965,4450.384766,4373.333496,4157.820313,,,,,,,,,,,,,,,,,,,,,,,,,,,,,,,,,,,,,,,,,,,,,,,,,,,,,,,,,,,,,,,,,,,,,,
1720415983,29,0,4303.974121,4259.871582,4284.743652,4287.692383,4249.102539,4247.820313,4240.769043,4240.256348,4219.743652,4245.512695,4478.205078,4450.897461,4368.205078,4155.512695,,,,,,,,,,,,,,,,,,,,,,,,,,,,,,,,,,,,,,,,,,,,,,,,,,,,,,,,,,,,,,,,,,,,,,
1720415983,30,0,4299.230957,4250.769043,4278.846191,4277.05127,4247.94873,4246.666504,4233.077148,4230.256348,4209.230957,4233.589844,4477.436035,4445.641113,4363.077148,4131.410156,,,,,,,,,,,,,,,,,,,,,,,,,,,,,,,,,,,,,,,,,,,,,,,,,,,,,,,,,,,,,,,,,,,,,,
1720415983,31,0,4300.384766,4244.743652,4274.358887,4275.256348,4245,4241.794922,4234.615234,4229.615234,4208.717773,4241.025879,4464.230957,4438.717773,4361.025879,4111.922852,4.075692,3.781893,0.334789,0.501171,0.328744,5.163392,4.21103,0.39305,0.583803,0.362133,6.41554,5.930458,0.476194,0.804247,0.370447,5.185902,4.269368,0.473226,0.601455,0.470001,1.749955,1.953848,0.821125,0.370952,0.456741,1.208836,1.881572,0.306149,0.477076,0.228286,1.882104,2.970227,0.311865,0.671283,0.271061,3.053726,1.50583,0.545675,0.647539,0.264716,2.42666,0.490997,1.148379,0.306326,0.32275,3.655263,0.803173,1.101236,0.887666,0.613926,7.551056,6.312123,0.602281,1.52223,0.571086,10.894541,9.18707,1.184071,1.482862,0.589629,4.498735,3.366785,0.530066,0.708936,0.416437,141.23996,13.990753,2.468686,1.394396,0.575419
1720415983,32,0,4301.794922,4245.897461,4273.846191,4278.205078,4248.205078,4244.615234,4237.05127,4230.769043,4212.563965,4243.589844,4457.692383,4432.820313,4360.641113,4099.487305,,,,,,,,,,,,,,,,,,,,,,,,,,,,,,,,,,,,,,,,,,,,,,,,,,,,,,,,,,,,,,,,,,,,,,
1720415983,33,0,4299.615234,4245,4269.487305,4276.794922,4250.128418,4248.077148,4232.692383,4229.487305,4214.743652,4239.102539,4462.179688,4431.666504,4360.897461,4095.512939,,,,,,,,,,,,,,,,,,,,,,,,,,,,,,,,,,,,,,,,,,,,,,,,,,,,,,,,,,,,,,,,,,,,,,
1720415983,34,0,4293.717773,4246.282227,4268.461426,4277.05127,4246.153809,4243.333496,4228.205078,4230.128418,4216.025879,4243.974121,4465.128418,4429.487305,4361.282227,4095.641113,,,,,,,,,,,,,,,,,,,,,,,,,,,,,,,,,,,,,,,,,,,,,,,,,,,,,,,,,,,,,,,,,,,,,,
1720415983,35,0,4301.538574,4257.820313,4282.436035,4289.487305,4245.128418,4244.743652,4237.179688,4238.077148,4225,4253.589844,4472.94873,4443.077148,4375.641113,4109.871582,,,,,,,,,,,,,,,,,,,,,,,,,,,,,,,,,,,,,,,,,,,,,,,,,,,,,,,,,,,,,,,,,,,,,,
1720415983,36,0,4320.641113,4271.025879,4301.282227,4309.615234,4250.128418,4254.358887,4251.794922,4251.922852,4244.358887,4267.563965,4505.128418,4477.563965,4401.282227,4139.743652,,,,,,,,,,,,,,,,,,,,,,,,,,,,,,,,,,,,,,,,,,,,,,,,,,,,,,,,,,,,,,,,,,,,,,
1720415983,37,0,4319.871582,4267.820313,4298.974121,4308.589844,4261.282227,4254.615234,4249.230957,4252.692383,4249.102539,4272.820313,4522.307617,4481.666504,4398.077148,4145.897461,,,,,,,,,,,,,,,,,,,,,,,,,,,,,,,,,,,,,,,,,,,,,,,,,,,,,,,,,,,,,,,,,,,,,,
1720415983,38,0,4302.05127,4251.666504,4282.436035,4283.461426,4264.743652,4245.256348,4237.436035,4240.897461,4231.025879,4250.897461,4490,4445.512695,4366.538574,4119.102539,,,,,,,,,,,,,,,,,,,,,,,,,,,,,,,,,,,,,,,,,,,,,,,,,,,,,,,,,,,,,,,,,,,,,,
1720415983,39,0,4294.358887,4243.205078,4276.538574,4270.897461,4251.666504,4244.102539,4236.666504,4240.512695,4222.179688,4236.538574,4463.205078,4434.487305,4356.538574,4109.615234,,,,,,,,,,,,,,,,,,,,,,,,,,,,,,,,,,,,,,,,,,,,,,,,,,,,,,,,,,,,,,,,,,,,,,
1720415983,40,0,4299.743652,4247.307617,4281.666504,4281.025879,4244.230957,4249.871582,4242.179688,4248.333496,4233.461426,4250.769043,4475.128418,4455.512695,4370.641113,4125,,,,,,,,,,,,,,,,,,,,,,,,,,,,,,,,,,,,,,,,,,,,,,,,,,,,,,,,,,,,,,,,,,,,,,
1720415983,41,0,4301.282227,4250.512695,4280.769043,4286.538574,4248.717773,4249.743652,4240.128418,4247.307617,4235.384766,4253.461426,4480.641113,4456.410156,4372.307617,4119.358887,,,,,,,,,,,,,,,,,,,,,,,,,,,,,,,,,,,,,,,,,,,,,,,,,,,,,,,,,,,,,,,,,,,,,,
1720415983,42,0,4301.282227,4248.589844,4278.205078,4282.307617,4250.128418,4245.128418,4238.589844,4241.666504,4231.025879,4248.974121,4473.461426,4447.436035,4365.897461,4095.256348,,,,,,,,,,,,,,,,,,,,,,,,,,,,,,,,,,,,,,,,,,,,,,,,,,,,,,,,,,,,,,,,,,,,,,
1720415983,43,0,4299.230957,4244.230957,4280.512695,4280.512695,4246.794922,4242.05127,4238.077148,4236.666504,4229.743652,4252.179688,4479.230957,4443.846191,4368.077148,4074.615479,,,,,,,,,,,,,,,,,,,,,,,,,,,,,,,,,,,,,,,,,,,,,,,,,,,,,,,,,,,,,,,,,,,,,,
1720415983,44,0,4291.922852,4241.922852,4279.358887,4280.256348,4245.128418,4241.282227,4233.077148,4228.846191,4221.410156,4240.641113,4475,4434.487305,4360.384766,4056.538574,,,,,,,,,,,,,,,,,,,,,,,,,,,,,,,,,,,,,,,,,,,,,,,,,,,,,,,,,,,,,,,,,,,,,,
1720415983,45,0,4291.153809,4244.487305,4280.769043,4278.333496,4247.05127,4247.179688,4238.461426,4230.512695,4222.179688,4232.563965,4465.769043,4433.205078,4352.05127,4043.461426,,,,,,,,,,,,,,,,,,,,,,,,,,,,,,,,,,,,,,,,,,,,,,,,,,,,,,,,,,,,,,,,,,,,,,
1720415983,46,0,4296.922852,4248.846191,4285.641113,4278.717773,4249.743652,4252.563965,4246.666504,4242.307617,4235.769043,4244.487305,4482.05127,4445.769043,4362.820313,4045.641113,,,,,,,,,,,,,,,,,,,,,,,,,,,,,,,,,,,,,,,,,,,,,,,,,,,,,,,,,,,,,,,,,,,,,,
1720415983,47,0,4302.692383,4255.512695,4289.102539,4289.487305,4246.794922,4248.717773,4243.333496,4246.666504,4235.769043,4248.461426,4489.615234,4455.384766,4369.743652,4059.230713,3.810763,3.930208,0.331058,0.478518,0.306998,4.500645,4.308106,0.325429,0.555344,0.358925,7.01671,6.225263,0.458614,0.736832,0.35075,5.093566,4.437672,0.431663,0.553326,0.454608,1.40189,1.93905,1.090158,0.36593,0.443666,0.907625,2.102418,0.243558,0.509716,0.218452,1.745108,3.190901,0.282205,0.650914,0.257957,2.861121,1.475263,0.639354,0.647044,0.247568,1.93907,0.501059,1.206832,0.315391,0.280015,3.20667,0.670854,1.082491,0.844708,0.535092,7.27916,6.02836,0.542498,1.390697,0.590634,12.062963,9.237256,1.336209,1.358496,0.535644,4.216987,3.300439,0.49413,0.671529,0.409729,142.739777,14.186347,2.220689,1.25401,0.551541
1720415983,48,0,4305.384766,4260.897461,4295.384766,4299.487305,4245.897461,4245.128418,4239.743652,4244.615234,4230.256348,4240.384766,4477.307617,4458.589844,4361.922852,4076.923096,,,,,,,,,,,,,,,,,,,,,,,,,,,,,,,,,,,,,,,,,,,,,,,,,,,,,,,,,,,,,,,,,,,,,,
1720415983,49,0,4301.410156,4254.615234,4296.410156,4289.615234,4250.384766,4246.922852,4243.461426,4242.563965,4232.692383,4237.692383,4476.025879,4453.846191,4355,4102.820313,,,,,,,,,,,,,,,,,,,,,,,,,,,,,,,,,,,,,,,,,,,,,,,,,,,,,,,,,,,,,,,,,,,,,,
1720415983,50,0,4293.974121,4245.512695,4286.282227,4275.897461,4248.974121,4245.897461,4244.102539,4240.769043,4229.230957,4229.743652,4471.410156,4444.230957,4344.230957,4131.282227,,,,,,,,,,,,,,,,,,,,,,,,,,,,,,,,,,,,,,,,,,,,,,,,,,,,,,,,,,,,,,,,,,,,,,
1720415983,51,0,4291.922852,4246.922852,4277.05127,4280.256348,4250.769043,4246.282227,4242.692383,4242.563965,4227.179688,4219.743652,4466.153809,4444.230957,4341.282227,4166.922852,,,,,,,,,,,,,,,,,,,,,,,,,,,,,,,,,,,,,,,,,,,,,,,,,,,,,,,,,,,,,,,,,,,,,,
1720415983,52,0,4296.794922,4251.666504,4281.666504,4288.846191,4250.897461,4251.025879,4245.897461,4245.897461,4235.256348,4233.077148,4473.205078,4447.94873,4358.589844,4220.769043,,,,,,,,,,,,,,,,,,,,,,,,,,,,,,,,,,,,,,,,,,,,,,,,,,,,,,,,,,,,,,,,,,,,,,
1720415983,53,0,4301.410156,4250.256348,4289.743652,4283.589844,4245.128418,4250.897461,4247.307617,4246.282227,4235.256348,4251.153809,4471.922852,4450.769043,4361.794922,4277.563965,,,,,,,,,,,,,,,,,,,,,,,,,,,,,,,,,,,,,,,,,,,,,,,,,,,,,,,,,,,,,,,,,,,,,,
1720415983,54,0,4302.820313,4249.487305,4290.384766,4279.358887,4256.282227,4246.410156,4246.794922,4247.179688,4231.922852,4249.743652,4466.666504,4456.410156,4348.717773,4321.922852,,,,,,,,,,,,,,,,,,,,,,,,,,,,,,,,,,,,,,,,,,,,,,,,,,,,,,,,,,,,,,,,,,,,,,
1720415983,55,0,4304.102539,4257.307617,4290.128418,4284.615234,4274.102539,4249.615234,4248.974121,4251.666504,4238.077148,4245.256348,4478.205078,4458.974121,4354.871582,4360.641113,,,,,,,,,,,,,,,,,,,,,,,,,,,,,,,,,,,,,,,,,,,,,,,,,,,,,,,,,,,,,,,,,,,,,,
1720415983,56,0,4302.94873,4261.794922,4286.794922,4283.974121,4272.436035,4257.820313,4250.769043,4250.769043,4243.333496,4250.256348,4481.410156,4458.333496,4367.563965,4390.256348,,,,,,,,,,,,,,,,,,,,,,,,,,,,,,,,,,,,,,,,,,,,,,,,,,,,,,,,,,,,,,,,,,,,,,
1720415983,57,0,4301.794922,4262.820313,4281.282227,4285.769043,4262.563965,4257.179688,4251.282227,4248.333496,4243.077148,4250.641113,4481.153809,4459.358887,4369.615234,4406.922852,,,,,,,,,,,,,,,,,,,,,,,,,,,,,,,,,,,,,,,,,,,,,,,,,,,,,,,,,,,,,,,,,,,,,,
1720415983,58,0,4305.384766,4271.410156,4288.333496,4299.230957,4260.641113,4251.282227,4250.641113,4256.794922,4246.153809,4247.05127,4496.538574,4463.589844,4370.769043,4420.512695,,,,,,,,,,,,,,,,,,,,,,,,,,,,,,,,,,,,,,,,,,,,,,,,,,,,,,,,,,,,,,,,,,,,,,
1720415983,59,0,4306.794922,4274.487305,4296.282227,4303.974121,4266.922852,4249.743652,4248.589844,4260.769043,4246.922852,4248.717773,4490.769043,4463.461426,4366.410156,4426.922852,,,,,,,,,,,,,,,,,,,,,,,,,,,,,,,,,,,,,,,,,,,,,,,,,,,,,,,,,,,,,,,,,,,,,,
1720415983,60,0,4303.077148,4265.769043,4283.461426,4290.897461,4275.512695,4249.615234,4242.820313,4251.025879,4242.820313,4249.615234,4476.666504,4457.436035,4358.974121,4432.563965,,,,,,,,,,,,,,,,,,,,,,,,,,,,,,,,,,,,,,,,,,,,,,,,,,,,,,,,,,,,,,,,,,,,,,
1720415983,61,0,4301.410156,4260.384766,4274.871582,4280.256348,4271.538574,4246.538574,4239.487305,4248.077148,4243.077148,4250,4484.487305,4457.179688,4363.589844,4441.153809,,,,,,,,,,,,,,,,,,,,,,,,,,,,,,,,,,,,,,,,,,,,,,,,,,,,,,,,,,,,,,,,,,,,,,
1720415983,62,0,4302.563965,4263.333496,4289.230957,4285.897461,4265.512695,4249.230957,4246.025879,4255.128418,4248.077148,4250.897461,4491.282227,4463.461426,4372.692383,4440.384766,,,,,,,,,,,,,,,,,,,,,,,,,,,,,,,,,,,,,,,,,,,,,,,,,,,,,,,,,,,,,,,,,,,,,,
1720415983,63,0,4302.820313,4262.94873,4297.179688,4295.256348,4272.05127,4257.05127,4252.692383,4256.282227,4249.487305,4252.307617,4481.153809,4460.512695,4371.282227,4434.102539,3.628112,3.652894,0.375182,0.462781,0.285575,3.914362,3.929084,0.356277,0.524346,0.345045,7.485299,5.804674,0.493288,0.685492,0.331178,4.963099,4.15307,0.534252,0.526481,0.443303,1.162838,1.763826,1.304442,0.366569,0.425167,0.670829,2.103206,0.215192,0.520724,0.200416,1.645587,3.020215,0.263148,0.600379,0.237435,2.802937,1.405686,0.737105,0.637979,0.230163,1.623818,0.627997,1.214843,0.322725,0.246585,2.867058,0.550745,1.018406,0.757117,0.466662,7.004953,5.15771,0.552344,1.273875,0.616022,13.018427,8.311614,1.527976,1.283165,0.495861,3.993368,2.938364,0.531935,0.63203,0.392499,142.082474,14.094762,2.115304,1.13431,0.547312
1720415983,64,0,4308.717773,4267.307617,4296.410156,4298.461426,4274.743652,4262.436035,4253.717773,4254.871582,4248.846191,4257.820313,4477.563965,4464.230957,4367.05127,4434.871582,,,,,,,,,,,,,,,,,,,,,,,,,,,,,,,,,,,,,,,,,,,,,,,,,,,,,,,,,,,,,,,,,,,,,,
1720415983,65,0,4313.717773,4273.974121,4297.94873,4297.179688,4268.717773,4263.589844,4252.436035,4255.897461,4249.615234,4261.922852,4490.641113,4477.436035,4370.769043,4437.307617,,,,,,,,,,,,,,,,,,,,,,,,,,,,,,,,,,,,,,,,,,,,,,,,,,,,,,,,,,,,,,,,,,,,,,
1720415983,66,0,4305.769043,4267.307617,4295.512695,4294.230957,4266.538574,4256.410156,4248.589844,4250.512695,4245,4251.666504,4487.94873,4469.871582,4371.538574,4428.717773,,,,,,,,,,,,,,,,,,,,,,,,,,,,,,,,,,,,,,,,,,,,,,,,,,,,,,,,,,,,,,,,,,,,,,
1720415983,67,0,4297.307617,4259.743652,4293.974121,4291.922852,4267.307617,4248.974121,4246.538574,4247.94873,4240.256348,4248.589844,4476.666504,4458.205078,4363.205078,4420,,,,,,,,,,,,,,,,,,,,,,,,,,,,,,,,,,,,,,,,,,,,,,,,,,,,,,,,,,,,,,,,,,,,,,
1720415983,68,0,4297.692383,4259.615234,4293.589844,4290.128418,4265.641113,4249.358887,4246.794922,4251.794922,4243.205078,4255.897461,4480.769043,4463.461426,4356.666504,4423.077148,,,,,,,,,,,,,,,,,,,,,,,,,,,,,,,,,,,,,,,,,,,,,,,,,,,,,,,,,,,,,,,,,,,,,,
1720415983,69,0,4296.666504,4261.666504,4288.461426,4290.897461,4263.589844,4251.922852,4245.897461,4251.794922,4246.410156,4252.94873,4489.615234,4462.820313,4357.692383,4420.128418,,,,,,,,,,,,,,,,,,,,,,,,,,,,,,,,,,,,,,,,,,,,,,,,,,,,,,,,,,,,,,,,,,,,,,
1720415983,70,0,4294.615234,4263.205078,4289.743652,4293.205078,4263.333496,4252.692383,4243.333496,4250.128418,4248.717773,4253.333496,4488.974121,4456.025879,4360.128418,4408.846191,,,,,,,,,,,,,,,,,,,,,,,,,,,,,,,,,,,,,,,,,,,,,,,,,,,,,,,,,,,,,,,,,,,,,,
1720415983,71,0,4297.179688,4265.769043,4293.846191,4295.641113,4266.410156,4250.128418,4242.436035,4250.641113,4247.179688,4256.666504,4482.563965,4458.717773,4361.153809,4412.692383,,,,,,,,,,,,,,,,,,,,,,,,,,,,,,,,,,,,,,,,,,,,,,,,,,,,,,,,,,,,,,,,,,,,,,
1720415983,72,0,4298.333496,4263.846191,4288.717773,4292.05127,4264.615234,4247.179688,4240.641113,4249.102539,4239.743652,4248.205078,4478.589844,4459.230957,4363.461426,4421.282227,,,,,,,,,,,,,,,,,,,,,,,,,,,,,,,,,,,,,,,,,,,,,,,,,,,,,,,,,,,,,,,,,,,,,,
1720415983,73,0,4297.307617,4259.230957,4287.563965,4288.461426,4260.384766,4254.487305,4240.897461,4248.717773,4237.820313,4246.922852,4475.256348,4461.410156,4366.538574,4421.666504,,,,,,,,,,,,,,,,,,,,,,,,,,,,,,,,,,,,,,,,,,,,,,,,,,,,,,,,,,,,,,,,,,,,,,
1720415983,74,0,4300.897461,4266.666504,4295.512695,4295.128418,4270,4265.256348,4247.692383,4254.358887,4245.769043,4264.230957,4480.769043,4473.333496,4365.512695,4425.256348,,,,,,,,,,,,,,,,,,,,,,,,,,,,,,,,,,,,,,,,,,,,,,,,,,,,,,,,,,,,,,,,,,,,,,
1720415983,75,0,4308.461426,4275.256348,4301.922852,4306.282227,4277.436035,4264.358887,4252.820313,4258.846191,4250.128418,4270.256348,4498.461426,4480.769043,4372.820313,4431.153809,,,,,,,,,,,,,,,,,,,,,,,,,,,,,,,,,,,,,,,,,,,,,,,,,,,,,,,,,,,,,,,,,,,,,,
1720415983,76,0,4310.384766,4271.666504,4303.205078,4307.94873,4269.743652,4261.410156,4251.922852,4256.538574,4248.846191,4261.025879,4515,4477.94873,4383.205078,4424.230957,,,,,,,,,,,,,,,,,,,,,,,,,,,,,,,,,,,,,,,,,,,,,,,,,,,,,,,,,,,,,,,,,,,,,,
1720415983,77,0,4303.461426,4263.846191,4296.410156,4299.743652,4260.769043,4263.589844,4250.641113,4250,4249.102539,4258.717773,4503.589844,4468.077148,4371.025879,4408.846191,,,,,,,,,,,,,,,,,,,,,,,,,,,,,,,,,,,,,,,,,,,,,,,,,,,,,,,,,,,,,,,,,,,,,,
1720415983,78,0,4299.358887,4260.384766,4287.307617,4293.589844,4260.512695,4262.692383,4251.922852,4247.820313,4247.94873,4265.641113,4477.692383,4457.307617,4362.179688,4397.179688,,,,,,,,,,,,,,,,,,,,,,,,,,,,,,,,,,,,,,,,,,,,,,,,,,,,,,,,,,,,,,,,,,,,,,
1720415983,79,0,4301.794922,4259.743652,4287.94873,4292.563965,4267.179688,4260.641113,4256.666504,4255.769043,4247.563965,4265.769043,4480.512695,4457.563965,4374.230957,4391.922852,3.571447,3.067566,0.47439,0.464246,0.267669,3.565746,3.235738,0.503102,0.498825,0.321544,7.615354,4.817022,0.601788,0.665789,0.313798,4.796079,3.562408,0.799374,0.534452,0.435194,1.050386,1.489033,1.404651,0.37289,0.400343,0.529654,1.894601,0.230232,0.510718,0.177518,1.57356,2.538288,0.260073,0.531466,0.212739,2.821372,1.398683,0.823279,0.628464,0.213692,1.500146,0.881875,1.195127,0.332815,0.226313,2.633917,0.496385,0.938908,0.650299,0.413503,6.613364,4.030842,0.684065,1.221141,0.646717,13.257034,6.778017,1.75495,1.294809,0.479124,3.779914,2.43372,0.671257,0.603375,0.369996,141.488007,13.780748,2.144013,1.06413,0.562084
1720415983,80,0,4306.025879,4263.974121,4296.666504,4296.025879,4276.153809,4264.358887,4260.128418,4263.589844,4249.487305,4253.077148,4492.05127,4469.358887,4372.307617,4387.692383,,,,,,,,,,,,,,,,,,,,,,,,,,,,,,,,,,,,,,,,,,,,,,,,,,,,,,,,,,,,,,,,,,,,,,
1720415983,81,0,4303.333496,4257.05127,4293.846191,4289.743652,4270.897461,4266.025879,4258.589844,4264.615234,4250.512695,4255.384766,4490.512695,4473.717773,4357.692383,4368.717773,,,,,,,,,,,,,,,,,,,,,,,,,,,,,,,,,,,,,,,,,,,,,,,,,,,,,,,,,,,,,,,,,,,,,,
1720415983,82,0,4299.615234,4243.717773,4284.358887,4281.282227,4252.436035,4259.487305,4255.256348,4262.94873,4250.256348,4266.794922,4488.461426,4467.563965,4358.461426,4346.794922,,,,,,,,,,,,,,,,,,,,,,,,,,,,,,,,,,,,,,,,,,,,,,,,,,,,,,,,,,,,,,,,,,,,,,
1720415983,83,0,4304.487305,4251.666504,4282.820313,4290.128418,4251.153809,4253.846191,4252.179688,4258.333496,4249.487305,4256.153809,4492.436035,4464.487305,4363.717773,4345.641113,,,,,,,,,,,,,,,,,,,,,,,,,,,,,,,,,,,,,,,,,,,,,,,,,,,,,,,,,,,,,,,,,,,,,,
1720415983,84,0,4306.410156,4258.846191,4282.820313,4299.487305,4264.743652,4258.846191,4252.436035,4255.641113,4249.230957,4247.820313,4492.436035,4463.205078,4362.179688,4341.538574,,,,,,,,,,,,,,,,,,,,,,,,,,,,,,,,,,,,,,,,,,,,,,,,,,,,,,,,,,,,,,,,,,,,,,
1720415983,85,0,4304.871582,4251.794922,4280.641113,4292.94873,4268.974121,4264.743652,4251.025879,4258.461426,4251.282227,4264.102539,4488.333496,4462.820313,4365.256348,4321.666504,,,,,,,,,,,,,,,,,,,,,,,,,,,,,,,,,,,,,,,,,,,,,,,,,,,,,,,,,,,,,,,,,,,,,,
1720415983,86,0,4313.077148,4258.717773,4287.820313,4290.769043,4266.410156,4256.153809,4243.717773,4256.410156,4252.820313,4273.333496,4490,4466.025879,4368.974121,4311.153809,,,,,,,,,,,,,,,,,,,,,,,,,,,,,,,,,,,,,,,,,,,,,,,,,,,,,,,,,,,,,,,,,,,,,,
1720415983,87,0,4316.025879,4265.384766,4291.282227,4297.05127,4258.333496,4245.641113,4237.436035,4244.743652,4243.974121,4261.282227,4486.153809,4459.871582,4363.461426,4307.05127,,,,,,,,,,,,,,,,,,,,,,,,,,,,,,,,,,,,,,,,,,,,,,,,,,,,,,,,,,,,,,,,,,,,,,
1720415983,88,0,4309.230957,4259.358887,4288.205078,4296.282227,4259.743652,4256.538574,4244.615234,4244.871582,4241.025879,4259.743652,4485,4460,4361.794922,4302.436035,,,,,,,,,,,,,,,,,,,,,,,,,,,,,,,,,,,,,,,,,,,,,,,,,,,,,,,,,,,,,,,,,,,,,,
1720415983,89,0,4311.410156,4261.666504,4297.307617,4296.410156,4275.128418,4274.615234,4259.743652,4256.666504,4248.205078,4263.717773,4491.538574,4475.384766,4370.641113,4300.897461,,,,,,,,,,,,,,,,,,,,,,,,,,,,,,,,,,,,,,,,,,,,,,,,,,,,,,,,,,,,,,,,,,,,,,
1720415983,90,0,4310.641113,4261.410156,4301.153809,4295.897461,4273.589844,4270.128418,4258.461426,4255.128418,4241.153809,4251.153809,4489.743652,4470.256348,4368.077148,4281.794922,,,,,,,,,,,,,,,,,,,,,,,,,,,,,,,,,,,,,,,,,,,,,,,,,,,,,,,,,,,,,,,,,,,,,,
1720415983,91,0,4297.436035,4246.025879,4283.589844,4283.461426,4256.538574,4251.282227,4241.922852,4245.384766,4228.077148,4243.205078,4471.025879,4444.358887,4344.487305,4249.102539,,,,,,,,,,,,,,,,,,,,,,,,,,,,,,,,,,,,,,,,,,,,,,,,,,,,,,,,,,,,,,,,,,,,,,
1720415983,92,0,4291.922852,4239.615234,4271.410156,4273.205078,4254.102539,4244.358887,4235.641113,4243.205078,4231.922852,4247.307617,4460.897461,4435.512695,4335.384766,4244.487305,,,,,,,,,,,,,,,,,,,,,,,,,,,,,,,,,,,,,,,,,,,,,,,,,,,,,,,,,,,,,,,,,,,,,,
1720415983,93,0,4299.615234,4251.025879,4283.589844,4285,4261.922852,4254.615234,4248.974121,4251.794922,4243.974121,4247.179688,4477.94873,4452.563965,4352.436035,4270.897461,,,,,,,,,,,,,,,,,,,,,,,,,,,,,,,,,,,,,,,,,,,,,,,,,,,,,,,,,,,,,,,,,,,,,,
1720415983,94,0,4305.256348,4263.077148,4292.05127,4300.641113,4262.179688,4262.692383,4252.94873,4257.94873,4248.589844,4248.205078,4482.820313,4458.717773,4358.846191,4275.512695,,,,,,,,,,,,,,,,,,,,,,,,,,,,,,,,,,,,,,,,,,,,,,,,,,,,,,,,,,,,,,,,,,,,,,
1720415983,95,0,4301.410156,4262.179688,4283.461426,4298.589844,4259.487305,4260.512695,4244.487305,4252.05127,4249.230957,4254.871582,4466.410156,4446.282227,4347.307617,4248.589844,3.563738,2.373052,0.616382,0.484985,0.255519,3.449701,2.474333,0.745721,0.485908,0.293871,7.280636,3.582913,0.788307,0.674712,0.300285,4.528416,2.882472,1.185266,0.581695,0.430246,1.026929,1.192746,1.366908,0.380889,0.372202,0.462523,1.547096,0.277851,0.483156,0.154629,1.489291,1.912559,0.276816,0.457458,0.18821,2.799964,1.514067,0.882734,0.621192,0.199481,1.486554,1.230176,1.175768,0.349054,0.218073,2.426399,0.533348,0.882423,0.556187,0.373946,5.972093,3.026323,0.974158,1.245452,0.679846,12.470265,5.161624,2.009125,1.389737,0.48697,3.485433,1.954606,0.91068,0.59677,0.351781,140.700043,13.415791,2.222103,1.046026,0.586989
1720415983,96,0,4299.358887,4254.871582,4284.743652,4293.077148,4260.769043,4259.487305,4246.282227,4248.846191,4247.563965,4250.256348,4463.846191,4444.102539,4346.025879,4235.128418,,,,,,,,,,,,,,,,,,,,,,,,,,,,,,,,,,,,,,,,,,,,,,,,,,,,,,,,,,,,,,,,,,,,,,
1720415983,97,0,4305.512695,4252.820313,4293.717773,4290.641113,4270.897461,4263.717773,4253.205078,4255.897461,4248.846191,4242.94873,4479.230957,4461.153809,4354.871582,4243.589844,,,,,,,,,,,,,,,,,,,,,,,,,,,,,,,,,,,,,,,,,,,,,,,,,,,,,,,,,,,,,,,,,,,,,,
1720415983,98,0,4303.077148,4251.538574,4289.102539,4282.94873,4276.410156,4262.94873,4249.615234,4256.922852,4248.461426,4250.897461,4479.487305,4468.717773,4350.384766,4229.487305,,,,,,,,,,,,,,,,,,,,,,,,,,,,,,,,,,,,,,,,,,,,,,,,,,,,,,,,,,,,,,,,,,,,,,
1720415983,99,0,4291.794922,4248.205078,4279.230957,4278.974121,4263.205078,4258.077148,4242.05127,4245.641113,4237.436035,4250.769043,4458.589844,4452.436035,4338.974121,4192.563965,,,,,,,,,,,,,,,,,,,,,,,,,,,,,,,,,,,,,,,,,,,,,,,,,,,,,,,,,,,,,,,,,,,,,,
1720415983,100,0,4294.230957,4250,4284.358887,4283.974121,4260.897461,4261.153809,4245,4243.846191,4232.94873,4235.256348,4455.769043,4444.743652,4339.102539,4187.563965,,,,,,,,,,,,,,,,,,,,,,,,,,,,,,,,,,,,,,,,,,,,,,,,,,,,,,,,,,,,,,,,,,,,,,
1720415983,101,0,4296.153809,4246.282227,4286.666504,4280.256348,4268.846191,4262.307617,4250,4248.205078,4234.743652,4234.358887,4465.256348,4444.871582,4338.846191,4196.025879,,,,,,,,,,,,,,,,,,,,,,,,,,,,,,,,,,,,,,,,,,,,,,,,,,,,,,,,,,,,,,,,,,,,,,
1720415983,102,0,4291.794922,4245,4281.282227,4284.230957,4259.615234,4261.153809,4251.025879,4248.333496,4232.820313,4241.410156,4465,4444.615234,4333.333496,4178.205078,,,,,,,,,,,,,,,,,,,,,,,,,,,,,,,,,,,,,,,,,,,,,,,,,,,,,,,,,,,,,,,,,,,,,,
1720415983,103,0,4298.205078,4253.846191,4283.974121,4298.589844,4254.743652,4267.307617,4252.436035,4249.743652,4231.794922,4235.512695,4462.436035,4449.358887,4332.563965,4168.205078,,,,,,,,,,,,,,,,,,,,,,,,,,,,,,,,,,,,,,,,,,,,,,,,,,,,,,,,,,,,,,,,,,,,,,
1720415983,104,0,4296.153809,4245.641113,4283.846191,4290,4256.282227,4262.820313,4247.820313,4248.461426,4231.666504,4228.333496,4455,4447.820313,4329.102539,4169.615234,,,,,,,,,,,,,,,,,,,,,,,,,,,,,,,,,,,,,,,,,,,,,,,,,,,,,,,,,,,,,,,,,,,,,,
1720415983,105,0,4285.641113,4233.974121,4281.538574,4275.512695,4252.820313,4252.05127,4243.589844,4247.05127,4231.410156,4227.179688,4452.307617,4442.820313,4327.307617,4152.179688,,,,,,,,,,,,,,,,,,,,,,,,,,,,,,,,,,,,,,,,,,,,,,,,,,,,,,,,,,,,,,,,,,,,,,
1720415983,106,0,4292.05127,4240.512695,4281.666504,4274.871582,4255.128418,4254.615234,4245.384766,4250,4233.333496,4223.846191,4461.025879,4446.282227,4330.641113,4142.05127,,,,,,,,,,,,,,,,,,,,,,,,,,,,,,,,,,,,,,,,,,,,,,,,,,,,,,,,,,,,,,,,,,,,,,
1720415983,107,0,4293.461426,4240.256348,4272.436035,4266.666504,4253.077148,4256.410156,4239.487305,4246.153809,4237.05127,4226.153809,4460,4441.666504,4326.794922,4138.717773,,,,,,,,,,,,,,,,,,,,,,,,,,,,,,,,,,,,,,,,,,,,,,,,,,,,,,,,,,,,,,,,,,,,,,
1720415983,108,0,4281.538574,4229.871582,4260.256348,4256.153809,4239.743652,4247.436035,4229.871582,4240.897461,4240.641113,4236.922852,4446.410156,4425.769043,4321.410156,4117.436035,,,,,,,,,,,,,,,,,,,,,,,,,,,,,,,,,,,,,,,,,,,,,,,,,,,,,,,,,,,,,,,,,,,,,,
1720415983,109,0,4286.282227,4234.871582,4266.794922,4263.717773,4239.743652,4245.897461,4235.128418,4244.871582,4243.846191,4237.563965,4450.641113,4431.666504,4329.743652,4110.384766,,,,,,,,,,,,,,,,,,,,,,,,,,,,,,,,,,,,,,,,,,,,,,,,,,,,,,,,,,,,,,,,,,,,,,
1720415983,110,0,4296.538574,4247.563965,4283.333496,4274.615234,4254.615234,4250,4248.077148,4252.692383,4249.102539,4237.94873,4475.384766,4452.179688,4345.512695,4127.436035,,,,,,,,,,,,,,,,,,,,,,,,,,,,,,,,,,,,,,,,,,,,,,,,,,,,,,,,,,,,,,,,,,,,,,
1720415983,111,0,4295.384766,4248.974121,4283.333496,4280.384766,4246.025879,4248.589844,4247.05127,4251.410156,4249.871582,4245.512695,4475.256348,4447.820313,4347.436035,4128.077148,3.477663,1.752604,0.768649,0.515222,0.248596,3.40482,1.850476,1.026647,0.485187,0.267766,6.443172,2.44252,1.026186,0.693833,0.290898,4.085775,2.29653,1.594745,0.656182,0.426194,1.044687,0.936882,1.215262,0.385192,0.346195,0.432489,1.161523,0.337273,0.443002,0.136357,1.359806,1.325817,0.309766,0.388975,0.16749,2.622052,1.725708,0.899984,0.61172,0.187772,1.459964,1.591033,1.162707,0.370083,0.216997,2.173254,0.643043,0.873423,0.500302,0.34571,5.050756,2.38273,1.4035,1.322688,0.710552,10.660824,3.888757,2.265508,1.523033,0.510786,3.066722,1.611687,1.212755,0.61432,0.345857,139.935455,13.167339,2.241606,1.058719,0.606818
1720415983,112,0,4288.461426,4242.179688,4271.410156,4278.077148,4228.205078,4246.153809,4234.230957,4239.871582,4236.410156,4234.743652,4451.410156,4426.922852,4330.641113,4112.94873,,,,,,,,,,,,,,,,,,,,,,,,,,,,,,,,,,,,,,,,,,,,,,,,,,,,,,,,,,,,,,,,,,,,,,
1720415983,113,0,4272.820313,4228.974121,4259.871582,4260.641113,4238.461426,4243.205078,4228.205078,4229.358887,4222.820313,4213.077148,4439.871582,4416.794922,4310.256348,4102.05127,,,,,,,,,,,,,,,,,,,,,,,,,,,,,,,,,,,,,,,,,,,,,,,,,,,,,,,,,,,,,,,,,,,,,,
1720415983,114,0,4266.282227,4226.538574,4260.512695,4256.922852,4250.641113,4243.589844,4232.820313,4230.384766,4226.025879,4212.692383,4450.384766,4418.974121,4310.512695,4098.077148,,,,,,,,,,,,,,,,,,,,,,,,,,,,,,,,,,,,,,,,,,,,,,,,,,,,,,,,,,,,,,,,,,,,,,
1720415983,115,0,4284.743652,4243.077148,4278.077148,4277.179688,4241.025879,4250.512695,4241.025879,4243.333496,4232.820313,4227.692383,4469.358887,4434.230957,4332.563965,4105.128418,,,,,,,,,,,,,,,,,,,,,,,,,,,,,,,,,,,,,,,,,,,,,,,,,,,,,,,,,,,,,,,,,,,,,,
1720415983,116,0,4295.641113,4250.897461,4287.05127,4284.871582,4239.230957,4252.436035,4247.820313,4250.641113,4232.820313,4231.794922,4477.05127,4456.153809,4347.179688,4111.410156,,,,,,,,,,,,,,,,,,,,,,,,,,,,,,,,,,,,,,,,,,,,,,,,,,,,,,,,,,,,,,,,,,,,,,
