Timestamp,EEG.Counter,EEG.Interpolated,EEG.AF3,EEG.F7,EEG.F3,EEG.FC5,EEG.T7,EEG.P7,EEG.O1,EEG.O2,EEG.P8,EEG.T8,EEG.FC6,EEG.F4,EEG.F8,EEG.AF4,POW.AF3.Theta,POW.AF3.Alpha,POW.AF3.BetaL,POW.AF3.BetaH,POW.AF3.Gamma,POW.F7.Theta,POW.F7.Alpha,POW.F7.BetaL,POW.F7.BetaH,POW.F7.Gamma,POW.F3.Theta,POW.F3.Alpha,POW.F3.BetaL,POW.F3.BetaH,POW.F3.Gamma,POW.FC5.Theta,POW.FC5.Alpha,POW.FC5.BetaL,POW.FC5.BetaH,POW.FC5.Gamma,POW.T7.Theta,POW.T7.Alpha,POW.T7.BetaL,POW.T7.BetaH,POW.T7.Gamma,POW.P7.Theta,POW.P7.Alpha,POW.P7.BetaL,POW.P7.BetaH,POW.P7.Gamma,POW.O1.Theta,POW.O1.Alpha,POW.O1.BetaL,POW.O1.BetaH,POW.O1.Gamma,POW.O2.Theta,POW.O2.Alpha,POW.O2.BetaL,POW.O2.BetaH,POW.O2.Gamma,POW.P8.Theta,POW.P8.Alpha,POW.P8.BetaL,POW.P8.BetaH,POW.P8.Gamma,POW.T8.Theta,POW.T8.Alpha,POW.T8.BetaL,POW.T8.BetaH,POW.T8.Gamma,POW.FC6.Theta,POW.FC6.Alpha,POW.FC6.BetaL,POW.FC6.BetaH,POW.FC6.Gamma,POW.F4.Theta,POW.F4.Alpha,POW.F4.BetaL,POW.F4.BetaH,POW.F4.Gamma,POW.F8.Theta,POW.F8.Alpha,POW.F8.BetaL,POW.F8.BetaH,POW.F8.Gamma,POW.AF4.Theta,POW.AF4.Alpha,POW.AF4.BetaL,POW.AF4.BetaH,POW.AF4.Gamma
1720178594,2,0,4311.282227,4234.743652,4319.871582,4255.256348,4305.128418,4351.025879,4311.025879,4265.641113,4268.974121,4280.641113,4366.538574,4460.128418,4340.128418,4343.077148,,,,,,,,,,,,,,,,,,,,,,,,,,,,,,,,,,,,,,,,,,,,,,,,,,,,,,,,,,,,,,,,,,,,,,
1720178594,3,0,4303.974121,4237.94873,4314.102539,4252.692383,4299.230957,4346.794922,4312.436035,4261.410156,4263.589844,4270.897461,4360.897461,4460.897461,4335,4336.666504,,,,,,,,,,,,,,,,,,,,,,,,,,,,,,,,,,,,,,,,,,,,,,,,,,,,,,,,,,,,,,,,,,,,,,
1720178594,4,0,4297.307617,4229.871582,4308.205078,4245,4295.256348,4348.461426,4323.589844,4261.410156,4263.205078,4271.538574,4363.461426,4461.538574,4338.205078,4328.974121,,,,,,,,,,,,,,,,,,,,,,,,,,,,,,,,,,,,,,,,,,,,,,,,,,,,,,,,,,,,,,,,,,,,,,
1720178594,5,0,4290.769043,4217.563965,4302.307617,4244.102539,4303.205078,4354.230957,4332.563965,4269.230957,4272.820313,4280.384766,4367.692383,4456.922852,4337.436035,4325,,,,,,,,,,,,,,,,,,,,,,,,,,,,,,,,,,,,,,,,,,,,,,,,,,,,,,,,,,,,,,,,,,,,,,
1720178594,6,0,4280.512695,4213.974121,4293.077148,4242.94873,4309.871582,4350.128418,4328.589844,4270.897461,4271.666504,4278.077148,4358.205078,4447.307617,4327.436035,4319.743652,,,,,,,,,,,,,,,,,,,,,,,,,,,,,,,,,,,,,,,,,,,,,,,,,,,,,,,,,,,,,,,,,,,,,,
1720178594,7,0,4280.256348,4208.974121,4291.282227,4237.436035,4303.333496,4349.743652,4327.307617,4269.102539,4261.282227,4266.794922,4352.436035,4445,4322.94873,4317.307617,,,,,,,,,,,,,,,,,,,,,,,,,,,,,,,,,,,,,,,,,,,,,,,,,,,,,,,,,,,,,,,,,,,,,,
1720178594,8,0,4293.589844,4203.205078,4293.846191,4236.794922,4300.897461,4352.94873,4322.94873,4268.077148,4259.871582,4264.230957,4354.871582,4446.282227,4326.025879,4318.205078,,,,,,,,,,,,,,,,,,,,,,,,,,,,,,,,,,,,,,,,,,,,,,,,,,,,,,,,,,,,,,,,,,,,,,
1720178594,9,0,4297.94873,4203.589844,4293.077148,4238.077148,4305.256348,4347.179688,4310.769043,4268.589844,4263.717773,4263.589844,4351.410156,4444.230957,4325.384766,4319.230957,,,,,,,,,,,,,,,,,,,,,,,,,,,,,,,,,,,,,,,,,,,,,,,,,,,,,,,,,,,,,,,,,,,,,,
1720178594,10,0,4292.94873,4202.179688,4290.256348,4239.102539,4302.94873,4342.436035,4305.512695,4268.333496,4265.256348,4260.641113,4351.153809,4443.589844,4323.077148,4319.487305,,,,,,,,,,,,,,,,,,,,,,,,,,,,,,,,,,,,,,,,,,,,,,,,,,,,,,,,,,,,,,,,,,,,,,
1720178594,11,0,4294.230957,4198.717773,4283.974121,4241.666504,4298.077148,4345.641113,4310,4265.897461,4262.05127,4260.897461,4356.282227,4442.692383,4324.102539,4315.512695,,,,,,,,,,,,,,,,,,,,,,,,,,,,,,,,,,,,,,,,,,,,,,,,,,,,,,,,,,,,,,,,,,,,,,
1720178594,12,0,4295.512695,4201.410156,4283.461426,4241.153809,4296.025879,4348.077148,4309.743652,4266.153809,4252.94873,4259.743652,4354.102539,4441.153809,4323.846191,4310,,,,,,,,,,,,,,,,,,,,,,,,,,,,,,,,,,,,,,,,,,,,,,,,,,,,,,,,,,,,,,,,,,,,,,
1720178594,13,0,4294.358887,4198.717773,4287.692383,4233.717773,4296.794922,4345.128418,4300.512695,4266.410156,4246.922852,4258.205078,4347.563965,4443.461426,4322.179688,4312.179688,,,,,,,,,,,,,,,,,,,,,,,,,,,,,,,,,,,,,,,,,,,,,,,,,,,,,,,,,,,,,,,,,,,,,,
1720178594,14,0,4295.384766,4192.179688,4282.307617,4233.589844,4295.897461,4333.589844,4292.179688,4263.717773,4250.384766,4262.05127,4346.794922,4446.025879,4319.487305,4314.743652,,,,,,,,,,,,,,,,,,,,,,,,,,,,,,,,,,,,,,,,,,,,,,,,,,,,,,,,,,,,,,,,,,,,,,
1720178594,15,0,4296.025879,4197.179688,4276.922852,4241.666504,4294.743652,4326.153809,4292.820313,4263.974121,4251.282227,4266.282227,4352.307617,4444.487305,4317.05127,4311.794922,,,,,,,,,,,,,,,,,,,,,,,,,,,,,,,,,,,,,,,,,,,,,,,,,,,,,,,,,,,,,,,,,,,,,,
1720178594,16,0,4295.641113,4204.230957,4282.436035,4243.974121,4298.077148,4333.461426,4296.666504,4266.666504,4248.205078,4263.846191,4348.461426,4437.820313,4314.487305,4305.897461,7.690321,1.891075,1.494519,0.873737,0.179979,5.175498,1.003892,0.990973,0.597576,0.13947,9.70373,1.346463,1.164621,0.845299,0.124002,6.016399,1.212854,1.012358,0.585057,0.166496,2.622596,0.582887,0.398843,0.427587,0.108023,2.073498,1.152468,0.866328,0.356653,0.14572,2.865166,1.513004,1.892767,0.686041,0.195125,1.427133,0.582191,0.696618,0.243979,0.079719,4.151011,2.033969,1.232186,1.07166,0.140471,4.62705,3.038199,1.525874,1.040782,0.203108,5.5455,2.09927,1.411523,0.794091,0.177685,11.723799,3.386329,1.548052,0.99568,0.195219,3.858406,2.69235,1.315809,1.231364,0.159694,5.930914,2.885928,1.782416,1.043553,0.169665
1720178594,17,0,4290.641113,4198.717773,4280.128418,4248.461426,4299.615234,4337.05127,4293.846191,4261.794922,4245.641113,4259.615234,4333.333496,4426.282227,4312.563965,4297.94873,,,,,,,,,,,,,,,,,,,,,,,,,,,,,,,,,,,,,,,,,,,,,,,,,,,,,,,,,,,,,,,,,,,,,,
1720178594,18,0,4281.666504,4188.205078,4266.666504,4247.563965,4296.410156,4330.256348,4295.769043,4255,4242.692383,4251.410156,4330.256348,4420,4309.615234,4293.077148,,,,,,,,,,,,,,,,,,,,,,,,,,,,,,,,,,,,,,,,,,,,,,,,,,,,,,,,,,,,,,,,,,,,,,
1720178594,19,0,4275.769043,4183.974121,4264.743652,4234.615234,4294.102539,4331.025879,4306.025879,4260,4243.846191,4242.820313,4337.307617,4423.077148,4309.230957,4294.487305,,,,,,,,,,,,,,,,,,,,,,,,,,,,,,,,,,,,,,,,,,,,,,,,,,,,,,,,,,,,,,,,,,,,,,
1720178594,20,0,4279.743652,4183.846191,4273.846191,4232.05127,4293.974121,4333.589844,4311.538574,4265.128418,4246.794922,4244.615234,4335.512695,4425.384766,4307.692383,4295.384766,,,,,,,,,,,,,,,,,,,,,,,,,,,,,,,,,,,,,,,,,,,,,,,,,,,,,,,,,,,,,,,,,,,,,,
1720178594,21,0,4289.230957,4186.410156,4280.128418,4246.153809,4297.94873,4329.230957,4310.641113,4263.589844,4247.820313,4248.846191,4332.436035,4427.820313,4299.743652,4295,,,,,,,,,,,,,,,,,,,,,,,,,,,,,,,,,,,,,,,,,,,,,,,,,,,,,,,,,,,,,,,,,,,,,,
1720178594,22,0,4293.077148,4189.487305,4278.974121,4250.769043,4306.666504,4329.230957,4307.94873,4262.563965,4247.820313,4246.538574,4332.820313,4428.461426,4299.230957,4294.487305,,,,,,,,,,,,,,,,,,,,,,,,,,,,,,,,,,,,,,,,,,,,,,,,,,,,,,,,,,,,,,,,,,,,,,
1720178594,23,0,4287.94873,4187.94873,4276.410156,4244.743652,4307.563965,4331.410156,4308.589844,4263.846191,4246.025879,4248.717773,4335,4425.897461,4307.820313,4294.743652,,,,,,,,,,,,,,,,,,,,,,,,,,,,,,,,,,,,,,,,,,,,,,,,,,,,,,,,,,,,,,,,,,,,,,
1720178594,24,0,4285.256348,4185.512695,4275.256348,4250.256348,4298.589844,4328.205078,4312.692383,4265.641113,4249.615234,4258.974121,4345.897461,4430.384766,4314.102539,4301.410156,,,,,,,,,,,,,,,,,,,,,,,,,,,,,,,,,,,,,,,,,,,,,,,,,,,,,,,,,,,,,,,,,,,,,,
1720178594,25,0,4298.589844,4194.230957,4279.871582,4259.743652,4295.897461,4331.025879,4322.05127,4271.538574,4265.641113,4273.846191,4364.230957,4447.179688,4328.077148,4317.307617,,,,,,,,,,,,,,,,,,,,,,,,,,,,,,,,,,,,,,,,,,,,,,,,,,,,,,,,,,,,,,,,,,,,,,
1720178594,26,0,4321.153809,4211.538574,4296.794922,4267.563965,4301.153809,4339.871582,4335,4282.692383,4286.025879,4289.743652,4382.692383,4469.615234,4351.666504,4337.179688,,,,,,,,,,,,,,,,,,,,,,,,,,,,,,,,,,,,,,,,,,,,,,,,,,,,,,,,,,,,,,,,,,,,,,
1720178594,27,0,4331.538574,4220.641113,4305.641113,4276.666504,4307.307617,4337.563965,4337.436035,4286.025879,4297.436035,4297.179688,4396.282227,4483.589844,4363.205078,4352.820313,,,,,,,,,,,,,,,,,,,,,,,,,,,,,,,,,,,,,,,,,,,,,,,,,,,,,,,,,,,,,,,,,,,,,,
1720178594,28,0,4329.615234,4217.436035,4302.692383,4277.563965,4309.487305,4326.410156,4327.94873,4285.897461,4300.256348,4299.487305,4402.692383,4485.384766,4364.487305,4355.512695,,,,,,,,,,,,,,,,,,,,,,,,,,,,,,,,,,,,,,,,,,,,,,,,,,,,,,,,,,,,,,,,,,,,,,
1720178594,29,0,4334.743652,4219.487305,4309.615234,4278.205078,4310.128418,4323.717773,4329.871582,4292.179688,4302.563965,4306.538574,4403.589844,4485.769043,4370.512695,4353.077148,,,,,,,,,,,,,,,,,,,,,,,,,,,,,,,,,,,,,,,,,,,,,,,,,,,,,,,,,,,,,,,,,,,,,,
1720178594,30,0,4343.333496,4231.282227,4315.641113,4283.974121,4316.153809,4330.128418,4340,4291.025879,4302.436035,4309.743652,4402.820313,4481.538574,4373.717773,4356.666504,,,,,,,,,,,,,,,,,,,,,,,,,,,,,,,,,,,,,,,,,,,,,,,,,,,,,,,,,,,,,,,,,,,,,,
1720178594,31,0,4334.871582,4230.256348,4301.025879,4283.077148,4322.820313,4328.717773,4333.333496,4279.615234,4297.179688,4298.589844,4400.384766,4467.05127,4369.358887,4355.384766,,,,,,,,,,,,,,,,,,,,,,,,,,,,,,,,,,,,,,,,,,,,,,,,,,,,,,,,,,,,,,,,,,,,,,
1720178594,32,0,4317.692383,4215.641113,4285.256348,4277.05127,4322.436035,4324.230957,4322.94873,4278.717773,4290.512695,4288.589844,4394.358887,4457.307617,4363.717773,4343.974121,7.87685,2.865072,1.413698,0.969292,0.173361,5.293593,1.344724,0.879467,0.614873,0.137891,10.320361,2.174398,1.220341,0.967662,0.111825,6.345142,1.661176,0.948487,0.644929,0.165795,2.745585,0.667603,0.277551,0.445298,0.106002,1.640191,0.914602,0.577028,0.324694,0.133022,3.998773,1.621966,1.788474,0.694986,0.188173,1.868539,0.702439,0.657879,0.241134,0.087859,4.118038,2.38141,1.22531,0.951991,0.153764,4.576154,3.667719,1.370782,0.996795,0.204304,6.598787,2.347988,1.312714,0.803963,0.179319,14.425114,4.303247,1.630988,1.142014,0.198282,4.552012,3.222132,1.284307,1.279045,0.164735,7.342973,3.859409,1.888743,1.201036,0.190618
1720178594,33,0,4305.641113,4207.436035,4279.358887,4271.538574,4313.205078,4325.641113,4322.692383,4281.922852,4279.230957,4278.717773,4379.358887,4448.077148,4350.641113,4325.769043,,,,,,,,,,,,,,,,,,,,,,,,,,,,,,,,,,,,,,,,,,,,,,,,,,,,,,,,,,,,,,,,,,,,,,
1720178594,34,0,4284.230957,4192.05127,4254.487305,4251.282227,4299.230957,4316.282227,4313.717773,4269.615234,4250.256348,4248.589844,4347.05127,4413.974121,4314.871582,4294.871582,,,,,,,,,,,,,,,,,,,,,,,,,,,,,,,,,,,,,,,,,,,,,,,,,,,,,,,,,,,,,,,,,,,,,,
1720178594,35,0,4256.666504,4168.333496,4223.846191,4227.820313,4288.846191,4305.769043,4304.230957,4260,4226.794922,4222.563965,4321.025879,4380.384766,4283.589844,4266.153809,,,,,,,,,,,,,,,,,,,,,,,,,,,,,,,,,,,,,,,,,,,,,,,,,,,,,,,,,,,,,,,,,,,,,,
1720178594,36,0,4257.05127,4171.922852,4229.487305,4235.769043,4293.205078,4315.128418,4318.717773,4266.538574,4239.358887,4237.94873,4334.743652,4387.820313,4298.589844,4273.461426,,,,,,,,,,,,,,,,,,,,,,,,,,,,,,,,,,,,,,,,,,,,,,,,,,,,,,,,,,,,,,,,,,,,,,
1720178594,37,0,4283.077148,4194.487305,4256.282227,4260.769043,4306.153809,4328.205078,4339.230957,4275.128418,4262.436035,4267.307617,4363.333496,4413.205078,4333.974121,4300.512695,,,,,,,,,,,,,,,,,,,,,,,,,,,,,,,,,,,,,,,,,,,,,,,,,,,,,,,,,,,,,,,,,,,,,,
1720178594,38,0,4295,4205.128418,4265.128418,4271.538574,4312.307617,4328.717773,4341.922852,4278.461426,4270.128418,4277.436035,4371.794922,4424.487305,4344.230957,4313.077148,,,,,,,,,,,,,,,,,,,,,,,,,,,,,,,,,,,,,,,,,,,,,,,,,,,,,,,,,,,,,,,,,,,,,,
1720178594,39,0,4296.666504,4213.589844,4264.487305,4275.256348,4317.05127,4325.512695,4337.820313,4277.94873,4280.641113,4287.692383,4380.897461,4435.897461,4349.102539,4320.384766,,,,,,,,,,,,,,,,,,,,,,,,,,,,,,,,,,,,,,,,,,,,,,,,,,,,,,,,,,,,,,,,,,,,,,
1720178594,40,0,4305.256348,4221.282227,4273.333496,4285.128418,4323.205078,4321.538574,4332.436035,4278.333496,4293.717773,4303.205078,4392.820313,4444.230957,4359.487305,4325.256348,,,,,,,,,,,,,,,,,,,,,,,,,,,,,,,,,,,,,,,,,,,,,,,,,,,,,,,,,,,,,,,,,,,,,,
1720178594,41,0,4304.743652,4217.05127,4277.692383,4288.333496,4326.153809,4319.487305,4327.820313,4279.230957,4292.179688,4296.153809,4382.563965,4435.641113,4351.025879,4314.615234,,,,,,,,,,,,,,,,,,,,,,,,,,,,,,,,,,,,,,,,,,,,,,,,,,,,,,,,,,,,,,,,,,,,,,
1720178594,42,0,4300,4214.871582,4274.102539,4283.717773,4323.205078,4324.871582,4332.692383,4279.871582,4290.897461,4278.974121,4378.974121,4435.897461,4343.205078,4311.538574,,,,,,,,,,,,,,,,,,,,,,,,,,,,,,,,,,,,,,,,,,,,,,,,,,,,,,,,,,,,,,,,,,,,,,
1720178594,43,0,4308.077148,4219.487305,4279.358887,4281.666504,4315.384766,4326.666504,4339.487305,4283.077148,4297.692383,4283.461426,4398.205078,4457.820313,4354.358887,4331.922852,,,,,,,,,,,,,,,,,,,,,,,,,,,,,,,,,,,,,,,,,,,,,,,,,,,,,,,,,,,,,,,,,,,,,,
1720178594,44,0,4310.897461,4217.436035,4287.436035,4280.769043,4308.717773,4319.871582,4338.077148,4288.589844,4299.743652,4295.256348,4401.538574,4473.717773,4358.846191,4342.94873,,,,,,,,,,,,,,,,,,,,,,,,,,,,,,,,,,,,,,,,,,,,,,,,,,,,,,,,,,,,,,,,,,,,,,
1720178594,45,0,4304.358887,4213.461426,4287.820313,4281.025879,4309.871582,4317.05127,4337.820313,4291.153809,4298.846191,4291.794922,4391.153809,4471.794922,4352.436035,4336.666504,,,,,,,,,,,,,,,,,,,,,,,,,,,,,,,,,,,,,,,,,,,,,,,,,,,,,,,,,,,,,,,,,,,,,,
1720178594,46,0,4307.05127,4215.128418,4290.256348,4288.461426,4312.94873,4322.307617,4346.282227,4294.102539,4300.641113,4284.871582,4396.410156,4465.897461,4354.871582,4338.974121,,,,,,,,,,,,,,,,,,,,,,,,,,,,,,,,,,,,,,,,,,,,,,,,,,,,,,,,,,,,,,,,,,,,,,
1720178594,47,0,4312.820313,4219.102539,4295.512695,4296.153809,4309.487305,4323.205078,4343.205078,4290.641113,4292.94873,4283.846191,4399.102539,4459.615234,4359.615234,4343.589844,,,,,,,,,,,,,,,,,,,,,,,,,,,,,,,,,,,,,,,,,,,,,,,,,,,,,,,,,,,,,,,,,,,,,,
1720178594,48,0,4316.794922,4224.230957,4295.641113,4293.333496,4312.820313,4320.641113,4330.256348,4279.615234,4281.025879,4279.487305,4389.615234,4459.615234,4358.333496,4343.461426,8.79971,4.395821,1.418221,1.080338,0.165882,5.996993,1.984989,0.867917,0.652715,0.135821,11.953074,3.421139,1.295054,1.080662,0.101769,7.047664,2.410403,0.979796,0.715634,0.164084,2.96233,0.778579,0.21797,0.451911,0.102392,1.534486,0.908531,0.409149,0.321662,0.124846,5.448255,1.988599,1.710796,0.773674,0.182284,2.29784,0.799478,0.617915,0.245143,0.099057,4.149579,2.659818,1.275638,0.951281,0.1679,4.698416,4.286169,1.380926,1.050426,0.204377,8.30297,2.99024,1.283275,0.867793,0.185689,18.372021,5.76104,1.770879,1.348431,0.204526,6.045527,4.104234,1.320088,1.35427,0.178676,10.048943,5.416425,2.015232,1.389829,0.213494
1720178594,49,0,4331.153809,4232.179688,4296.538574,4296.794922,4319.615234,4319.615234,4331.282227,4280.512695,4285.128418,4279.871582,4396.538574,4469.615234,4364.743652,4352.563965,,,,,,,,,,,,,,,,,,,,,,,,,,,,,,,,,,,,,,,,,,,,,,,,,,,,,,,,,,,,,,,,,,,,,,
1720178594,50,0,4347.563965,4243.974121,4303.461426,4310.128418,4315.384766,4313.077148,4335.512695,4289.230957,4294.871582,4292.436035,4413.717773,4475.384766,4375.512695,4368.846191,,,,,,,,,,,,,,,,,,,,,,,,,,,,,,,,,,,,,,,,,,,,,,,,,,,,,,,,,,,,,,,,,,,,,,
1720178594,51,0,4358.974121,4256.282227,4313.205078,4317.307617,4310.384766,4306.025879,4330.512695,4293.974121,4296.922852,4292.436035,4424.487305,4483.461426,4384.487305,4383.205078,,,,,,,,,,,,,,,,,,,,,,,,,,,,,,,,,,,,,,,,,,,,,,,,,,,,,,,,,,,,,,,,,,,,,,
1720178594,52,0,4359.615234,4257.563965,4310.769043,4314.102539,4309.615234,4306.410156,4327.307617,4297.307617,4291.794922,4279.487305,4429.358887,4490.512695,4388.589844,4388.461426,,,,,,,,,,,,,,,,,,,,,,,,,,,,,,,,,,,,,,,,,,,,,,,,,,,,,,,,,,,,,,,,,,,,,,
1720178594,53,0,4350.897461,4246.666504,4299.102539,4307.820313,4307.436035,4308.333496,4330.128418,4292.820313,4282.94873,4279.230957,4429.358887,4484.615234,4386.666504,4383.589844,,,,,,,,,,,,,,,,,,,,,,,,,,,,,,,,,,,,,,,,,,,,,,,,,,,,,,,,,,,,,,,,,,,,,,
1720178594,54,0,4345.256348,4240.641113,4299.230957,4304.358887,4306.922852,4312.307617,4329.230957,4283.333496,4280.897461,4290.384766,4424.102539,4476.922852,4382.179688,4378.461426,,,,,,,,,,,,,,,,,,,,,,,,,,,,,,,,,,,,,,,,,,,,,,,,,,,,,,,,,,,,,,,,,,,,,,
1720178594,55,0,4338.589844,4245.256348,4300.384766,4301.410156,4311.922852,4320,4323.589844,4281.025879,4289.871582,4298.974121,4414.743652,4469.102539,4372.692383,4368.589844,,,,,,,,,,,,,,,,,,,,,,,,,,,,,,,,,,,,,,,,,,,,,,,,,,,,,,,,,,,,,,,,,,,,,,
1720178594,56,0,4326.794922,4242.94873,4285.769043,4296.794922,4310.512695,4325.256348,4320.256348,4284.102539,4294.615234,4305.769043,4404.230957,4451.410156,4359.615234,4349.871582,,,,,,,,,,,,,,,,,,,,,,,,,,,,,,,,,,,,,,,,,,,,,,,,,,,,,,,,,,,,,,,,,,,,,,
1720178594,57,0,4321.282227,4232.692383,4274.615234,4289.230957,4306.794922,4324.358887,4318.589844,4285.641113,4290.256348,4308.846191,4397.307617,4436.922852,4350.769043,4339.358887,,,,,,,,,,,,,,,,,,,,,,,,,,,,,,,,,,,,,,,,,,,,,,,,,,,,,,,,,,,,,,,,,,,,,,
1720178594,58,0,4323.461426,4234.615234,4278.717773,4288.846191,4314.358887,4322.436035,4321.025879,4287.94873,4292.05127,4307.179688,4398.205078,4440.512695,4348.589844,4341.282227,,,,,,,,,,,,,,,,,,,,,,,,,,,,,,,,,,,,,,,,,,,,,,,,,,,,,,,,,,,,,,,,,,,,,,
1720178594,59,0,4324.871582,4244.615234,4281.794922,4293.974121,4321.153809,4322.820313,4324.102539,4292.179688,4297.820313,4311.410156,4401.410156,4444.615234,4348.846191,4340.897461,,,,,,,,,,,,,,,,,,,,,,,,,,,,,,,,,,,,,,,,,,,,,,,,,,,,,,,,,,,,,,,,,,,,,,
1720178594,60,0,4324.871582,4243.461426,4274.615234,4288.717773,4315.384766,4325.641113,4326.025879,4291.153809,4300.256348,4316.794922,4401.025879,4444.230957,4347.820313,4341.538574,,,,,,,,,,,,,,,,,,,,,,,,,,,,,,,,,,,,,,,,,,,,,,,,,,,,,,,,,,,,,,,,,,,,,,
1720178594,61,0,4320.641113,4233.846191,4262.94873,4278.333496,4305.897461,4325.897461,4325.256348,4284.487305,4293.846191,4309.102539,4390.769043,4443.333496,4343.077148,4340.384766,,,,,,,,,,,,,,,,,,,,,,,,,,,,,,,,,,,,,,,,,,,,,,,,,,,,,,,,,,,,,,,,,,,,,,
1720178595,62,0,4316.025879,4232.692383,4260.128418,4275.512695,4306.410156,4323.846191,4323.589844,4278.333496,4280.256348,4291.538574,4381.538574,4438.461426,4335.641113,4335,,,,,,,,,,,,,,,,,,,,,,,,,,,,,,,,,,,,,,,,,,,,,,,,,,,,,,,,,,,,,,,,,,,,,,
1720178595,63,0,4324.230957,4240.384766,4267.820313,4282.05127,4311.538574,4326.538574,4325,4281.922852,4277.820313,4285.128418,4390.512695,4443.461426,4338.333496,4344.102539,,,,,,,,,,,,,,,,,,,,,,,,,,,,,,,,,,,,,,,,,,,,,,,,,,,,,,,,,,,,,,,,,,,,,,
1720178595,64,0,4328.974121,4244.487305,4268.333496,4285.128418,4309.615234,4323.589844,4318.717773,4284.102539,4281.153809,4292.563965,4398.846191,4450.641113,4343.846191,4351.666504,10.351437,6.341252,1.442091,1.143112,0.161778,7.29547,2.947601,0.884523,0.675382,0.136321,14.352578,4.977791,1.336525,1.126271,0.099238,8.060658,3.413029,1.037479,0.755173,0.166109,3.278272,0.914613,0.221958,0.447579,0.100088,1.70658,1.041962,0.346364,0.335401,0.122995,7.255064,2.527489,1.668416,0.901719,0.179668,2.671574,0.84509,0.586243,0.250391,0.109906,4.430496,2.846984,1.382726,1.01666,0.176322,5.03986,4.797488,1.519456,1.152679,0.200961,10.605217,3.952341,1.286361,0.945404,0.194841,23.063786,7.554921,1.878134,1.512077,0.214638,8.290428,5.198202,1.368793,1.391822,0.19477,13.787807,7.303958,2.065622,1.512041,0.230226
1720178595,65,0,4325.512695,4243.077148,4267.307617,4285.128418,4306.922852,4317.563965,4308.974121,4279.358887,4275.384766,4295.384766,4394.871582,4446.282227,4339.743652,4343.461426,,,,,,,,,,,,,,,,,,,,,,,,,,,,,,,,,,,,,,,,,,,,,,,,,,,,,,,,,,,,,,,,,,,,,,
1720178595,66,0,4331.282227,4241.410156,4276.153809,4285.897461,4309.230957,4321.282227,4307.820313,4279.230957,4270.256348,4289.230957,4393.974121,4444.615234,4334.743652,4340.256348,,,,,,,,,,,,,,,,,,,,,,,,,,,,,,,,,,,,,,,,,,,,,,,,,,,,,,,,,,,,,,,,,,,,,,
1720178595,67,0,4346.153809,4247.820313,4285.641113,4291.666504,4312.820313,4323.589844,4311.282227,4280.769043,4278.077148,4294.230957,4402.692383,4456.282227,4345.384766,4353.205078,,,,,,,,,,,,,,,,,,,,,,,,,,,,,,,,,,,,,,,,,,,,,,,,,,,,,,,,,,,,,,,,,,,,,,
1720178595,68,0,4353.077148,4258.589844,4293.077148,4299.743652,4313.333496,4322.05127,4319.871582,4287.436035,4291.538574,4307.307617,4413.077148,4467.692383,4362.179688,4366.282227,,,,,,,,,,,,,,,,,,,,,,,,,,,,,,,,,,,,,,,,,,,,,,,,,,,,,,,,,,,,,,,,,,,,,,
1720178595,69,0,4351.538574,4260.641113,4295.512695,4298.205078,4308.846191,4325.256348,4328.974121,4296.025879,4296.153809,4304.358887,4415,4465.384766,4360.769043,4367.05127,,,,,,,,,,,,,,,,,,,,,,,,,,,,,,,,,,,,,,,,,,,,,,,,,,,,,,,,,,,,,,,,,,,,,,
1720178595,70,0,4356.153809,4263.846191,4291.666504,4298.974121,4307.94873,4329.743652,4332.179688,4296.282227,4293.461426,4296.666504,4410.512695,4457.436035,4355.641113,4364.230957,,,,,,,,,,,,,,,,,,,,,,,,,,,,,,,,,,,,,,,,,,,,,,,,,,,,,,,,,,,,,,,,,,,,,,
1720178595,71,0,4364.358887,4274.230957,4295.256348,4313.077148,4316.025879,4331.538574,4341.538574,4297.05127,4301.922852,4300.641113,4416.922852,4462.307617,4366.025879,4370.256348,,,,,,,,,,,,,,,,,,,,,,,,,,,,,,,,,,,,,,,,,,,,,,,,,,,,,,,,,,,,,,,,,,,,,,
1720178595,72,0,4361.922852,4274.102539,4299.102539,4315.384766,4316.410156,4336.922852,4351.153809,4303.205078,4310.641113,4306.282227,4428.974121,4473.077148,4370.512695,4375.384766,,,,,,,,,,,,,,,,,,,,,,,,,,,,,,,,,,,,,,,,,,,,,,,,,,,,,,,,,,,,,,,,,,,,,,
1720178595,73,0,4350.897461,4262.94873,4287.179688,4299.358887,4311.025879,4338.461426,4346.922852,4303.077148,4300.384766,4307.94873,4426.025879,4464.615234,4362.820313,4366.922852,,,,,,,,,,,,,,,,,,,,,,,,,,,,,,,,,,,,,,,,,,,,,,,,,,,,,,,,,,,,,,,,,,,,,,
1720178595,74,0,4349.615234,4266.538574,4281.538574,4297.692383,4319.871582,4331.410156,4342.820313,4297.179688,4295.384766,4311.282227,4418.461426,4445.512695,4360.512695,4361.922852,,,,,,,,,,,,,,,,,,,,,,,,,,,,,,,,,,,,,,,,,,,,,,,,,,,,,,,,,,,,,,,,,,,,,,
1720178595,75,0,4353.717773,4274.487305,4284.487305,4309.615234,4326.025879,4326.794922,4338.846191,4296.025879,4303.461426,4311.538574,4413.333496,4440.512695,4360,4363.205078,,,,,,,,,,,,,,,,,,,,,,,,,,,,,,,,,,,,,,,,,,,,,,,,,,,,,,,,,,,,,,,,,,,,,,
1720178595,76,0,4357.179688,4275.641113,4282.436035,4308.461426,4320,4325.384766,4326.794922,4296.282227,4301.025879,4308.461426,4414.871582,4451.282227,4358.589844,4367.307617,,,,,,,,,,,,,,,,,,,,,,,,,,,,,,,,,,,,,,,,,,,,,,,,,,,,,,,,,,,,,,,,,,,,,,
1720178595,77,0,4360.641113,4282.820313,4288.846191,4307.820313,4321.025879,4324.871582,4322.436035,4297.307617,4295.128418,4312.436035,4425.128418,4465.512695,4363.077148,4376.153809,,,,,,,,,,,,,,,,,,,,,,,,,,,,,,,,,,,,,,,,,,,,,,,,,,,,,,,,,,,,,,,,,,,,,,
1720178595,78,0,4355.128418,4285.256348,4292.436035,4315.128418,4325.128418,4323.717773,4327.179688,4296.666504,4296.410156,4312.05127,4423.974121,4461.922852,4359.615234,4371.282227,,,,,,,,,,,,,,,,,,,,,,,,,,,,,,,,,,,,,,,,,,,,,,,,,,,,,,,,,,,,,,,,,,,,,,
1720178595,79,0,4351.666504,4285.128418,4283.333496,4319.615234,4323.846191,4323.974121,4326.153809,4294.230957,4294.743652,4303.589844,4415,4449.743652,4352.563965,4363.589844,,,,,,,,,,,,,,,,,,,,,,,,,,,,,,,,,,,,,,,,,,,,,,,,,,,,,,,,,,,,,,,,,,,,,,
1720178595,80,0,4358.846191,4291.025879,4286.153809,4321.153809,4323.974121,4329.615234,4327.94873,4299.615234,4295.641113,4306.025879,4420.512695,4457.563965,4360.897461,4376.282227,12.200555,8.315188,1.453023,1.119998,0.164138,8.88965,4.115695,0.885177,0.657734,0.141284,16.896473,6.545931,1.329867,1.075037,0.108267,9.03535,4.475983,1.068176,0.739372,0.175692,3.530687,1.061019,0.293317,0.433984,0.101141,2.02216,1.169392,0.330765,0.348931,0.127233,9.165948,3.047201,1.628772,1.033792,0.180845,2.93818,0.8313,0.55972,0.253246,0.117271,5.047079,3.035998,1.542031,1.084509,0.176735,5.54731,5.248123,1.716601,1.246091,0.194718,13.029606,5.104487,1.284567,1.005684,0.204322,27.555872,9.354757,1.879388,1.569443,0.227743,10.898203,6.335936,1.399482,1.359951,0.206997,17.768194,9.104126,1.991137,1.520043,0.234134
1720178595,81,0,4360.641113,4288.974121,4293.205078,4318.589844,4321.410156,4332.820313,4330.128418,4300.897461,4299.230957,4311.025879,4429.487305,4468.717773,4370,4386.922852,,,,,,,,,,,,,,,,,,,,,,,,,,,,,,,,,,,,,,,,,,,,,,,,,,,,,,,,,,,,,,,,,,,,,,
1720178595,82,0,4355.641113,4279.615234,4291.025879,4312.563965,4319.230957,4329.230957,4326.538574,4295.128418,4295.512695,4303.461426,4429.230957,4469.743652,4363.974121,4382.05127,,,,,,,,,,,,,,,,,,,,,,,,,,,,,,,,,,,,,,,,,,,,,,,,,,,,,,,,,,,,,,,,,,,,,,
1720178595,83,0,4355.897461,4279.230957,4288.717773,4311.282227,4324.487305,4324.871582,4321.922852,4292.436035,4292.94873,4302.307617,4424.230957,4475.256348,4357.05127,4380.256348,,,,,,,,,,,,,,,,,,,,,,,,,,,,,,,,,,,,,,,,,,,,,,,,,,,,,,,,,,,,,,,,,,,,,,
1720178595,84,0,4355,4283.974121,4288.717773,4311.922852,4327.05127,4326.153809,4314.871582,4289.358887,4293.205078,4309.358887,4416.153809,4474.871582,4355,4377.820313,,,,,,,,,,,,,,,,,,,,,,,,,,,,,,,,,,,,,,,,,,,,,,,,,,,,,,,,,,,,,,,,,,,,,,
1720178595,85,0,4352.436035,4288.461426,4292.563965,4315.128418,4327.307617,4331.794922,4316.025879,4287.692383,4293.974121,4314.102539,4423.205078,4470,4360.384766,4379.102539,,,,,,,,,,,,,,,,,,,,,,,,,,,,,,,,,,,,,,,,,,,,,,,,,,,,,,,,,,,,,,,,,,,,,,
1720178595,86,0,4360.128418,4297.307617,4302.563965,4320.897461,4327.05127,4334.743652,4329.615234,4293.077148,4302.05127,4318.974121,4445,4480.897461,4375.512695,4395.769043,,,,,,,,,,,,,,,,,,,,,,,,,,,,,,,,,,,,,,,,,,,,,,,,,,,,,,,,,,,,,,,,,,,,,,
1720178595,87,0,4361.025879,4296.153809,4302.692383,4319.358887,4320.641113,4331.282227,4340.897461,4305.256348,4316.025879,4319.743652,4450.256348,4494.230957,4385.512695,4400.641113,,,,,,,,,,,,,,,,,,,,,,,,,,,,,,,,,,,,,,,,,,,,,,,,,,,,,,,,,,,,,,,,,,,,,,
1720178595,88,0,4343.333496,4282.692383,4294.102539,4310.384766,4312.692383,4324.230957,4342.692383,4313.333496,4323.333496,4310.897461,4441.025879,4488.717773,4376.922852,4384.871582,,,,,,,,,,,,,,,,,,,,,,,,,,,,,,,,,,,,,,,,,,,,,,,,,,,,,,,,,,,,,,,,,,,,,,
1720178595,89,0,4331.794922,4277.692383,4293.077148,4306.922852,4309.102539,4319.102539,4341.025879,4315.256348,4320.256348,4302.563965,4435.769043,4478.077148,4364.615234,4375.256348,,,,,,,,,,,,,,,,,,,,,,,,,,,,,,,,,,,,,,,,,,,,,,,,,,,,,,,,,,,,,,,,,,,,,,
1720178595,90,0,4342.436035,4287.179688,4301.025879,4315.769043,4313.205078,4323.205078,4335.897461,4309.871582,4311.410156,4296.538574,4433.461426,4473.589844,4363.846191,4381.794922,,,,,,,,,,,,,,,,,,,,,,,,,,,,,,,,,,,,,,,,,,,,,,,,,,,,,,,,,,,,,,,,,,,,,,
1720178595,91,0,4351.538574,4296.410156,4309.358887,4326.666504,4323.589844,4326.794922,4328.333496,4299.230957,4299.102539,4287.307617,4431.538574,4473.333496,4364.743652,4386.922852,,,,,,,,,,,,,,,,,,,,,,,,,,,,,,,,,,,,,,,,,,,,,,,,,,,,,,,,,,,,,,,,,,,,,,
1720178595,92,0,4346.153809,4296.538574,4305.897461,4327.307617,4328.077148,4318.717773,4325.256348,4295.384766,4293.974121,4289.743652,4432.05127,4477.692383,4362.563965,4384.487305,,,,,,,,,,,,,,,,,,,,,,,,,,,,,,,,,,,,,,,,,,,,,,,,,,,,,,,,,,,,,,,,,,,,,,
1720178595,93,0,4339.615234,4294.102539,4293.846191,4320.128418,4319.871582,4312.307617,4323.589844,4300.128418,4301.538574,4295,4428.974121,4474.358887,4360,4378.333496,,,,,,,,,,,,,,,,,,,,,,,,,,,,,,,,,,,,,,,,,,,,,,,,,,,,,,,,,,,,,,,,,,,,,,
1720178595,94,0,4341.666504,4293.589844,4291.153809,4318.077148,4314.358887,4320.256348,4323.974121,4305.128418,4304.615234,4294.487305,4426.666504,4461.282227,4357.179688,4373.333496,,,,,,,,,,,,,,,,,,,,,,,,,,,,,,,,,,,,,,,,,,,,,,,,,,,,,,,,,,,,,,,,,,,,,,
1720178595,95,0,4358.589844,4306.666504,4303.333496,4332.05127,4328.589844,4332.436035,4334.615234,4306.538574,4308.589844,4304.487305,4435.769043,4468.461426,4365.256348,4389.230957,,,,,,,,,,,,,,,,,,,,,,,,,,,,,,,,,,,,,,,,,,,,,,,,,,,,,,,,,,,,,,,,,,,,,,
1720178595,96,0,4381.538574,4330.769043,4320.256348,4351.666504,4348.589844,4333.846191,4344.358887,4309.615234,4319.487305,4322.307617,4447.05127,4487.563965,4382.436035,4412.563965,13.76391,9.839989,1.480093,1.019112,0.172678,10.264194,5.251522,0.891713,0.600827,0.1505,18.76881,7.721303,1.306762,0.944206,0.130081,9.588231,5.328537,1.074895,0.675275,0.192638,3.628554,1.187378,0.437791,0.413187,0.105661,2.332795,1.196366,0.310975,0.351029,0.1351,10.830224,3.337669,1.544193,1.113742,0.184716,3.078597,0.78253,0.526884,0.255814,0.11945,5.916372,3.397079,1.720095,1.115348,0.171804,6.057549,5.778343,1.899258,1.297729,0.19053,15.08085,6.307893,1.262043,1.047319,0.213037,30.662577,10.820187,1.764025,1.532252,0.241921,13.252879,7.38655,1.423514,1.280174,0.213163,21.219004,10.440734,1.829128,1.441576,0.223932
1720178595,97,0,4386.410156,4338.846191,4326.282227,4356.922852,4353.333496,4331.538574,4337.179688,4306.153809,4298.077148,4331.794922,4449.615234,4486.538574,4389.615234,4412.179688,,,,,,,,,,,,,,,,,,,,,,,,,,,,,,,,,,,,,,,,,,,,,,,,,,,,,,,,,,,,,,,,,,,,,,
1720178595,98,0,4376.538574,4329.743652,4320.769043,4347.563965,4347.94873,4333.717773,4324.230957,4294.871582,4243.589844,4325.897461,4442.820313,4475.897461,4382.307617,4396.666504,,,,,,,,,,,,,,,,,,,,,,,,,,,,,,,,,,,,,,,,,,,,,,,,,,,,,,,,,,,,,,,,,,,,,,
1720178595,99,0,4368.846191,4324.615234,4313.974121,4343.077148,4353.717773,4335.897461,4324.871582,4292.820313,4221.153809,4319.230957,4433.846191,4476.922852,4372.563965,4392.692383,,,,,,,,,,,,,,,,,,,,,,,,,,,,,,,,,,,,,,,,,,,,,,,,,,,,,,,,,,,,,,,,,,,,,,
1720178595,100,0,4360.641113,4321.538574,4308.077148,4341.666504,4359.230957,4335.897461,4336.282227,4297.692383,4238.461426,4318.589844,4429.102539,4482.179688,4366.794922,4395.128418,,,,,,,,,,,,,,,,,,,,,,,,,,,,,,,,,,,,,,,,,,,,,,,,,,,,,,,,,,,,,,,,,,,,,,
1720178595,101,0,4355.641113,4312.563965,4305.512695,4334.487305,4348.846191,4332.563965,4340.769043,4298.205078,4242.692383,4319.615234,4430.897461,4486.153809,4366.025879,4394.102539,,,,,,,,,,,,,,,,,,,,,,,,,,,,,,,,,,,,,,,,,,,,,,,,,,,,,,,,,,,,,,,,,,,,,,
1720178595,102,0,4356.922852,4307.05127,4310.256348,4332.94873,4341.025879,4328.717773,4335.512695,4299.230957,4238.205078,4321.282227,4438.461426,4492.820313,4366.410156,4397.563965,,,,,,,,,,,,,,,,,,,,,,,,,,,,,,,,,,,,,,,,,,,,,,,,,,,,,,,,,,,,,,,,,,,,,,
1720178595,103,0,4352.436035,4309.358887,4313.205078,4336.794922,4344.230957,4330.128418,4334.487305,4304.487305,4250.256348,4320.256348,4442.563965,4493.846191,4365.897461,4398.974121,,,,,,,,,,,,,,,,,,,,,,,,,,,,,,,,,,,,,,,,,,,,,,,,,,,,,,,,,,,,,,,,,,,,,,
1720178595,104,0,4345.512695,4309.743652,4307.436035,4337.307617,4344.871582,4333.589844,4339.615234,4309.358887,4264.871582,4325.641113,4444.871582,4484.871582,4366.666504,4391.538574,,,,,,,,,,,,,,,,,,,,,,,,,,,,,,,,,,,,,,,,,,,,,,,,,,,,,,,,,,,,,,,,,,,,,,
1720178595,105,0,4345.769043,4307.436035,4305.897461,4335.512695,4339.743652,4328.077148,4342.563965,4317.179688,4273.205078,4338.333496,4450.769043,4479.487305,4365.769043,4381.666504,,,,,,,,,,,,,,,,,,,,,,,,,,,,,,,,,,,,,,,,,,,,,,,,,,,,,,,,,,,,,,,,,,,,,,
1720178595,106,0,4357.05127,4318.333496,4318.333496,4339.487305,4340.641113,4323.461426,4340.897461,4322.436035,4278.974121,4337.563965,4453.589844,4487.563965,4369.358887,4385.256348,,,,,,,,,,,,,,,,,,,,,,,,,,,,,,,,,,,,,,,,,,,,,,,,,,,,,,,,,,,,,,,,,,,,,,
1720178595,107,0,4372.563965,4334.358887,4331.538574,4350.512695,4346.153809,4326.025879,4338.461426,4319.358887,4283.205078,4326.794922,4462.94873,4505,4383.461426,4407.94873,,,,,,,,,,,,,,,,,,,,,,,,,,,,,,,,,,,,,,,,,,,,,,,,,,,,,,,,,,,,,,,,,,,,,,
1720178595,108,0,4378.846191,4333.589844,4331.794922,4355.641113,4344.743652,4325,4337.307617,4318.717773,4284.743652,4327.179688,4477.692383,4514.743652,4393.589844,4418.589844,,,,,,,,,,,,,,,,,,,,,,,,,,,,,,,,,,,,,,,,,,,,,,,,,,,,,,,,,,,,,,,,,,,,,,
1720178595,109,0,4366.666504,4323.974121,4323.333496,4347.94873,4340.384766,4325.512695,4334.102539,4318.461426,4279.358887,4324.487305,4471.410156,4502.179688,4382.94873,4401.282227,,,,,,,,,,,,,,,,,,,,,,,,,,,,,,,,,,,,,,,,,,,,,,,,,,,,,,,,,,,,,,,,,,,,,,
1720178595,110,0,4349.358887,4321.025879,4313.461426,4341.538574,4342.05127,4329.230957,4328.461426,4313.205078,4270.769043,4310.512695,4453.461426,4484.743652,4367.05127,4383.717773,,,,,,,,,,,,,,,,,,,,,,,,,,,,,,,,,,,,,,,,,,,,,,,,,,,,,,,,,,,,,,,,,,,,,,
1720178595,111,0,4346.410156,4320.256348,4309.230957,4342.820313,4342.436035,4326.922852,4326.025879,4309.487305,4263.717773,4305,4454.102539,4483.205078,4365.128418,4385,,,,,,,,,,,,,,,,,,,,,,,,,,,,,,,,,,,,,,,,,,,,,,,,,,,,,,,,,,,,,,,,,,,,,,
1720178595,112,0,4351.153809,4316.282227,4308.205078,4340.897461,4334.871582,4322.436035,4325.384766,4303.205078,4255.384766,4296.666504,4453.846191,4485.769043,4364.871582,4387.307617,14.813336,10.58473,1.568076,0.883447,0.184691,10.907031,6.086831,0.941021,0.528892,0.162259,19.486969,8.209392,1.306843,0.783199,0.162075,9.561493,5.757215,1.087009,0.593664,0.212915,3.413323,1.264095,0.647716,0.388356,0.111904,2.449725,1.108939,0.278731,0.340413,0.142776,11.715637,3.297755,1.413406,1.103714,0.188724,3.080487,0.740408,0.484447,0.263559,0.116534,6.877936,4.056812,1.877393,1.10459,0.168088,6.407608,6.477708,2.033051,1.305184,0.193806,16.319525,7.415768,1.221518,1.084855,0.222526,31.887581,11.675246,1.586906,1.457531,0.255851,14.895123,8.248477,1.464726,1.204001,0.215984,23.384268,11.090318,1.653273,1.343905,0.205488
1720178595,113,0,4345.769043,4313.974121,4302.692383,4335,4332.563965,4322.563965,4322.94873,4293.589844,4244.743652,4278.589844,4436.666504,4477.179688,4356.922852,4380.769043,,,,,,,,,,,,,,,,,,,,,,,,,,,,,,,,,,,,,,,,,,,,,,,,,,,,,,,,,,,,,,,,,,,,,,
1720178595,114,0,4330.128418,4311.538574,4287.692383,4330.897461,4337.692383,4325,4323.846191,4292.05127,4238.077148,4272.05127,4424.102539,4461.666504,4345.641113,4371.794922,,,,,,,,,,,,,,,,,,,,,,,,,,,,,,,,,,,,,,,,,,,,,,,,,,,,,,,,,,,,,,,,,,,,,,
1720178595,115,0,4319.615234,4305.769043,4275.641113,4326.410156,4340.512695,4329.487305,4328.717773,4295,4237.563965,4278.077148,4421.282227,4448.974121,4341.025879,4364.487305,,,,,,,,,,,,,,,,,,,,,,,,,,,,,,,,,,,,,,,,,,,,,,,,,,,,,,,,,,,,,,,,,,,,,,
1720178595,116,0,4323.461426,4303.333496,4278.974121,4323.589844,4336.282227,4331.794922,4326.538574,4291.538574,4241.410156,4288.205078,4421.922852,4448.333496,4342.820313,4366.538574,,,,,,,,,,,,,,,,,,,,,,,,,,,,,,,,,,,,,,,,,,,,,,,,,,,,,,,,,,,,,,,,,,,,,,
1720178595,117,0,4337.179688,4306.153809,4293.077148,4325.641113,4326.153809,4325.128418,4319.743652,4293.461426,4250.769043,4300.769043,4429.358887,4465.384766,4349.871582,4381.538574,,,,,,,,,,,,,,,,,,,,,,,,,,,,,,,,,,,,,,,,,,,,,,,,,,,,,,,,,,,,,,,,,,,,,,
1720178595,118,0,4351.538574,4312.436035,4305.512695,4331.794922,4326.410156,4323.974121,4321.794922,4303.077148,4261.794922,4309.871582,4437.563965,4484.358887,4359.102539,4394.615234,,,,,,,,,,,,,,,,,,,,,,,,,,,,,,,,,,,,,,,,,,,,,,,,,,,,,,,,,,,,,,,,,,,,,,
1720178595,119,0,4363.077148,4322.820313,4306.538574,4342.436035,4337.436035,4326.025879,4326.410156,4303.589844,4265.384766,4306.666504,4444.487305,4488.717773,4363.589844,4399.102539,,,,,,,,,,,,,,,,,,,,,,,,,,,,,,,,,,,,,,,,,,,,,,,,,,,,,,,,,,,,,,,,,,,,,,
1720178595,120,0,4367.436035,4326.025879,4303.205078,4344.230957,4334.871582,4316.666504,4316.922852,4299.487305,4265.384766,4296.922852,4445.897461,4482.179688,4361.025879,4399.615234,,,,,,,,,,,,,,,,,,,,,,,,,,,,,,,,,,,,,,,,,,,,,,,,,,,,,,,,,,,,,,,,,,,,,,
1720178595,121,0,4361.794922,4315.384766,4305.512695,4335.256348,4321.410156,4310,4309.358887,4300.769043,4270.384766,4297.179688,4442.692383,4474.358887,4356.025879,4394.487305,,,,,,,,,,,,,,,,,,,,,,,,,,,,,,,,,,,,,,,,,,,,,,,,,,,,,,,,,,,,,,,,,,,,,,
1720178595,122,0,4357.563965,4311.410156,4307.179688,4335.256348,4323.589844,4317.820313,4320.641113,4305.512695,4281.410156,4309.871582,4442.563965,4470.897461,4355.641113,4386.922852,,,,,,,,,,,,,,,,,,,,,,,,,,,,,,,,,,,,,,,,,,,,,,,,,,,,,,,,,,,,,,,,,,,,,,
1720178595,123,0,4359.743652,4322.436035,4300.769043,4343.589844,4330.512695,4323.974121,4328.205078,4309.487305,4283.461426,4313.974121,4439.487305,4465.897461,4351.794922,4381.410156,,,,,,,,,,,,,,,,,,,,,,,,,,,,,,,,,,,,,,,,,,,,,,,,,,,,,,,,,,,,,,,,,,,,,,
1720178595,124,0,4358.461426,4326.538574,4291.794922,4341.153809,4326.666504,4322.692383,4323.846191,4311.666504,4279.615234,4306.922852,4431.153809,4459.102539,4341.538574,4377.436035,,,,,,,,,,,,,,,,,,,,,,,,,,,,,,,,,,,,,,,,,,,,,,,,,,,,,,,,,,,,,,,,,,,,,,
1720178595,125,0,4357.94873,4326.538574,4297.436035,4341.153809,4331.794922,4325.769043,4325.641113,4312.563965,4280.384766,4309.102539,4432.179688,4456.794922,4340.897461,4376.922852,,,,,,,,,,,,,,,,,,,,,,,,,,,,,,,,,,,,,,,,,,,,,,,,,,,,,,,,,,,,,,,,,,,,,,
1720178595,126,0,4363.717773,4337.179688,4310.512695,4355.897461,4344.743652,4334.871582,4329.871582,4308.974121,4280.512695,4309.743652,4439.230957,4462.179688,4351.410156,4375.256348,,,,,,,,,,,,,,,,,,,,,,,,,,,,,,,,,,,,,,,,,,,,,,,,,,,,,,,,,,,,,,,,,,,,,,
1720178595,127,0,4365.256348,4345.256348,4311.922852,4364.358887,4350.512695,4337.563965,4327.436035,4305.512695,4283.717773,4306.282227,4443.205078,4471.025879,4360.128418,4375.256348,,,,,,,,,,,,,,,,,,,,,,,,,,,,,,,,,,,,,,,,,,,,,,,,,,,,,,,,,,,,,,,,,,,,,,
1720178595,0,0,4355.897461,4342.179688,4302.820313,4357.307617,4353.461426,4332.820313,4325.769043,4306.282227,4288.333496,4314.230957,4443.589844,4473.974121,4359.743652,4379.487305,15.039068,10.478105,1.706988,0.762414,0.197372,10.634301,6.442994,1.046025,0.4729,0.174415,18.842049,7.93988,1.336293,0.643488,0.198363,8.906319,5.687803,1.117047,0.527497,0.230878,3.00299,1.270506,0.880578,0.36287,0.118312,2.336656,0.957788,0.252597,0.323108,0.146548,11.589546,2.977299,1.286417,1.003458,0.18935,2.9466,0.735224,0.443995,0.281049,0.109831,7.696205,4.974338,1.985291,1.067928,0.173065,6.462095,7.27909,2.117518,1.268388,0.207064,16.357557,8.247445,1.178057,1.120694,0.236125,30.682034,11.760737,1.419368,1.393608,0.271596,15.332715,8.800794,1.530874,1.164381,0.220675,23.893702,10.996079,1.531137,1.282201,0.19125
1720178595,1,0,4344.102539,4337.436035,4297.436035,4349.102539,4358.717773,4332.307617,4332.05127,4309.487305,4285.128418,4317.820313,4443.333496,4470,4357.179688,4382.179688,,,,,,,,,,,,,,,,,,,,,,,,,,,,,,,,,,,,,,,,,,,,,,,,,,,,,,,,,,,,,,,,,,,,,,
1720178595,2,0,4347.820313,4342.307617,4307.05127,4354.743652,4356.922852,4337.692383,4345.897461,4311.794922,4282.94873,4315,4448.589844,4474.871582,4365.512695,4389.102539,,,,,,,,,,,,,,,,,,,,,,,,,,,,,,,,,,,,,,,,,,,,,,,,,,,,,,,,,,,,,,,,,,,,,,
1720178595,3,0,4359.358887,4350.128418,4321.410156,4365.256348,4350,4340.256348,4353.974121,4312.436035,4291.794922,4321.794922,4459.743652,4494.743652,4376.410156,4406.922852,,,,,,,,,,,,,,,,,,,,,,,,,,,,,,,,,,,,,,,,,,,,,,,,,,,,,,,,,,,,,,,,,,,,,,
1720178595,4,0,4362.307617,4349.871582,4323.333496,4366.025879,4347.05127,4338.717773,4344.743652,4308.077148,4297.436035,4328.974121,4463.333496,4506.153809,4374.743652,4419.102539,,,,,,,,,,,,,,,,,,,,,,,,,,,,,,,,,,,,,,,,,,,,,,,,,,,,,,,,,,,,,,,,,,,,,,
1720178595,5,0,4357.307617,4346.282227,4314.871582,4361.025879,4345.641113,4332.179688,4328.974121,4300.128418,4286.922852,4320.512695,4455.769043,4496.282227,4366.282227,4411.282227,,,,,,,,,,,,,,,,,,,,,,,,,,,,,,,,,,,,,,,,,,,,,,,,,,,,,,,,,,,,,,,,,,,,,,
1720178595,6,0,4342.05127,4336.410156,4299.358887,4347.692383,4341.025879,4326.538574,4319.358887,4294.102539,4267.05127,4292.179688,4438.205078,4472.436035,4345.128418,4384.743652,,,,,,,,,,,,,,,,,,,,,,,,,,,,,,,,,,,,,,,,,,,,,,,,,,,,,,,,,,,,,,,,,,,,,,
1720178595,7,0,4321.282227,4317.436035,4280.128418,4327.692383,4330.256348,4325.128418,4309.615234,4285.641113,4250.897461,4260,4411.410156,4444.615234,4310.512695,4357.179688,,,,,,,,,,,,,,,,,,,,,,,,,,,,,,,,,,,,,,,,,,,,,,,,,,,,,,,,,,,,,,,,,,,,,,
1720178595,8,0,4321.025879,4307.05127,4280.641113,4321.666504,4319.743652,4323.205078,4306.538574,4291.153809,4259.615234,4264.487305,4405.897461,4444.615234,4304.615234,4360.641113,,,,,,,,,,,,,,,,,,,,,,,,,,,,,,,,,,,,,,,,,,,,,,,,,,,,,,,,,,,,,,,,,,,,,,
1720178595,9,0,4349.230957,4324.102539,4303.077148,4338.461426,4323.589844,4327.692383,4321.922852,4310.256348,4292.692383,4302.563965,4434.102539,4478.717773,4340.256348,4391.666504,,,,,,,,,,,,,,,,,,,,,,,,,,,,,,,,,,,,,,,,,,,,,,,,,,,,,,,,,,,,,,,,,,,,,,
1720178595,10,0,4377.94873,4351.410156,4318.077148,4357.563965,4339.102539,4335.897461,4334.487305,4317.563965,4316.153809,4324.102539,4458.077148,4498.589844,4367.820313,4413.205078,,,,,,,,,,,,,,,,,,,,,,,,,,,,,,,,,,,,,,,,,,,,,,,,,,,,,,,,,,,,,,,,,,,,,,
1720178595,11,0,4396.410156,4365.769043,4325.512695,4372.436035,4350,4335.769043,4336.922852,4319.102539,4322.563965,4330.256348,4468.717773,4499.230957,4376.922852,4425.256348,,,,,,,,,,,,,,,,,,,,,,,,,,,,,,,,,,,,,,,,,,,,,,,,,,,,,,,,,,,,,,,,,,,,,,
1720178595,12,0,4409.615234,4372.436035,4336.666504,4384.743652,4351.153809,4334.615234,4338.205078,4320.641113,4323.077148,4334.615234,4480.384766,4508.717773,4388.974121,4441.282227,,,,,,,,,,,,,,,,,,,,,,,,,,,,,,,,,,,,,,,,,,,,,,,,,,,,,,,,,,,,,,,,,,,,,,
1720178595,13,0,4416.153809,4382.563965,4342.563965,4389.871582,4352.179688,4337.436035,4334.230957,4316.410156,4311.666504,4325.897461,4484.743652,4513.461426,4393.077148,4443.846191,,,,,,,,,,,,,,,,,,,,,,,,,,,,,,,,,,,,,,,,,,,,,,,,,,,,,,,,,,,,,,,,,,,,,,
1720178595,14,0,4416.153809,4387.820313,4340.641113,4387.436035,4356.538574,4337.05127,4332.436035,4310.512695,4296.666504,4308.333496,4477.563965,4507.179688,4383.974121,4433.077148,,,,,,,,,,,,,,,,,,,,,,,,,,,,,,,,,,,,,,,,,,,,,,,,,,,,,,,,,,,,,,,,,,,,,,
1720178595,15,0,4407.563965,4380.256348,4335.128418,4376.153809,4357.692383,4336.922852,4338.205078,4307.05127,4292.307617,4298.589844,4473.333496,4502.692383,4377.692383,4429.230957,,,,,,,,,,,,,,,,,,,,,,,,,,,,,,,,,,,,,,,,,,,,,,,,,,,,,,,,,,,,,,,,,,,,,,
1720178595,16,0,4398.077148,4374.230957,4327.436035,4368.077148,4353.077148,4337.94873,4333.974121,4299.358887,4285.384766,4300,4467.94873,4491.153809,4372.94873,4423.461426,14.700412,9.712049,1.854623,0.691008,0.208365,9.575201,6.302303,1.199166,0.454614,0.184689,17.235689,7.069428,1.378646,0.556994,0.231607,8.01014,5.204041,1.169062,0.496332,0.241284,2.489389,1.211738,1.073791,0.338678,0.124913,2.038331,0.810456,0.239295,0.302299,0.144757,10.3688,2.515279,1.217023,0.843037,0.184749,2.740007,0.776323,0.425746,0.308325,0.10118,8.377416,6.023863,2.052792,1.033958,0.192361,6.251923,7.929143,2.163244,1.186509,0.227394,15.435388,8.608958,1.144031,1.138317,0.255588,27.873844,11.056228,1.305878,1.353051,0.293887,14.719256,8.898384,1.610469,1.154193,0.230399,22.80971,10.227952,1.4724,1.271808,0.193415
1720178595,17,0,4402.179688,4380.128418,4328.205078,4378.205078,4349.871582,4332.307617,4324.102539,4295.512695,4275.256348,4304.358887,4460.512695,4483.205078,4366.282227,4411.410156,,,,,,,,,,,,,,,,,,,,,,,,,,,,,,,,,,,,,,,,,,,,,,,,,,,,,,,,,,,,,,,,,,,,,,
1720178595,18,0,4410.897461,4383.589844,4339.487305,4406.025879,4348.205078,4333.589844,4332.563965,4302.179688,4282.820313,4306.794922,4467.820313,4498.077148,4372.820313,4416.666504,,,,,,,,,,,,,,,,,,,,,,,,,,,,,,,,,,,,,,,,,,,,,,,,,,,,,,,,,,,,,,,,,,,,,,
1720178595,19,0,4403.205078,4376.922852,4341.538574,4443.589844,4343.717773,4340,4339.358887,4307.692383,4295.512695,4307.05127,4480.512695,4507.563965,4381.794922,4429.102539,,,,,,,,,,,,,,,,,,,,,,,,,,,,,,,,,,,,,,,,,,,,,,,,,,,,,,,,,,,,,,,,,,,,,,
1720178595,20,0,4387.179688,4370.128418,4332.05127,4494.487305,4340.256348,4333.461426,4330.128418,4307.436035,4295,4304.871582,4476.666504,4496.922852,4371.794922,4418.717773,,,,,,,,,,,,,,,,,,,,,,,,,,,,,,,,,,,,,,,,,,,,,,,,,,,,,,,,,,,,,,,,,,,,,,
1720178595,21,0,4380.641113,4370.256348,4320,4569.230957,4341.666504,4326.410156,4324.743652,4303.589844,4294.358887,4295.128418,4462.692383,4481.922852,4357.307617,4404.358887,,,,,,,,,,,,,,,,,,,,,,,,,,,,,,,,,,,,,,,,,,,,,,,,,,,,,,,,,,,,,,,,,,,,,,
1720178595,22,0,4378.077148,4368.077148,4310.128418,4649.230957,4342.307617,4328.461426,4322.563965,4300.128418,4298.717773,4290.769043,4458.461426,4473.461426,4354.615234,4412.692383,,,,,,,,,,,,,,,,,,,,,,,,,,,,,,,,,,,,,,,,,,,,,,,,,,,,,,,,,,,,,,,,,,,,,,
1720178595,23,0,4382.563965,4367.820313,4311.666504,4689.102539,4340.384766,4331.666504,4319.615234,4299.743652,4305.769043,4303.333496,4470.641113,4482.307617,4359.743652,4428.974121,,,,,,,,,,,,,,,,,,,,,,,,,,,,,,,,,,,,,,,,,,,,,,,,,,,,,,,,,,,,,,,,,,,,,,
1720178595,24,0,4393.717773,4371.538574,4320.256348,4666.153809,4334.358887,4331.153809,4315.128418,4299.743652,4306.794922,4309.743652,4472.94873,4489.615234,4358.461426,4433.974121,,,,,,,,,,,,,,,,,,,,,,,,,,,,,,,,,,,,,,,,,,,,,,,,,,,,,,,,,,,,,,,,,,,,,,
1720178595,25,0,4394.615234,4367.94873,4318.205078,4613.205078,4326.410156,4326.922852,4309.230957,4299.871582,4297.820313,4297.05127,4456.153809,4478.333496,4349.102539,4428.077148,,,,,,,,,,,,,,,,,,,,,,,,,,,,,,,,,,,,,,,,,,,,,,,,,,,,,,,,,,,,,,,,,,,,,,
1720178595,26,0,4391.153809,4362.94873,4312.307617,4575.128418,4328.717773,4323.589844,4313.846191,4303.589844,4300.641113,4291.153809,4454.358887,4475.769043,4344.871582,4428.077148,,,,,,,,,,,,,,,,,,,,,,,,,,,,,,,,,,,,,,,,,,,,,,,,,,,,,,,,,,,,,,,,,,,,,,
1720178595,27,0,4403.077148,4369.615234,4320.512695,4556.153809,4329.871582,4329.487305,4332.563965,4312.820313,4318.589844,4304.487305,4474.871582,4493.846191,4354.487305,4439.871582,,,,,,,,,,,,,,,,,,,,,,,,,,,,,,,,,,,,,,,,,,,,,,,,,,,,,,,,,,,,,,,,,,,,,,
1720178595,28,0,4415.512695,4375.897461,4330.769043,4536.153809,4317.307617,4334.615234,4339.487305,4316.025879,4324.615234,4313.205078,4481.922852,4503.589844,4360.769043,4447.179688,,,,,,,,,,,,,,,,,,,,,,,,,,,,,,,,,,,,,,,,,,,,,,,,,,,,,,,,,,,,,,,,,,,,,,
1720178595,29,0,4414.487305,4372.563965,4325.641113,4510.641113,4307.179688,4331.538574,4327.436035,4308.077148,4315.897461,4311.538574,4469.487305,4491.794922,4355.897461,4445.128418,,,,,,,,,,,,,,,,,,,,,,,,,,,,,,,,,,,,,,,,,,,,,,,,,,,,,,,,,,,,,,,,,,,,,,
1720178595,30,0,4418.589844,4370.512695,4312.436035,4490.641113,4311.282227,4332.94873,4319.871582,4300.641113,4309.358887,4312.05127,4464.102539,4476.922852,4352.692383,4440.897461,,,,,,,,,,,,,,,,,,,,,,,,,,,,,,,,,,,,,,,,,,,,,,,,,,,,,,,,,,,,,,,,,,,,,,
1720178595,31,0,4429.615234,4373.205078,4312.692383,4482.05127,4308.974121,4335.256348,4323.333496,4296.666504,4300.641113,4311.922852,4465.897461,4472.05127,4349.743652,4435.384766,,,,,,,,,,,,,,,,,,,,,,,,,,,,,,,,,,,,,,,,,,,,,,,,,,,,,,,,,,,,,,,,,,,,,,
1720178595,32,0,4431.666504,4372.94873,4319.102539,4475,4295.512695,4334.102539,4324.358887,4292.436035,4284.743652,4302.436035,4456.538574,4468.717773,4339.743652,4427.820313,13.723224,8.657619,1.936027,0.683631,0.217948,8.08806,5.800023,1.345662,0.476969,0.191322,14.896179,5.899704,1.406675,0.530044,0.257695,6.939084,4.453316,1.207378,0.500358,0.242232,2.156968,1.134673,1.161895,0.314457,0.133442,1.623278,0.726629,0.235969,0.277891,0.138205,8.473989,2.056056,1.208687,0.673013,0.175783,2.532166,0.843339,0.440683,0.340249,0.091899,8.888268,7.039716,2.082453,1.029108,0.225765,5.992886,8.126958,2.16454,1.068479,0.248125,13.647756,8.38505,1.11933,1.115804,0.279359,23.684275,9.711878,1.264957,1.325926,0.328412,13.083598,8.47888,1.669882,1.139772,0.24527,20.292774,9.002365,1.440891,1.296883,0.21802
1720178595,33,0,4433.589844,4371.025879,4317.692383,4464.358887,4295.897461,4336.282227,4322.436035,4292.563965,4281.794922,4293.846191,4449.102539,4467.179688,4332.820313,4430.384766,,,,,,,,,,,,,,,,,,,,,,,,,,,,,,,,,,,,,,,,,,,,,,,,,,,,,,,,,,,,,,,,,,,,,,
1720178595,34,0,4444.487305,4374.871582,4321.025879,4456.025879,4309.487305,4338.717773,4325.256348,4301.282227,4296.794922,4299.358887,4456.922852,4482.05127,4340.897461,4443.333496,,,,,,,,,,,,,,,,,,,,,,,,,,,,,,,,,,,,,,,,,,,,,,,,,,,,,,,,,,,,,,,,,,,,,,
1720178595,35,0,4450.897461,4383.846191,4326.025879,4451.410156,4313.461426,4337.436035,4325.384766,4304.487305,4305.897461,4305.641113,4464.358887,4493.589844,4347.05127,4445.512695,,,,,,,,,,,,,,,,,,,,,,,,,,,,,,,,,,,,,,,,,,,,,,,,,,,,,,,,,,,,,,,,,,,,,,
1720178595,36,0,4447.820313,4384.615234,4320.128418,4442.436035,4309.487305,4339.230957,4320.512695,4298.717773,4298.974121,4296.538574,4461.410156,4480.641113,4333.974121,4434.102539,,,,,,,,,,,,,,,,,,,,,,,,,,,,,,,,,,,,,,,,,,,,,,,,,,,,,,,,,,,,,,,,,,,,,,
1720178595,37,0,4443.846191,4376.538574,4312.436035,4429.871582,4310.256348,4342.820313,4321.794922,4296.538574,4293.205078,4285.769043,4453.846191,4466.025879,4323.461426,4421.666504,,,,,,,,,,,,,,,,,,,,,,,,,,,,,,,,,,,,,,,,,,,,,,,,,,,,,,,,,,,,,,,,,,,,,,
1720178595,38,0,4442.05127,4371.538574,4313.461426,4420.641113,4313.717773,4340.769043,4327.436035,4298.846191,4294.871582,4290.641113,4446.410156,4469.358887,4326.538574,4418.461426,,,,,,,,,,,,,,,,,,,,,,,,,,,,,,,,,,,,,,,,,,,,,,,,,,,,,,,,,,,,,,,,,,,,,,
1720178595,39,0,4443.205078,4370.641113,4316.538574,4416.282227,4310.512695,4339.871582,4328.717773,4300.897461,4293.974121,4296.153809,4449.871582,4475.384766,4327.05127,4420.512695,,,,,,,,,,,,,,,,,,,,,,,,,,,,,,,,,,,,,,,,,,,,,,,,,,,,,,,,,,,,,,,,,,,,,,
1720178595,40,0,4445,4369.230957,4310.512695,4409.358887,4306.282227,4339.102539,4321.794922,4298.333496,4294.615234,4295.512695,4458.846191,4468.974121,4324.230957,4418.974121,,,,,,,,,,,,,,,,,,,,,,,,,,,,,,,,,,,,,,,,,,,,,,,,,,,,,,,,,,,,,,,,,,,,,,
1720178595,41,0,4441.794922,4368.077148,4297.05127,4398.974121,4309.487305,4333.846191,4311.153809,4300.256348,4305.641113,4299.615234,4456.666504,4463.077148,4327.436035,4412.94873,,,,,,,,,,,,,,,,,,,,,,,,,,,,,,,,,,,,,,,,,,,,,,,,,,,,,,,,,,,,,,,,,,,,,,
1720178595,42,0,4437.94873,4368.846191,4290,4396.282227,4311.538574,4328.846191,4306.025879,4306.794922,4319.230957,4304.871582,4449.871582,4464.743652,4328.077148,4410.641113,,,,,,,,,,,,,,,,,,,,,,,,,,,,,,,,,,,,,,,,,,,,,,,,,,,,,,,,,,,,,,,,,,,,,,
1720178595,43,0,4444.102539,4370.512695,4299.487305,4397.563965,4305.512695,4330.512695,4309.615234,4307.05127,4322.179688,4306.282227,4452.820313,4465.897461,4324.487305,4414.230957,,,,,,,,,,,,,,,,,,,,,,,,,,,,,,,,,,,,,,,,,,,,,,,,,,,,,,,,,,,,,,,,,,,,,,
1720178595,44,0,4461.410156,4372.820313,4309.358887,4395.256348,4305.128418,4332.563965,4312.307617,4299.871582,4314.743652,4304.615234,4455.897461,4466.153809,4327.05127,4418.205078,,,,,,,,,,,,,,,,,,,,,,,,,,,,,,,,,,,,,,,,,,,,,,,,,,,,,,,,,,,,,,,,,,,,,,
1720178595,45,0,4479.615234,4376.538574,4311.282227,4395.384766,4312.436035,4334.102539,4317.307617,4298.333496,4310.641113,4302.307617,4456.538574,4474.871582,4333.077148,4422.692383,,,,,,,,,,,,,,,,,,,,,,,,,,,,,,,,,,,,,,,,,,,,,,,,,,,,,,,,,,,,,,,,,,,,,,
1720178595,46,0,4497.94873,4378.461426,4315.384766,4395.897461,4311.410156,4340.384766,4328.333496,4305.769043,4317.307617,4306.666504,4466.794922,4486.025879,4341.025879,4433.717773,,,,,,,,,,,,,,,,,,,,,,,,,,,,,,,,,,,,,,,,,,,,,,,,,,,,,,,,,,,,,,,,,,,,,,
1720178595,47,0,4519.871582,4374.102539,4321.282227,4392.820313,4310,4344.230957,4330,4309.487305,4323.077148,4316.282227,4473.077148,4491.282227,4348.077148,4442.436035,,,,,,,,,,,,,,,,,,,,,,,,,,,,,,,,,,,,,,,,,,,,,,,,,,,,,,,,,,,,,,,,,,,,,,
1720178595,48,0,4541.282227,4366.922852,4319.871582,4387.436035,4314.487305,4346.282227,4323.077148,4308.333496,4318.846191,4307.820313,4462.179688,4491.282227,4347.05127,4439.102539,12.500356,7.65932,1.929377,0.744927,0.228931,6.562761,5.142383,1.4461,0.530675,0.194737,12.389837,4.723205,1.416317,0.554228,0.277073,6.811509,3.776181,1.387388,0.539106,0.237366,2.020766,1.116986,1.119666,0.290048,0.145823,1.21936,0.73743,0.234155,0.250193,0.12974,6.325615,1.715547,1.250951,0.542408,0.165905,2.412322,0.927399,0.502032,0.370096,0.082853,9.360445,7.934019,2.139443,1.070166,0.267101,5.814247,7.737231,2.195222,0.961481,0.263563,11.606372,7.622051,1.162044,1.049454,0.302925,19.288559,7.998318,1.335883,1.300867,0.378669,10.988969,7.63968,1.767355,1.098825,0.263748,16.961983,7.609156,1.457965,1.332841,0.263406
1720178595,49,0,4567.563965,4369.102539,4316.025879,4383.205078,4313.589844,4350.641113,4321.153809,4305.256348,4316.410156,4294.358887,4456.410156,4486.153809,4340.512695,4434.743652,,,,,,,,,,,,,,,,,,,,,,,,,,,,,,,,,,,,,,,,,,,,,,,,,,,,,,,,,,,,,,,,,,,,,,
1720178595,50,0,4605.128418,4376.666504,4319.615234,4383.333496,4313.717773,4352.820313,4324.871582,4302.05127,4319.871582,4305.384766,4473.589844,4488.077148,4342.692383,4441.025879,,,,,,,,,,,,,,,,,,,,,,,,,,,,,,,,,,,,,,,,,,,,,,,,,,,,,,,,,,,,,,,,,,,,,,
1720178595,51,0,4648.589844,4383.205078,4327.94873,4389.615234,4319.743652,4351.794922,4323.333496,4298.717773,4314.743652,4310.641113,4484.358887,4500.256348,4352.436035,4446.538574,,,,,,,,,,,,,,,,,,,,,,,,,,,,,,,,,,,,,,,,,,,,,,,,,,,,,,,,,,,,,,,,,,,,,,
1720178595,52,0,4691.666504,4388.974121,4337.179688,4394.615234,4323.461426,4352.692383,4321.666504,4300,4307.94873,4293.846191,4476.410156,4509.487305,4358.461426,4447.307617,,,,,,,,,,,,,,,,,,,,,,,,,,,,,,,,,,,,,,,,,,,,,,,,,,,,,,,,,,,,,,,,,,,,,,
1720178595,53,0,4725.897461,4390.641113,4344.871582,4390.641113,4326.538574,4358.333496,4330,4311.922852,4316.666504,4299.230957,4479.615234,4515,4359.743652,4451.922852,,,,,,,,,,,,,,,,,,,,,,,,,,,,,,,,,,,,,,,,,,,,,,,,,,,,,,,,,,,,,,,,,,,,,,
1720178595,54,0,4748.077148,4386.922852,4339.871582,4384.358887,4329.615234,4358.589844,4332.05127,4318.461426,4327.692383,4319.230957,4487.436035,4512.94873,4353.589844,4448.846191,,,,,,,,,,,,,,,,,,,,,,,,,,,,,,,,,,,,,,,,,,,,,,,,,,,,,,,,,,,,,,,,,,,,,,
1720178595,55,0,4773.589844,4384.743652,4326.794922,4379.102539,4325.769043,4355,4323.717773,4315.512695,4326.282227,4316.153809,4480.384766,4500.512695,4346.666504,4436.538574,,,,,,,,,,,,,,,,,,,,,,,,,,,,,,,,,,,,,,,,,,,,,,,,,,,,,,,,,,,,,,,,,,,,,,
1720178595,56,0,4817.692383,4391.794922,4326.666504,4378.077148,4323.589844,4348.974121,4322.94873,4312.563965,4319.102539,4305,4472.692383,4496.794922,4355.641113,4438.205078,,,,,,,,,,,,,,,,,,,,,,,,,,,,,,,,,,,,,,,,,,,,,,,,,,,,,,,,,,,,,,,,,,,,,,
1720178595,57,0,4865.769043,4401.794922,4341.282227,4387.436035,4326.282227,4342.94873,4327.94873,4311.794922,4313.333496,4304.487305,4477.05127,4508.846191,4366.410156,4448.974121,,,,,,,,,,,,,,,,,,,,,,,,,,,,,,,,,,,,,,,,,,,,,,,,,,,,,,,,,,,,,,,,,,,,,,
1720178595,58,0,4897.820313,4402.820313,4347.179688,4393.589844,4325.384766,4341.922852,4326.282227,4309.487305,4309.102539,4297.436035,4474.743652,4512.563965,4357.436035,4448.205078,,,,,,,,,,,,,,,,,,,,,,,,,,,,,,,,,,,,,,,,,,,,,,,,,,,,,,,,,,,,,,,,,,,,,,
1720178595,59,0,4917.94873,4396.025879,4344.102539,4383.974121,4325.512695,4344.230957,4327.820313,4310.769043,4318.589844,4286.922852,4468.333496,4507.563965,4348.974121,4443.205078,,,,,,,,,,,,,,,,,,,,,,,,,,,,,,,,,,,,,,,,,,,,,,,,,,,,,,,,,,,,,,,,,,,,,,
1720178595,60,0,4940.512695,4387.94873,4338.333496,4369.102539,4326.410156,4344.743652,4327.94873,4314.487305,4346.538574,4297.436035,4470.897461,4504.358887,4353.589844,4441.410156,,,,,,,,,,,,,,,,,,,,,,,,,,,,,,,,,,,,,,,,,,,,,,,,,,,,,,,,,,,,,,,,,,,,,,
1720178595,61,0,4968.717773,4382.563965,4322.05127,4363.461426,4321.922852,4345.384766,4315.769043,4309.743652,4362.692383,4310.769043,4466.025879,4491.282227,4352.307617,4436.025879,,,,,,,,,,,,,,,,,,,,,,,,,,,,,,,,,,,,,,,,,,,,,,,,,,,,,,,,,,,,,,,,,,,,,,
1720178596,62,0,4996.282227,4383.846191,4315.641113,4358.077148,4317.94873,4351.153809,4312.436035,4303.974121,4355.384766,4302.820313,4449.743652,4475.384766,4343.077148,4425.512695,,,,,,,,,,,,,,,,,,,,,,,,,,,,,,,,,,,,,,,,,,,,,,,,,,,,,,,,,,,,,,,,,,,,,,
1720178596,63,0,5027.436035,4391.538574,4332.94873,4353.589844,4319.230957,4348.846191,4316.282227,4300.897461,4347.436035,4290.384766,4440.384766,4465.512695,4332.307617,4415.128418,,,,,,,,,,,,,,,,,,,,,,,,,,,,,,,,,,,,,,,,,,,,,,,,,,,,,,,,,,,,,,,,,,,,,,
1720178596,64,0,5063.717773,4395.897461,4352.436035,4360.128418,4320.128418,4345.512695,4318.589844,4299.102539,4348.461426,4293.205078,4440.769043,4468.589844,4326.666504,4410.256348,11.197031,6.887613,1.848248,0.873043,0.242132,5.326941,4.536984,1.480617,0.602237,0.195547,9.868873,3.766635,1.415531,0.618886,0.292571,9.908504,4.332639,2.188839,0.626285,0.233545,2.147332,1.225906,0.967,0.267793,0.161972,0.896083,0.819913,0.226495,0.220665,0.122387,4.474447,1.533921,1.309695,0.476159,0.159489,2.388139,1.034574,0.609639,0.392847,0.074896,9.695941,8.660645,2.289284,1.15785,0.306942,5.880079,6.845233,2.322993,0.928575,0.2727,9.453853,6.541878,1.325897,0.963732,0.323181,14.838301,6.289323,1.528062,1.287326,0.443162,8.704025,6.626354,1.972768,1.042151,0.283844,13.159565,6.363277,1.562534,1.37243,0.320655
1720178596,65,0,5093.974121,4391.153809,4357.94873,4364.487305,4323.077148,4352.436035,4323.846191,4298.717773,4345.641113,4291.025879,4441.922852,4483.333496,4328.589844,4412.563965,,,,,,,,,,,,,,,,,,,,,,,,,,,,,,,,,,,,,,,,,,,,,,,,,,,,,,,,,,,,,,,,,,,,,,
1720178596,66,0,5116.666504,4387.05127,4347.692383,4357.05127,4323.846191,4350,4314.871582,4297.436035,4340.769043,4277.05127,4440.897461,4482.436035,4330.512695,4417.563965,,,,,,,,,,,,,,,,,,,,,,,,,,,,,,,,,,,,,,,,,,,,,,,,,,,,,,,,,,,,,,,,,,,,,,
1720178596,67,0,5137.05127,4388.077148,4332.436035,4348.333496,4314.743652,4339.230957,4294.743652,4301.153809,4341.666504,4282.692383,4446.282227,4472.05127,4333.589844,4418.461426,,,,,,,,,,,,,,,,,,,,,,,,,,,,,,,,,,,,,,,,,,,,,,,,,,,,,,,,,,,,,,,,,,,,,,
1720178596,68,0,5160.769043,4386.153809,4330.641113,4344.358887,4310.641113,4338.589844,4294.230957,4305.641113,4342.563965,4298.205078,4457.05127,4479.230957,4340.128418,4416.410156,,,,,,,,,,,,,,,,,,,,,,,,,,,,,,,,,,,,,,,,,,,,,,,,,,,,,,,,,,,,,,,,,,,,,,
1720178596,69,0,5194.615234,4388.717773,4344.615234,4348.717773,4319.230957,4341.282227,4306.666504,4303.974121,4339.615234,4297.820313,4461.025879,4491.282227,4343.461426,4419.102539,,,,,,,,,,,,,,,,,,,,,,,,,,,,,,,,,,,,,,,,,,,,,,,,,,,,,,,,,,,,,,,,,,,,,,
1720178596,70,0,5234.358887,4405,4356.282227,4360.769043,4325,4337.179688,4312.563965,4303.077148,4337.563965,4291.153809,4459.871582,4496.922852,4344.871582,4429.487305,,,,,,,,,,,,,,,,,,,,,,,,,,,,,,,,,,,,,,,,,,,,,,,,,,,,,,,,,,,,,,,,,,,,,,
1720178596,71,0,5262.307617,4412.307617,4360,4363.846191,4323.333496,4341.153809,4325,4310.256348,4340.897461,4291.282227,4462.436035,4508.589844,4348.077148,4433.717773,,,,,,,,,,,,,,,,,,,,,,,,,,,,,,,,,,,,,,,,,,,,,,,,,,,,,,,,,,,,,,,,,,,,,,
1720178596,72,0,5273.846191,4398.077148,4358.717773,4352.94873,4320.769043,4344.871582,4329.615234,4316.666504,4344.871582,4291.025879,4463.461426,4512.692383,4342.94873,4429.871582,,,,,,,,,,,,,,,,,,,,,,,,,,,,,,,,,,,,,,,,,,,,,,,,,,,,,,,,,,,,,,,,,,,,,,
1720178596,73,0,5292.436035,4393.077148,4356.410156,4352.307617,4322.05127,4336.153809,4315.128418,4314.358887,4343.717773,4286.666504,4463.205078,4504.102539,4341.282227,4432.563965,,,,,,,,,,,,,,,,,,,,,,,,,,,,,,,,,,,,,,,,,,,,,,,,,,,,,,,,,,,,,,,,,,,,,,
1720178596,74,0,5326.794922,4402.94873,4362.436035,4359.615234,4321.666504,4332.94873,4308.846191,4307.692383,4341.794922,4279.102539,4463.974121,4504.358887,4349.230957,4437.820313,,,,,,,,,,,,,,,,,,,,,,,,,,,,,,,,,,,,,,,,,,,,,,,,,,,,,,,,,,,,,,,,,,,,,,
1720178596,75,0,5356.153809,4406.410156,4369.487305,4358.717773,4316.282227,4334.871582,4309.871582,4302.692383,4341.922852,4277.436035,4462.436035,4507.05127,4348.717773,4437.436035,,,,,,,,,,,,,,,,,,,,,,,,,,,,,,,,,,,,,,,,,,,,,,,,,,,,,,,,,,,,,,,,,,,,,,
1720178596,76,0,5368.205078,4403.333496,4364.743652,4353.205078,4313.077148,4333.589844,4308.461426,4302.307617,4343.846191,4288.077148,4456.922852,4500.897461,4339.102539,4428.974121,,,,,,,,,,,,,,,,,,,,,,,,,,,,,,,,,,,,,,,,,,,,,,,,,,,,,,,,,,,,,,,,,,,,,,
1720178596,77,0,5374.102539,4399.871582,4348.846191,4346.666504,4317.563965,4335.256348,4309.487305,4299.358887,4343.974121,4290.897461,4447.563965,4485.384766,4332.307617,4415.384766,,,,,,,,,,,,,,,,,,,,,,,,,,,,,,,,,,,,,,,,,,,,,,,,,,,,,,,,,,,,,,,,,,,,,,
1720178596,78,0,5381.410156,4394.487305,4334.230957,4340.512695,4322.307617,4342.307617,4309.487305,4295.384766,4341.282227,4281.153809,4435.641113,4468.205078,4324.871582,4400.512695,,,,,,,,,,,,,,,,,,,,,,,,,,,,,,,,,,,,,,,,,,,,,,,,,,,,,,,,,,,,,,,,,,,,,,
1720178596,79,0,5388.589844,4388.205078,4327.436035,4336.666504,4320.512695,4345.769043,4309.743652,4297.820313,4340.256348,4278.205078,4429.871582,4460.128418,4316.666504,4388.974121,,,,,,,,,,,,,,,,,,,,,,,,,,,,,,,,,,,,,,,,,,,,,,,,,,,,,,,,,,,,,,,,,,,,,,
1720178596,80,0,5406.922852,4386.153809,4327.436035,4332.94873,4316.666504,4343.205078,4315.641113,4298.974121,4340.384766,4281.410156,4429.871582,4458.717773,4317.307617,4387.692383,10.690444,6.334236,1.754014,1.055082,0.254299,4.502226,4.131031,1.471978,0.679645,0.19343,7.625153,3.128022,1.434374,0.713144,0.306831,19.81531,7.273274,4.036252,0.79147,0.23728,2.359573,1.472476,0.765069,0.250655,0.179307,0.703205,0.918633,0.210512,0.19117,0.117528,3.114472,1.465715,1.362554,0.466864,0.159452,2.411065,1.163939,0.746811,0.40724,0.069019,9.885891,9.141006,2.583403,1.276881,0.33669,5.993861,5.723288,2.587353,1.010738,0.280182,7.597395,5.439871,1.634715,0.897939,0.339861,10.932433,4.918579,1.830952,1.308283,0.512626,6.675079,5.72191,2.330205,1.007424,0.303367,9.585546,5.48781,1.795283,1.424499,0.375869
1720178596,81,0,5437.179688,4390.897461,4334.871582,4333.461426,4317.94873,4342.692383,4315.641113,4297.563965,4339.487305,4278.205078,4427.05127,4457.307617,4322.05127,4391.153809,,,,,,,,,,,,,,,,,,,,,,,,,,,,,,,,,,,,,,,,,,,,,,,,,,,,,,,,,,,,,,,,,,,,,,
1720178596,82,0,5462.179688,4395.128418,4339.743652,4335.897461,4318.077148,4342.692383,4311.410156,4300.512695,4339.743652,4273.846191,4428.589844,4460.897461,4321.666504,4390.512695,,,,,,,,,,,,,,,,,,,,,,,,,,,,,,,,,,,,,,,,,,,,,,,,,,,,,,,,,,,,,,,,,,,,,,
1720178596,83,0,5477.05127,4394.743652,4336.282227,4334.102539,4313.589844,4339.743652,4319.230957,4307.05127,4340.384766,4276.666504,4438.717773,4473.974121,4322.179688,4389.230957,,,,,,,,,,,,,,,,,,,,,,,,,,,,,,,,,,,,,,,,,,,,,,,,,,,,,,,,,,,,,,,,,,,,,,
1720178596,84,0,5494.487305,4397.692383,4337.307617,4337.05127,4316.666504,4339.615234,4329.871582,4310.384766,4337.05127,4280,4445.641113,4489.743652,4323.333496,4397.05127,,,,,,,,,,,,,,,,,,,,,,,,,,,,,,,,,,,,,,,,,,,,,,,,,,,,,,,,,,,,,,,,,,,,,,
1720178596,85,0,5524.615234,4406.666504,4352.692383,4346.794922,4326.538574,4344.487305,4328.846191,4307.307617,4330.128418,4277.05127,4447.05127,4498.333496,4329.871582,4410.897461,,,,,,,,,,,,,,,,,,,,,,,,,,,,,,,,,,,,,,,,,,,,,,,,,,,,,,,,,,,,,,,,,,,,,,
1720178596,86,0,5563.333496,4418.974121,4371.666504,4353.589844,4328.717773,4344.102539,4325.384766,4304.487305,4332.179688,4278.846191,4456.922852,4506.922852,4349.358887,4428.974121,,,,,,,,,,,,,,,,,,,,,,,,,,,,,,,,,,,,,,,,,,,,,,,,,,,,,,,,,,,,,,,,,,,,,,
1720178596,87,0,5598.589844,4430.384766,4380.384766,4360.384766,4327.692383,4343.717773,4327.94873,4310.641113,4347.94873,4289.102539,4473.333496,4520,4370.769043,4445.384766,,,,,,,,,,,,,,,,,,,,,,,,,,,,,,,,,,,,,,,,,,,,,,,,,,,,,,,,,,,,,,,,,,,,,,
1720178596,88,0,5617.563965,4432.05127,4376.025879,4360.897461,4328.974121,4348.461426,4325.512695,4313.974121,4353.077148,4294.871582,4477.436035,4525.128418,4373.589844,4448.846191,,,,,,,,,,,,,,,,,,,,,,,,,,,,,,,,,,,,,,,,,,,,,,,,,,,,,,,,,,,,,,,,,,,,,,
1720178596,89,0,5626.922852,4427.94873,4364.102539,4351.538574,4326.410156,4343.077148,4316.922852,4305.512695,4342.307617,4295.384766,4474.102539,4522.94873,4371.282227,4446.282227,,,,,,,,,,,,,,,,,,,,,,,,,,,,,,,,,,,,,,,,,,,,,,,,,,,,,,,,,,,,,,,,,,,,,,
1720178596,90,0,5639.102539,4426.922852,4361.538574,4342.563965,4321.538574,4337.05127,4320.384766,4306.025879,4345.128418,4290.512695,4477.94873,4528.974121,4376.538574,4448.205078,,,,,,,,,,,,,,,,,,,,,,,,,,,,,,,,,,,,,,,,,,,,,,,,,,,,,,,,,,,,,,,,,,,,,,
1720178596,91,0,5649.871582,4426.538574,4367.692383,4340.512695,4326.153809,4348.333496,4332.436035,4313.333496,4354.230957,4285.384766,4476.410156,4530.384766,4372.563965,4445.641113,,,,,,,,,,,,,,,,,,,,,,,,,,,,,,,,,,,,,,,,,,,,,,,,,,,,,,,,,,,,,,,,,,,,,,
1720178596,92,0,5662.436035,4425.256348,4366.410156,4346.538574,4336.922852,4358.205078,4332.692383,4310.769043,4346.538574,4291.282227,4463.846191,4514.102539,4359.358887,4432.94873,,,,,,,,,,,,,,,,,,,,,,,,,,,,,,,,,,,,,,,,,,,,,,,,,,,,,,,,,,,,,,,,,,,,,,
1720178596,93,0,5685.256348,4427.94873,4359.871582,4352.05127,4343.974121,4356.410156,4326.666504,4308.461426,4342.436035,4297.820313,4459.871582,4502.692383,4356.410156,4422.820313,,,,,,,,,,,,,,,,,,,,,,,,,,,,,,,,,,,,,,,,,,,,,,,,,,,,,,,,,,,,,,,,,,,,,,
1720178596,94,0,5702.94873,4428.589844,4353.333496,4345.512695,4343.333496,4357.05127,4328.589844,4311.153809,4355.256348,4296.282227,4461.666504,4503.205078,4360,4420.384766,,,,,,,,,,,,,,,,,,,,,,,,,,,,,,,,,,,,,,,,,,,,,,,,,,,,,,,,,,,,,,,,,,,,,,
1720178596,95,0,5702.307617,4423.461426,4345.384766,4338.461426,4336.410156,4353.846191,4327.820313,4312.05127,4357.94873,4294.743652,4458.333496,4499.230957,4352.179688,4416.153809,,,,,,,,,,,,,,,,,,,,,,,,,,,,,,,,,,,,,,,,,,,,,,,,,,,,,,,,,,,,,,,,,,,,,,
1720178596,96,0,5705,4421.922852,4337.05127,4336.666504,4330.769043,4346.153809,4321.153809,4309.102539,4345.641113,4288.589844,4454.102539,4489.102539,4342.94873,4407.05127,11.050145,5.897379,1.722686,1.263684,0.262104,4.07083,3.939007,1.463916,0.754317,0.18818,5.742293,2.758612,1.503854,0.837492,0.321608,36.776505,12.82599,6.960028,1.043698,0.25012,2.590476,1.788261,0.582226,0.2388,0.193074,0.638121,0.988016,0.192299,0.164672,0.114274,2.304908,1.424172,1.400735,0.491486,0.165522,2.385316,1.293139,0.880952,0.41474,0.066017,9.71989,9.238469,2.979073,1.399907,0.351397,6.066133,4.68594,2.943815,1.193905,0.293554,6.025237,4.556686,2.056904,0.879948,0.355148,7.625794,4.037764,2.207101,1.383057,0.573652,5.033678,5.117669,2.814801,1.025764,0.321041,6.579375,5.03177,2.165712,1.49511,0.416335
1720178596,97,0,5721.282227,4422.94873,4336.025879,4330.512695,4330.769043,4351.282227,4319.487305,4306.666504,4338.717773,4276.794922,4443.589844,4479.615234,4341.538574,4400.512695,,,,,,,,,,,,,,,,,,,,,,,,,,,,,,,,,,,,,,,,,,,,,,,,,,,,,,,,,,,,,,,,,,,,,,
1720178596,98,0,5734.615234,4419.487305,4336.282227,4328.974121,4331.666504,4355.897461,4316.666504,4304.102539,4335.512695,4272.179688,4427.692383,4472.436035,4334.487305,4393.717773,,,,,,,,,,,,,,,,,,,,,,,,,,,,,,,,,,,,,,,,,,,,,,,,,,,,,,,,,,,,,,,,,,,,,,
1720178596,99,0,5746.410156,4417.692383,4331.666504,4332.05127,4325.512695,4343.461426,4311.153809,4303.974121,4328.846191,4270.897461,4425,4472.179688,4328.461426,4386.025879,,,,,,,,,,,,,,,,,,,,,,,,,,,,,,,,,,,,,,,,,,,,,,,,,,,,,,,,,,,,,,,,,,,,,,
1720178596,100,0,5764.615234,4423.846191,4326.922852,4328.461426,4319.487305,4328.717773,4310.128418,4304.102539,4324.102539,4269.358887,4435.256348,4482.94873,4338.589844,4392.05127,,,,,,,,,,,,,,,,,,,,,,,,,,,,,,,,,,,,,,,,,,,,,,,,,,,,,,,,,,,,,,,,,,,,,,
1720178596,101,0,5781.666504,4428.589844,4325.641113,4327.563965,4320.384766,4323.974121,4310.897461,4305.512695,4325.384766,4273.205078,4443.205078,4488.077148,4348.077148,4405.641113,,,,,,,,,,,,,,,,,,,,,,,,,,,,,,,,,,,,,,,,,,,,,,,,,,,,,,,,,,,,,,,,,,,,,,
1720178596,102,0,5797.94873,4428.333496,4330.641113,4335.897461,4322.563965,4326.153809,4311.666504,4308.974121,4329.487305,4278.846191,4448.461426,4484.358887,4347.307617,4409.358887,,,,,,,,,,,,,,,,,,,,,,,,,,,,,,,,,,,,,,,,,,,,,,,,,,,,,,,,,,,,,,,,,,,,,,
1720178596,103,0,5816.922852,4433.846191,4339.102539,4340.128418,4325.384766,4334.615234,4320.641113,4310.256348,4335.641113,4279.615234,4447.563965,4489.358887,4345.128418,4403.077148,,,,,,,,,,,,,,,,,,,,,,,,,,,,,,,,,,,,,,,,,,,,,,,,,,,,,,,,,,,,,,,,,,,,,,
1720178596,104,0,5833.333496,4436.666504,4343.461426,4334.102539,4325.641113,4341.282227,4327.94873,4313.461426,4340.897461,4277.820313,4441.153809,4498.333496,4342.179688,4398.205078,,,,,,,,,,,,,,,,,,,,,,,,,,,,,,,,,,,,,,,,,,,,,,,,,,,,,,,,,,,,,,,,,,,,,,
1720178596,105,0,5850.384766,4434.102539,4344.230957,4330.256348,4326.794922,4344.230957,4328.461426,4315.769043,4345.641113,4283.333496,4446.922852,4503.846191,4347.820313,4401.410156,,,,,,,,,,,,,,,,,,,,,,,,,,,,,,,,,,,,,,,,,,,,,,,,,,,,,,,,,,,,,,,,,,,,,,
1720178596,106,0,5869.871582,4434.487305,4343.717773,4332.05127,4330.897461,4348.333496,4334.230957,4315.256348,4350.512695,4295.256348,4463.846191,4510.384766,4363.974121,4412.05127,,,,,,,,,,,,,,,,,,,,,,,,,,,,,,,,,,,,,,,,,,,,,,,,,,,,,,,,,,,,,,,,,,,,,,
1720178596,107,0,5886.282227,4434.871582,4337.05127,4329.871582,4330.384766,4346.410156,4329.230957,4314.743652,4348.333496,4293.974121,4462.179688,4508.974121,4366.666504,4415.384766,,,,,,,,,,,,,,,,,,,,,,,,,,,,,,,,,,,,,,,,,,,,,,,,,,,,,,,,,,,,,,,,,,,,,,
1720178596,108,0,5905.256348,4434.102539,4332.563965,4325.512695,4324.358887,4335.512695,4309.743652,4307.436035,4341.410156,4281.282227,4450.128418,4499.871582,4353.717773,4409.871582,,,,,,,,,,,,,,,,,,,,,,,,,,,,,,,,,,,,,,,,,,,,,,,,,,,,,,,,,,,,,,,,,,,,,,
1720178596,109,0,5931.538574,4441.538574,4342.05127,4330.641113,4324.871582,4330.128418,4304.102539,4300.384766,4339.743652,4281.282227,4456.025879,4498.077148,4352.692383,4412.307617,,,,,,,,,,,,,,,,,,,,,,,,,,,,,,,,,,,,,,,,,,,,,,,,,,,,,,,,,,,,,,,,,,,,,,
1720178596,110,0,5949.743652,4445.897461,4342.436035,4333.205078,4328.205078,4330.128418,4304.102539,4298.333496,4327.94873,4276.153809,4451.025879,4491.025879,4347.179688,4405.512695,,,,,,,,,,,,,,,,,,,,,,,,,,,,,,,,,,,,,,,,,,,,,,,,,,,,,,,,,,,,,,,,,,,,,,
1720178596,111,0,5947.94873,4425.897461,4318.461426,4312.436035,4316.410156,4318.077148,4284.358887,4289.743652,4304.871582,4246.025879,4416.410156,4463.974121,4316.025879,4374.358887,,,,,,,,,,,,,,,,,,,,,,,,,,,,,,,,,,,,,,,,,,,,,,,,,,,,,,,,,,,,,,,,,,,,,,
1720178596,112,0,5950.512695,4404.871582,4302.94873,4292.692383,4306.794922,4310.512695,4276.410156,4282.820313,4306.922852,4233.589844,4406.282227,4450.512695,4301.025879,4362.307617,13.735137,5.438448,1.737882,1.454305,0.262216,3.824917,3.83434,1.462329,0.81351,0.179524,4.422161,2.551829,1.61648,0.993432,0.333172,58.664799,19.929935,10.387027,1.346031,0.267472,2.671975,2.040563,0.45639,0.227159,0.198591,0.678104,1.013768,0.180766,0.143998,0.110229,1.847783,1.345749,1.424098,0.532015,0.174125,2.229731,1.394159,0.973906,0.415988,0.066002,9.151817,8.839273,3.351304,1.488209,0.349101,5.807477,3.900295,3.261532,1.400393,0.3163,5.011614,4.005997,2.470087,0.902888,0.369071,5.421718,3.664903,2.565848,1.49629,0.610032,3.991467,4.836705,3.274973,1.084889,0.333867,4.697187,4.939882,2.576147,1.559679,0.432993
1720178596,113,0,5984.230957,4418.717773,4320.384766,4302.307617,4316.666504,4322.436035,4296.282227,4298.205078,4333.717773,4266.666504,4439.487305,4473.717773,4331.282227,4391.666504,,,,,,,,,,,,,,,,,,,,,,,,,,,,,,,,,,,,,,,,,,,,,,,,,,,,,,,,,,,,,,,,,,,,,,
1720178596,114,0,6031.410156,4451.025879,4343.461426,4326.410156,4330.897461,4334.230957,4311.410156,4314.102539,4353.974121,4299.743652,4466.282227,4502.692383,4372.692383,4426.794922,,,,,,,,,,,,,,,,,,,,,,,,,,,,,,,,,,,,,,,,,,,,,,,,,,,,,,,,,,,,,,,,,,,,,,
1720178596,115,0,6058.077148,4463.974121,4352.563965,4341.025879,4341.025879,4337.436035,4316.794922,4314.358887,4360,4301.410156,4474.230957,4512.94873,4384.102539,4440.384766,,,,,,,,,,,,,,,,,,,,,,,,,,,,,,,,,,,,,,,,,,,,,,,,,,,,,,,,,,,,,,,,,,,,,,
1720178596,116,0,6068.333496,4460.128418,4353.333496,4342.179688,4342.563965,4341.025879,4324.102539,4314.358887,4354.871582,4295.897461,4474.102539,4514.358887,4373.717773,4437.307617,,,,,,,,,,,,,,,,,,,,,,,,,,,,,,,,,,,,,,,,,,,,,,,,,,,,,,,,,,,,,,,,,,,,,,
1720178596,117,0,6082.179688,4460.641113,4347.307617,4336.410156,4336.922852,4343.974121,4328.846191,4312.307617,4343.589844,4294.743652,4465.512695,4511.153809,4367.436035,4432.179688,,,,,,,,,,,,,,,,,,,,,,,,,,,,,,,,,,,,,,,,,,,,,,,,,,,,,,,,,,,,,,,,,,,,,,
1720178596,118,0,6090.512695,4458.333496,4340,4330.769043,4332.94873,4342.692383,4331.282227,4309.487305,4336.025879,4287.820313,4461.666504,4503.333496,4368.846191,4427.307617,,,,,,,,,,,,,,,,,,,,,,,,,,,,,,,,,,,,,,,,,,,,,,,,,,,,,,,,,,,,,,,,,,,,,,
1720178596,119,0,6087.563965,4446.538574,4333.077148,4324.487305,4330.256348,4342.179688,4334.743652,4310.384766,4334.743652,4276.922852,4459.358887,4494.615234,4362.563965,4416.410156,,,,,,,,,,,,,,,,,,,,,,,,,,,,,,,,,,,,,,,,,,,,,,,,,,,,,,,,,,,,,,,,,,,,,,
1720178596,120,0,6091.410156,4438.461426,4321.538574,4313.589844,4325.897461,4342.692383,4329.743652,4309.230957,4334.743652,4274.615234,4446.666504,4486.922852,4351.538574,4408.205078,,,,,,,,,,,,,,,,,,,,,,,,,,,,,,,,,,,,,,,,,,,,,,,,,,,,,,,,,,,,,,,,,,,,,,
1720178596,121,0,6106.025879,4440.897461,4315.128418,4306.794922,4325.897461,4342.692383,4316.794922,4305.384766,4334.102539,4278.717773,4441.410156,4486.025879,4352.692383,4410.897461,,,,,,,,,,,,,,,,,,,,,,,,,,,,,,,,,,,,,,,,,,,,,,,,,,,,,,,,,,,,,,,,,,,,,,
1720178596,122,0,6122.436035,4444.487305,4320,4310.641113,4327.307617,4340,4302.820313,4299.358887,4327.05127,4275.128418,4445.641113,4484.871582,4354.615234,4409.102539,,,,,,,,,,,,,,,,,,,,,,,,,,,,,,,,,,,,,,,,,,,,,,,,,,,,,,,,,,,,,,,,,,,,,,
1720178596,123,0,6138.717773,4446.666504,4326.153809,4312.94873,4325.897461,4338.717773,4297.179688,4294.487305,4316.538574,4263.974121,4438.974121,4481.922852,4350.512695,4402.692383,,,,,,,,,,,,,,,,,,,,,,,,,,,,,,,,,,,,,,,,,,,,,,,,,,,,,,,,,,,,,,,,,,,,,,
1720178596,124,0,6149.358887,4451.922852,4325.897461,4311.922852,4328.205078,4342.692383,4307.05127,4295.384766,4315.256348,4263.461426,4436.922852,4490.641113,4351.282227,4409.230957,,,,,,,,,,,,,,,,,,,,,,,,,,,,,,,,,,,,,,,,,,,,,,,,,,,,,,,,,,,,,,,,,,,,,,
1720178596,125,0,6148.333496,4449.871582,4321.922852,4310.256348,4327.05127,4339.871582,4314.615234,4300.384766,4322.179688,4269.102539,4448.333496,4501.410156,4354.358887,4416.666504,,,,,,,,,,,,,,,,,,,,,,,,,,,,,,,,,,,,,,,,,,,,,,,,,,,,,,,,,,,,,,,,,,,,,,
1720178596,126,0,6150.512695,4441.282227,4323.846191,4309.615234,4321.922852,4330,4304.871582,4303.589844,4327.307617,4266.025879,4448.846191,4500.128418,4353.589844,4413.461426,,,,,,,,,,,,,,,,,,,,,,,,,,,,,,,,,,,,,,,,,,,,,,,,,,,,,,,,,,,,,,,,,,,,,,
1720178596,127,0,6167.307617,4448.461426,4331.153809,4314.615234,4326.153809,4326.666504,4294.871582,4305.256348,4327.820313,4268.461426,4442.05127,4497.563965,4355.897461,4412.563965,,,,,,,,,,,,,,,,,,,,,,,,,,,,,,,,,,,,,,,,,,,,,,,,,,,,,,,,,,,,,,,,,,,,,,
1720178596,0,0,6179.102539,4460.256348,4324.871582,4315.128418,4326.922852,4326.282227,4295.256348,4305,4331.025879,4274.230957,4441.922852,4494.358887,4353.333496,4413.717773,17.153973,4.878284,1.749039,1.584085,0.252337,3.608946,3.639724,1.436139,0.843378,0.167049,3.752714,2.3946,1.704081,1.168867,0.333304,79.157562,26.503063,13.286647,1.620261,0.280539,2.539618,2.107264,0.387409,0.214029,0.193464,0.762086,1.012218,0.185424,0.131145,0.103694,1.564731,1.238735,1.422326,0.578939,0.180473,1.912463,1.449319,0.995602,0.410099,0.068278,8.12834,7.929217,3.564493,1.507777,0.330665,5.148301,3.343686,3.39882,1.535982,0.343949,4.506708,3.722267,2.711894,0.933701,0.377713,4.561696,3.715602,2.762801,1.595015,0.609315,3.550247,4.715449,3.508226,1.139602,0.336861,4.118156,5.077254,2.845044,1.572296,0.421301
1720178596,1,0,6177.94873,4449.358887,4310.384766,4304.743652,4316.282227,4322.94873,4293.461426,4303.846191,4334.743652,4265.256348,4439.615234,4485.769043,4341.794922,4406.153809,,,,,,,,,,,,,,,,,,,,,,,,,,,,,,,,,,,,,,,,,,,,,,,,,,,,,,,,,,,,,,,,,,,,,,
1720178596,2,0,6185.384766,4441.282227,4311.922852,4299.487305,4308.846191,4322.436035,4290.769043,4305,4333.846191,4262.05127,4440.256348,4486.153809,4346.666504,4403.077148,,,,,,,,,,,,,,,,,,,,,,,,,,,,,,,,,,,,,,,,,,,,,,,,,,,,,,,,,,,,,,,,,,,,,,
1720178596,3,0,6208.077148,4455.512695,4321.025879,4306.666504,4312.307617,4327.820313,4298.461426,4305.641113,4338.333496,4281.666504,4450.897461,4491.666504,4361.666504,4412.692383,,,,,,,,,,,,,,,,,,,,,,,,,,,,,,,,,,,,,,,,,,,,,,,,,,,,,,,,,,,,,,,,,,,,,,
1720178596,4,0,6228.077148,4466.922852,4325,4312.05127,4316.538574,4335.512695,4310.384766,4306.794922,4343.461426,4297.05127,4453.717773,4490.384766,4365.384766,4419.230957,,,,,,,,,,,,,,,,,,,,,,,,,,,,,,,,,,,,,,,,,,,,,,,,,,,,,,,,,,,,,,,,,,,,,,
1720178596,5,0,6238.974121,4469.358887,4330.769043,4311.410156,4311.025879,4341.666504,4313.974121,4306.153809,4336.666504,4294.871582,4447.436035,4491.922852,4360.897461,4421.025879,,,,,,,,,,,,,,,,,,,,,,,,,,,,,,,,,,,,,,,,,,,,,,,,,,,,,,,,,,,,,,,,,,,,,,
1720178596,6,0,6247.94873,4473.333496,4335.512695,4315.128418,4305.512695,4340.769043,4313.717773,4303.077148,4325.384766,4293.974121,4452.94873,4502.179688,4359.487305,4426.922852,,,,,,,,,,,,,,,,,,,,,,,,,,,,,,,,,,,,,,,,,,,,,,,,,,,,,,,,,,,,,,,,,,,,,,
1720178596,7,0,6258.333496,4477.179688,4335.897461,4319.615234,4306.153809,4336.410156,4317.692383,4303.077148,4323.461426,4296.666504,4463.077148,4511.538574,4361.538574,4431.025879,,,,,,,,,,,,,,,,,,,,,,,,,,,,,,,,,,,,,,,,,,,,,,,,,,,,,,,,,,,,,,,,,,,,,,
1720178596,8,0,6265,4479.615234,4335.512695,4319.743652,4303.205078,4336.794922,4320.769043,4306.025879,4329.487305,4294.743652,4461.922852,4512.94873,4367.692383,4431.153809,,,,,,,,,,,,,,,,,,,,,,,,,,,,,,,,,,,,,,,,,,,,,,,,,,,,,,,,,,,,,,,,,,,,,,
1720178596,9,0,6256.922852,4472.94873,4328.205078,4311.153809,4295.512695,4340.641113,4319.615234,4310.641113,4333.589844,4290.897461,4457.307617,4501.025879,4368.077148,4427.692383,,,,,,,,,,,,,,,,,,,,,,,,,,,,,,,,,,,,,,,,,,,,,,,,,,,,,,,,,,,,,,,,,,,,,,
1720178596,10,0,6242.820313,4460.384766,4313.333496,4297.436035,4292.05127,4339.102539,4315.512695,4313.077148,4331.666504,4290.256348,4452.307617,4484.358887,4356.922852,4416.410156,,,,,,,,,,,,,,,,,,,,,,,,,,,,,,,,,,,,,,,,,,,,,,,,,,,,,,,,,,,,,,,,,,,,,,
1720178596,11,0,6246.666504,4463.589844,4310.128418,4297.05127,4291.794922,4331.538574,4308.077148,4307.692383,4320.769043,4290.512695,4445.256348,4482.563965,4355.384766,4412.307617,,,,,,,,,,,,,,,,,,,,,,,,,,,,,,,,,,,,,,,,,,,,,,,,,,,,,,,,,,,,,,,,,,,,,,
1720178596,12,0,6258.077148,4476.666504,4318.461426,4309.230957,4296.666504,4330.641113,4307.94873,4301.922852,4310.512695,4287.820313,4444.102539,4493.717773,4358.077148,4418.846191,,,,,,,,,,,,,,,,,,,,,,,,,,,,,,,,,,,,,,,,,,,,,,,,,,,,,,,,,,,,,,,,,,,,,,
1720178596,13,0,6256.153809,4479.230957,4322.820313,4310.641113,4305.128418,4341.025879,4315.384766,4304.871582,4314.358887,4288.077148,4451.153809,4500.384766,4352.307617,4415.384766,,,,,,,,,,,,,,,,,,,,,,,,,,,,,,,,,,,,,,,,,,,,,,,,,,,,,,,,,,,,,,,,,,,,,,
1720178596,14,0,6246.794922,4468.846191,4319.615234,4298.589844,4299.743652,4341.538574,4305.256348,4307.179688,4323.589844,4291.666504,4451.410156,4497.820313,4349.358887,4408.717773,,,,,,,,,,,,,,,,,,,,,,,,,,,,,,,,,,,,,,,,,,,,,,,,,,,,,,,,,,,,,,,,,,,,,,
1720178596,15,0,6242.179688,4457.94873,4313.846191,4290.769043,4286.153809,4326.282227,4281.153809,4302.94873,4327.436035,4288.717773,4445.769043,4493.461426,4354.230957,4412.05127,,,,,,,,,,,,,,,,,,,,,,,,,,,,,,,,,,,,,,,,,,,,,,,,,,,,,,,,,,,,,,,,,,,,,,
1720178596,16,0,6248.717773,4463.589844,4317.05127,4295.128418,4285.769043,4319.487305,4278.461426,4304.230957,4329.743652,4288.205078,4451.282227,4495.512695,4361.794922,4413.717773,22.223978,4.182917,1.641207,1.637689,0.23432,3.379997,3.244688,1.346107,0.843901,0.152953,3.712378,2.238754,1.715878,1.342779,0.316065,91.782516,30.321503,14.652016,1.790265,0.281244,2.232793,1.935757,0.348852,0.205025,0.17873,0.833924,1.008425,0.217467,0.128209,0.095301,1.359227,1.193067,1.37953,0.620281,0.182016,1.495148,1.465895,0.937066,0.394365,0.071504,6.776066,6.644169,3.531856,1.450669,0.300758,4.120365,2.911537,3.262193,1.544854,0.367485,4.66334,3.591129,2.674345,0.943156,0.376428,5.163771,4.084053,2.712814,1.622845,0.569896,3.719141,4.59221,3.391332,1.152878,0.327526,4.868026,5.321362,2.836163,1.507782,0.384331
1720178596,17,0,6262.307617,4479.358887,4329.487305,4306.922852,4295.384766,4327.179688,4292.179688,4308.974121,4332.179688,4298.205078,4460.256348,4499.743652,4364.230957,4412.179688,,,,,,,,,,,,,,,,,,,,,,,,,,,,,,,,,,,,,,,,,,,,,,,,,,,,,,,,,,,,,,,,,,,,,,
1720178596,18,0,6268.461426,4482.436035,4338.589844,4314.615234,4298.717773,4329.615234,4300.128418,4308.461426,4327.820313,4301.794922,4458.717773,4504.743652,4360.897461,4415.512695,,,,,,,,,,,,,,,,,,,,,,,,,,,,,,,,,,,,,,,,,,,,,,,,,,,,,,,,,,,,,,,,,,,,,,
1720178596,19,0,6264.358887,4478.077148,4336.666504,4311.153809,4295.512695,4328.846191,4306.282227,4311.282227,4325,4292.179688,4456.538574,4512.820313,4357.307617,4416.538574,,,,,,,,,,,,,,,,,,,,,,,,,,,,,,,,,,,,,,,,,,,,,,,,,,,,,,,,,,,,,,,,,,,,,,
1720178596,20,0,6258.461426,4485.384766,4329.358887,4308.846191,4298.077148,4333.717773,4311.538574,4315.512695,4327.05127,4286.025879,4459.102539,4509.743652,4357.436035,4411.410156,,,,,,,,,,,,,,,,,,,,,,,,,,,,,,,,,,,,,,,,,,,,,,,,,,,,,,,,,,,,,,,,,,,,,,
1720178596,21,0,6254.615234,4490.384766,4327.307617,4312.179688,4303.974121,4338.205078,4318.846191,4314.743652,4327.563965,4292.692383,4458.589844,4498.974121,4359.230957,4409.743652,,,,,,,,,,,,,,,,,,,,,,,,,,,,,,,,,,,,,,,,,,,,,,,,,,,,,,,,,,,,,,,,,,,,,,
1720178596,22,0,6253.589844,4483.205078,4328.589844,4310.641113,4302.05127,4336.282227,4325.256348,4313.846191,4328.077148,4298.333496,4455.256348,4500,4360.769043,4412.307617,,,,,,,,,,,,,,,,,,,,,,,,,,,,,,,,,,,,,,,,,,,,,,,,,,,,,,,,,,,,,,,,,,,,,,
1720178596,23,0,6247.692383,4477.05127,4323.461426,4301.282227,4291.282227,4330.384766,4319.487305,4311.025879,4326.025879,4294.615234,4458.461426,4502.307617,4366.153809,4412.94873,,,,,,,,,,,,,,,,,,,,,,,,,,,,,,,,,,,,,,,,,,,,,,,,,,,,,,,,,,,,,,,,,,,,,,
1720178596,24,0,6241.153809,4483.461426,4322.307617,4302.820313,4291.153809,4330.769043,4317.692383,4308.461426,4323.333496,4295.128418,4468.589844,4504.358887,4375.897461,4418.461426,,,,,,,,,,,,,,,,,,,,,,,,,,,,,,,,,,,,,,,,,,,,,,,,,,,,,,,,,,,,,,,,,,,,,,
1720178596,25,0,6243.974121,4493.461426,4330.256348,4311.666504,4303.846191,4335.128418,4327.563965,4310.769043,4325.256348,4299.230957,4473.205078,4514.487305,4384.743652,4429.358887,,,,,,,,,,,,,,,,,,,,,,,,,,,,,,,,,,,,,,,,,,,,,,,,,,,,,,,,,,,,,,,,,,,,,,
1720178596,26,0,6242.436035,4489.358887,4327.307617,4304.358887,4307.563965,4333.205078,4322.436035,4309.871582,4326.410156,4290.897461,4470,4514.102539,4381.794922,4431.410156,,,,,,,,,,,,,,,,,,,,,,,,,,,,,,,,,,,,,,,,,,,,,,,,,,,,,,,,,,,,,,,,,,,,,,
1720178596,27,0,6226.794922,4481.410156,4317.692383,4292.820313,4297.94873,4326.922852,4302.179688,4308.205078,4327.436035,4286.538574,4470,4503.717773,4375.769043,4422.94873,,,,,,,,,,,,,,,,,,,,,,,,,,,,,,,,,,,,,,,,,,,,,,,,,,,,,,,,,,,,,,,,,,,,,,
1720178596,28,0,6211.410156,4477.179688,4313.846191,4292.692383,4291.794922,4325,4296.410156,4309.358887,4323.717773,4297.05127,4467.563965,4494.871582,4373.077148,4414.487305,,,,,,,,,,,,,,,,,,,,,,,,,,,,,,,,,,,,,,,,,,,,,,,,,,,,,,,,,,,,,,,,,,,,,,
1720178596,29,0,6206.538574,4477.436035,4310.512695,4293.461426,4297.05127,4330.769043,4305.128418,4308.077148,4312.179688,4295.769043,4455.641113,4486.922852,4367.94873,4410.897461,,,,,,,,,,,,,,,,,,,,,,,,,,,,,,,,,,,,,,,,,,,,,,,,,,,,,,,,,,,,,,,,,,,,,,
1720178596,30,0,6209.487305,4482.05127,4311.922852,4293.333496,4298.333496,4335.256348,4313.461426,4308.846191,4307.307617,4281.410156,4448.333496,4488.205078,4364.615234,4410.384766,,,,,,,,,,,,,,,,,,,,,,,,,,,,,,,,,,,,,,,,,,,,,,,,,,,,,,,,,,,,,,,,,,,,,,
1720178596,31,0,6208.333496,4481.025879,4315.384766,4294.871582,4293.077148,4331.538574,4311.794922,4308.461426,4309.358887,4274.487305,4447.820313,4492.94873,4364.743652,4409.487305,,,,,,,,,,,,,,,,,,,,,,,,,,,,,,,,,,,,,,,,,,,,,,,,,,,,,,,,,,,,,,,,,,,,,,
1720178596,32,0,6197.436035,4479.230957,4312.563965,4294.487305,4296.153809,4325.512695,4299.358887,4305.769043,4309.871582,4278.589844,4444.615234,4491.025879,4358.974121,4407.692383,25.837164,3.497996,1.449144,1.627813,0.214232,3.058098,2.695455,1.191095,0.830263,0.143106,4.06849,2.10094,1.662039,1.486133,0.283317,91.721138,30.001003,13.963943,1.816554,0.266766,1.846417,1.582145,0.326106,0.210103,0.158331,0.873946,1.038604,0.292278,0.137388,0.088023,1.255493,1.331948,1.305774,0.647066,0.180279,1.068563,1.46984,0.816888,0.367134,0.074268,5.306596,5.252791,3.253724,1.338664,0.26716,2.970753,2.552619,2.873737,1.434155,0.380516,5.247071,3.538696,2.384944,0.923273,0.365662,6.817224,4.651665,2.471835,1.545853,0.502869,4.324854,4.422119,2.96754,1.121853,0.311757,6.388152,5.60397,2.559523,1.381745,0.33413
1720178596,33,0,6191.794922,4487.94873,4313.205078,4294.743652,4305,4323.846191,4292.179688,4308.717773,4316.282227,4285.512695,4449.615234,4495.641113,4356.282227,4411.282227,,,,,,,,,,,,,,,,,,,,,,,,,,,,,,,,,,,,,,,,,,,,,,,,,,,,,,,,,,,,,,,,,,,,,,
1720178596,34,0,6196.666504,4496.025879,4321.025879,4297.436035,4307.563965,4328.205078,4297.307617,4312.179688,4325.897461,4283.846191,4457.05127,4501.666504,4363.974121,4413.333496,,,,,,,,,,,,,,,,,,,,,,,,,,,,,,,,,,,,,,,,,,,,,,,,,,,,,,,,,,,,,,,,,,,,,,
1720178596,35,0,6193.333496,4492.05127,4320.769043,4297.436035,4305.256348,4329.871582,4302.05127,4309.743652,4327.307617,4280.128418,4451.666504,4494.743652,4365.256348,4404.487305,,,,,,,,,,,,,,,,,,,,,,,,,,,,,,,,,,,,,,,,,,,,,,,,,,,,,,,,,,,,,,,,,,,,,,
1720178596,36,0,6189.230957,4492.179688,4314.871582,4296.794922,4308.461426,4327.436035,4302.563965,4304.487305,4323.461426,4282.179688,4441.410156,4486.025879,4359.102539,4395.512695,,,,,,,,,,,,,,,,,,,,,,,,,,,,,,,,,,,,,,,,,,,,,,,,,,,,,,,,,,,,,,,,,,,,,,
1720178596,37,0,6190.897461,4500.641113,4315.769043,4299.358887,4311.410156,4327.05127,4305.384766,4300.769043,4317.692383,4281.794922,4441.922852,4486.282227,4359.102539,4396.282227,,,,,,,,,,,,,,,,,,,,,,,,,,,,,,,,,,,,,,,,,,,,,,,,,,,,,,,,,,,,,,,,,,,,,,
1720178596,38,0,6188.461426,4508.333496,4321.410156,4304.358887,4311.025879,4331.282227,4313.077148,4301.666504,4311.666504,4286.410156,4450.384766,4493.205078,4365,4404.871582,,,,,,,,,,,,,,,,,,,,,,,,,,,,,,,,,,,,,,,,,,,,,,,,,,,,,,,,,,,,,,,,,,,,,,
1720178596,39,0,6181.282227,4506.025879,4324.743652,4304.871582,4311.410156,4334.487305,4318.589844,4306.922852,4311.666504,4296.666504,4455.384766,4503.077148,4368.846191,4413.589844,,,,,,,,,,,,,,,,,,,,,,,,,,,,,,,,,,,,,,,,,,,,,,,,,,,,,,,,,,,,,,,,,,,,,,
1720178596,40,0,6173.717773,4494.230957,4320.641113,4297.05127,4311.282227,4331.410156,4317.179688,4310.512695,4314.487305,4297.05127,4458.333496,4505.128418,4369.615234,4415.512695,,,,,,,,,,,,,,,,,,,,,,,,,,,,,,,,,,,,,,,,,,,,,,,,,,,,,,,,,,,,,,,,,,,,,,
1720178596,41,0,6162.692383,4489.743652,4311.153809,4292.179688,4311.025879,4323.461426,4308.717773,4311.666504,4317.563965,4293.846191,4460,4503.461426,4371.410156,4415.384766,,,,,,,,,,,,,,,,,,,,,,,,,,,,,,,,,,,,,,,,,,,,,,,,,,,,,,,,,,,,,,,,,,,,,,
1720178596,42,0,6150.384766,4494.230957,4307.820313,4293.589844,4309.102539,4319.102539,4302.05127,4312.05127,4321.666504,4294.743652,4459.358887,4500.256348,4372.563965,4412.563965,,,,,,,,,,,,,,,,,,,,,,,,,,,,,,,,,,,,,,,,,,,,,,,,,,,,,,,,,,,,,,,,,,,,,,
1720178596,43,0,6144.358887,4500.641113,4313.717773,4294.358887,4310.128418,4326.794922,4311.025879,4312.05127,4324.487305,4296.282227,4459.230957,4496.666504,4376.922852,4411.666504,,,,,,,,,,,,,,,,,,,,,,,,,,,,,,,,,,,,,,,,,,,,,,,,,,,,,,,,,,,,,,,,,,,,,,
1720178596,44,0,6137.94873,4506.282227,4319.487305,4297.563965,4318.461426,4335,4325.641113,4316.282227,4323.717773,4296.666504,4460.897461,4500.897461,4378.077148,4420.641113,,,,,,,,,,,,,,,,,,,,,,,,,,,,,,,,,,,,,,,,,,,,,,,,,,,,,,,,,,,,,,,,,,,,,,
1720178596,45,0,6121.025879,4508.077148,4320,4302.563965,4326.153809,4333.077148,4327.05127,4316.794922,4319.743652,4287.692383,4459.230957,4507.692383,4373.461426,4424.487305,,,,,,,,,,,,,,,,,,,,,,,,,,,,,,,,,,,,,,,,,,,,,,,,,,,,,,,,,,,,,,,,,,,,,,
1720178596,46,0,6103.333496,4508.717773,4325.512695,4303.846191,4327.05127,4336.538574,4326.153809,4316.794922,4317.94873,4277.94873,4457.692383,4510.384766,4374.615234,4419.871582,,,,,,,,,,,,,,,,,,,,,,,,,,,,,,,,,,,,,,,,,,,,,,,,,,,,,,,,,,,,,,,,,,,,,,
1720178596,47,0,6088.077148,4508.846191,4335.512695,4304.487305,4325.256348,4344.102539,4327.94873,4318.461426,4311.794922,4284.743652,4464.102539,4513.846191,4381.794922,4425,,,,,,,,,,,,,,,,,,,,,,,,,,,,,,,,,,,,,,,,,,,,,,,,,,,,,,,,,,,,,,,,,,,,,,
1720178596,48,0,6069.230957,4507.307617,4334.871582,4309.487305,4329.871582,4339.102539,4317.436035,4307.179688,4296.922852,4287.692383,4465.897461,4510.769043,4382.05127,4432.436035,27.688742,3.017613,1.246541,1.585949,0.201474,2.783879,2.181126,1.041311,0.825105,0.145637,4.572683,2.079915,1.642677,1.570788,0.245503,78.956688,25.714754,11.517406,1.706423,0.241842,1.512275,1.177407,0.328648,0.23452,0.138242,0.90352,1.134396,0.417653,0.158221,0.085585,1.343647,1.763677,1.232951,0.656704,0.179598,0.736463,1.490403,0.676566,0.329697,0.075589,3.942184,4.041223,2.833458,1.210518,0.235949,2.031922,2.325259,2.405559,1.262738,0.381486,6.204411,3.61582,2.027477,0.892918,0.350518,8.94008,5.377335,2.25319,1.383888,0.427193,5.193845,4.328893,2.476193,1.079049,0.300383,8.19402,5.939198,2.218825,1.245015,0.286112
1720178596,49,0,6051.410156,4516.025879,4331.538574,4313.461426,4337.179688,4328.205078,4307.05127,4298.974121,4294.871582,4281.922852,4466.282227,4509.487305,4384.358887,4429.102539,,,,,,,,,,,,,,,,,,,,,,,,,,,,,,,,,,,,,,,,,,,,,,,,,,,,,,,,,,,,,,,,,,,,,,
1720178596,50,0,6038.333496,4525.641113,4336.025879,4313.717773,4334.743652,4327.179688,4314.102539,4309.358887,4308.077148,4290.641113,4473.077148,4518.077148,4395.897461,4428.333496,,,,,,,,,,,,,,,,,,,,,,,,,,,,,,,,,,,,,,,,,,,,,,,,,,,,,,,,,,,,,,,,,,,,,,
1720178596,51,0,6013.974121,4515,4333.205078,4309.358887,4321.922852,4326.922852,4317.307617,4316.666504,4315.512695,4301.025879,4475.384766,4517.307617,4394.743652,4431.538574,,,,,,,,,,,,,,,,,,,,,,,,,,,,,,,,,,,,,,,,,,,,,,,,,,,,,,,,,,,,,,,,,,,,,,
1720178596,52,0,5980.897461,4506.025879,4326.025879,4303.205078,4318.461426,4322.436035,4309.358887,4313.589844,4322.179688,4297.436035,4470.384766,4511.410156,4383.461426,4426.794922,,,,,,,,,,,,,,,,,,,,,,,,,,,,,,,,,,,,,,,,,,,,,,,,,,,,,,,,,,,,,,,,,,,,,,
1720178596,53,0,5951.794922,4508.077148,4326.153809,4303.846191,4324.358887,4323.077148,4308.717773,4313.205078,4331.153809,4295.769043,4464.487305,4510.512695,4381.025879,4421.538574,,,,,,,,,,,,,,,,,,,,,,,,,,,,,,,,,,,,,,,,,,,,,,,,,,,,,,,,,,,,,,,,,,,,,,
1720178596,54,0,5920.641113,4509.230957,4325.512695,4307.436035,4325.897461,4324.743652,4311.153809,4310.769043,4325.897461,4296.666504,4463.717773,4503.461426,4381.794922,4422.692383,,,,,,,,,,,,,,,,,,,,,,,,,,,,,,,,,,,,,,,,,,,,,,,,,,,,,,,,,,,,,,,,,,,,,,
1720178596,55,0,5886.025879,4514.487305,4318.461426,4306.922852,4329.230957,4322.692383,4309.615234,4307.307617,4315.128418,4285.897461,4465.256348,4495.128418,4382.05127,4425,,,,,,,,,,,,,,,,,,,,,,,,,,,,,,,,,,,,,,,,,,,,,,,,,,,,,,,,,,,,,,,,,,,,,,
1720178596,56,0,5849.102539,4517.692383,4316.153809,4307.179688,4338.589844,4324.230957,4309.102539,4308.717773,4313.974121,4278.974121,4463.717773,4497.563965,4383.077148,4423.589844,,,,,,,,,,,,,,,,,,,,,,,,,,,,,,,,,,,,,,,,,,,,,,,,,,,,,,,,,,,,,,,,,,,,,,
1720178596,57,0,5807.94873,4516.538574,4322.307617,4310.256348,4342.820313,4329.230957,4313.589844,4310.641113,4313.974121,4288.461426,4461.794922,4502.307617,4383.205078,4425,,,,,,,,,,,,,,,,,,,,,,,,,,,,,,,,,,,,,,,,,,,,,,,,,,,,,,,,,,,,,,,,,,,,,,
1720178596,58,0,5767.563965,4517.563965,4326.922852,4311.153809,4340.897461,4332.179688,4317.692383,4312.563965,4310.512695,4295.128418,4465,4502.436035,4388.333496,4428.077148,,,,,,,,,,,,,,,,,,,,,,,,,,,,,,,,,,,,,,,,,,,,,,,,,,,,,,,,,,,,,,,,,,,,,,
1720178596,59,0,5726.282227,4515,4327.692383,4311.410156,4338.589844,4329.743652,4316.410156,4315.512695,4309.615234,4291.025879,4468.589844,4499.615234,4395.897461,4427.436035,,,,,,,,,,,,,,,,,,,,,,,,,,,,,,,,,,,,,,,,,,,,,,,,,,,,,,,,,,,,,,,,,,,,,,
1720178596,60,0,5678.333496,4511.538574,4327.820313,4310.769043,4336.922852,4326.794922,4313.717773,4315.512695,4310,4292.820313,4469.871582,4498.461426,4396.794922,4432.436035,,,,,,,,,,,,,,,,,,,,,,,,,,,,,,,,,,,,,,,,,,,,,,,,,,,,,,,,,,,,,,,,,,,,,,
1720178596,61,0,5630,4520.769043,4330.897461,4311.794922,4337.563965,4325.512695,4313.205078,4308.846191,4306.538574,4299.487305,4474.230957,4506.922852,4401.410156,4443.717773,,,,,,,,,,,,,,,,,,,,,,,,,,,,,,,,,,,,,,,,,,,,,,,,,,,,,,,,,,,,,,,,,,,,,,
1720178597,62,0,5581.410156,4525.512695,4333.333496,4317.307617,4335.897461,4319.102539,4309.615234,4303.077148,4303.205078,4295.256348,4482.692383,4515.769043,4410.512695,4447.307617,,,,,,,,,,,,,,,,,,,,,,,,,,,,,,,,,,,,,,,,,,,,,,,,,,,,,,,,,,,,,,,,,,,,,,
1720178597,63,0,5518.846191,4515,4330.384766,4314.358887,4330.769043,4311.025879,4299.615234,4305.512695,4304.743652,4287.179688,4484.871582,4512.820313,4407.179688,4443.974121,,,,,,,,,,,,,,,,,,,,,,,,,,,,,,,,,,,,,,,,,,,,,,,,,,,,,,,,,,,,,,,,,,,,,,
1720178597,64,0,5451.153809,4513.717773,4326.922852,4309.743652,4336.153809,4314.230957,4295.897461,4313.077148,4312.563965,4293.333496,4480.512695,4509.871582,4401.025879,4445.256348,27.143293,2.957716,1.193649,1.538106,0.203103,2.490389,1.893559,0.982027,0.843969,0.166047,4.926441,2.244896,1.737619,1.574394,0.215215,57.890793,19.021683,8.223535,1.508669,0.21608,1.304794,0.849067,0.366895,0.275566,0.124455,0.948272,1.29098,0.581067,0.185001,0.090197,1.701976,2.513151,1.198351,0.653937,0.1848,0.540068,1.548782,0.556768,0.287453,0.074877,2.863828,3.250758,2.407442,1.102774,0.209637,1.524193,2.312853,2.038235,1.107144,0.374135,7.043474,3.878472,1.793373,0.881339,0.337153,10.617044,6.158576,2.250471,1.196007,0.359619,5.99303,4.431369,2.162585,1.066838,0.301393,9.557004,6.304868,2.038602,1.152685,0.252052
1720178597,65,0,5393.461426,4517.307617,4328.846191,4315.512695,4345.256348,4322.179688,4306.666504,4320.128418,4323.077148,4304.102539,4478.974121,4514.358887,4402.820313,4444.358887,,,,,,,,,,,,,,,,,,,,,,,,,,,,,,,,,,,,,,,,,,,,,,,,,,,,,,,,,,,,,,,,,,,,,,
1720178597,66,0,5336.538574,4510.256348,4330,4314.871582,4340.512695,4325,4317.307617,4322.94873,4328.333496,4298.974121,4480.256348,4511.922852,4401.153809,4433.461426,,,,,,,,,,,,,,,,,,,,,,,,,,,,,,,,,,,,,,,,,,,,,,,,,,,,,,,,,,,,,,,,,,,,,,
1720178597,67,0,5277.307617,4503.461426,4321.025879,4305.512695,4332.05127,4325.897461,4315.512695,4319.871582,4323.717773,4293.717773,4478.846191,4505.897461,4399.102539,4431.410156,,,,,,,,,,,,,,,,,,,,,,,,,,,,,,,,,,,,,,,,,,,,,,,,,,,,,,,,,,,,,,,,,,,,,,
1720178597,68,0,5228.461426,4506.025879,4316.666504,4305.512695,4335.128418,4324.102539,4310.897461,4311.666504,4314.230957,4292.307617,4477.179688,4509.230957,4403.974121,4442.05127,,,,,,,,,,,,,,,,,,,,,,,,,,,,,,,,,,,,,,,,,,,,,,,,,,,,,,,,,,,,,,,,,,,,,,
1720178597,69,0,5186.794922,4509.743652,4325.256348,4310.384766,4336.666504,4318.717773,4312.179688,4307.94873,4311.410156,4283.589844,4481.282227,4514.615234,4411.153809,4448.974121,,,,,,,,,,,,,,,,,,,,,,,,,,,,,,,,,,,,,,,,,,,,,,,,,,,,,,,,,,,,,,,,,,,,,,
1720178597,70,0,5136.410156,4507.307617,4331.538574,4309.871582,4327.94873,4316.153809,4312.563965,4306.794922,4310.512695,4284.102539,4483.846191,4511.153809,4408.846191,4445.897461,,,,,,,,,,,,,,,,,,,,,,,,,,,,,,,,,,,,,,,,,,,,,,,,,,,,,,,,,,,,,,,,,,,,,,
1720178597,71,0,5078.461426,4501.922852,4327.05127,4307.179688,4327.436035,4313.846191,4309.615234,4300.641113,4301.025879,4291.922852,4478.589844,4501.666504,4399.102539,4439.358887,,,,,,,,,,,,,,,,,,,,,,,,,,,,,,,,,,,,,,,,,,,,,,,,,,,,,,,,,,,,,,,,,,,,,,
1720178597,72,0,5021.153809,4499.230957,4325.128418,4307.179688,4339.487305,4312.692383,4311.410156,4299.102539,4296.153809,4286.282227,4473.077148,4498.589844,4393.717773,4431.538574,,,,,,,,,,,,,,,,,,,,,,,,,,,,,,,,,,,,,,,,,,,,,,,,,,,,,,,,,,,,,,,,,,,,,,
1720178597,73,0,4964.487305,4500.384766,4325.384766,4310.128418,4341.410156,4313.974121,4316.410156,4305.641113,4305.128418,4278.974121,4474.102539,4499.743652,4396.153809,4426.794922,,,,,,,,,,,,,,,,,,,,,,,,,,,,,,,,,,,,,,,,,,,,,,,,,,,,,,,,,,,,,,,,,,,,,,
1720178597,74,0,4907.307617,4497.05127,4319.871582,4308.717773,4332.179688,4313.846191,4316.794922,4307.563965,4308.461426,4281.282227,4476.282227,4498.589844,4399.230957,4432.307617,,,,,,,,,,,,,,,,,,,,,,,,,,,,,,,,,,,,,,,,,,,,,,,,,,,,,,,,,,,,,,,,,,,,,,
1720178597,75,0,4849.102539,4497.179688,4321.025879,4304.615234,4334.358887,4311.538574,4314.487305,4305.512695,4302.820313,4278.461426,4479.358887,4504.230957,4399.102539,4438.333496,,,,,,,,,,,,,,,,,,,,,,,,,,,,,,,,,,,,,,,,,,,,,,,,,,,,,,,,,,,,,,,,,,,,,,
1720178597,76,0,4797.94873,4502.179688,4329.230957,4309.487305,4343.846191,4311.025879,4315.897461,4309.871582,4307.563965,4275.769043,4485.512695,4518.717773,4401.666504,4442.307617,,,,,,,,,,,,,,,,,,,,,,,,,,,,,,,,,,,,,,,,,,,,,,,,,,,,,,,,,,,,,,,,,,,,,,
1720178597,77,0,4752.436035,4497.820313,4330.256348,4312.820313,4341.025879,4314.743652,4321.666504,4313.077148,4315,4281.153809,4489.102539,4523.974121,4402.563965,4444.230957,,,,,,,,,,,,,,,,,,,,,,,,,,,,,,,,,,,,,,,,,,,,,,,,,,,,,,,,,,,,,,,,,,,,,,
1720178597,78,0,4704.615234,4490,4328.974121,4308.846191,4336.922852,4319.871582,4324.743652,4310,4311.794922,4284.358887,4484.743652,4514.487305,4398.974121,4438.333496,,,,,,,,,,,,,,,,,,,,,,,,,,,,,,,,,,,,,,,,,,,,,,,,,,,,,,,,,,,,,,,,,,,,,,
1720178597,79,0,4657.820313,4491.794922,4331.153809,4310.897461,4343.333496,4317.179688,4317.563965,4311.025879,4310,4286.410156,4479.871582,4511.025879,4401.025879,4436.153809,,,,,,,,,,,,,,,,,,,,,,,,,,,,,,,,,,,,,,,,,,,,,,,,,,,,,,,,,,,,,,,,,,,,,,
1720178597,80,0,4612.820313,4492.820313,4327.179688,4312.563965,4345,4312.436035,4307.820313,4311.666504,4311.538574,4291.794922,4484.358887,4512.563965,4409.358887,4440.512695,22.991224,3.215175,1.29353,1.479565,0.218444,2.273712,1.849407,1.014375,0.877787,0.202829,4.978594,2.517866,1.927856,1.481712,0.199538,35.320053,12.064093,5.110893,1.284006,0.198094,1.215772,0.657635,0.425685,0.320235,0.12079,1.014095,1.462516,0.750439,0.207803,0.101118,2.332726,3.451133,1.213927,0.645359,0.197862,0.467067,1.621941,0.478279,0.247918,0.071977,2.104198,2.932594,2.081345,1.024172,0.18641,1.452528,2.502162,1.852169,1.008934,0.363276,7.483939,4.199748,1.753466,0.891464,0.327108,11.236371,6.709352,2.496282,1.032699,0.306676,6.479419,4.635988,2.103681,1.08759,0.312784,10.125077,6.501481,2.094991,1.114962,0.234039
1720178597,81,0,4572.307617,4490.384766,4325.384766,4307.820313,4337.94873,4314.358887,4307.436035,4307.179688,4310.897461,4292.563965,4488.846191,4509.743652,4413.333496,4442.563965,,,,,,,,,,,,,,,,,,,,,,,,,,,,,,,,,,,,,,,,,,,,,,,,,,,,,,,,,,,,,,,,,,,,,,
1720178597,82,0,4537.179688,4490.256348,4332.820313,4309.230957,4336.410156,4315.769043,4310.128418,4307.307617,4311.025879,4286.666504,4485.641113,4506.410156,4412.307617,4445,,,,,,,,,,,,,,,,,,,,,,,,,,,,,,,,,,,,,,,,,,,,,,,,,,,,,,,,,,,,,,,,,,,,,,
1720178597,83,0,4497.94873,4483.205078,4330,4311.153809,4338.974121,4318.077148,4312.563965,4310.256348,4312.692383,4284.743652,4480.512695,4505,4414.102539,4444.230957,,,,,,,,,,,,,,,,,,,,,,,,,,,,,,,,,,,,,,,,,,,,,,,,,,,,,,,,,,,,,,,,,,,,,,
1720178597,84,0,4452.436035,4477.179688,4319.615234,4306.666504,4339.230957,4326.153809,4327.179688,4313.846191,4318.846191,4293.846191,4480.256348,4508.717773,4412.94873,4436.922852,,,,,,,,,,,,,,,,,,,,,,,,,,,,,,,,,,,,,,,,,,,,,,,,,,,,,,,,,,,,,,,,,,,,,,
1720178597,85,0,4408.077148,4478.846191,4319.615234,4306.282227,4338.333496,4330.769043,4342.820313,4320.769043,4327.179688,4298.461426,4480.512695,4511.794922,4406.538574,4433.461426,,,,,,,,,,,,,,,,,,,,,,,,,,,,,,,,,,,,,,,,,,,,,,,,,,,,,,,,,,,,,,,,,,,,,,
1720178597,86,0,4356.153809,4470.897461,4318.461426,4302.692383,4333.077148,4324.743652,4342.94873,4325.128418,4321.025879,4282.563965,4470.769043,4504.102539,4395.256348,4427.820313,,,,,,,,,,,,,,,,,,,,,,,,,,,,,,,,,,,,,,,,,,,,,,,,,,,,,,,,,,,,,,,,,,,,,,
1720178597,87,0,4286.410156,4444.230957,4293.077148,4279.871582,4321.153809,4316.153809,4330.256348,4316.794922,4296.922852,4252.436035,4442.179688,4477.179688,4366.025879,4397.692383,,,,,,,,,,,,,,,,,,,,,,,,,,,,,,,,,,,,,,,,,,,,,,,,,,,,,,,,,,,,,,,,,,,,,,
1720178597,88,0,4223.717773,4423.205078,4265.769043,4256.922852,4313.077148,4309.487305,4311.922852,4305.128418,4282.307617,4233.589844,4416.410156,4453.205078,4339.102539,4365.512695,,,,,,,,,,,,,,,,,,,,,,,,,,,,,,,,,,,,,,,,,,,,,,,,,,,,,,,,,,,,,,,,,,,,,,
1720178597,89,0,4191.922852,4429.615234,4272.820313,4263.077148,4316.922852,4307.307617,4303.846191,4308.333496,4298.077148,4251.025879,4430.256348,4463.974121,4354.358887,4371.794922,,,,,,,,,,,,,,,,,,,,,,,,,,,,,,,,,,,,,,,,,,,,,,,,,,,,,,,,,,,,,,,,,,,,,,
1720178597,90,0,4178.589844,4450.641113,4304.358887,4290.384766,4327.563965,4312.179688,4315.769043,4318.717773,4326.538574,4289.615234,4463.077148,4493.846191,4395.897461,4407.436035,,,,,,,,,,,,,,,,,,,,,,,,,,,,,,,,,,,,,,,,,,,,,,,,,,,,,,,,,,,,,,,,,,,,,,
1720178597,91,0,4162.05127,4466.922852,4329.871582,4308.077148,4335,4320.897461,4328.333496,4325.384766,4341.794922,4307.05127,4483.461426,4517.05127,4422.563965,4433.846191,,,,,,,,,,,,,,,,,,,,,,,,,,,,,,,,,,,,,,,,,,,,,,,,,,,,,,,,,,,,,,,,,,,,,,
1720178597,92,0,4134.743652,4474.230957,4338.846191,4312.307617,4337.563965,4327.820313,4328.333496,4327.94873,4339.102539,4301.025879,4490.256348,4528.205078,4426.025879,4436.666504,,,,,,,,,,,,,,,,,,,,,,,,,,,,,,,,,,,,,,,,,,,,,,,,,,,,,,,,,,,,,,,,,,,,,,
1720178597,93,0,4102.179688,4476.538574,4338.717773,4319.871582,4339.871582,4327.436035,4326.025879,4325.641113,4332.563965,4294.230957,4493.333496,4530.897461,4424.487305,4435.384766,,,,,,,,,,,,,,,,,,,,,,,,,,,,,,,,,,,,,,,,,,,,,,,,,,,,,,,,,,,,,,,,,,,,,,
1720178597,94,0,4068.846191,4477.436035,4338.205078,4323.846191,4346.410156,4325.256348,4325,4318.333496,4323.974121,4287.563965,4491.410156,4523.333496,4423.333496,4437.05127,,,,,,,,,,,,,,,,,,,,,,,,,,,,,,,,,,,,,,,,,,,,,,,,,,,,,,,,,,,,,,,,,,,,,,
1720178597,95,0,4035.769287,4478.461426,4341.025879,4326.153809,4355,4330.512695,4325.641113,4315.769043,4316.025879,4280.384766,4481.794922,4516.153809,4418.974121,4432.563965,,,,,,,,,,,,,,,,,,,,,,,,,,,,,,,,,,,,,,,,,,,,,,,,,,,,,,,,,,,,,,,,,,,,,,
1720178597,96,0,4002.820557,4479.230957,4347.179688,4336.410156,4353.846191,4337.820313,4336.666504,4321.282227,4318.974121,4281.025879,4480,4521.410156,4419.743652,4435.128418,18.942133,3.562315,1.483149,1.386349,0.239292,2.033991,1.932304,1.088371,0.904046,0.246051,4.600168,2.740825,2.122916,1.30039,0.197111,17.264328,6.619313,2.890224,1.075019,0.190644,1.172093,0.589079,0.480856,0.35313,0.127411,1.0804,1.577004,0.883789,0.218707,0.115183,3.132861,4.3185,1.250603,0.641013,0.216418,0.449063,1.65085,0.435828,0.220473,0.067435,1.605005,2.91016,1.895777,0.965115,0.163522,1.624561,2.749349,1.809406,0.958368,0.351016,7.193483,4.327865,1.855912,0.905025,0.315993,10.442935,6.714376,2.852261,0.926609,0.266378,6.400733,4.692852,2.218027,1.109101,0.323598,9.636793,6.269701,2.301716,1.105394,0.225764
1720178597,97,0,3958.589844,4477.820313,4349.487305,4338.717773,4345,4334.487305,4347.179688,4326.666504,4324.358887,4278.461426,4488.846191,4533.333496,4427.179688,4446.282227,,,,,,,,,,,,,,,,,,,,,,,,,,,,,,,,,,,,,,,,,,,,,,,,,,,,,,,,,,,,,,,,,,,,,,
1720178597,98,0,3893.589844,4477.307617,4346.282227,4327.820313,4339.871582,4324.230957,4345.128418,4335.897461,4330.384766,4277.94873,4497.563965,4545.128418,4431.410156,4450.384766,,,,,,,,,,,,,,,,,,,,,,,,,,,,,,,,,,,,,,,,,,,,,,,,,,,,,,,,,,,,,,,,,,,,,,
1720178597,99,0,3826.794922,4473.205078,4344.871582,4323.846191,4339.871582,4323.589844,4341.153809,4340.256348,4340.769043,4293.205078,4505.384766,4550.769043,4432.179688,4447.94873,,,,,,,,,,,,,,,,,,,,,,,,,,,,,,,,,,,,,,,,,,,,,,,,,,,,,,,,,,,,,,,,,,,,,,
1720178597,100,0,3772.564209,4467.179688,4347.94873,4330.641113,4338.974121,4326.922852,4338.205078,4332.692383,4346.410156,4299.743652,4507.94873,4547.05127,4436.025879,4447.179688,,,,,,,,,,,,,,,,,,,,,,,,,,,,,,,,,,,,,,,,,,,,,,,,,,,,,,,,,,,,,,,,,,,,,,
1720178597,101,0,3715.769287,4464.230957,4344.615234,4334.358887,4341.025879,4322.436035,4335.128418,4327.179688,4335.256348,4285.769043,4495.641113,4533.589844,4430.897461,4438.717773,,,,,,,,,,,,,,,,,,,,,,,,,,,,,,,,,,,,,,,,,,,,,,,,,,,,,,,,,,,,,,,,,,,,,,
1720178597,102,0,3659.615479,4462.94873,4337.179688,4331.153809,4347.436035,4323.974121,4338.077148,4329.487305,4325.512695,4276.153809,4485.897461,4521.922852,4417.692383,4426.794922,,,,,,,,,,,,,,,,,,,,,,,,,,,,,,,,,,,,,,,,,,,,,,,,,,,,,,,,,,,,,,,,,,,,,,
1720178597,103,0,3618.076904,4459.230957,4340.897461,4326.153809,4347.563965,4333.333496,4341.410156,4330.128418,4332.436035,4281.282227,4492.692383,4526.666504,4419.871582,4426.410156,,,,,,,,,,,,,,,,,,,,,,,,,,,,,,,,,,,,,,,,,,,,,,,,,,,,,,,,,,,,,,,,,,,,,,
1720178597,104,0,3575.256348,4456.666504,4345.384766,4326.410156,4342.436035,4330.897461,4332.563965,4325.384766,4335.512695,4285.384766,4492.692383,4530.769043,4428.333496,4425.641113,,,,,,,,,,,,,,,,,,,,,,,,,,,,,,,,,,,,,,,,,,,,,,,,,,,,,,,,,,,,,,,,,,,,,,
1720178597,105,0,3528.205078,4458.846191,4342.05127,4327.692383,4340.128418,4326.153809,4323.589844,4322.94873,4327.179688,4278.846191,4487.05127,4523.205078,4422.436035,4421.282227,,,,,,,,,,,,,,,,,,,,,,,,,,,,,,,,,,,,,,,,,,,,,,,,,,,,,,,,,,,,,,,,,,,,,,
1720178597,106,0,3492.179443,4456.794922,4345.128418,4329.743652,4341.153809,4333.589844,4331.922852,4322.692383,4321.282227,4272.94873,4486.025879,4520.256348,4411.282227,4420.512695,,,,,,,,,,,,,,,,,,,,,,,,,,,,,,,,,,,,,,,,,,,,,,,,,,,,,,,,,,,,,,,,,,,,,,
1720178597,107,0,3456.666748,4447.307617,4346.153809,4333.846191,4341.282227,4338.974121,4342.563965,4320.256348,4324.102539,4275.384766,4481.666504,4523.077148,4408.205078,4422.05127,,,,,,,,,,,,,,,,,,,,,,,,,,,,,,,,,,,,,,,,,,,,,,,,,,,,,,,,,,,,,,,,,,,,,,
1720178597,108,0,3416.538574,4441.153809,4338.846191,4330.512695,4338.717773,4334.230957,4343.077148,4326.282227,4329.871582,4282.05127,4482.94873,4528.077148,4414.230957,4422.94873,,,,,,,,,,,,,,,,,,,,,,,,,,,,,,,,,,,,,,,,,,,,,,,,,,,,,,,,,,,,,,,,,,,,,,
1720178597,109,0,3386.538574,4449.358887,4342.05127,4329.487305,4332.692383,4332.436035,4345.512695,4337.05127,4336.282227,4289.358887,4497.94873,4539.743652,4423.974121,4426.282227,,,,,,,,,,,,,,,,,,,,,,,,,,,,,,,,,,,,,,,,,,,,,,,,,,,,,,,,,,,,,,,,,,,,,,
1720178597,110,0,3365.256348,4459.102539,4355.384766,4340.769043,4325.641113,4335.769043,4352.179688,4337.179688,4338.205078,4295.384766,4509.871582,4552.05127,4428.589844,4435.256348,,,,,,,,,,,,,,,,,,,,,,,,,,,,,,,,,,,,,,,,,,,,,,,,,,,,,,,,,,,,,,,,,,,,,,
1720178597,111,0,3342.179443,4460,4365.512695,4350.512695,4325.897461,4334.487305,4351.410156,4334.487305,4334.871582,4294.871582,4510.128418,4555.512695,4429.615234,4442.563965,,,,,,,,,,,,,,,,,,,,,,,,,,,,,,,,,,,,,,,,,,,,,,,,,,,,,,,,,,,,,,,,,,,,,,
1720178597,112,0,3322.692383,4461.282227,4371.410156,4355.384766,4326.282227,4334.487305,4348.461426,4339.102539,4338.077148,4294.615234,4510.641113,4559.743652,4437.692383,4446.666504,14.465694,3.72829,1.665439,1.245243,0.25432,1.733691,1.967795,1.136527,0.90355,0.281632,3.814642,2.779443,2.21448,1.06893,0.200397,6.39063,3.409654,1.716402,0.900917,0.189691,1.108535,0.58491,0.51696,0.364155,0.141547,1.104422,1.571187,0.955534,0.216592,0.127996,3.858485,4.824794,1.285358,0.651869,0.234885,0.431513,1.58125,0.419261,0.21226,0.062389,1.286832,2.917485,1.851878,0.914565,0.141024,1.804385,2.867371,1.821829,0.922387,0.336679,6.202001,4.044875,1.987979,0.897566,0.297314,8.466952,6.001644,3.106568,0.883268,0.232836,5.712743,4.365726,2.358457,1.094181,0.321178,8.215757,5.455367,2.486297,1.090062,0.218056
1720178597,113,0,3307.435791,4464.358887,4379.102539,4364.102539,4323.846191,4338.974121,4351.538574,4341.410156,4343.846191,4302.436035,4518.461426,4572.94873,4448.461426,4456.153809,,,,,,,,,,,,,,,,,,,,,,,,,,,,,,,,,,,,,,,,,,,,,,,,,,,,,,,,,,,,,,,,,,,,,,
1720178597,114,0,3287.05127,4467.05127,4386.410156,4368.077148,4328.589844,4338.717773,4348.589844,4341.410156,4342.179688,4304.615234,4525.128418,4583.205078,4449.743652,4463.589844,,,,,,,,,,,,,,,,,,,,,,,,,,,,,,,,,,,,,,,,,,,,,,,,,,,,,,,,,,,,,,,,,,,,,,
1720178597,115,0,3265.512939,4467.179688,4387.563965,4367.692383,4336.666504,4337.94873,4347.436035,4344.871582,4341.025879,4298.974121,4521.922852,4580,4443.077148,4454.487305,,,,,,,,,,,,,,,,,,,,,,,,,,,,,,,,,,,,,,,,,,,,,,,,,,,,,,,,,,,,,,,,,,,,,,
1720178597,116,0,3246.025635,4463.589844,4387.436035,4370.769043,4337.179688,4346.538574,4358.717773,4348.589844,4347.94873,4294.871582,4517.94873,4572.692383,4441.282227,4443.333496,,,,,,,,,,,,,,,,,,,,,,,,,,,,,,,,,,,,,,,,,,,,,,,,,,,,,,,,,,,,,,,,,,,,,,
1720178597,117,0,3216.410156,4461.153809,4387.307617,4368.589844,4333.974121,4352.05127,4366.410156,4353.717773,4351.794922,4292.179688,4517.94873,4574.743652,4444.487305,4439.358887,,,,,,,,,,,,,,,,,,,,,,,,,,,,,,,,,,,,,,,,,,,,,,,,,,,,,,,,,,,,,,,,,,,,,,
1720178597,118,0,3181.794922,4457.436035,4381.025879,4364.487305,4334.358887,4353.333496,4369.615234,4354.871582,4345.641113,4290.897461,4509.871582,4570.641113,4436.666504,4429.358887,,,,,,,,,,,,,,,,,,,,,,,,,,,,,,,,,,,,,,,,,,,,,,,,,,,,,,,,,,,,,,,,,,,,,,
1720178597,119,0,3160.128174,4446.922852,4376.410156,4367.307617,4339.358887,4359.487305,4381.794922,4352.94873,4339.743652,4292.179688,4502.692383,4562.179688,4425.769043,4423.589844,,,,,,,,,,,,,,,,,,,,,,,,,,,,,,,,,,,,,,,,,,,,,,,,,,,,,,,,,,,,,,,,,,,,,,
1720178597,120,0,3146.666748,4441.282227,4380.897461,4367.692383,4341.922852,4357.179688,4383.461426,4355,4339.230957,4293.974121,4510.384766,4567.307617,4432.692383,4427.563965,,,,,,,,,,,,,,,,,,,,,,,,,,,,,,,,,,,,,,,,,,,,,,,,,,,,,,,,,,,,,,,,,,,,,,
1720178597,121,0,3126.666748,4444.102539,4384.102539,4362.94873,4340.769043,4347.820313,4363.589844,4354.743652,4343.717773,4298.717773,4517.05127,4574.102539,4445.641113,4428.205078,,,,,,,,,,,,,,,,,,,,,,,,,,,,,,,,,,,,,,,,,,,,,,,,,,,,,,,,,,,,,,,,,,,,,,
1720178597,122,0,3107.94873,4444.102539,4385.256348,4368.717773,4346.666504,4344.743652,4352.307617,4353.589844,4354.743652,4306.282227,4520.512695,4578.974121,4451.922852,4429.230957,,,,,,,,,,,,,,,,,,,,,,,,,,,,,,,,,,,,,,,,,,,,,,,,,,,,,,,,,,,,,,,,,,,,,,
1720178597,123,0,3099.230713,4446.282227,4394.102539,4380.256348,4353.974121,4345.384766,4357.94873,4358.717773,4364.487305,4310,4531.794922,4591.538574,4460.128418,4438.717773,,,,,,,,,,,,,,,,,,,,,,,,,,,,,,,,,,,,,,,,,,,,,,,,,,,,,,,,,,,,,,,,,,,,,,
1720178597,124,0,3089.230713,4451.153809,4403.717773,4384.358887,4353.077148,4348.717773,4366.794922,4362.820313,4371.794922,4315.641113,4537.436035,4603.589844,4466.025879,4443.077148,,,,,,,,,,,,,,,,,,,,,,,,,,,,,,,,,,,,,,,,,,,,,,,,,,,,,,,,,,,,,,,,,,,,,,
1720178597,125,0,3075.641113,4448.077148,4406.410156,4382.820313,4353.974121,4349.102539,4375.384766,4361.922852,4377.179688,4319.487305,4534.743652,4605.897461,4466.922852,4444.487305,,,,,,,,,,,,,,,,,,,,,,,,,,,,,,,,,,,,,,,,,,,,,,,,,,,,,,,,,,,,,,,,,,,,,,
1720178597,126,0,3066.538574,4443.589844,4409.487305,4383.205078,4358.205078,4345.897461,4381.922852,4367.94873,4376.794922,4314.487305,4542.307617,4612.179688,4472.563965,4453.205078,,,,,,,,,,,,,,,,,,,,,,,,,,,,,,,,,,,,,,,,,,,,,,,,,,,,,,,,,,,,,,,,,,,,,,
1720178597,127,0,3062.179443,4444.102539,4415.897461,4389.871582,4357.179688,4346.538574,4386.153809,4372.692383,4376.025879,4313.205078,4549.871582,4621.538574,4477.692383,4456.538574,,,,,,,,,,,,,,,,,,,,,,,,,,,,,,,,,,,,,,,,,,,,,,,,,,,,,,,,,,,,,,,,,,,,,,
1720178597,0,0,3055,4445,4419.487305,4396.922852,4355.128418,4347.692383,4390.897461,4367.563965,4376.153809,4318.717773,4547.563965,4620.641113,4477.179688,4452.94873,11.227881,3.74316,1.767995,1.068845,0.254756,1.426809,1.894858,1.118806,0.868035,0.298289,2.888934,2.665957,2.140966,0.846906,0.202739,1.904554,2.096705,1.285868,0.762566,0.188375,1.01782,0.60134,0.533431,0.350993,0.158245,1.04574,1.430437,0.962815,0.20793,0.135362,4.246836,4.762712,1.291769,0.686292,0.246086,0.395151,1.395311,0.409225,0.225863,0.058127,1.079746,2.804265,1.890112,0.873514,0.122716,1.834446,2.746887,1.823528,0.883038,0.321673,4.852846,3.369677,2.040359,0.859838,0.268636,6.040606,4.724206,3.085052,0.897646,0.201255,4.632844,3.677224,2.415046,1.031875,0.300394,6.364173,4.206081,2.496101,1.059176,0.205761
1720178597,1,0,3047.179443,4445,4419.871582,4397.436035,4358.333496,4345,4394.871582,4367.05127,4371.922852,4320.384766,4547.05127,4622.436035,4480.641113,4455.512695,,,,,,,,,,,,,,,,,,,,,,,,,,,,,,,,,,,,,,,,,,,,,,,,,,,,,,,,,,,,,,,,,,,,,,
1720178597,2,0,3039.743652,4445.256348,4420.512695,4395.384766,4361.410156,4347.436035,4395.641113,4373.205078,4373.846191,4322.05127,4552.94873,4631.282227,4487.94873,4461.410156,,,,,,,,,,,,,,,,,,,,,,,,,,,,,,,,,,,,,,,,,,,,,,,,,,,,,,,,,,,,,,,,,,,,,,
1720178597,3,0,3030.384521,4446.666504,4420.641113,4401.410156,4360.641113,4352.307617,4401.794922,4379.615234,4384.871582,4327.436035,4562.820313,4637.436035,4495,4462.179688,,,,,,,,,,,,,,,,,,,,,,,,,,,,,,,,,,,,,,,,,,,,,,,,,,,,,,,,,,,,,,,,,,,,,,
1720178597,4,0,3025.512939,4445.897461,4425.769043,4409.102539,4361.794922,4351.410156,4408.205078,4382.05127,4388.717773,4329.487305,4569.487305,4639.743652,4503.589844,4463.846191,,,,,,,,,,,,,,,,,,,,,,,,,,,,,,,,,,,,,,,,,,,,,,,,,,,,,,,,,,,,,,,,,,,,,,
1720178597,5,0,3023.205078,4448.589844,4434.615234,4413.589844,4365.512695,4347.05127,4402.179688,4380.512695,4384.487305,4327.563965,4565.256348,4640.128418,4508.077148,4465.897461,,,,,,,,,,,,,,,,,,,,,,,,,,,,,,,,,,,,,,,,,,,,,,,,,,,,,,,,,,,,,,,,,,,,,,
1720178597,6,0,3018.461426,4454.358887,4434.743652,4420.256348,4367.94873,4335.769043,4384.743652,4378.205078,4383.461426,4328.846191,4562.307617,4638.717773,4504.615234,4462.179688,,,,,,,,,,,,,,,,,,,,,,,,,,,,,,,,,,,,,,,,,,,,,,,,,,,,,,,,,,,,,,,,,,,,,,
1720178597,7,0,3011.410156,4452.692383,4431.153809,4422.563965,4372.820313,4326.538574,4374.487305,4378.846191,4381.666504,4327.692383,4567.436035,4639.871582,4505.128418,4462.563965,,,,,,,,,,,,,,,,,,,,,,,,,,,,,,,,,,,,,,,,,,,,,,,,,,,,,,,,,,,,,,,,,,,,,,
1720178597,8,0,2996.025635,4440.512695,4432.05127,4416.538574,4379.102539,4331.666504,4382.179688,4379.871582,4376.282227,4317.94873,4564.871582,4637.307617,4505.769043,4459.487305,,,,,,,,,,,,,,,,,,,,,,,,,,,,,,,,,,,,,,,,,,,,,,,,,,,,,,,,,,,,,,,,,,,,,,
1720178597,9,0,2978.718018,4426.794922,4426.153809,4409.871582,4378.717773,4335.897461,4391.410156,4376.282227,4367.94873,4307.563965,4550.384766,4622.436035,4496.025879,4443.205078,,,,,,,,,,,,,,,,,,,,,,,,,,,,,,,,,,,,,,,,,,,,,,,,,,,,,,,,,,,,,,,,,,,,,,
1720178597,10,0,2969.487061,4420.641113,4415.256348,4407.692383,4376.538574,4335.512695,4400.512695,4375.512695,4363.846191,4305,4541.282227,4615.256348,4485.897461,4430.128418,,,,,,,,,,,,,,,,,,,,,,,,,,,,,,,,,,,,,,,,,,,,,,,,,,,,,,,,,,,,,,,,,,,,,,
1720178597,11,0,2964.487061,4417.692383,4414.487305,4404.615234,4382.179688,4340.128418,4413.717773,4382.179688,4370.256348,4311.922852,4547.563965,4625.897461,4489.102539,4432.436035,,,,,,,,,,,,,,,,,,,,,,,,,,,,,,,,,,,,,,,,,,,,,,,,,,,,,,,,,,,,,,,,,,,,,,
1720178597,12,0,2957.307617,4412.820313,4418.205078,4400.769043,4383.589844,4339.358887,4412.563965,4388.846191,4378.846191,4318.846191,4554.615234,4636.538574,4500.384766,4436.153809,,,,,,,,,,,,,,,,,,,,,,,,,,,,,,,,,,,,,,,,,,,,,,,,,,,,,,,,,,,,,,,,,,,,,,
1720178597,13,0,2958.846191,4411.794922,4419.230957,4402.307617,4376.666504,4325,4395.256348,4387.820313,4386.794922,4318.461426,4554.615234,4638.461426,4505.256348,4434.230957,,,,,,,,,,,,,,,,,,,,,,,,,,,,,,,,,,,,,,,,,,,,,,,,,,,,,,,,,,,,,,,,,,,,,,
1720178597,14,0,2961.025635,4416.538574,4420.769043,4407.436035,4372.307617,4320.897461,4390.512695,4390,4399.358887,4321.153809,4562.179688,4637.692383,4506.922852,4435.384766,,,,,,,,,,,,,,,,,,,,,,,,,,,,,,,,,,,,,,,,,,,,,,,,,,,,,,,,,,,,,,,,,,,,,,
1720178597,15,0,2949.871826,4415.512695,4418.974121,4412.05127,4376.922852,4326.666504,4397.436035,4399.615234,4406.538574,4325.256348,4567.436035,4636.538574,4508.461426,4432.820313,,,,,,,,,,,,,,,,,,,,,,,,,,,,,,,,,,,,,,,,,,,,,,,,,,,,,,,,,,,,,,,,,,,,,,
1720178597,16,0,2940.384521,4409.487305,4420.769043,4414.871582,4385.384766,4321.922852,4396.410156,4403.205078,4398.846191,4320.512695,4555,4636.922852,4503.333496,4426.410156,9.074782,3.93948,1.776255,0.902662,0.23909,1.280828,1.783523,1.046484,0.809088,0.2922,2.264586,2.575144,1.931265,0.695581,0.202485,1.028281,1.806547,1.147666,0.654768,0.182075,0.946142,0.628882,0.537652,0.3202,0.171684,0.904429,1.201873,0.920725,0.202396,0.135006,4.154821,4.167935,1.284954,0.747634,0.24533,0.369372,1.137181,0.405226,0.260609,0.055775,0.92347,2.571444,1.975392,0.859623,0.113489,1.68194,2.431818,1.827795,0.864216,0.310515,3.730233,2.576754,2.014176,0.820919,0.234469,4.127918,3.362734,2.782827,0.978913,0.172737,3.669455,2.924347,2.411909,0.964736,0.267471,4.800211,2.962808,2.317026,1.044674,0.191016
1720178597,17,0,2944.743652,4410,4432.05127,4421.282227,4390.256348,4322.05127,4404.358887,4402.436035,4388.589844,4318.205078,4549.358887,4647.436035,4498.461426,4433.333496,,,,,,,,,,,,,,,,,,,,,,,,,,,,,,,,,,,,,,,,,,,,,,,,,,,,,,,,,,,,,,,,,,,,,,
1720178597,18,0,2955.512939,4411.153809,4438.717773,4425.769043,4392.05127,4330.384766,4422.307617,4402.692383,4381.410156,4319.615234,4558.333496,4657.05127,4503.461426,4444.358887,,,,,,,,,,,,,,,,,,,,,,,,,,,,,,,,,,,,,,,,,,,,,,,,,,,,,,,,,,,,,,,,,,,,,,
1720178597,19,0,2960,4410.769043,4437.179688,4426.025879,4394.871582,4328.205078,4432.94873,4402.05127,4373.077148,4316.282227,4562.436035,4656.153809,4507.94873,4445.128418,,,,,,,,,,,,,,,,,,,,,,,,,,,,,,,,,,,,,,,,,,,,,,,,,,,,,,,,,,,,,,,,,,,,,,
1720178597,20,0,2955.641113,4412.179688,4442.436035,4434.358887,4403.461426,4327.179688,4440.256348,4402.05127,4373.077148,4323.205078,4563.589844,4657.436035,4503.846191,4444.487305,,,,,,,,,,,,,,,,,,,,,,,,,,,,,,,,,,,,,,,,,,,,,,,,,,,,,,,,,,,,,,,,,,,,,,
1720178597,21,0,2960,4419.615234,4453.589844,4445.641113,4406.153809,4332.179688,4437.563965,4403.077148,4384.487305,4339.230957,4570,4669.230957,4513.974121,4453.333496,,,,,,,,,,,,,,,,,,,,,,,,,,,,,,,,,,,,,,,,,,,,,,,,,,,,,,,,,,,,,,,,,,,,,,
1720178597,22,0,2972.94873,4427.563965,4462.94873,4447.94873,4401.025879,4329.358887,4426.410156,4404.487305,4392.563965,4343.333496,4575.897461,4683.333496,4532.436035,4467.179688,,,,,,,,,,,,,,,,,,,,,,,,,,,,,,,,,,,,,,,,,,,,,,,,,,,,,,,,,,,,,,,,,,,,,,
1720178597,23,0,2977.05127,4427.436035,4467.307617,4448.974121,4404.615234,4323.589844,4433.333496,4410,4396.282227,4345.769043,4583.333496,4692.563965,4539.487305,4475.384766,,,,,,,,,,,,,,,,,,,,,,,,,,,,,,,,,,,,,,,,,,,,,,,,,,,,,,,,,,,,,,,,,,,,,,
1720178597,24,0,2973.076904,4426.666504,4467.307617,4455.384766,4411.794922,4323.846191,4448.846191,4420.256348,4401.538574,4355.769043,4591.410156,4698.846191,4543.077148,4477.692383,,,,,,,,,,,,,,,,,,,,,,,,,,,,,,,,,,,,,,,,,,,,,,,,,,,,,,,,,,,,,,,,,,,,,,
1720178597,25,0,2978.333252,4428.333496,4474.102539,4459.871582,4409.487305,4318.589844,4446.410156,4425.897461,4400.641113,4358.461426,4593.077148,4698.461426,4544.487305,4476.794922,,,,,,,,,,,,,,,,,,,,,,,,,,,,,,,,,,,,,,,,,,,,,,,,,,,,,,,,,,,,,,,,,,,,,,
1720178597,26,0,2986.794922,4427.436035,4483.717773,4460.641113,4409.358887,4313.717773,4442.563965,4425.128418,4395.384766,4356.282227,4595.897461,4700.897461,4542.563965,4477.94873,,,,,,,,,,,,,,,,,,,,,,,,,,,,,,,,,,,,,,,,,,,,,,,,,,,,,,,,,,,,,,,,,,,,,,
1720178597,27,0,2986.281982,4427.820313,4486.153809,4463.846191,4422.563965,4319.358887,4447.307617,4426.538574,4396.922852,4356.666504,4603.846191,4708.974121,4548.717773,4481.282227,,,,,,,,,,,,,,,,,,,,,,,,,,,,,,,,,,,,,,,,,,,,,,,,,,,,,,,,,,,,,,,,,,,,,,
1720178597,28,0,2979.487061,4424.871582,4483.974121,4465,4428.974121,4322.94873,4445.897461,4429.358887,4399.102539,4353.974121,4606.922852,4711.282227,4556.410156,4480.897461,,,,,,,,,,,,,,,,,,,,,,,,,,,,,,,,,,,,,,,,,,,,,,,,,,,,,,,,,,,,,,,,,,,,,,
1720178597,29,0,2977.820557,4415.128418,4477.563965,4460.897461,4426.410156,4320.512695,4446.153809,4427.436035,4392.94873,4348.974121,4602.820313,4709.358887,4555,4479.230957,,,,,,,,,,,,,,,,,,,,,,,,,,,,,,,,,,,,,,,,,,,,,,,,,,,,,,,,,,,,,,,,,,,,,,
1720178597,30,0,2988.974365,4414.487305,4475.512695,4464.230957,4428.333496,4317.692383,4456.025879,4423.846191,4384.102539,4348.461426,4598.589844,4706.794922,4554.487305,4478.974121,,,,,,,,,,,,,,,,,,,,,,,,,,,,,,,,,,,,,,,,,,,,,,,,,,,,,,,,,,,,,,,,,,,,,,
1720178597,31,0,2996.153809,4418.333496,4486.794922,4476.282227,4432.563965,4314.615234,4462.05127,4424.871582,4380,4350.897461,4598.077148,4703.974121,4550.897461,4477.563965,,,,,,,,,,,,,,,,,,,,,,,,,,,,,,,,,,,,,,,,,,,,,,,,,,,,,,,,,,,,,,,,,,,,,,
1720178597,32,0,2987.564209,4407.94873,4487.563965,4473.846191,4430.641113,4310.769043,4456.153809,4428.717773,4381.922852,4351.922852,4590,4702.820313,4539.743652,4471.922852,10.578034,4.693303,1.780265,0.78883,0.213029,1.546679,1.757368,0.974587,0.744747,0.267888,2.279464,2.673965,1.686304,0.643224,0.2018,1.356979,1.814237,1.04625,0.574799,0.171496,0.937737,0.67974,0.539089,0.282914,0.177198,0.718541,0.965223,0.853587,0.207883,0.127414,3.594565,3.292542,1.307287,0.831277,0.232424,0.368458,0.874936,0.406953,0.30903,0.05572,0.795702,2.283867,2.081715,0.880247,0.116954,1.440225,2.078833,1.907205,0.897369,0.308109,3.245023,2.016089,1.993248,0.819574,0.204955,3.375132,2.437351,2.333995,1.124296,0.152761,3.260667,2.488665,2.464798,0.944095,0.236476,4.176332,2.227235,2.064898,1.081607,0.180638
