Timestamp,EEG.Counter,EEG.Interpolated,EEG.AF3,EEG.F7,EEG.F3,EEG.FC5,EEG.T7,EEG.P7,EEG.O1,EEG.O2,EEG.P8,EEG.T8,EEG.FC6,EEG.F4,EEG.F8,EEG.AF4,POW.AF3.Theta,POW.AF3.Alpha,POW.AF3.BetaL,POW.AF3.BetaH,POW.AF3.Gamma,POW.F7.Theta,POW.F7.Alpha,POW.F7.BetaL,POW.F7.BetaH,POW.F7.Gamma,POW.F3.Theta,POW.F3.Alpha,POW.F3.BetaL,POW.F3.BetaH,POW.F3.Gamma,POW.FC5.Theta,POW.FC5.Alpha,POW.FC5.BetaL,POW.FC5.BetaH,POW.FC5.Gamma,POW.T7.Theta,POW.T7.Alpha,POW.T7.BetaL,POW.T7.BetaH,POW.T7.Gamma,POW.P7.Theta,POW.P7.Alpha,POW.P7.BetaL,POW.P7.BetaH,POW.P7.Gamma,POW.O1.Theta,POW.O1.Alpha,POW.O1.BetaL,POW.O1.BetaH,POW.O1.Gamma,POW.O2.Theta,POW.O2.Alpha,POW.O2.BetaL,POW.O2.BetaH,POW.O2.Gamma,POW.P8.Theta,POW.P8.Alpha,POW.P8.BetaL,POW.P8.BetaH,POW.P8.Gamma,POW.T8.Theta,POW.T8.Alpha,POW.T8.BetaL,POW.T8.BetaH,POW.T8.Gamma,POW.FC6.Theta,POW.FC6.Alpha,POW.FC6.BetaL,POW.FC6.BetaH,POW.FC6.Gamma,POW.F4.Theta,POW.F4.Alpha,POW.F4.BetaL,POW.F4.BetaH,POW.F4.Gamma,POW.F8.Theta,POW.F8.Alpha,POW.F8.BetaL,POW.F8.BetaH,POW.F8.Gamma,POW.AF4.Theta,POW.AF4.Alpha,POW.AF4.BetaL,POW.AF4.BetaH,POW.AF4.Gamma
1720080373,22,0,4428.205078,4436.025879,4321.666504,4344.487305,4360.897461,4644.871582,4286.666504,4388.333496,4252.94873,4283.333496,4281.410156,4369.230957,4266.282227,4324.871582,,,,,,,,,,,,,,,,,,,,,,,,,,,,,,,,,,,,,,,,,,,,,,,,,,,,,,,,,,,,,,,,,,,,,,
1720080373,23,0,4414.102539,4428.077148,4320.769043,4340.256348,4364.615234,4650,4290.512695,4388.461426,4251.666504,4286.922852,4279.743652,4367.563965,4274.102539,4323.974121,,,,,,,,,,,,,,,,,,,,,,,,,,,,,,,,,,,,,,,,,,,,,,,,,,,,,,,,,,,,,,,,,,,,,,
1720080373,24,0,4419.230957,4441.922852,4324.871582,4347.820313,4360.641113,4654.230957,4289.615234,4392.05127,4260.512695,4291.410156,4278.974121,4369.102539,4270,4326.282227,,,,,,,,,,,,,,,,,,,,,,,,,,,,,,,,,,,,,,,,,,,,,,,,,,,,,,,,,,,,,,,,,,,,,,
1720080373,25,0,4429.871582,4448.846191,4330.641113,4355.641113,4360.384766,4659.487305,4300.384766,4398.846191,4266.922852,4296.922852,4285.256348,4375.897461,4271.666504,4335.641113,,,,,,,,,,,,,,,,,,,,,,,,,,,,,,,,,,,,,,,,,,,,,,,,,,,,,,,,,,,,,,,,,,,,,,
1720080373,26,0,4428.589844,4439.102539,4332.820313,4355.641113,4366.282227,4663.461426,4314.871582,4404.743652,4259.871582,4303.461426,4292.436035,4381.153809,4286.538574,4341.922852,,,,,,,,,,,,,,,,,,,,,,,,,,,,,,,,,,,,,,,,,,,,,,,,,,,,,,,,,,,,,,,,,,,,,,
1720080373,27,0,4430.769043,4438.846191,4330.897461,4357.307617,4366.153809,4668.077148,4312.563965,4403.846191,4240.512695,4303.846191,4290,4375.128418,4282.820313,4337.692383,,,,,,,,,,,,,,,,,,,,,,,,,,,,,,,,,,,,,,,,,,,,,,,,,,,,,,,,,,,,,,,,,,,,,,
1720080373,28,0,4441.538574,4443.974121,4335.641113,4359.102539,4363.717773,4672.436035,4310.256348,4399.615234,4232.307617,4304.871582,4288.846191,4368.589844,4274.102539,4340.128418,,,,,,,,,,,,,,,,,,,,,,,,,,,,,,,,,,,,,,,,,,,,,,,,,,,,,,,,,,,,,,,,,,,,,,
1720080373,29,0,4451.922852,4446.282227,4349.230957,4360.897461,4365.769043,4673.974121,4324.615234,4401.794922,4235,4313.717773,4300.769043,4375,4288.205078,4356.666504,,,,,,,,,,,,,,,,,,,,,,,,,,,,,,,,,,,,,,,,,,,,,,,,,,,,,,,,,,,,,,,,,,,,,,
1720080373,30,0,4444.487305,4442.94873,4351.410156,4357.179688,4362.563965,4674.871582,4331.153809,4401.666504,4211.666504,4314.743652,4302.94873,4376.282227,4295.256348,4355.384766,,,,,,,,,,,,,,,,,,,,,,,,,,,,,,,,,,,,,,,,,,,,,,,,,,,,,,,,,,,,,,,,,,,,,,
1720080373,31,0,4426.153809,4433.589844,4337.563965,4347.179688,4356.538574,4673.974121,4317.307617,4389.358887,4177.436035,4305.128418,4285.897461,4360.384766,4279.743652,4336.025879,,,,,,,,,,,,,,,,,,,,,,,,,,,,,,,,,,,,,,,,,,,,,,,,,,,,,,,,,,,,,,,,,,,,,,
1720080373,32,0,4431.153809,4434.615234,4336.282227,4353.205078,4355.769043,4675,4313.077148,4385.256348,4167.307617,4310,4286.282227,4357.820313,4275.769043,4339.743652,,,,,,,,,,,,,,,,,,,,,,,,,,,,,,,,,,,,,,,,,,,,,,,,,,,,,,,,,,,,,,,,,,,,,,
1720080373,33,0,4443.846191,4436.794922,4344.358887,4362.179688,4354.871582,4678.461426,4324.358887,4394.871582,4143.205078,4324.615234,4296.410156,4367.692383,4279.871582,4348.077148,2.541571,1.23462,1.070651,2.566684,0.505544,1.512853,0.279958,0.784163,0.718279,0.319272,1.690554,0.348008,0.46155,0.461576,0.254985,1.16478,0.191989,0.599382,0.613605,0.287913,0.514297,0.194972,0.266106,0.161311,0.078306,3.724564,1.406633,0.510461,0.388048,0.107079,1.128168,0.91389,0.259981,0.308797,0.087898,2.107721,0.765352,0.184073,0.327214,0.173657,29.807596,11.296561,8.273273,1.412603,0.675641,2.040975,0.776538,0.74459,0.601143,0.225285,1.706826,0.671064,0.285716,0.740999,0.335794,1.791828,0.847939,0.362307,0.630021,0.31286,1.129554,1.089524,0.851556,1.145172,0.460289,1.69354,1.433084,0.71175,0.864604,0.283981
1720080373,34,0,4436.922852,4426.794922,4335.897461,4348.077148,4351.922852,4675.897461,4326.922852,4394.871582,4091.794922,4327.179688,4281.666504,4355.128418,4267.692383,4331.025879,,,,,,,,,,,,,,,,,,,,,,,,,,,,,,,,,,,,,,,,,,,,,,,,,,,,,,,,,,,,,,,,,,,,,,
1720080373,35,0,4432.307617,4421.282227,4327.307617,4341.153809,4348.974121,4675,4329.230957,4388.077148,4066.410156,4326.666504,4268.077148,4342.436035,4261.282227,4320.256348,,,,,,,,,,,,,,,,,,,,,,,,,,,,,,,,,,,,,,,,,,,,,,,,,,,,,,,,,,,,,,,,,,,,,,
1720080373,36,0,4436.153809,4423.077148,4332.820313,4355.256348,4344.743652,4678.333496,4339.871582,4385.256348,4080.897461,4330.641113,4278.205078,4349.743652,4273.717773,4327.563965,,,,,,,,,,,,,,,,,,,,,,,,,,,,,,,,,,,,,,,,,,,,,,,,,,,,,,,,,,,,,,,,,,,,,,
1720080373,37,0,4426.025879,4418.205078,4337.820313,4356.538574,4340.384766,4674.871582,4345.897461,4383.461426,4090.641113,4336.025879,4282.05127,4352.05127,4276.538574,4326.410156,,,,,,,,,,,,,,,,,,,,,,,,,,,,,,,,,,,,,,,,,,,,,,,,,,,,,,,,,,,,,,,,,,,,,,
1720080373,38,0,4415.641113,4414.743652,4340.256348,4346.538574,4343.846191,4673.717773,4349.102539,4389.230957,4082.564209,4343.846191,4281.538574,4348.974121,4276.666504,4326.922852,,,,,,,,,,,,,,,,,,,,,,,,,,,,,,,,,,,,,,,,,,,,,,,,,,,,,,,,,,,,,,,,,,,,,,
1720080373,39,0,4416.794922,4419.615234,4343.205078,4352.05127,4348.461426,4678.846191,4355.641113,4394.358887,4081.153809,4346.666504,4288.333496,4347.820313,4282.692383,4334.358887,,,,,,,,,,,,,,,,,,,,,,,,,,,,,,,,,,,,,,,,,,,,,,,,,,,,,,,,,,,,,,,,,,,,,,
1720080373,40,0,4416.666504,4424.358887,4340.641113,4361.282227,4349.358887,4677.179688,4357.307617,4388.846191,4096.153809,4343.205078,4289.230957,4344.615234,4278.974121,4331.410156,,,,,,,,,,,,,,,,,,,,,,,,,,,,,,,,,,,,,,,,,,,,,,,,,,,,,,,,,,,,,,,,,,,,,,
1720080373,41,0,4420.769043,4427.563965,4340.384766,4365.256348,4354.102539,4679.871582,4357.05127,4390.128418,4113.333496,4348.461426,4295.769043,4348.846191,4284.230957,4334.487305,,,,,,,,,,,,,,,,,,,,,,,,,,,,,,,,,,,,,,,,,,,,,,,,,,,,,,,,,,,,,,,,,,,,,,
1720080373,42,0,4431.282227,4429.358887,4348.077148,4370.384766,4355.769043,4689.102539,4359.102539,4395.897461,4114.230957,4355,4306.153809,4352.820313,4296.153809,4343.589844,,,,,,,,,,,,,,,,,,,,,,,,,,,,,,,,,,,,,,,,,,,,,,,,,,,,,,,,,,,,,,,,,,,,,,
1720080373,43,0,4428.589844,4421.666504,4341.538574,4366.025879,4346.666504,4686.282227,4353.333496,4386.025879,4100.128418,4346.153809,4296.666504,4339.615234,4289.102539,4332.692383,,,,,,,,,,,,,,,,,,,,,,,,,,,,,,,,,,,,,,,,,,,,,,,,,,,,,,,,,,,,,,,,,,,,,,
1720080373,44,0,4408.589844,4409.487305,4326.410156,4357.307617,4339.615234,4682.179688,4348.205078,4377.307617,4090.897461,4341.922852,4289.230957,4334.358887,4278.717773,4322.563965,,,,,,,,,,,,,,,,,,,,,,,,,,,,,,,,,,,,,,,,,,,,,,,,,,,,,,,,,,,,,,,,,,,,,,
1720080373,45,0,4396.538574,4408.205078,4330.128418,4360.128418,4343.589844,4687.94873,4357.05127,4383.974121,4108.333496,4352.307617,4300.641113,4345.641113,4282.05127,4331.794922,,,,,,,,,,,,,,,,,,,,,,,,,,,,,,,,,,,,,,,,,,,,,,,,,,,,,,,,,,,,,,,,,,,,,,
1720080373,46,0,4396.794922,4412.179688,4338.333496,4367.307617,4345.897461,4690.641113,4363.974121,4385.769043,4137.820313,4349.871582,4302.94873,4345.897461,4277.563965,4332.436035,,,,,,,,,,,,,,,,,,,,,,,,,,,,,,,,,,,,,,,,,,,,,,,,,,,,,,,,,,,,,,,,,,,,,,
1720080373,47,0,4400.256348,4407.692383,4333.205078,4365.769043,4342.307617,4687.563965,4359.358887,4380.512695,4146.922852,4340.256348,4290.769043,4339.871582,4268.589844,4321.794922,,,,,,,,,,,,,,,,,,,,,,,,,,,,,,,,,,,,,,,,,,,,,,,,,,,,,,,,,,,,,,,,,,,,,,
1720080373,48,0,4406.025879,4400.897461,4329.102539,4361.666504,4341.410156,4686.410156,4357.820313,4381.794922,4131.922852,4344.871582,4288.974121,4340.641113,4273.333496,4322.179688,,,,,,,,,,,,,,,,,,,,,,,,,,,,,,,,,,,,,,,,,,,,,,,,,,,,,,,,,,,,,,,,,,,,,,
1720080373,49,0,4409.615234,4399.615234,4336.025879,4361.410156,4343.077148,4690.384766,4365.128418,4389.615234,4112.307617,4355,4295,4347.692383,4273.333496,4323.333496,2.667546,1.230419,0.891931,2.470343,0.513314,1.250864,0.369721,0.629901,0.621714,0.319412,1.526336,0.408438,0.408164,0.423989,0.250481,1.009255,0.263881,0.481639,0.54365,0.284162,0.476578,0.236185,0.197378,0.13318,0.080072,4.513225,1.630645,0.53685,0.338502,0.103965,1.003055,1.091736,0.303703,0.292557,0.09564,2.175043,0.813486,0.223787,0.314292,0.170891,29.97757,10.298829,6.61038,1.097778,0.625508,1.871967,0.720416,0.793231,0.541826,0.246979,1.648657,0.811011,0.309733,0.692006,0.340601,1.777877,1.007328,0.354466,0.550513,0.297423,1.17763,1.123475,0.788535,1.02134,0.452793,1.595737,1.665182,0.634715,0.785545,0.287078
1720080373,50,0,4414.102539,4402.179688,4341.922852,4365.641113,4345.256348,4693.974121,4369.615234,4393.846191,4108.589844,4358.589844,4298.333496,4357.563965,4266.922852,4322.94873,,,,,,,,,,,,,,,,,,,,,,,,,,,,,,,,,,,,,,,,,,,,,,,,,,,,,,,,,,,,,,,,,,,,,,
1720080373,51,0,4409.871582,4401.922852,4338.589844,4368.846191,4344.230957,4691.538574,4366.282227,4388.846191,4115.897461,4353.333496,4297.05127,4358.333496,4265.512695,4323.846191,,,,,,,,,,,,,,,,,,,,,,,,,,,,,,,,,,,,,,,,,,,,,,,,,,,,,,,,,,,,,,,,,,,,,,
1720080373,52,0,4390.641113,4392.436035,4330.641113,4362.307617,4339.615234,4688.333496,4362.436035,4382.436035,4126.666504,4342.563965,4290,4349.358887,4262.179688,4312.820313,,,,,,,,,,,,,,,,,,,,,,,,,,,,,,,,,,,,,,,,,,,,,,,,,,,,,,,,,,,,,,,,,,,,,,
1720080373,53,0,4390.256348,4390.128418,4333.461426,4359.871582,4338.461426,4688.717773,4363.461426,4383.974121,4139.743652,4337.692383,4288.717773,4352.307617,4262.05127,4306.153809,,,,,,,,,,,,,,,,,,,,,,,,,,,,,,,,,,,,,,,,,,,,,,,,,,,,,,,,,,,,,,,,,,,,,,
1720080373,54,0,4414.102539,4398.205078,4346.794922,4367.820313,4340.897461,4684.615234,4363.846191,4386.153809,4145.897461,4341.666504,4295.897461,4366.025879,4260.384766,4316.922852,,,,,,,,,,,,,,,,,,,,,,,,,,,,,,,,,,,,,,,,,,,,,,,,,,,,,,,,,,,,,,,,,,,,,,
1720080373,55,0,4417.94873,4393.333496,4348.846191,4367.820313,4337.94873,4676.025879,4361.538574,4385.512695,4147.179688,4342.307617,4295.384766,4368.974121,4250.512695,4317.820313,,,,,,,,,,,,,,,,,,,,,,,,,,,,,,,,,,,,,,,,,,,,,,,,,,,,,,,,,,,,,,,,,,,,,,
1720080373,56,0,4411.282227,4386.922852,4341.410156,4362.307617,4331.922852,4671.538574,4361.410156,4386.410156,4155.384766,4335.769043,4292.436035,4362.820313,4249.743652,4310.256348,,,,,,,,,,,,,,,,,,,,,,,,,,,,,,,,,,,,,,,,,,,,,,,,,,,,,,,,,,,,,,,,,,,,,,
1720080373,57,0,4429.102539,4396.025879,4347.563965,4369.230957,4336.282227,4671.410156,4366.538574,4390,4161.410156,4339.102539,4303.974121,4367.692383,4264.871582,4325.769043,,,,,,,,,,,,,,,,,,,,,,,,,,,,,,,,,,,,,,,,,,,,,,,,,,,,,,,,,,,,,,,,,,,,,,
1720080373,58,0,4434.871582,4400.128418,4359.871582,4377.307617,4342.179688,4674.615234,4370,4394.743652,4147.307617,4348.077148,4317.692383,4382.94873,4271.153809,4341.794922,,,,,,,,,,,,,,,,,,,,,,,,,,,,,,,,,,,,,,,,,,,,,,,,,,,,,,,,,,,,,,,,,,,,,,
1720080373,59,0,4413.461426,4394.487305,4354.230957,4370,4338.077148,4672.05127,4365.128418,4395,4117.94873,4347.307617,4311.538574,4380.256348,4260.641113,4330.641113,,,,,,,,,,,,,,,,,,,,,,,,,,,,,,,,,,,,,,,,,,,,,,,,,,,,,,,,,,,,,,,,,,,,,,
1720080373,60,0,4404.102539,4395.256348,4343.846191,4365.128418,4335.384766,4666.666504,4364.358887,4396.410156,4081.281982,4346.282227,4301.794922,4368.974121,4255.256348,4321.282227,,,,,,,,,,,,,,,,,,,,,,,,,,,,,,,,,,,,,,,,,,,,,,,,,,,,,,,,,,,,,,,,,,,,,,
1720080373,61,0,4413.461426,4399.230957,4352.820313,4375.384766,4341.025879,4670.897461,4382.179688,4411.538574,4054.743652,4363.589844,4314.487305,4386.538574,4267.436035,4336.153809,,,,,,,,,,,,,,,,,,,,,,,,,,,,,,,,,,,,,,,,,,,,,,,,,,,,,,,,,,,,,,,,,,,,,,
1720080373,62,0,4417.94873,4398.077148,4366.410156,4381.410156,4343.589844,4675.641113,4395.769043,4429.615234,4048.718018,4384.102539,4333.333496,4411.282227,4279.102539,4355.512695,,,,,,,,,,,,,,,,,,,,,,,,,,,,,,,,,,,,,,,,,,,,,,,,,,,,,,,,,,,,,,,,,,,,,,
1720080373,63,0,4411.666504,4391.410156,4363.717773,4374.615234,4339.358887,4672.94873,4388.077148,4430,4040.512939,4381.410156,4328.333496,4408.717773,4274.102539,4351.153809,,,,,,,,,,,,,,,,,,,,,,,,,,,,,,,,,,,,,,,,,,,,,,,,,,,,,,,,,,,,,,,,,,,,,,
1720080373,64,0,4409.743652,4385.641113,4352.179688,4369.358887,4336.922852,4669.743652,4378.333496,4418.333496,4023.974365,4369.358887,4311.410156,4394.615234,4261.538574,4330.384766,,,,,,,,,,,,,,,,,,,,,,,,,,,,,,,,,,,,,,,,,,,,,,,,,,,,,,,,,,,,,,,,,,,,,,
1720080373,65,0,4413.717773,4387.179688,4346.410156,4368.077148,4336.922852,4669.743652,4376.922852,4412.820313,4021.923096,4372.436035,4309.743652,4390.384766,4254.871582,4322.820313,2.816453,1.320552,0.777596,2.308997,0.519677,1.099917,0.526763,0.470901,0.519918,0.323007,1.404111,0.559418,0.382871,0.401226,0.261487,0.959298,0.449294,0.371269,0.481069,0.27579,0.457095,0.300459,0.144772,0.112103,0.087482,5.140308,1.770534,0.539897,0.28615,0.097621,0.829711,1.274048,0.361875,0.283046,0.107444,2.145069,0.916869,0.295782,0.313078,0.171476,29.532833,9.335695,5.286879,0.877601,0.587836,1.579567,0.707537,0.828614,0.468846,0.273628,1.578995,1.04686,0.362809,0.657428,0.361346,1.771851,1.133284,0.391433,0.479777,0.300458,1.208099,1.189421,0.729086,0.926401,0.48408,1.559143,1.926057,0.648136,0.718654,0.325772
1720080373,66,0,4409.615234,4388.974121,4346.153809,4367.563965,4337.307617,4672.692383,4377.563965,4413.717773,4039.102539,4379.230957,4317.05127,4392.436035,4249.102539,4329.487305,,,,,,,,,,,,,,,,,,,,,,,,,,,,,,,,,,,,,,,,,,,,,,,,,,,,,,,,,,,,,,,,,,,,,,
1720080373,67,0,4399.230957,4387.94873,4346.538574,4369.743652,4338.077148,4673.077148,4378.589844,4410.128418,4055.512939,4375.256348,4311.922852,4394.487305,4247.05127,4325.256348,,,,,,,,,,,,,,,,,,,,,,,,,,,,,,,,,,,,,,,,,,,,,,,,,,,,,,,,,,,,,,,,,,,,,,
1720080373,68,0,4394.871582,4388.589844,4339.743652,4368.461426,4336.410156,4667.436035,4374.487305,4399.487305,4067.435791,4367.692383,4299.487305,4395.128418,4247.563965,4310.641113,,,,,,,,,,,,,,,,,,,,,,,,,,,,,,,,,,,,,,,,,,,,,,,,,,,,,,,,,,,,,,,,,,,,,,
1720080373,69,0,4396.282227,4388.461426,4332.692383,4364.487305,4334.230957,4664.102539,4369.358887,4394.487305,4078.974365,4372.05127,4298.333496,4402.692383,4245,4309.102539,,,,,,,,,,,,,,,,,,,,,,,,,,,,,,,,,,,,,,,,,,,,,,,,,,,,,,,,,,,,,,,,,,,,,,
1720080373,70,0,4399.230957,4387.179688,4337.179688,4364.615234,4332.307617,4660.256348,4372.692383,4398.589844,4079.615479,4378.461426,4307.820313,4415.384766,4251.153809,4315.256348,,,,,,,,,,,,,,,,,,,,,,,,,,,,,,,,,,,,,,,,,,,,,,,,,,,,,,,,,,,,,,,,,,,,,,
1720080373,71,0,4409.743652,4394.871582,4342.307617,4369.487305,4332.820313,4649.487305,4375.256348,4398.205078,4092.692383,4376.922852,4313.589844,4418.205078,4262.05127,4321.922852,,,,,,,,,,,,,,,,,,,,,,,,,,,,,,,,,,,,,,,,,,,,,,,,,,,,,,,,,,,,,,,,,,,,,,
1720080373,72,0,4415.256348,4404.743652,4344.230957,4377.307617,4336.794922,4646.282227,4372.179688,4389.487305,4144.615234,4372.307617,4318.974121,4418.974121,4266.282227,4331.794922,,,,,,,,,,,,,,,,,,,,,,,,,,,,,,,,,,,,,,,,,,,,,,,,,,,,,,,,,,,,,,,,,,,,,,
1720080373,73,0,4400,4399.615234,4343.205078,4378.461426,4338.846191,4648.461426,4372.563965,4381.666504,4195.897461,4367.692383,4321.538574,4418.333496,4263.333496,4333.589844,,,,,,,,,,,,,,,,,,,,,,,,,,,,,,,,,,,,,,,,,,,,,,,,,,,,,,,,,,,,,,,,,,,,,,
1720080373,74,0,4385.897461,4390.256348,4338.974121,4371.794922,4338.333496,4642.820313,4378.077148,4370.897461,4209.230957,4364.358887,4311.794922,4409.358887,4261.025879,4324.871582,,,,,,,,,,,,,,,,,,,,,,,,,,,,,,,,,,,,,,,,,,,,,,,,,,,,,,,,,,,,,,,,,,,,,,
1720080373,75,0,4396.794922,4395.384766,4343.846191,4373.846191,4341.025879,4640.256348,4386.538574,4359.871582,4210.769043,4367.05127,4311.153809,4409.615234,4262.692383,4324.102539,,,,,,,,,,,,,,,,,,,,,,,,,,,,,,,,,,,,,,,,,,,,,,,,,,,,,,,,,,,,,,,,,,,,,,
1720080373,76,0,4414.743652,4404.102539,4354.743652,4384.615234,4344.230957,4641.666504,4392.563965,4359.871582,4218.717773,4374.102539,4322.94873,4416.410156,4263.717773,4331.025879,,,,,,,,,,,,,,,,,,,,,,,,,,,,,,,,,,,,,,,,,,,,,,,,,,,,,,,,,,,,,,,,,,,,,,
1720080373,77,0,4416.282227,4401.153809,4354.743652,4387.179688,4342.05127,4636.410156,4395.256348,4367.820313,4219.230957,4376.282227,4318.205078,4411.538574,4259.487305,4327.179688,,,,,,,,,,,,,,,,,,,,,,,,,,,,,,,,,,,,,,,,,,,,,,,,,,,,,,,,,,,,,,,,,,,,,,
1720080373,78,0,4411.153809,4393.461426,4343.589844,4381.666504,4339.743652,4629.487305,4396.410156,4372.179688,4217.179688,4372.94873,4310.641113,4405.769043,4251.282227,4320.897461,,,,,,,,,,,,,,,,,,,,,,,,,,,,,,,,,,,,,,,,,,,,,,,,,,,,,,,,,,,,,,,,,,,,,,
1720080373,79,0,4414.871582,4390.128418,4338.589844,4378.077148,4342.05127,4625,4394.871582,4370.256348,4216.666504,4373.589844,4316.794922,4408.461426,4250.512695,4324.102539,,,,,,,,,,,,,,,,,,,,,,,,,,,,,,,,,,,,,,,,,,,,,,,,,,,,,,,,,,,,,,,,,,,,,,
1720080373,80,0,4418.077148,4389.871582,4343.461426,4379.615234,4342.692383,4615.512695,4389.358887,4367.563965,4208.333496,4375.641113,4318.461426,4411.538574,4252.692383,4327.820313,,,,,,,,,,,,,,,,,,,,,,,,,,,,,,,,,,,,,,,,,,,,,,,,,,,,,,,,,,,,,,,,,,,,,,
1720080373,81,0,4408.717773,4387.692383,4344.358887,4381.410156,4335.769043,4606.410156,4382.436035,4364.230957,4185.897461,4373.333496,4309.358887,4408.589844,4248.333496,4325.769043,2.949791,1.463049,0.735445,2.15011,0.527109,1.097989,0.742703,0.35277,0.44243,0.328417,1.445557,0.791176,0.399806,0.403666,0.287756,1.065397,0.747152,0.294939,0.447557,0.267101,0.472022,0.388146,0.119621,0.102105,0.098197,5.391272,1.798179,0.516697,0.246314,0.089172,0.671659,1.427611,0.416944,0.280817,0.123087,2.079452,1.054716,0.372904,0.325714,0.176333,28.871552,8.404137,4.466063,0.770733,0.574547,1.218517,0.728097,0.833151,0.40706,0.299379,1.557498,1.369002,0.437986,0.654176,0.398449,1.867551,1.211057,0.464051,0.438022,0.32282,1.234254,1.316508,0.70052,0.888687,0.554509,1.644535,2.170011,0.745869,0.67887,0.39445
1720080373,82,0,4396.538574,4386.538574,4337.94873,4378.974121,4331.538574,4598.205078,4377.563965,4365.256348,4157.436035,4375.641113,4309.615234,4405.512695,4252.05127,4329.358887,,,,,,,,,,,,,,,,,,,,,,,,,,,,,,,,,,,,,,,,,,,,,,,,,,,,,,,,,,,,,,,,,,,,,,
1720080373,83,0,4395,4389.102539,4337.436035,4378.717773,4338.205078,4589.871582,4379.230957,4374.358887,4145.512695,4388.589844,4321.794922,4410.769043,4267.563965,4340.384766,,,,,,,,,,,,,,,,,,,,,,,,,,,,,,,,,,,,,,,,,,,,,,,,,,,,,,,,,,,,,,,,,,,,,,
1720080373,84,0,4397.692383,4388.333496,4340.384766,4382.94873,4341.153809,4588.205078,4389.487305,4380.512695,4152.307617,4397.436035,4330.897461,4417.820313,4268.974121,4340.641113,,,,,,,,,,,,,,,,,,,,,,,,,,,,,,,,,,,,,,,,,,,,,,,,,,,,,,,,,,,,,,,,,,,,,,
1720080373,85,0,4396.025879,4389.102539,4329.871582,4386.666504,4336.538574,4583.589844,4393.461426,4377.94873,4151.153809,4396.922852,4325,4415,4253.461426,4327.94873,,,,,,,,,,,,,,,,,,,,,,,,,,,,,,,,,,,,,,,,,,,,,,,,,,,,,,,,,,,,,,,,,,,,,,
1720080373,86,0,4398.205078,4395.256348,4326.794922,4390.512695,4337.05127,4573.974121,4389.871582,4377.94873,4138.974121,4393.333496,4310.256348,4412.307617,4245.641113,4315.897461,,,,,,,,,,,,,,,,,,,,,,,,,,,,,,,,,,,,,,,,,,,,,,,,,,,,,,,,,,,,,,,,,,,,,,
1720080373,87,0,4398.846191,4396.922852,4339.102539,4392.05127,4342.05127,4568.461426,4391.538574,4382.94873,4135.512695,4387.436035,4304.487305,4414.615234,4244.743652,4310.384766,,,,,,,,,,,,,,,,,,,,,,,,,,,,,,,,,,,,,,,,,,,,,,,,,,,,,,,,,,,,,,,,,,,,,,
1720080373,88,0,4389.615234,4394.871582,4343.974121,4392.563965,4342.692383,4563.333496,4395.128418,4380.384766,4134.487305,4383.077148,4304.358887,4416.153809,4239.743652,4309.487305,,,,,,,,,,,,,,,,,,,,,,,,,,,,,,,,,,,,,,,,,,,,,,,,,,,,,,,,,,,,,,,,,,,,,,
1720080373,89,0,4385,4398.077148,4343.974121,4397.05127,4343.077148,4553.333496,4393.717773,4376.794922,4134.102539,4385.512695,4304.743652,4422.179688,4235.897461,4311.282227,,,,,,,,,,,,,,,,,,,,,,,,,,,,,,,,,,,,,,,,,,,,,,,,,,,,,,,,,,,,,,,,,,,,,,
1720080373,90,0,4387.436035,4397.436035,4343.333496,4396.666504,4342.820313,4543.974121,4388.974121,4376.794922,4143.974121,4386.538574,4306.922852,4426.153809,4232.94873,4310.256348,,,,,,,,,,,,,,,,,,,,,,,,,,,,,,,,,,,,,,,,,,,,,,,,,,,,,,,,,,,,,,,,,,,,,,
1720080373,91,0,4385.769043,4389.230957,4337.94873,4391.410156,4338.461426,4535.128418,4390.384766,4382.563965,4154.871582,4383.846191,4310,4427.820313,4232.94873,4306.794922,,,,,,,,,,,,,,,,,,,,,,,,,,,,,,,,,,,,,,,,,,,,,,,,,,,,,,,,,,,,,,,,,,,,,,
1720080373,92,0,4386.410156,4384.487305,4337.94873,4391.410156,4336.538574,4523.846191,4394.871582,4402.692383,4154.871582,4379.743652,4315.641113,4437.05127,4241.282227,4311.282227,,,,,,,,,,,,,,,,,,,,,,,,,,,,,,,,,,,,,,,,,,,,,,,,,,,,,,,,,,,,,,,,,,,,,,
1720080373,93,0,4389.102539,4381.410156,4342.94873,4389.743652,4334.487305,4518.717773,4398.077148,4428.717773,4154.615234,4373.333496,4318.077148,4445.641113,4239.615234,4318.846191,,,,,,,,,,,,,,,,,,,,,,,,,,,,,,,,,,,,,,,,,,,,,,,,,,,,,,,,,,,,,,,,,,,,,,
1720080373,94,0,4381.025879,4379.743652,4343.846191,4387.820313,4330.897461,4520.128418,4406.794922,4455.128418,4170.512695,4373.589844,4319.358887,4455.512695,4231.666504,4322.563965,,,,,,,,,,,,,,,,,,,,,,,,,,,,,,,,,,,,,,,,,,,,,,,,,,,,,,,,,,,,,,,,,,,,,,
1720080373,95,0,4371.538574,4381.666504,4347.307617,4392.820313,4332.05127,4519.230957,4417.94873,4473.974121,4188.717773,4382.05127,4330.769043,4468.717773,4241.538574,4328.205078,,,,,,,,,,,,,,,,,,,,,,,,,,,,,,,,,,,,,,,,,,,,,,,,,,,,,,,,,,,,,,,,,,,,,,
1720080373,96,0,4372.436035,4380.769043,4352.307617,4399.487305,4337.179688,4516.410156,4418.589844,4471.410156,4199.358887,4387.05127,4343.077148,4472.563965,4254.230957,4331.153809,,,,,,,,,,,,,,,,,,,,,,,,,,,,,,,,,,,,,,,,,,,,,,,,,,,,,,,,,,,,,,,,,,,,,,
1720080373,97,0,4379.743652,4382.05127,4355.512695,4406.282227,4342.820313,4517.692383,4413.589844,4456.666504,4211.538574,4383.974121,4338.974121,4470.128418,4249.102539,4326.666504,3.078429,1.610005,0.74455,2.028096,0.533578,1.236102,0.97884,0.294521,0.395802,0.330663,1.726811,1.052457,0.44991,0.423049,0.322518,1.300928,1.10133,0.256312,0.442808,0.261815,0.526908,0.486315,0.121415,0.102073,0.107816,5.250957,1.706519,0.471829,0.223613,0.080091,0.603584,1.529812,0.449666,0.282486,0.141268,2.072524,1.186715,0.427926,0.345781,0.183789,28.503389,8.098091,4.164329,0.772306,0.590559,0.944132,0.766891,0.794137,0.367359,0.317559,1.644637,1.711533,0.514865,0.670304,0.444177,1.988568,1.235583,0.53895,0.427467,0.357935,1.275041,1.501558,0.700106,0.890901,0.6435,1.911372,2.355341,0.880048,0.659959,0.47631
1720080373,98,0,4387.05127,4383.461426,4360.384766,4412.692383,4345.769043,4521.282227,4415.897461,4450.512695,4222.94873,4379.871582,4332.563965,4475.897461,4244.487305,4327.05127,,,,,,,,,,,,,,,,,,,,,,,,,,,,,,,,,,,,,,,,,,,,,,,,,,,,,,,,,,,,,,,,,,,,,,
1720080373,99,0,4377.94873,4372.563965,4349.743652,4403.461426,4337.820313,4513.461426,4408.717773,4438.461426,4226.025879,4371.153809,4324.487305,4464.102539,4238.461426,4315.769043,,,,,,,,,,,,,,,,,,,,,,,,,,,,,,,,,,,,,,,,,,,,,,,,,,,,,,,,,,,,,,,,,,,,,,
1720080373,100,0,4346.410156,4354.358887,4319.615234,4378.205078,4324.230957,4497.307617,4383.077148,4407.436035,4226.410156,4346.410156,4290,4427.692383,4202.179688,4273.205078,,,,,,,,,,,,,,,,,,,,,,,,,,,,,,,,,,,,,,,,,,,,,,,,,,,,,,,,,,,,,,,,,,,,,,
1720080373,101,0,4322.820313,4345.128418,4308.717773,4369.102539,4322.94873,4494.487305,4369.871582,4390.769043,4240.256348,4330.128418,4264.743652,4416.666504,4177.307617,4251.794922,,,,,,,,,,,,,,,,,,,,,,,,,,,,,,,,,,,,,,,,,,,,,,,,,,,,,,,,,,,,,,,,,,,,,,
1720080373,102,0,4333.589844,4351.794922,4327.307617,4384.743652,4327.05127,4505.641113,4385,4406.794922,4263.717773,4346.922852,4288.846191,4441.922852,4199.615234,4282.307617,,,,,,,,,,,,,,,,,,,,,,,,,,,,,,,,,,,,,,,,,,,,,,,,,,,,,,,,,,,,,,,,,,,,,,
1720080373,103,0,4356.025879,4364.615234,4345.128418,4397.820313,4327.820313,4512.307617,4402.05127,4428.717773,4283.846191,4371.538574,4320.512695,4466.794922,4228.333496,4310.256348,,,,,,,,,,,,,,,,,,,,,,,,,,,,,,,,,,,,,,,,,,,,,,,,,,,,,,,,,,,,,,,,,,,,,,
1720080373,104,0,4362.94873,4369.230957,4347.94873,4401.922852,4331.410156,4509.487305,4403.461426,4428.205078,4282.692383,4377.179688,4325.128418,4471.025879,4238.461426,4311.282227,,,,,,,,,,,,,,,,,,,,,,,,,,,,,,,,,,,,,,,,,,,,,,,,,,,,,,,,,,,,,,,,,,,,,,
1720080373,105,0,4367.179688,4369.615234,4348.077148,4407.94873,4335.512695,4508.974121,4408.461426,4423.333496,4265.128418,4378.717773,4325.641113,4471.922852,4243.974121,4316.794922,,,,,,,,,,,,,,,,,,,,,,,,,,,,,,,,,,,,,,,,,,,,,,,,,,,,,,,,,,,,,,,,,,,,,,
1720080373,106,0,4377.94873,4379.487305,4354.871582,4414.615234,4336.794922,4512.307617,4417.436035,4431.538574,4267.436035,4385.769043,4334.743652,4481.922852,4250.641113,4328.589844,,,,,,,,,,,,,,,,,,,,,,,,,,,,,,,,,,,,,,,,,,,,,,,,,,,,,,,,,,,,,,,,,,,,,,
1720080373,107,0,4373.974121,4384.743652,4354.230957,4412.563965,4339.102539,4510.512695,4408.846191,4426.025879,4282.436035,4384.487305,4330.384766,4479.230957,4245.769043,4319.487305,,,,,,,,,,,,,,,,,,,,,,,,,,,,,,,,,,,,,,,,,,,,,,,,,,,,,,,,,,,,,,,,,,,,,,
1720080373,108,0,4356.922852,4377.94873,4343.974121,4408.333496,4339.487305,4509.358887,4397.820313,4411.794922,4277.307617,4380.128418,4316.282227,4466.025879,4235.641113,4301.794922,,,,,,,,,,,,,,,,,,,,,,,,,,,,,,,,,,,,,,,,,,,,,,,,,,,,,,,,,,,,,,,,,,,,,,
1720080373,109,0,4349.743652,4372.436035,4339.102539,4408.846191,4334.358887,4510.384766,4397.307617,4412.307617,4261.538574,4383.077148,4312.436035,4463.205078,4231.153809,4299.615234,,,,,,,,,,,,,,,,,,,,,,,,,,,,,,,,,,,,,,,,,,,,,,,,,,,,,,,,,,,,,,,,,,,,,,
1720080373,110,0,4347.05127,4372.05127,4338.077148,4409.743652,4331.025879,4507.692383,4391.538574,4410.769043,4258.846191,4380.128418,4310.384766,4462.563965,4230.512695,4299.615234,,,,,,,,,,,,,,,,,,,,,,,,,,,,,,,,,,,,,,,,,,,,,,,,,,,,,,,,,,,,,,,,,,,,,,
1720080373,111,0,4348.461426,4377.307617,4338.461426,4413.461426,4336.666504,4505.769043,4389.230957,4404.871582,4243.077148,4376.538574,4308.846191,4458.846191,4233.333496,4295.897461,,,,,,,,,,,,,,,,,,,,,,,,,,,,,,,,,,,,,,,,,,,,,,,,,,,,,,,,,,,,,,,,,,,,,,
1720080373,112,0,4352.05127,4375.512695,4341.666504,4414.358887,4341.794922,4505.384766,4397.563965,4413.589844,4191.794922,4389.743652,4312.563965,4466.282227,4233.589844,4298.205078,,,,,,,,,,,,,,,,,,,,,,,,,,,,,,,,,,,,,,,,,,,,,,,,,,,,,,,,,,,,,,,,,,,,,,
1720080373,113,0,4345.512695,4369.230957,4338.461426,4411.282227,4339.615234,4496.794922,4397.692383,4418.974121,4157.563965,4403.974121,4315.641113,4473.974121,4231.666504,4298.077148,3.236732,1.699462,0.762664,1.939662,0.533997,1.42498,1.191382,0.285238,0.366874,0.323886,2.201393,1.277456,0.50748,0.439329,0.355189,1.585729,1.426881,0.240457,0.447515,0.260854,0.611703,0.575009,0.139821,0.106938,0.112265,4.818004,1.509897,0.413437,0.211093,0.071847,0.630808,1.580149,0.449556,0.283844,0.159343,2.278282,1.285291,0.448039,0.368647,0.189976,32.763206,8.76892,4.248504,0.877431,0.629691,0.878912,0.806215,0.710336,0.347646,0.323643,1.787272,1.98259,0.568545,0.675263,0.48585,2.171497,1.208512,0.588199,0.434747,0.394522,1.364559,1.709782,0.705951,0.887646,0.717312,2.323545,2.450759,0.99001,0.640102,0.54939
1720080373,114,0,4340.897461,4372.563965,4331.153809,4415.128418,4339.358887,4489.230957,4392.436035,4411.025879,4171.538574,4398.077148,4311.025879,4471.410156,4229.358887,4291.538574,,,,,,,,,,,,,,,,,,,,,,,,,,,,,,,,,,,,,,,,,,,,,,,,,,,,,,,,,,,,,,,,,,,,,,
1720080373,115,0,4347.05127,4377.820313,4334.102539,4425.512695,4343.333496,4491.538574,4395.384766,4409.102539,4189.871582,4387.94873,4308.333496,4471.153809,4229.487305,4295.512695,,,,,,,,,,,,,,,,,,,,,,,,,,,,,,,,,,,,,,,,,,,,,,,,,,,,,,,,,,,,,,,,,,,,,,
1720080373,116,0,4350.128418,4378.205078,4338.974121,4429.615234,4343.589844,4488.205078,4396.025879,4407.05127,4189.615234,4390.128418,4316.538574,4476.153809,4238.205078,4306.794922,,,,,,,,,,,,,,,,,,,,,,,,,,,,,,,,,,,,,,,,,,,,,,,,,,,,,,,,,,,,,,,,,,,,,,
1720080373,117,0,4352.820313,4382.820313,4342.94873,4428.333496,4342.436035,4480.769043,4397.05127,4406.794922,4198.974121,4402.179688,4325.128418,4483.974121,4247.179688,4308.846191,,,,,,,,,,,,,,,,,,,,,,,,,,,,,,,,,,,,,,,,,,,,,,,,,,,,,,,,,,,,,,,,,,,,,,
1720080373,118,0,4351.025879,4384.102539,4345.512695,4427.05127,4343.333496,4477.436035,4397.563965,4409.743652,4213.589844,4407.563965,4322.179688,4484.743652,4243.205078,4303.846191,,,,,,,,,,,,,,,,,,,,,,,,,,,,,,,,,,,,,,,,,,,,,,,,,,,,,,,,,,,,,,,,,,,,,,
1720080373,119,0,4332.563965,4374.871582,4338.461426,4421.538574,4341.025879,4474.358887,4385.769043,4395.512695,4220.641113,4396.794922,4309.487305,4476.538574,4226.538574,4293.846191,,,,,,,,,,,,,,,,,,,,,,,,,,,,,,,,,,,,,,,,,,,,,,,,,,,,,,,,,,,,,,,,,,,,,,
1720080373,120,0,4322.307617,4374.487305,4336.794922,4419.487305,4339.871582,4473.077148,4381.922852,4381.538574,4235.256348,4391.025879,4308.205078,4479.487305,4221.794922,4289.743652,,,,,,,,,,,,,,,,,,,,,,,,,,,,,,,,,,,,,,,,,,,,,,,,,,,,,,,,,,,,,,,,,,,,,,
1720080373,121,0,4323.846191,4376.025879,4340.641113,4418.974121,4342.307617,4469.358887,4383.461426,4381.666504,4248.589844,4396.922852,4314.487305,4487.436035,4230.512695,4292.436035,,,,,,,,,,,,,,,,,,,,,,,,,,,,,,,,,,,,,,,,,,,,,,,,,,,,,,,,,,,,,,,,,,,,,,
1720080373,122,0,4315.128418,4366.922852,4333.974121,4411.794922,4342.820313,4463.077148,4360.256348,4372.692383,4262.94873,4394.743652,4309.743652,4478.333496,4232.563965,4287.820313,,,,,,,,,,,,,,,,,,,,,,,,,,,,,,,,,,,,,,,,,,,,,,,,,,,,,,,,,,,,,,,,,,,,,,
1720080373,123,0,4305.384766,4367.05127,4329.615234,4414.102539,4343.333496,4458.974121,4336.153809,4359.230957,4292.05127,4386.922852,4301.794922,4469.743652,4229.102539,4279.230957,,,,,,,,,,,,,,,,,,,,,,,,,,,,,,,,,,,,,,,,,,,,,,,,,,,,,,,,,,,,,,,,,,,,,,
1720080373,124,0,4300.256348,4372.05127,4332.563965,4421.153809,4344.871582,4452.436035,4340.641113,4358.333496,4312.820313,4383.077148,4303.461426,4476.538574,4228.846191,4279.487305,,,,,,,,,,,,,,,,,,,,,,,,,,,,,,,,,,,,,,,,,,,,,,,,,,,,,,,,,,,,,,,,,,,,,,
1720080373,125,0,4292.563965,4363.717773,4327.179688,4414.871582,4344.743652,4441.922852,4349.358887,4357.05127,4312.692383,4381.666504,4308.333496,4479.230957,4232.820313,4284.871582,,,,,,,,,,,,,,,,,,,,,,,,,,,,,,,,,,,,,,,,,,,,,,,,,,,,,,,,,,,,,,,,,,,,,,
1720080373,126,0,4293.205078,4357.05127,4323.589844,4410.769043,4344.487305,4438.461426,4350,4356.282227,4322.436035,4384.358887,4310.384766,4480,4239.615234,4285.384766,,,,,,,,,,,,,,,,,,,,,,,,,,,,,,,,,,,,,,,,,,,,,,,,,,,,,,,,,,,,,,,,,,,,,,
1720080373,127,0,4294.615234,4356.538574,4324.487305,4412.307617,4342.94873,4432.692383,4346.922852,4356.666504,4336.410156,4386.922852,4311.410156,4479.743652,4245.897461,4280.897461,,,,,,,,,,,,,,,,,,,,,,,,,,,,,,,,,,,,,,,,,,,,,,,,,,,,,,,,,,,,,,,,,,,,,,
1720080373,0,0,4290.128418,4353.205078,4321.538574,4404.743652,4340,4420,4344.102539,4353.717773,4322.820313,4384.615234,4312.179688,4480.128418,4243.974121,4277.94873,,,,,,,,,,,,,,,,,,,,,,,,,,,,,,,,,,,,,,,,,,,,,,,,,,,,,,,,,,,,,,,,,,,,,,
1720080373,1,0,4298.461426,4357.692383,4324.487305,4405.128418,4340,4411.282227,4347.563965,4356.282227,4312.820313,4388.589844,4312.820313,4491.153809,4235.128418,4280.256348,3.431646,1.681014,0.780985,1.863065,0.523423,1.589808,1.335578,0.304696,0.336453,0.305099,2.738779,1.41454,0.559593,0.438004,0.376457,1.819948,1.628865,0.240466,0.439518,0.261787,0.671093,0.630164,0.165111,0.110821,0.10975,4.217341,1.248116,0.356236,0.196662,0.065844,0.741925,1.59707,0.437745,0.279134,0.17452,2.95084,1.439906,0.491817,0.394065,0.192511,44.397202,10.305343,4.470345,1.080852,0.673494,1.07553,0.843724,0.607134,0.344396,0.31709,1.985403,2.154732,0.609809,0.650542,0.512288,2.297474,1.171249,0.620592,0.443961,0.421567,1.426261,1.937756,0.715209,0.845262,0.744131,2.844743,2.505267,1.061432,0.608352,0.59621
1720080373,2,0,4305,4363.974121,4325.256348,4415.641113,4340.897461,4401.666504,4347.307617,4353.461426,4326.025879,4389.615234,4311.922852,4493.205078,4232.307617,4280.512695,,,,,,,,,,,,,,,,,,,,,,,,,,,,,,,,,,,,,,,,,,,,,,,,,,,,,,,,,,,,,,,,,,,,,,
1720080373,3,0,4297.307617,4357.05127,4319.102539,4407.05127,4339.358887,4389.743652,4341.538574,4342.05127,4333.461426,4383.077148,4308.205078,4481.282227,4234.358887,4269.871582,,,,,,,,,,,,,,,,,,,,,,,,,,,,,,,,,,,,,,,,,,,,,,,,,,,,,,,,,,,,,,,,,,,,,,
1720080373,4,0,4300.384766,4355.897461,4320.128418,4396.410156,4340.128418,4378.717773,4341.410156,4338.846191,4323.077148,4388.589844,4303.974121,4479.487305,4229.743652,4263.461426,,,,,,,,,,,,,,,,,,,,,,,,,,,,,,,,,,,,,,,,,,,,,,,,,,,,,,,,,,,,,,,,,,,,,,
1720080373,5,0,4315.128418,4366.666504,4321.794922,4407.94873,4342.692383,4367.563965,4342.563965,4345.256348,4315.128418,4396.922852,4307.563965,4486.282227,4230.384766,4271.922852,,,,,,,,,,,,,,,,,,,,,,,,,,,,,,,,,,,,,,,,,,,,,,,,,,,,,,,,,,,,,,,,,,,,,,
1720080373,6,0,4313.333496,4361.025879,4312.94873,4410.641113,4341.410156,4361.025879,4340.384766,4343.589844,4319.102539,4387.436035,4313.333496,4482.05127,4237.307617,4276.410156,,,,,,,,,,,,,,,,,,,,,,,,,,,,,,,,,,,,,,,,,,,,,,,,,,,,,,,,,,,,,,,,,,,,,,
1720080373,7,0,4293.589844,4343.846191,4303.333496,4394.871582,4338.589844,4352.820313,4340,4331.025879,4327.307617,4371.666504,4301.794922,4469.743652,4229.487305,4265,,,,,,,,,,,,,,,,,,,,,,,,,,,,,,,,,,,,,,,,,,,,,,,,,,,,,,,,,,,,,,,,,,,,,,
1720080373,8,0,4284.743652,4341.410156,4307.436035,4390.384766,4338.461426,4342.436035,4338.205078,4322.307617,4342.692383,4366.794922,4290.512695,4467.179688,4220.512695,4255.641113,,,,,,,,,,,,,,,,,,,,,,,,,,,,,,,,,,,,,,,,,,,,,,,,,,,,,,,,,,,,,,,,,,,,,,
1720080373,9,0,4296.410156,4351.153809,4323.974121,4402.436035,4343.077148,4342.563965,4342.692383,4330.256348,4360,4368.717773,4301.025879,4483.461426,4229.615234,4264.871582,,,,,,,,,,,,,,,,,,,,,,,,,,,,,,,,,,,,,,,,,,,,,,,,,,,,,,,,,,,,,,,,,,,,,,
1720080373,10,0,4306.025879,4351.282227,4332.307617,4405.641113,4346.538574,4343.461426,4353.846191,4340.897461,4371.666504,4369.102539,4313.589844,4495.256348,4234.487305,4275.769043,,,,,,,,,,,,,,,,,,,,,,,,,,,,,,,,,,,,,,,,,,,,,,,,,,,,,,,,,,,,,,,,,,,,,,
1720080373,11,0,4304.358887,4340.897461,4323.974121,4396.025879,4342.820313,4329.871582,4352.94873,4335,4378.846191,4362.436035,4309.358887,4482.94873,4227.436035,4273.461426,,,,,,,,,,,,,,,,,,,,,,,,,,,,,,,,,,,,,,,,,,,,,,,,,,,,,,,,,,,,,,,,,,,,,,
1720080373,12,0,4313.589844,4345,4329.230957,4398.077148,4342.94873,4327.05127,4352.05127,4335.384766,4400.641113,4362.692383,4311.153809,4485.641113,4234.230957,4275.512695,,,,,,,,,,,,,,,,,,,,,,,,,,,,,,,,,,,,,,,,,,,,,,,,,,,,,,,,,,,,,,,,,,,,,,
1720080373,13,0,4330,4363.461426,4347.820313,4412.820313,4350.897461,4338.333496,4362.307617,4343.333496,4433.333496,4379.743652,4329.102539,4507.94873,4250,4286.153809,,,,,,,,,,,,,,,,,,,,,,,,,,,,,,,,,,,,,,,,,,,,,,,,,,,,,,,,,,,,,,,,,,,,,,
1720080373,14,0,4332.692383,4371.666504,4352.05127,4418.589844,4352.563965,4335,4363.205078,4336.666504,4437.94873,4383.846191,4332.94873,4506.025879,4251.794922,4288.333496,,,,,,,,,,,,,,,,,,,,,,,,,,,,,,,,,,,,,,,,,,,,,,,,,,,,,,,,,,,,,,,,,,,,,,
1720080373,15,0,4324.871582,4358.461426,4342.436035,4409.487305,4348.717773,4325.512695,4349.615234,4323.333496,4423.974121,4367.436035,4314.358887,4486.922852,4242.563965,4277.563965,,,,,,,,,,,,,,,,,,,,,,,,,,,,,,,,,,,,,,,,,,,,,,,,,,,,,,,,,,,,,,,,,,,,,,
1720080373,16,0,4320.384766,4343.589844,4332.820313,4402.692383,4351.794922,4327.179688,4339.615234,4314.102539,4429.358887,4356.794922,4296.794922,4477.307617,4235,4265.897461,,,,,,,,,,,,,,,,,,,,,,,,,,,,,,,,,,,,,,,,,,,,,,,,,,,,,,,,,,,,,,,,,,,,,,
1720080373,17,0,4324.487305,4347.307617,4332.05127,4407.563965,4353.461426,4327.307617,4338.077148,4305.384766,4445.641113,4353.461426,4293.205078,4474.871582,4228.461426,4259.615234,3.580338,1.546072,0.828268,1.78666,0.502647,1.680922,1.386236,0.34517,0.295823,0.276813,3.153237,1.455166,0.619486,0.4222,0.383074,1.914976,1.646859,0.275576,0.412523,0.261208,0.700176,0.635339,0.195213,0.111218,0.101717,3.564013,0.966287,0.318123,0.173315,0.063495,0.881649,1.60731,0.48717,0.269067,0.185849,4.112298,1.825146,0.691219,0.422782,0.193487,63.291061,12.200582,4.634164,1.364663,0.700424,1.505422,0.902971,0.542021,0.360796,0.302072,2.106778,2.287642,0.702351,0.60968,0.519742,2.419542,1.21351,0.697,0.448492,0.433926,1.542832,2.220675,0.774218,0.768705,0.711423,3.318237,2.642116,1.148327,0.576357,0.61219
1720080373,18,0,4330.769043,4355.128418,4338.846191,4412.563965,4349.871582,4323.974121,4340.256348,4301.153809,4455.897461,4349.871582,4302.436035,4478.717773,4226.538574,4263.717773,,,,,,,,,,,,,,,,,,,,,,,,,,,,,,,,,,,,,,,,,,,,,,,,,,,,,,,,,,,,,,,,,,,,,,
1720080373,19,0,4329.615234,4349.487305,4340.769043,4408.461426,4353.974121,4327.820313,4345.512695,4306.153809,4466.666504,4350.384766,4311.282227,4482.307617,4239.487305,4271.025879,,,,,,,,,,,,,,,,,,,,,,,,,,,,,,,,,,,,,,,,,,,,,,,,,,,,,,,,,,,,,,,,,,,,,,
1720080373,20,0,4322.94873,4341.410156,4337.94873,4405.512695,4359.743652,4327.94873,4353.589844,4310,4466.153809,4352.436035,4306.666504,4481.410156,4244.358887,4267.436035,,,,,,,,,,,,,,,,,,,,,,,,,,,,,,,,,,,,,,,,,,,,,,,,,,,,,,,,,,,,,,,,,,,,,,
1720080373,21,0,4322.820313,4342.307617,4340,4412.179688,4357.05127,4317.436035,4358.717773,4310.641113,4458.461426,4347.563965,4302.307617,4486.922852,4233.974121,4262.05127,,,,,,,,,,,,,,,,,,,,,,,,,,,,,,,,,,,,,,,,,,,,,,,,,,,,,,,,,,,,,,,,,,,,,,
1720080374,22,0,4331.025879,4344.743652,4343.589844,4415,4355.641113,4310.512695,4358.717773,4312.307617,4466.922852,4347.179688,4312.307617,4493.589844,4234.102539,4263.333496,,,,,,,,,,,,,,,,,,,,,,,,,,,,,,,,,,,,,,,,,,,,,,,,,,,,,,,,,,,,,,,,,,,,,,
1720080374,23,0,4335.384766,4340.641113,4342.692383,4410.256348,4357.820313,4311.282227,4358.077148,4315.769043,4448.077148,4358.077148,4311.538574,4491.666504,4235.897461,4264.487305,,,,,,,,,,,,,,,,,,,,,,,,,,,,,,,,,,,,,,,,,,,,,,,,,,,,,,,,,,,,,,,,,,,,,,
1720080374,24,0,4335.512695,4340.769043,4343.205078,4410,4357.179688,4310.384766,4358.846191,4322.436035,4393.205078,4367.94873,4299.871582,4492.436035,4226.794922,4260.769043,,,,,,,,,,,,,,,,,,,,,,,,,,,,,,,,,,,,,,,,,,,,,,,,,,,,,,,,,,,,,,,,,,,,,,
1720080374,25,0,4340.897461,4350.641113,4347.179688,4415.769043,4360.641113,4311.922852,4359.487305,4327.820313,4376.666504,4374.487305,4307.820313,4497.179688,4234.743652,4264.743652,,,,,,,,,,,,,,,,,,,,,,,,,,,,,,,,,,,,,,,,,,,,,,,,,,,,,,,,,,,,,,,,,,,,,,
1720080374,26,0,4339.102539,4352.436035,4348.974121,4418.589844,4365.128418,4316.794922,4359.743652,4327.436035,4398.077148,4375.641113,4318.717773,4498.461426,4249.358887,4274.615234,,,,,,,,,,,,,,,,,,,,,,,,,,,,,,,,,,,,,,,,,,,,,,,,,,,,,,,,,,,,,,,,,,,,,,
1720080374,27,0,4328.589844,4341.410156,4342.436035,4413.717773,4359.743652,4315.256348,4353.846191,4316.794922,4402.307617,4364.743652,4305.641113,4495.641113,4236.666504,4266.025879,,,,,,,,,,,,,,,,,,,,,,,,,,,,,,,,,,,,,,,,,,,,,,,,,,,,,,,,,,,,,,,,,,,,,,
1720080374,28,0,4327.307617,4336.538574,4334.102539,4407.820313,4355.641113,4315.128418,4347.436035,4309.358887,4401.922852,4355.641113,4290.641113,4487.307617,4227.307617,4247.692383,,,,,,,,,,,,,,,,,,,,,,,,,,,,,,,,,,,,,,,,,,,,,,,,,,,,,,,,,,,,,,,,,,,,,,
1720080374,29,0,4331.794922,4339.871582,4331.666504,4410.769043,4361.025879,4320.256348,4351.410156,4315,4413.077148,4362.820313,4293.589844,4483.589844,4234.743652,4245.769043,,,,,,,,,,,,,,,,,,,,,,,,,,,,,,,,,,,,,,,,,,,,,,,,,,,,,,,,,,,,,,,,,,,,,,
1720080374,30,0,4329.743652,4336.538574,4330.512695,4412.179688,4361.794922,4317.307617,4354.102539,4320.256348,4404.230957,4366.282227,4295.384766,4485.641113,4231.794922,4249.102539,,,,,,,,,,,,,,,,,,,,,,,,,,,,,,,,,,,,,,,,,,,,,,,,,,,,,,,,,,,,,,,,,,,,,,
1720080374,31,0,4324.358887,4330.128418,4329.102539,4406.538574,4356.153809,4311.153809,4351.666504,4321.666504,4373.205078,4356.538574,4291.666504,4485.769043,4227.820313,4245,,,,,,,,,,,,,,,,,,,,,,,,,,,,,,,,,,,,,,,,,,,,,,,,,,,,,,,,,,,,,,,,,,,,,,
1720080374,32,0,4321.538574,4330.897461,4331.410156,4405.128418,4356.025879,4313.717773,4355.897461,4327.179688,4353.974121,4358.077148,4292.94873,4486.922852,4227.307617,4242.563965,,,,,,,,,,,,,,,,,,,,,,,,,,,,,,,,,,,,,,,,,,,,,,,,,,,,,,,,,,,,,,,,,,,,,,
1720080374,33,0,4323.846191,4335,4333.717773,4411.922852,4363.589844,4319.615234,4361.538574,4329.102539,4361.282227,4368.461426,4294.102539,4488.974121,4221.282227,4247.436035,3.642776,1.389715,0.934913,1.708412,0.477337,1.710486,1.364333,0.408086,0.251345,0.245965,3.298409,1.447997,0.703701,0.406801,0.377834,1.874654,1.498552,0.37196,0.378966,0.256857,0.66618,0.590858,0.234049,0.10932,0.09168,2.93741,0.715433,0.308946,0.144347,0.065335,1.008451,1.664698,0.662401,0.262621,0.194807,5.717536,2.584777,1.138057,0.45576,0.198278,87.864296,13.754302,4.653634,1.688571,0.696891,2.076515,1.014477,0.555947,0.404718,0.286785,2.168253,2.514826,0.906462,0.588727,0.512913,2.490803,1.432188,0.874349,0.453496,0.434675,1.573432,2.609802,0.94391,0.705198,0.633441,3.592186,3.002165,1.316692,0.572116,0.604931
1720080374,34,0,4329.358887,4336.025879,4339.871582,4413.461426,4366.282227,4319.102539,4363.077148,4327.820313,4375.769043,4372.179688,4295.256348,4495.769043,4225.256348,4258.205078,,,,,,,,,,,,,,,,,,,,,,,,,,,,,,,,,,,,,,,,,,,,,,,,,,,,,,,,,,,,,,,,,,,,,,
1720080374,35,0,4329.615234,4336.153809,4345.769043,4407.179688,4360.256348,4315,4365.512695,4330.641113,4379.615234,4370.897461,4305.384766,4509.358887,4237.94873,4267.307617,,,,,,,,,,,,,,,,,,,,,,,,,,,,,,,,,,,,,,,,,,,,,,,,,,,,,,,,,,,,,,,,,,,,,,
1720080374,36,0,4328.717773,4338.461426,4337.692383,4406.410156,4357.820313,4311.410156,4361.794922,4324.102539,4381.153809,4368.205078,4310.512695,4512.94873,4237.05127,4268.077148,,,,,,,,,,,,,,,,,,,,,,,,,,,,,,,,,,,,,,,,,,,,,,,,,,,,,,,,,,,,,,,,,,,,,,
1720080374,37,0,4328.205078,4333.077148,4326.922852,4405.128418,4357.820313,4308.205078,4351.025879,4310.256348,4383.205078,4361.282227,4299.230957,4500,4229.230957,4262.436035,,,,,,,,,,,,,,,,,,,,,,,,,,,,,,,,,,,,,,,,,,,,,,,,,,,,,,,,,,,,,,,,,,,,,,
1720080374,38,0,4326.410156,4327.05127,4328.589844,4401.922852,4357.307617,4307.692383,4351.410156,4309.358887,4386.922852,4354.615234,4291.922852,4496.282227,4230,4259.102539,,,,,,,,,,,,,,,,,,,,,,,,,,,,,,,,,,,,,,,,,,,,,,,,,,,,,,,,,,,,,,,,,,,,,,
1720080374,39,0,4328.205078,4337.436035,4332.307617,4408.461426,4362.563965,4305.641113,4358.846191,4313.846191,4399.230957,4355.769043,4296.025879,4506.282227,4234.743652,4261.410156,,,,,,,,,,,,,,,,,,,,,,,,,,,,,,,,,,,,,,,,,,,,,,,,,,,,,,,,,,,,,,,,,,,,,,
1720080374,40,0,4331.538574,4347.05127,4331.666504,4416.922852,4365.512695,4306.282227,4358.717773,4311.282227,4407.05127,4358.333496,4300.256348,4510.256348,4236.282227,4267.692383,,,,,,,,,,,,,,,,,,,,,,,,,,,,,,,,,,,,,,,,,,,,,,,,,,,,,,,,,,,,,,,,,,,,,,
1720080374,41,0,4326.666504,4336.538574,4330.641113,4411.922852,4358.077148,4306.666504,4356.153809,4309.743652,4403.077148,4356.666504,4295.897461,4507.820313,4235.128418,4263.974121,,,,,,,,,,,,,,,,,,,,,,,,,,,,,,,,,,,,,,,,,,,,,,,,,,,,,,,,,,,,,,,,,,,,,,
1720080374,42,0,4314.358887,4329.358887,4325.897461,4404.487305,4355.384766,4300.256348,4356.153809,4311.153809,4405.512695,4356.153809,4285.128418,4506.922852,4231.666504,4251.025879,,,,,,,,,,,,,,,,,,,,,,,,,,,,,,,,,,,,,,,,,,,,,,,,,,,,,,,,,,,,,,,,,,,,,,
1720080374,43,0,4309.487305,4334.358887,4323.717773,4409.487305,4361.666504,4300.256348,4358.717773,4311.282227,4416.922852,4358.333496,4280.256348,4513.717773,4225.384766,4251.410156,,,,,,,,,,,,,,,,,,,,,,,,,,,,,,,,,,,,,,,,,,,,,,,,,,,,,,,,,,,,,,,,,,,,,,
1720080374,44,0,4311.153809,4333.461426,4324.102539,4412.692383,4364.871582,4310.384766,4360.512695,4312.563965,4413.333496,4355.897461,4281.410156,4515.128418,4221.282227,4260.641113,,,,,,,,,,,,,,,,,,,,,,,,,,,,,,,,,,,,,,,,,,,,,,,,,,,,,,,,,,,,,,,,,,,,,,
1720080374,45,0,4309.358887,4329.871582,4320.256348,4409.871582,4364.615234,4315,4363.846191,4312.436035,4400.128418,4354.358887,4280.897461,4506.410156,4226.666504,4263.974121,,,,,,,,,,,,,,,,,,,,,,,,,,,,,,,,,,,,,,,,,,,,,,,,,,,,,,,,,,,,,,,,,,,,,,
1720080374,46,0,4314.358887,4334.487305,4321.025879,4411.025879,4363.589844,4310.256348,4364.230957,4311.410156,4396.922852,4356.025879,4283.461426,4504.615234,4235,4261.922852,,,,,,,,,,,,,,,,,,,,,,,,,,,,,,,,,,,,,,,,,,,,,,,,,,,,,,,,,,,,,,,,,,,,,,
1720080374,47,0,4326.922852,4342.563965,4328.333496,4416.025879,4366.538574,4311.282227,4360.128418,4312.692383,4393.717773,4358.333496,4295.128418,4509.230957,4236.025879,4263.205078,,,,,,,,,,,,,,,,,,,,,,,,,,,,,,,,,,,,,,,,,,,,,,,,,,,,,,,,,,,,,,,,,,,,,,
1720080374,48,0,4319.102539,4341.794922,4324.358887,4414.871582,4367.692383,4314.871582,4353.974121,4305.769043,4381.794922,4361.666504,4295.897461,4501.922852,4232.05127,4264.487305,,,,,,,,,,,,,,,,,,,,,,,,,,,,,,,,,,,,,,,,,,,,,,,,,,,,,,,,,,,,,,,,,,,,,,
1720080374,49,0,4299.487305,4335.769043,4312.563965,4409.487305,4359.358887,4306.538574,4346.922852,4293.974121,4366.153809,4357.436035,4280.256348,4486.153809,4227.179688,4258.205078,3.621684,1.334074,1.10805,1.623542,0.453465,1.719042,1.309516,0.496863,0.216844,0.221824,3.142616,1.457312,0.818447,0.408385,0.366731,1.718009,1.256812,0.538069,0.356255,0.249459,0.600535,0.51076,0.283269,0.107796,0.082884,2.282031,0.533236,0.325779,0.118844,0.070783,1.194902,1.820546,0.968674,0.271281,0.203706,7.611204,3.721206,1.802085,0.48922,0.211585,111.780441,14.353779,4.503308,1.995637,0.667707,2.648247,1.191755,0.657774,0.477864,0.279855,2.091072,2.912039,1.219697,0.620739,0.500672,2.539485,1.866159,1.156302,0.465244,0.431878,1.628633,3.091288,1.237751,0.702414,0.539995,3.591113,3.596481,1.577596,0.617288,0.586443
1720080374,50,0,4301.025879,4332.436035,4312.563965,4408.077148,4353.589844,4299.102539,4346.922852,4297.94873,4358.589844,4356.538574,4279.230957,4488.461426,4228.589844,4258.333496,,,,,,,,,,,,,,,,,,,,,,,,,,,,,,,,,,,,,,,,,,,,,,,,,,,,,,,,,,,,,,,,,,,,,,
1720080374,51,0,4311.922852,4334.487305,4323.461426,4411.794922,4358.205078,4301.153809,4357.94873,4310.512695,4362.692383,4371.153809,4298.205078,4501.538574,4240.128418,4270,,,,,,,,,,,,,,,,,,,,,,,,,,,,,,,,,,,,,,,,,,,,,,,,,,,,,,,,,,,,,,,,,,,,,,
1720080374,52,0,4311.922852,4335.256348,4329.871582,4415.384766,4358.974121,4303.589844,4367.307617,4312.436035,4366.025879,4380.384766,4306.153809,4502.436035,4241.794922,4275.512695,,,,,,,,,,,,,,,,,,,,,,,,,,,,,,,,,,,,,,,,,,,,,,,,,,,,,,,,,,,,,,,,,,,,,,
1720080374,53,0,4308.077148,4328.589844,4326.153809,4407.179688,4355.256348,4297.94873,4365,4307.563965,4355.769043,4369.358887,4295.128418,4489.615234,4230.256348,4266.282227,,,,,,,,,,,,,,,,,,,,,,,,,,,,,,,,,,,,,,,,,,,,,,,,,,,,,,,,,,,,,,,,,,,,,,
1720080374,54,0,4306.922852,4326.025879,4323.333496,4398.717773,4361.922852,4296.922852,4366.922852,4313.846191,4344.615234,4366.410156,4288.205078,4483.717773,4225.512695,4263.717773,,,,,,,,,,,,,,,,,,,,,,,,,,,,,,,,,,,,,,,,,,,,,,,,,,,,,,,,,,,,,,,,,,,,,,
1720080374,55,0,4300.128418,4323.333496,4325.897461,4398.846191,4367.692383,4301.153809,4371.794922,4323.461426,4336.538574,4378.589844,4288.205078,4487.436035,4227.05127,4266.025879,,,,,,,,,,,,,,,,,,,,,,,,,,,,,,,,,,,,,,,,,,,,,,,,,,,,,,,,,,,,,,,,,,,,,,
1720080374,56,0,4292.692383,4318.717773,4325.641113,4397.436035,4364.615234,4292.94873,4370.256348,4326.282227,4316.153809,4381.794922,4288.461426,4487.436035,4226.410156,4263.077148,,,,,,,,,,,,,,,,,,,,,,,,,,,,,,,,,,,,,,,,,,,,,,,,,,,,,,,,,,,,,,,,,,,,,,
1720080374,57,0,4299.230957,4323.333496,4325.897461,4398.589844,4365.128418,4282.307617,4371.538574,4332.692383,4292.05127,4382.179688,4296.025879,4494.615234,4227.436035,4269.358887,,,,,,,,,,,,,,,,,,,,,,,,,,,,,,,,,,,,,,,,,,,,,,,,,,,,,,,,,,,,,,,,,,,,,,
1720080374,58,0,4305.384766,4327.436035,4326.538574,4401.666504,4366.282227,4278.846191,4372.563965,4335,4271.922852,4383.205078,4296.153809,4502.692383,4229.102539,4278.974121,,,,,,,,,,,,,,,,,,,,,,,,,,,,,,,,,,,,,,,,,,,,,,,,,,,,,,,,,,,,,,,,,,,,,,
1720080374,59,0,4306.794922,4327.05127,4328.461426,4403.717773,4365.641113,4275,4374.615234,4332.820313,4256.794922,4384.358887,4293.205078,4501.282227,4229.230957,4278.333496,,,,,,,,,,,,,,,,,,,,,,,,,,,,,,,,,,,,,,,,,,,,,,,,,,,,,,,,,,,,,,,,,,,,,,
1720080374,60,0,4322.307617,4339.615234,4340.897461,4412.179688,4369.615234,4268.846191,4380.384766,4337.692383,4256.282227,4394.615234,4302.94873,4506.282227,4230.512695,4280.256348,,,,,,,,,,,,,,,,,,,,,,,,,,,,,,,,,,,,,,,,,,,,,,,,,,,,,,,,,,,,,,,,,,,,,,
1720080374,61,0,4326.153809,4346.153809,4345.641113,4415.128418,4371.410156,4259.358887,4378.717773,4337.563965,4265,4398.205078,4305.897461,4507.436035,4225.256348,4283.974121,,,,,,,,,,,,,,,,,,,,,,,,,,,,,,,,,,,,,,,,,,,,,,,,,,,,,,,,,,,,,,,,,,,,,,
1720080374,62,0,4299.743652,4328.974121,4330,4403.589844,4365.384766,4244.230957,4369.871582,4323.589844,4273.333496,4384.102539,4290.897461,4493.461426,4214.358887,4274.871582,,,,,,,,,,,,,,,,,,,,,,,,,,,,,,,,,,,,,,,,,,,,,,,,,,,,,,,,,,,,,,,,,,,,,,
1720080374,63,0,4292.820313,4327.692383,4328.846191,4402.307617,4364.487305,4230,4371.538574,4318.846191,4283.333496,4377.820313,4287.05127,4492.692383,4214.743652,4268.461426,,,,,,,,,,,,,,,,,,,,,,,,,,,,,,,,,,,,,,,,,,,,,,,,,,,,,,,,,,,,,,,,,,,,,,
1720080374,64,0,4313.974121,4345.641113,4342.179688,4414.102539,4368.461426,4225.641113,4375.256348,4326.922852,4298.589844,4389.871582,4297.563965,4505.256348,4226.794922,4278.974121,,,,,,,,,,,,,,,,,,,,,,,,,,,,,,,,,,,,,,,,,,,,,,,,,,,,,,,,,,,,,,,,,,,,,,
1720080374,65,0,4318.717773,4346.666504,4336.538574,4415.256348,4367.692383,4226.410156,4368.589844,4323.205078,4311.794922,4391.153809,4300.384766,4500.256348,4234.871582,4282.563965,3.566281,1.448588,1.310405,1.521417,0.432408,1.72613,1.261234,0.59972,0.201239,0.21164,2.759056,1.517774,0.946245,0.42973,0.354069,1.52583,1.008158,0.744837,0.35145,0.242113,0.520788,0.414112,0.334723,0.107234,0.07722,1.884036,0.443599,0.354247,0.104504,0.078749,1.397367,2.077116,1.343023,0.298718,0.213107,9.061598,5.005968,2.528234,0.511242,0.23332,129.447571,13.789047,4.234216,2.243826,0.634719,3.069165,1.410636,0.821579,0.563909,0.285232,1.870878,3.423485,1.576622,0.708524,0.490768,2.475416,2.454644,1.479889,0.480744,0.432243,1.580801,3.557652,1.605285,0.773769,0.459667,3.253726,4.270011,1.866144,0.702951,0.564856
1720080374,66,0,4308.974121,4335.384766,4327.563965,4406.538574,4364.871582,4224.871582,4363.205078,4316.922852,4315.256348,4377.563965,4293.461426,4490.256348,4227.05127,4269.743652,,,,,,,,,,,,,,,,,,,,,,,,,,,,,,,,,,,,,,,,,,,,,,,,,,,,,,,,,,,,,,,,,,,,,,
1720080374,67,0,4312.05127,4336.282227,4325.897461,4399.743652,4360.769043,4220.384766,4365.128418,4319.230957,4311.282227,4372.179688,4284.230957,4486.282227,4213.077148,4260.769043,,,,,,,,,,,,,,,,,,,,,,,,,,,,,,,,,,,,,,,,,,,,,,,,,,,,,,,,,,,,,,,,,,,,,,
1720080374,68,0,4312.820313,4340.641113,4320.641113,4399.102539,4355.897461,4217.94873,4367.307617,4320.256348,4308.974121,4374.871582,4278.846191,4482.307617,4210.641113,4259.743652,,,,,,,,,,,,,,,,,,,,,,,,,,,,,,,,,,,,,,,,,,,,,,,,,,,,,,,,,,,,,,,,,,,,,,
1720080374,69,0,4296.410156,4333.333496,4315.769043,4396.282227,4352.05127,4217.692383,4358.205078,4313.333496,4309.358887,4370.384766,4275.128418,4477.820313,4211.538574,4249.743652,,,,,,,,,,,,,,,,,,,,,,,,,,,,,,,,,,,,,,,,,,,,,,,,,,,,,,,,,,,,,,,,,,,,,,
1720080374,70,0,4291.410156,4330.256348,4316.666504,4391.410156,4353.717773,4215,4347.94873,4305.769043,4309.743652,4364.230957,4272.820313,4472.820313,4211.410156,4247.05127,,,,,,,,,,,,,,,,,,,,,,,,,,,,,,,,,,,,,,,,,,,,,,,,,,,,,,,,,,,,,,,,,,,,,,
1720080374,71,0,4309.102539,4343.589844,4322.820313,4399.230957,4363.077148,4214.871582,4355.769043,4311.153809,4311.794922,4370.897461,4280.769043,4478.205078,4217.05127,4259.871582,,,,,,,,,,,,,,,,,,,,,,,,,,,,,,,,,,,,,,,,,,,,,,,,,,,,,,,,,,,,,,,,,,,,,,
1720080374,72,0,4308.717773,4346.153809,4321.922852,4402.179688,4364.358887,4215,4358.717773,4310.128418,4310.641113,4368.974121,4281.794922,4476.025879,4217.436035,4254.487305,,,,,,,,,,,,,,,,,,,,,,,,,,,,,,,,,,,,,,,,,,,,,,,,,,,,,,,,,,,,,,,,,,,,,,
1720080374,73,0,4294.358887,4334.102539,4315.256348,4390.769043,4358.333496,4213.077148,4349.487305,4297.692383,4309.615234,4358.974121,4274.358887,4467.179688,4216.410156,4246.153809,,,,,,,,,,,,,,,,,,,,,,,,,,,,,,,,,,,,,,,,,,,,,,,,,,,,,,,,,,,,,,,,,,,,,,
1720080374,74,0,4302.179688,4341.153809,4321.282227,4396.410156,4363.974121,4216.538574,4354.230957,4301.922852,4314.102539,4371.153809,4279.230957,4477.94873,4223.333496,4259.615234,,,,,,,,,,,,,,,,,,,,,,,,,,,,,,,,,,,,,,,,,,,,,,,,,,,,,,,,,,,,,,,,,,,,,,
1720080374,75,0,4306.666504,4353.077148,4326.666504,4406.410156,4370,4219.871582,4363.333496,4313.846191,4304.743652,4382.820313,4280.128418,4482.436035,4219.230957,4259.743652,,,,,,,,,,,,,,,,,,,,,,,,,,,,,,,,,,,,,,,,,,,,,,,,,,,,,,,,,,,,,,,,,,,,,,
1720080374,76,0,4291.794922,4342.05127,4313.333496,4396.538574,4361.666504,4213.974121,4357.05127,4310,4286.282227,4371.410156,4271.922852,4464.871582,4213.461426,4245,,,,,,,,,,,,,,,,,,,,,,,,,,,,,,,,,,,,,,,,,,,,,,,,,,,,,,,,,,,,,,,,,,,,,,
1720080374,77,0,4287.94873,4328.974121,4307.05127,4389.230957,4356.538574,4210.128418,4353.461426,4308.461426,4282.820313,4367.820313,4276.922852,4465.256348,4224.487305,4245.897461,,,,,,,,,,,,,,,,,,,,,,,,,,,,,,,,,,,,,,,,,,,,,,,,,,,,,,,,,,,,,,,,,,,,,,
1720080374,78,0,4300,4334.102539,4320,4396.410156,4359.358887,4217.05127,4358.589844,4320.256348,4272.436035,4380.256348,4283.077148,4481.666504,4227.05127,4251.410156,,,,,,,,,,,,,,,,,,,,,,,,,,,,,,,,,,,,,,,,,,,,,,,,,,,,,,,,,,,,,,,,,,,,,,
1720080374,79,0,4317.179688,4347.563965,4326.538574,4404.102539,4360.384766,4223.589844,4360.512695,4328.461426,4233.461426,4385.128418,4276.922852,4479.230957,4213.846191,4251.666504,,,,,,,,,,,,,,,,,,,,,,,,,,,,,,,,,,,,,,,,,,,,,,,,,,,,,,,,,,,,,,,,,,,,,,
1720080374,80,0,4318.589844,4346.922852,4318.717773,4398.846191,4358.589844,4222.179688,4358.717773,4326.794922,4189.743652,4380.769043,4262.179688,4468.077148,4201.794922,4243.589844,,,,,,,,,,,,,,,,,,,,,,,,,,,,,,,,,,,,,,,,,,,,,,,,,,,,,,,,,,,,,,,,,,,,,,
1720080374,81,0,4285.384766,4325,4299.615234,4380.897461,4350.256348,4214.102539,4350,4316.922852,4154.102539,4372.179688,4237.179688,4450.769043,4182.179688,4217.563965,3.468736,1.713889,1.47539,1.393002,0.410968,1.727021,1.237605,0.687013,0.204228,0.217647,2.265533,1.624886,1.052793,0.459246,0.34031,1.360627,0.814886,0.930956,0.357227,0.238145,0.43896,0.32279,0.3729,0.106546,0.075151,1.723423,0.421296,0.374979,0.10208,0.08794,1.619773,2.381918,1.676417,0.339133,0.220667,9.942135,6.061243,3.079609,0.508848,0.257404,135.08548,12.01263,3.964066,2.412185,0.620827,3.230584,1.619624,1.004773,0.633732,0.300251,1.553526,3.902554,1.861249,0.820741,0.484903,2.351177,3.055283,1.742463,0.491293,0.436345,1.478299,3.845313,1.918686,0.887702,0.406289,2.709697,4.810035,2.072887,0.793729,0.540543
1720080374,82,0,4259.358887,4304.743652,4286.666504,4366.282227,4342.05127,4211.794922,4341.794922,4310.384766,4138.077148,4364.230957,4225.769043,4435.256348,4171.666504,4208.077148,,,,,,,,,,,,,,,,,,,,,,,,,,,,,,,,,,,,,,,,,,,,,,,,,,,,,,,,,,,,,,,,,,,,,,
1720080374,83,0,4275.512695,4312.94873,4301.538574,4373.846191,4348.461426,4224.743652,4348.974121,4318.205078,4178.846191,4371.153809,4247.820313,4452.307617,4193.846191,4232.692383,,,,,,,,,,,,,,,,,,,,,,,,,,,,,,,,,,,,,,,,,,,,,,,,,,,,,,,,,,,,,,,,,,,,,,
1720080374,84,0,4302.820313,4335,4325,4397.05127,4360.897461,4243.589844,4362.563965,4326.538574,4251.410156,4383.333496,4272.05127,4481.666504,4217.05127,4259.743652,,,,,,,,,,,,,,,,,,,,,,,,,,,,,,,,,,,,,,,,,,,,,,,,,,,,,,,,,,,,,,,,,,,,,,
1720080374,85,0,4320.256348,4342.05127,4335.897461,4412.563965,4366.282227,4258.461426,4371.025879,4326.794922,4298.974121,4384.871582,4278.717773,4493.077148,4220.769043,4275.128418,,,,,,,,,,,,,,,,,,,,,,,,,,,,,,,,,,,,,,,,,,,,,,,,,,,,,,,,,,,,,,,,,,,,,,
1720080374,86,0,4338.333496,4344.358887,4343.077148,4418.974121,4371.025879,4263.461426,4373.846191,4326.922852,4328.717773,4381.282227,4286.538574,4491.922852,4228.589844,4283.077148,,,,,,,,,,,,,,,,,,,,,,,,,,,,,,,,,,,,,,,,,,,,,,,,,,,,,,,,,,,,,,,,,,,,,,
1720080374,87,0,4349.615234,4358.461426,4350.641113,4421.922852,4374.871582,4264.487305,4373.974121,4323.974121,4357.05127,4379.743652,4296.410156,4493.974121,4240.897461,4286.922852,,,,,,,,,,,,,,,,,,,,,,,,,,,,,,,,,,,,,,,,,,,,,,,,,,,,,,,,,,,,,,,,,,,,,,
1720080374,88,0,4346.794922,4367.05127,4349.358887,4420.641113,4373.205078,4269.743652,4372.820313,4316.282227,4374.487305,4376.282227,4292.692383,4495.256348,4235.256348,4281.666504,,,,,,,,,,,,,,,,,,,,,,,,,,,,,,,,,,,,,,,,,,,,,,,,,,,,,,,,,,,,,,,,,,,,,,
1720080374,89,0,4342.307617,4357.307617,4341.538574,4412.692383,4370.769043,4274.487305,4370.128418,4311.538574,4387.563965,4365.512695,4278.461426,4483.717773,4214.871582,4265.897461,,,,,,,,,,,,,,,,,,,,,,,,,,,,,,,,,,,,,,,,,,,,,,,,,,,,,,,,,,,,,,,,,,,,,,
1720080374,90,0,4341.922852,4350.128418,4340.641113,4408.589844,4369.615234,4273.717773,4363.974121,4306.538574,4399.230957,4354.743652,4272.563965,4469.615234,4211.282227,4257.436035,,,,,,,,,,,,,,,,,,,,,,,,,,,,,,,,,,,,,,,,,,,,,,,,,,,,,,,,,,,,,,,,,,,,,,
1720080374,91,0,4345.128418,4357.436035,4346.794922,4411.153809,4370.384766,4278.589844,4364.230957,4307.820313,4402.94873,4357.179688,4284.230957,4477.179688,4229.487305,4270.897461,,,,,,,,,,,,,,,,,,,,,,,,,,,,,,,,,,,,,,,,,,,,,,,,,,,,,,,,,,,,,,,,,,,,,,
1720080374,92,0,4348.205078,4361.282227,4349.487305,4411.153809,4372.05127,4289.230957,4371.666504,4311.025879,4408.461426,4362.05127,4292.563965,4489.230957,4237.94873,4280.641113,,,,,,,,,,,,,,,,,,,,,,,,,,,,,,,,,,,,,,,,,,,,,,,,,,,,,,,,,,,,,,,,,,,,,,
1720080374,93,0,4344.871582,4352.94873,4343.333496,4412.436035,4374.871582,4288.974121,4370.769043,4303.077148,4420.384766,4357.436035,4285.512695,4479.871582,4232.05127,4271.153809,,,,,,,,,,,,,,,,,,,,,,,,,,,,,,,,,,,,,,,,,,,,,,,,,,,,,,,,,,,,,,,,,,,,,,
1720080374,94,0,4327.179688,4342.179688,4333.333496,4408.461426,4371.025879,4286.794922,4359.743652,4293.846191,4424.871582,4347.563965,4277.05127,4467.692383,4229.230957,4261.666504,,,,,,,,,,,,,,,,,,,,,,,,,,,,,,,,,,,,,,,,,,,,,,,,,,,,,,,,,,,,,,,,,,,,,,
1720080374,95,0,4305.512695,4338.717773,4324.487305,4397.820313,4364.102539,4292.436035,4352.436035,4291.922852,4425,4340.769043,4277.179688,4463.205078,4228.077148,4261.153809,,,,,,,,,,,,,,,,,,,,,,,,,,,,,,,,,,,,,,,,,,,,,,,,,,,,,,,,,,,,,,,,,,,,,,
1720080374,96,0,4306.922852,4344.487305,4326.153809,4401.282227,4371.025879,4298.077148,4355.512695,4293.589844,4436.666504,4344.230957,4281.410156,4466.794922,4230.641113,4264.871582,,,,,,,,,,,,,,,,,,,,,,,,,,,,,,,,,,,,,,,,,,,,,,,,,,,,,,,,,,,,,,,,,,,,,,
1720080374,97,0,4320.641113,4345.641113,4333.461426,4408.461426,4380.641113,4298.461426,4357.692383,4293.589844,4448.461426,4350.897461,4281.025879,4472.820313,4232.692383,4263.461426,3.293408,2.023808,1.537928,1.237861,0.38806,1.722428,1.231212,0.726896,0.216975,0.238128,1.825771,1.729389,1.105578,0.4765,0.323953,1.255683,0.694892,1.030269,0.356358,0.239139,0.391683,0.253237,0.385052,0.103629,0.07619,1.892029,0.428183,0.373094,0.108119,0.09724,1.790344,2.630259,1.873719,0.378712,0.222419,9.684276,6.550185,3.26971,0.476223,0.274981,128.370895,9.618065,3.864647,2.48872,0.634318,3.12441,1.756095,1.15831,0.658086,0.318086,1.194409,4.16793,1.971711,0.908953,0.479214,2.189425,3.492404,1.860742,0.486975,0.439028,1.327501,3.828221,2.057431,0.986116,0.375777,2.12539,5.017004,2.110162,0.844469,0.508439
1720080374,98,0,4326.410156,4340.897461,4331.153809,4402.307617,4375.641113,4296.538574,4355.641113,4292.307617,4447.179688,4351.922852,4278.461426,4467.563965,4230.512695,4261.025879,,,,,,,,,,,,,,,,,,,,,,,,,,,,,,,,,,,,,,,,,,,,,,,,,,,,,,,,,,,,,,,,,,,,,,
1720080374,99,0,4334.743652,4342.307617,4331.410156,4400,4370.897461,4296.153809,4357.179688,4293.077148,4449.871582,4350.897461,4276.282227,4466.025879,4231.153809,4259.743652,,,,,,,,,,,,,,,,,,,,,,,,,,,,,,,,,,,,,,,,,,,,,,,,,,,,,,,,,,,,,,,,,,,,,,
1720080374,100,0,4341.153809,4345.256348,4334.230957,4405,4375.384766,4296.282227,4359.230957,4291.282227,4460.256348,4347.820313,4271.153809,4471.025879,4226.794922,4252.563965,,,,,,,,,,,,,,,,,,,,,,,,,,,,,,,,,,,,,,,,,,,,,,,,,,,,,,,,,,,,,,,,,,,,,,
1720080374,101,0,4330,4341.153809,4325.256348,4398.974121,4374.487305,4293.461426,4357.05127,4282.05127,4460.897461,4337.436035,4263.461426,4463.333496,4213.846191,4244.487305,,,,,,,,,,,,,,,,,,,,,,,,,,,,,,,,,,,,,,,,,,,,,,,,,,,,,,,,,,,,,,,,,,,,,,
1720080374,102,0,4320.897461,4339.487305,4321.282227,4393.589844,4370.256348,4291.282227,4357.94873,4279.358887,4457.692383,4334.487305,4260.512695,4453.974121,4210.512695,4244.487305,,,,,,,,,,,,,,,,,,,,,,,,,,,,,,,,,,,,,,,,,,,,,,,,,,,,,,,,,,,,,,,,,,,,,,
1720080374,103,0,4327.179688,4341.794922,4330.897461,4398.077148,4373.461426,4293.589844,4365.384766,4288.077148,4458.974121,4343.077148,4265.128418,4460.897461,4220.128418,4249.743652,,,,,,,,,,,,,,,,,,,,,,,,,,,,,,,,,,,,,,,,,,,,,,,,,,,,,,,,,,,,,,,,,,,,,,
1720080374,104,0,4327.820313,4337.820313,4329.615234,4394.615234,4374.615234,4296.025879,4368.077148,4286.922852,4459.871582,4343.589844,4267.179688,4458.974121,4225.128418,4250.641113,,,,,,,,,,,,,,,,,,,,,,,,,,,,,,,,,,,,,,,,,,,,,,,,,,,,,,,,,,,,,,,,,,,,,,
1720080374,105,0,4325,4337.05127,4320.512695,4386.282227,4372.436035,4299.743652,4365.897461,4279.743652,4468.077148,4339.871582,4265.512695,4453.205078,4218.717773,4248.717773,,,,,,,,,,,,,,,,,,,,,,,,,,,,,,,,,,,,,,,,,,,,,,,,,,,,,,,,,,,,,,,,,,,,,,
1720080374,106,0,4331.025879,4340.256348,4324.743652,4387.179688,4374.743652,4304.743652,4365.897461,4282.563965,4473.333496,4341.538574,4265.641113,4461.794922,4216.410156,4247.692383,,,,,,,,,,,,,,,,,,,,,,,,,,,,,,,,,,,,,,,,,,,,,,,,,,,,,,,,,,,,,,,,,,,,,,
1720080374,107,0,4326.538574,4334.743652,4325.641113,4386.025879,4373.333496,4302.307617,4366.282227,4282.179688,4465.384766,4343.974121,4268.333496,4462.820313,4225.512695,4248.974121,,,,,,,,,,,,,,,,,,,,,,,,,,,,,,,,,,,,,,,,,,,,,,,,,,,,,,,,,,,,,,,,,,,,,,
1720080374,108,0,4308.717773,4324.102539,4311.922852,4375.769043,4362.94873,4297.05127,4365.769043,4277.94873,4456.025879,4341.410156,4264.615234,4453.974121,4228.461426,4245,,,,,,,,,,,,,,,,,,,,,,,,,,,,,,,,,,,,,,,,,,,,,,,,,,,,,,,,,,,,,,,,,,,,,,
1720080374,109,0,4302.179688,4320.384766,4303.205078,4368.846191,4358.077148,4299.102539,4365.384766,4280.384766,4449.615234,4335.128418,4252.05127,4448.077148,4214.230957,4234.871582,,,,,,,,,,,,,,,,,,,,,,,,,,,,,,,,,,,,,,,,,,,,,,,,,,,,,,,,,,,,,,,,,,,,,,
1720080374,110,0,4310.512695,4321.282227,4303.077148,4372.179688,4363.077148,4300,4364.358887,4274.102539,4438.461426,4325.641113,4244.230957,4439.743652,4202.94873,4227.179688,,,,,,,,,,,,,,,,,,,,,,,,,,,,,,,,,,,,,,,,,,,,,,,,,,,,,,,,,,,,,,,,,,,,,,
1720080374,111,0,4316.282227,4321.025879,4301.666504,4374.487305,4365.769043,4297.179688,4366.025879,4266.025879,4432.820313,4325.769043,4247.563965,4435.384766,4204.487305,4227.05127,,,,,,,,,,,,,,,,,,,,,,,,,,,,,,,,,,,,,,,,,,,,,,,,,,,,,,,,,,,,,,,,,,,,,,
1720080374,112,0,4321.282227,4322.820313,4301.922852,4371.153809,4364.102539,4301.153809,4365.897461,4272.05127,4432.436035,4334.615234,4248.461426,4439.871582,4212.94873,4235.512695,,,,,,,,,,,,,,,,,,,,,,,,,,,,,,,,,,,,,,,,,,,,,,,,,,,,,,,,,,,,,,,,,,,,,,
1720080374,113,0,4332.563965,4327.307617,4307.307617,4374.487305,4366.794922,4308.461426,4364.743652,4280.512695,4420.641113,4332.307617,4247.563965,4442.436035,4226.410156,4242.436035,3.00692,2.249021,1.468438,1.084767,0.369664,1.639917,1.23302,0.703369,0.234147,0.27041,1.536966,1.776632,1.081262,0.469987,0.305605,1.218757,0.643954,1.005868,0.34023,0.24483,0.357878,0.218863,0.366788,0.09899,0.079841,2.317765,0.444929,0.350277,0.118857,0.105828,1.86666,2.718717,1.880597,0.402284,0.215657,8.638643,6.293837,3.036862,0.418426,0.279717,112.519386,7.873238,4.115602,2.487211,0.663908,2.942034,1.768473,1.241876,0.62393,0.332622,0.88537,4.107201,1.872017,0.942305,0.46898,1.999265,3.628261,1.805443,0.468535,0.435269,1.097384,3.47707,1.961914,1.026482,0.354872,1.649747,4.787411,1.944948,0.833683,0.466234
1720080374,114,0,4341.666504,4333.461426,4314.743652,4381.410156,4371.666504,4312.179688,4368.846191,4278.077148,4415.641113,4331.410156,4255.128418,4444.743652,4232.94873,4248.589844,,,,,,,,,,,,,,,,,,,,,,,,,,,,,,,,,,,,,,,,,,,,,,,,,,,,,,,,,,,,,,,,,,,,,,
1720080374,115,0,4343.077148,4339.871582,4321.153809,4382.436035,4371.922852,4315,4373.974121,4276.538574,4419.487305,4344.871582,4262.05127,4449.871582,4226.025879,4256.922852,,,,,,,,,,,,,,,,,,,,,,,,,,,,,,,,,,,,,,,,,,,,,,,,,,,,,,,,,,,,,,,,,,,,,,
1720080374,116,0,4341.025879,4340.384766,4320.769043,4379.615234,4369.743652,4319.230957,4376.922852,4285.128418,4402.05127,4353.974121,4261.025879,4450.512695,4226.153809,4262.94873,,,,,,,,,,,,,,,,,,,,,,,,,,,,,,,,,,,,,,,,,,,,,,,,,,,,,,,,,,,,,,,,,,,,,,
1720080374,117,0,4345.769043,4341.282227,4319.487305,4380.641113,4370.641113,4324.102539,4381.794922,4291.922852,4376.153809,4355.256348,4266.410156,4454.358887,4244.487305,4265.128418,,,,,,,,,,,,,,,,,,,,,,,,,,,,,,,,,,,,,,,,,,,,,,,,,,,,,,,,,,,,,,,,,,,,,,
1720080374,118,0,4354.102539,4343.846191,4323.333496,4383.205078,4374.102539,4326.410156,4385.128418,4290.256348,4366.153809,4357.692383,4272.436035,4451.666504,4249.230957,4265.512695,,,,,,,,,,,,,,,,,,,,,,,,,,,,,,,,,,,,,,,,,,,,,,,,,,,,,,,,,,,,,,,,,,,,,,
1720080374,119,0,4355.384766,4342.179688,4325.769043,4383.846191,4372.436035,4326.153809,4381.794922,4288.461426,4362.692383,4356.922852,4262.820313,4443.589844,4231.666504,4262.179688,,,,,,,,,,,,,,,,,,,,,,,,,,,,,,,,,,,,,,,,,,,,,,,,,,,,,,,,,,,,,,,,,,,,,,
1720080374,120,0,4352.94873,4343.717773,4327.820313,4383.589844,4370.769043,4331.410156,4383.205078,4293.846191,4360.256348,4359.102539,4261.282227,4451.153809,4233.333496,4260.769043,,,,,,,,,,,,,,,,,,,,,,,,,,,,,,,,,,,,,,,,,,,,,,,,,,,,,,,,,,,,,,,,,,,,,,
1720080374,121,0,4348.717773,4349.615234,4327.179688,4381.922852,4374.615234,4340.128418,4387.820313,4297.692383,4353.077148,4368.974121,4276.153809,4458.205078,4255.769043,4267.820313,,,,,,,,,,,,,,,,,,,,,,,,,,,,,,,,,,,,,,,,,,,,,,,,,,,,,,,,,,,,,,,,,,,,,,
1720080374,122,0,4333.717773,4343.846191,4320.897461,4379.487305,4374.230957,4342.820313,4387.05127,4297.94873,4321.025879,4365.641113,4274.230957,4451.025879,4253.589844,4265.897461,,,,,,,,,,,,,,,,,,,,,,,,,,,,,,,,,,,,,,,,,,,,,,,,,,,,,,,,,,,,,,,,,,,,,,
1720080374,123,0,4322.436035,4334.487305,4313.974121,4376.153809,4366.538574,4341.666504,4383.589844,4303.589844,4287.436035,4359.615234,4257.179688,4443.974121,4232.563965,4254.230957,,,,,,,,,,,,,,,,,,,,,,,,,,,,,,,,,,,,,,,,,,,,,,,,,,,,,,,,,,,,,,,,,,,,,,
1720080374,124,0,4331.538574,4339.743652,4315.128418,4375,4364.487305,4341.282227,4385.384766,4309.102539,4277.563965,4372.05127,4260.256348,4445.897461,4235.897461,4256.794922,,,,,,,,,,,,,,,,,,,,,,,,,,,,,,,,,,,,,,,,,,,,,,,,,,,,,,,,,,,,,,,,,,,,,,
1720080374,125,0,4343.589844,4346.153809,4321.410156,4376.153809,4371.922852,4345.256348,4390.769043,4316.410156,4268.077148,4379.743652,4274.871582,4452.563965,4252.563965,4264.871582,,,,,,,,,,,,,,,,,,,,,,,,,,,,,,,,,,,,,,,,,,,,,,,,,,,,,,,,,,,,,,,,,,,,,,
1720080374,126,0,4342.307617,4343.333496,4318.461426,4374.871582,4374.487305,4349.358887,4387.179688,4319.102539,4249.230957,4372.94873,4268.461426,4448.974121,4251.922852,4255.897461,,,,,,,,,,,,,,,,,,,,,,,,,,,,,,,,,,,,,,,,,,,,,,,,,,,,,,,,,,,,,,,,,,,,,,
1720080374,127,0,4336.282227,4341.025879,4307.179688,4372.307617,4368.589844,4345.512695,4380.641113,4313.077148,4227.179688,4373.974121,4257.563965,4434.871582,4244.487305,4247.692383,,,,,,,,,,,,,,,,,,,,,,,,,,,,,,,,,,,,,,,,,,,,,,,,,,,,,,,,,,,,,,,,,,,,,,
1720080374,0,0,4332.05127,4341.025879,4305.512695,4369.743652,4364.615234,4339.743652,4382.05127,4314.487305,4209.743652,4379.615234,4265,4432.307617,4248.589844,4257.05127,,,,,,,,,,,,,,,,,,,,,,,,,,,,,,,,,,,,,,,,,,,,,,,,,,,,,,,,,,,,,,,,,,,,,,
1720080374,1,0,4331.538574,4347.307617,4314.230957,4372.820313,4366.410156,4341.538574,4387.692383,4325.384766,4218.205078,4378.461426,4273.589844,4442.692383,4253.717773,4267.307617,2.746321,2.361893,1.291851,0.997531,0.365063,1.544342,1.251145,0.625233,0.259724,0.310726,1.454893,1.75192,0.9867,0.452392,0.289003,1.169308,0.660881,0.876834,0.320455,0.252633,0.350949,0.23532,0.327218,0.097388,0.086139,2.765682,0.46522,0.322866,0.13391,0.113248,1.872102,2.602254,1.708915,0.403008,0.200901,7.074004,5.382213,2.486073,0.351111,0.270799,95.600609,7.696593,4.796932,2.45113,0.685481,2.809597,1.645857,1.239243,0.544168,0.341086,0.734449,3.763711,1.636452,0.929452,0.452895,1.887101,3.456912,1.628642,0.457428,0.425264,0.911284,2.917465,1.706119,1.010409,0.3347,1.444791,4.232113,1.666157,0.787184,0.419058
1720080374,2,0,4331.025879,4351.922852,4312.692383,4373.717773,4367.692383,4342.179688,4385.384766,4322.05127,4244.487305,4372.820313,4266.025879,4437.179688,4248.461426,4261.025879,,,,,,,,,,,,,,,,,,,,,,,,,,,,,,,,,,,,,,,,,,,,,,,,,,,,,,,,,,,,,,,,,,,,,,
1720080374,3,0,4327.94873,4344.102539,4303.077148,4365.769043,4367.94873,4337.692383,4378.333496,4309.358887,4262.436035,4363.461426,4256.025879,4426.025879,4242.563965,4247.436035,,,,,,,,,,,,,,,,,,,,,,,,,,,,,,,,,,,,,,,,,,,,,,,,,,,,,,,,,,,,,,,,,,,,,,
1720080374,4,0,4334.871582,4343.077148,4305.256348,4366.153809,4370.128418,4337.820313,4379.358887,4309.871582,4276.794922,4361.153809,4261.282227,4434.871582,4251.410156,4252.05127,,,,,,,,,,,,,,,,,,,,,,,,,,,,,,,,,,,,,,,,,,,,,,,,,,,,,,,,,,,,,,,,,,,,,,
1720080374,5,0,4345.384766,4352.436035,4310.128418,4376.153809,4369.358887,4338.461426,4384.102539,4313.461426,4288.974121,4372.179688,4267.94873,4444.358887,4264.487305,4263.077148,,,,,,,,,,,,,,,,,,,,,,,,,,,,,,,,,,,,,,,,,,,,,,,,,,,,,,,,,,,,,,,,,,,,,,
1720080374,6,0,4335.256348,4347.563965,4301.922852,4370.512695,4364.230957,4332.307617,4380.641113,4309.487305,4281.538574,4370.641113,4256.794922,4435.641113,4255.256348,4252.05127,,,,,,,,,,,,,,,,,,,,,,,,,,,,,,,,,,,,,,,,,,,,,,,,,,,,,,,,,,,,,,,,,,,,,,
1720080374,7,0,4320,4342.563965,4297.179688,4362.94873,4363.333496,4325.384766,4374.615234,4305.384766,4276.025879,4357.436035,4244.230957,4428.974121,4244.487305,4240,,,,,,,,,,,,,,,,,,,,,,,,,,,,,,,,,,,,,,,,,,,,,,,,,,,,,,,,,,,,,,,,,,,,,,
1720080374,8,0,4323.974121,4354.230957,4306.538574,4372.179688,4366.922852,4326.922852,4376.794922,4306.922852,4293.333496,4358.077148,4252.820313,4439.358887,4257.307617,4247.692383,,,,,,,,,,,,,,,,,,,,,,,,,,,,,,,,,,,,,,,,,,,,,,,,,,,,,,,,,,,,,,,,,,,,,,
1720080374,9,0,4329.615234,4356.153809,4309.358887,4373.205078,4369.871582,4329.487305,4379.358887,4308.333496,4308.205078,4361.538574,4265,4443.846191,4266.794922,4253.974121,,,,,,,,,,,,,,,,,,,,,,,,,,,,,,,,,,,,,,,,,,,,,,,,,,,,,,,,,,,,,,,,,,,,,,
1720080374,10,0,4326.538574,4347.563965,4305,4364.487305,4372.692383,4326.410156,4381.282227,4307.05127,4314.358887,4356.282227,4263.717773,4440.128418,4261.794922,4253.461426,,,,,,,,,,,,,,,,,,,,,,,,,,,,,,,,,,,,,,,,,,,,,,,,,,,,,,,,,,,,,,,,,,,,,,
1720080374,11,0,4336.282227,4353.205078,4312.820313,4368.846191,4374.358887,4327.307617,4386.666504,4310.769043,4328.717773,4358.333496,4264.615234,4447.436035,4263.717773,4257.436035,,,,,,,,,,,,,,,,,,,,,,,,,,,,,,,,,,,,,,,,,,,,,,,,,,,,,,,,,,,,,,,,,,,,,,
1720080374,12,0,4349.230957,4363.717773,4321.666504,4374.230957,4374.487305,4328.717773,4383.589844,4311.794922,4341.538574,4360.256348,4266.410156,4447.820313,4265.128418,4253.333496,,,,,,,,,,,,,,,,,,,,,,,,,,,,,,,,,,,,,,,,,,,,,,,,,,,,,,,,,,,,,,,,,,,,,,
1720080374,13,0,4346.025879,4366.153809,4317.563965,4370,4375.128418,4325,4376.922852,4302.436035,4353.077148,4348.717773,4259.871582,4436.153809,4260.256348,4246.666504,,,,,,,,,,,,,,,,,,,,,,,,,,,,,,,,,,,,,,,,,,,,,,,,,,,,,,,,,,,,,,,,,,,,,,
1720080374,14,0,4337.307617,4365.897461,4313.846191,4368.077148,4372.307617,4321.666504,4377.436035,4292.820313,4374.871582,4342.179688,4254.871582,4430.128418,4259.615234,4252.307617,,,,,,,,,,,,,,,,,,,,,,,,,,,,,,,,,,,,,,,,,,,,,,,,,,,,,,,,,,,,,,,,,,,,,,
1720080374,15,0,4338.974121,4365.897461,4318.077148,4370.897461,4373.333496,4325,4381.282227,4297.179688,4391.025879,4348.461426,4259.358887,4435,4265,4261.538574,,,,,,,,,,,,,,,,,,,,,,,,,,,,,,,,,,,,,,,,,,,,,,,,,,,,,,,,,,,,,,,,,,,,,,
1720080374,16,0,4344.743652,4363.461426,4320.384766,4368.589844,4380.128418,4323.974121,4379.358887,4302.563965,4388.846191,4347.820313,4266.666504,4441.410156,4274.102539,4268.205078,,,,,,,,,,,,,,,,,,,,,,,,,,,,,,,,,,,,,,,,,,,,,,,,,,,,,,,,,,,,,,,,,,,,,,
1720080374,17,0,4350.512695,4361.410156,4322.179688,4364.102539,4377.563965,4315.384766,4375.128418,4299.615234,4388.077148,4338.333496,4264.487305,4446.794922,4274.102539,4273.846191,2.594086,2.477411,1.091341,1.037986,0.37976,1.416175,1.326794,0.527344,0.298486,0.35377,1.602672,1.715451,0.860081,0.448613,0.278147,1.160442,0.76696,0.710986,0.318478,0.258886,0.351314,0.314006,0.286016,0.103228,0.095048,3.107347,0.498565,0.31362,0.155427,0.118911,1.882285,2.311679,1.429838,0.384369,0.181554,5.768146,4.115082,1.820241,0.292367,0.252457,84.468727,9.514478,5.812141,2.430105,0.676739,2.908584,1.415149,1.161162,0.447847,0.343673,0.834004,3.304526,1.406472,0.904764,0.432445,1.898087,3.095715,1.43035,0.481472,0.412662,0.799521,2.352744,1.440694,0.972745,0.317469,1.573972,3.598962,1.42742,0.753175,0.376225
1720080374,18,0,4359.615234,4364.615234,4328.333496,4367.05127,4373.974121,4312.692383,4377.05127,4303.846191,4399.871582,4340.128418,4261.282227,4451.666504,4271.153809,4284.615234,,,,,,,,,,,,,,,,,,,,,,,,,,,,,,,,,,,,,,,,,,,,,,,,,,,,,,,,,,,,,,,,,,,,,,
1720080374,19,0,4361.538574,4365.128418,4331.025879,4366.025879,4377.05127,4313.589844,4380.769043,4310.769043,4400.512695,4344.230957,4265.897461,4454.230957,4278.333496,4293.333496,,,,,,,,,,,,,,,,,,,,,,,,,,,,,,,,,,,,,,,,,,,,,,,,,,,,,,,,,,,,,,,,,,,,,,
1720080374,20,0,4355.512695,4366.282227,4332.436035,4362.692383,4377.94873,4312.05127,4380.512695,4309.615234,4386.025879,4341.922852,4267.820313,4459.358887,4284.358887,4292.692383,,,,,,,,,,,,,,,,,,,,,,,,,,,,,,,,,,,,,,,,,,,,,,,,,,,,,,,,,,,,,,,,,,,,,,
1720080374,21,0,4356.025879,4377.94873,4334.615234,4367.692383,4376.538574,4307.436035,4378.077148,4306.538574,4380.512695,4346.025879,4263.333496,4461.282227,4278.846191,4292.94873,,,,,,,,,,,,,,,,,,,,,,,,,,,,,,,,,,,,,,,,,,,,,,,,,,,,,,,,,,,,,,,,,,,,,,
1720080375,22,0,4364.615234,4383.461426,4334.871582,4366.794922,4376.025879,4306.153809,4379.743652,4309.487305,4377.563965,4351.538574,4265,4459.743652,4280.256348,4297.436035,,,,,,,,,,,,,,,,,,,,,,,,,,,,,,,,,,,,,,,,,,,,,,,,,,,,,,,,,,,,,,,,,,,,,,
1720080375,23,0,4366.794922,4373.717773,4333.974121,4356.282227,4373.846191,4311.282227,4383.333496,4315.256348,4360.384766,4349.102539,4268.205078,4459.615234,4283.717773,4293.846191,,,,,,,,,,,,,,,,,,,,,,,,,,,,,,,,,,,,,,,,,,,,,,,,,,,,,,,,,,,,,,,,,,,,,,
1720080375,24,0,4361.922852,4370.128418,4326.922852,4352.179688,4373.205078,4308.717773,4378.974121,4311.922852,4344.230957,4341.794922,4257.94873,4451.410156,4270,4280,,,,,,,,,,,,,,,,,,,,,,,,,,,,,,,,,,,,,,,,,,,,,,,,,,,,,,,,,,,,,,,,,,,,,,
1720080375,25,0,4359.487305,4380.256348,4323.589844,4358.974121,4373.974121,4301.922852,4375.128418,4306.538574,4349.358887,4337.563965,4252.820313,4443.333496,4262.820313,4277.94873,,,,,,,,,,,,,,,,,,,,,,,,,,,,,,,,,,,,,,,,,,,,,,,,,,,,,,,,,,,,,,,,,,,,,,
1720080375,26,0,4352.05127,4383.717773,4326.794922,4364.230957,4373.717773,4303.461426,4375.897461,4307.563965,4366.153809,4338.333496,4256.153809,4443.205078,4272.179688,4284.743652,,,,,,,,,,,,,,,,,,,,,,,,,,,,,,,,,,,,,,,,,,,,,,,,,,,,,,,,,,,,,,,,,,,,,,
1720080375,27,0,4343.974121,4376.794922,4324.230957,4359.871582,4375,4304.102539,4379.102539,4311.666504,4377.05127,4338.461426,4258.461426,4441.794922,4280.641113,4287.05127,,,,,,,,,,,,,,,,,,,,,,,,,,,,,,,,,,,,,,,,,,,,,,,,,,,,,,,,,,,,,,,,,,,,,,
1720080375,28,0,4342.436035,4369.871582,4315.256348,4348.461426,4372.820313,4293.717773,4377.563965,4310.897461,4378.974121,4334.871582,4259.487305,4435,4276.666504,4286.666504,,,,,,,,,,,,,,,,,,,,,,,,,,,,,,,,,,,,,,,,,,,,,,,,,,,,,,,,,,,,,,,,,,,,,,
1720080375,29,0,4350.256348,4372.692383,4317.692383,4348.589844,4371.025879,4292.05127,4372.563965,4310.384766,4383.717773,4335.256348,4263.333496,4439.487305,4277.307617,4290.256348,,,,,,,,,,,,,,,,,,,,,,,,,,,,,,,,,,,,,,,,,,,,,,,,,,,,,,,,,,,,,,,,,,,,,,
1720080375,30,0,4363.717773,4383.333496,4328.077148,4359.358887,4376.794922,4296.794922,4374.615234,4312.94873,4394.230957,4340.641113,4269.743652,4450.769043,4285.128418,4299.102539,,,,,,,,,,,,,,,,,,,,,,,,,,,,,,,,,,,,,,,,,,,,,,,,,,,,,,,,,,,,,,,,,,,,,,
1720080375,31,0,4367.307617,4385,4323.974121,4351.922852,4376.025879,4288.974121,4376.410156,4310.897461,4399.615234,4336.794922,4263.461426,4442.179688,4274.102539,4294.871582,,,,,,,,,,,,,,,,,,,,,,,,,,,,,,,,,,,,,,,,,,,,,,,,,,,,,,,,,,,,,,,,,,,,,,
1720080375,32,0,4358.589844,4379.743652,4314.102539,4340.769043,4370.256348,4278.333496,4366.666504,4305.641113,4404.230957,4329.743652,4252.94873,4424.615234,4259.615234,4281.922852,,,,,,,,,,,,,,,,,,,,,,,,,,,,,,,,,,,,,,,,,,,,,,,,,,,,,,,,,,,,,,,,,,,,,,
1720080375,33,0,4358.589844,4382.307617,4319.358887,4348.461426,4376.025879,4275.897461,4380.256348,4308.461426,4414.358887,4333.205078,4261.666504,4428.333496,4270,4284.743652,2.8761,2.745858,0.944722,1.221067,0.40902,1.409346,1.483995,0.445053,0.346756,0.391664,2.010762,1.74196,0.738568,0.477357,0.273513,1.197522,0.96347,0.576295,0.346801,0.259712,0.370073,0.443426,0.259191,0.117448,0.105163,3.739368,0.542338,0.334857,0.182893,0.1217,1.862243,1.925215,1.128896,0.355159,0.161811,4.879648,2.83999,1.230543,0.254774,0.231186,80.999016,13.030234,6.869637,2.440418,0.62793,3.133431,1.12837,1.038716,0.364852,0.340929,1.223405,2.891268,1.291789,0.896452,0.410639,2.102496,2.68656,1.289223,0.554111,0.400943,0.888183,1.939051,1.292119,0.948647,0.314108,2.166912,3.110245,1.332771,0.766831,0.344925
1720080375,34,0,4367.436035,4390.384766,4332.692383,4358.589844,4381.922852,4273.461426,4431.153809,4323.461426,4426.794922,4338.846191,4278.974121,4445.128418,4287.05127,4301.410156,,,,,,,,,,,,,,,,,,,,,,,,,,,,,,,,,,,,,,,,,,,,,,,,,,,,,,,,,,,,,,,,,,,,,,
1720080375,35,0,4360.512695,4388.205078,4328.077148,4353.333496,4374.487305,4266.282227,4457.307617,4331.794922,4438.589844,4332.94873,4273.846191,4440,4278.589844,4300.641113,,,,,,,,,,,,,,,,,,,,,,,,,,,,,,,,,,,,,,,,,,,,,,,,,,,,,,,,,,,,,,,,,,,,,,
1720080375,36,0,4348.461426,4380,4314.615234,4344.871582,4370.512695,4263.077148,4442.692383,4326.282227,4446.410156,4324.230957,4255.769043,4424.230957,4262.94873,4282.692383,,,,,,,,,,,,,,,,,,,,,,,,,,,,,,,,,,,,,,,,,,,,,,,,,,,,,,,,,,,,,,,,,,,,,,
1720080375,37,0,4346.410156,4378.589844,4311.538574,4341.922852,4374.871582,4266.410156,4439.230957,4325,4442.692383,4324.102539,4254.743652,4425.897461,4260.897461,4274.871582,,,,,,,,,,,,,,,,,,,,,,,,,,,,,,,,,,,,,,,,,,,,,,,,,,,,,,,,,,,,,,,,,,,,,,
1720080375,38,0,4353.333496,4384.743652,4314.487305,4341.410156,4374.615234,4266.025879,4448.974121,4328.589844,4436.282227,4328.461426,4263.717773,4433.333496,4262.05127,4285.512695,,,,,,,,,,,,,,,,,,,,,,,,,,,,,,,,,,,,,,,,,,,,,,,,,,,,,,,,,,,,,,,,,,,,,,
1720080375,39,0,4358.077148,4386.666504,4316.666504,4341.794922,4370.897461,4262.179688,4443.205078,4327.179688,4437.179688,4326.410156,4267.563965,4428.974121,4262.307617,4293.077148,,,,,,,,,,,,,,,,,,,,,,,,,,,,,,,,,,,,,,,,,,,,,,,,,,,,,,,,,,,,,,,,,,,,,,
1720080375,40,0,4346.025879,4383.589844,4315,4340.512695,4373.333496,4262.436035,4431.794922,4324.358887,4445.256348,4317.692383,4262.05127,4420.769043,4259.871582,4283.974121,,,,,,,,,,,,,,,,,,,,,,,,,,,,,,,,,,,,,,,,,,,,,,,,,,,,,,,,,,,,,,,,,,,,,,
1720080375,41,0,4336.410156,4387.436035,4315.641113,4343.077148,4377.692383,4264.615234,4430.512695,4325.897461,4462.436035,4316.922852,4260.256348,4424.743652,4262.563965,4284.102539,,,,,,,,,,,,,,,,,,,,,,,,,,,,,,,,,,,,,,,,,,,,,,,,,,,,,,,,,,,,,,,,,,,,,,
1720080375,42,0,4340.128418,4391.410156,4316.666504,4346.282227,4375.384766,4262.436035,4430,4323.589844,4477.436035,4320.641113,4263.205078,4430.641113,4265,4291.538574,,,,,,,,,,,,,,,,,,,,,,,,,,,,,,,,,,,,,,,,,,,,,,,,,,,,,,,,,,,,,,,,,,,,,,
1720080375,43,0,4341.794922,4390.769043,4316.666504,4342.692383,4372.436035,4262.307617,4427.307617,4320.384766,4478.589844,4323.205078,4262.692383,4433.077148,4255,4288.077148,,,,,,,,,,,,,,,,,,,,,,,,,,,,,,,,,,,,,,,,,,,,,,,,,,,,,,,,,,,,,,,,,,,,,,
1720080375,44,0,4343.846191,4390.512695,4317.436035,4339.871582,4373.974121,4259.615234,4428.333496,4324.230957,4475.769043,4323.461426,4262.94873,4435.641113,4245.128418,4287.05127,,,,,,,,,,,,,,,,,,,,,,,,,,,,,,,,,,,,,,,,,,,,,,,,,,,,,,,,,,,,,,,,,,,,,,
1720080375,45,0,4351.794922,4390.256348,4317.692383,4342.563965,4374.102539,4253.717773,4429.743652,4327.692383,4477.307617,4320.897461,4265.128418,4438.205078,4254.871582,4289.358887,,,,,,,,,,,,,,,,,,,,,,,,,,,,,,,,,,,,,,,,,,,,,,,,,,,,,,,,,,,,,,,,,,,,,,
1720080375,46,0,4348.589844,4386.410156,4313.077148,4339.871582,4372.05127,4248.974121,4426.025879,4324.358887,4477.820313,4317.307617,4266.794922,4437.94873,4265.256348,4281.538574,,,,,,,,,,,,,,,,,,,,,,,,,,,,,,,,,,,,,,,,,,,,,,,,,,,,,,,,,,,,,,,,,,,,,,
1720080375,47,0,4338.589844,4389.615234,4306.922852,4338.589844,4373.974121,4238.461426,4426.794922,4322.436035,4480.128418,4318.461426,4262.436035,4438.461426,4251.282227,4276.794922,,,,,,,,,,,,,,,,,,,,,,,,,,,,,,,,,,,,,,,,,,,,,,,,,,,,,,,,,,,,,,,,,,,,,,
1720080375,48,0,4336.282227,4394.358887,4308.589844,4340.256348,4374.743652,4225.384766,4431.282227,4327.692383,4479.743652,4320.512695,4254.743652,4446.282227,4237.179688,4282.820313,,,,,,,,,,,,,,,,,,,,,,,,,,,,,,,,,,,,,,,,,,,,,,,,,,,,,,,,,,,,,,,,,,,,,,
1720080375,49,0,4329.615234,4383.846191,4307.563965,4330.256348,4370.769043,4212.94873,4422.692383,4326.282227,4458.974121,4316.282227,4251.922852,4441.538574,4239.743652,4275.256348,3.529028,3.231582,0.88687,1.495261,0.43917,1.51503,1.696452,0.400198,0.391314,0.415597,2.646364,1.85234,0.649743,0.534188,0.272145,1.326097,1.203937,0.508941,0.397487,0.253128,0.420956,0.58452,0.252951,0.136545,0.113814,3.819425,0.574965,0.380414,0.210194,0.120556,1.87785,1.540103,0.873366,0.324169,0.145665,4.442835,1.808466,0.829298,0.238527,0.212351,81.774826,17.193279,7.654659,2.463084,0.549117,3.349084,0.846881,0.908177,0.311468,0.333213,1.806453,2.599902,1.326995,0.904089,0.390487,2.416697,2.338982,1.23457,0.657705,0.39146,1.174132,1.718647,1.312187,0.947373,0.333688,3.113485,2.859352,1.412302,0.824379,0.327129
1720080375,50,0,4328.461426,4380.512695,4308.846191,4325.769043,4371.794922,4198.077148,4417.692383,4324.871582,4439.615234,4320.641113,4259.358887,4435.769043,4244.743652,4270.512695,,,,,,,,,,,,,,,,,,,,,,,,,,,,,,,,,,,,,,,,,,,,,,,,,,,,,,,,,,,,,,,,,,,,,,
1720080375,51,0,4341.794922,4393.333496,4317.179688,4338.333496,4375.384766,4187.436035,4426.794922,4334.230957,4437.179688,4331.282227,4267.94873,4444.102539,4246.025879,4279.871582,,,,,,,,,,,,,,,,,,,,,,,,,,,,,,,,,,,,,,,,,,,,,,,,,,,,,,,,,,,,,,,,,,,,,,
1720080375,52,0,4344.615234,4398.974121,4312.05127,4343.461426,4373.077148,4180.512695,4423.077148,4332.05127,4428.846191,4325.641113,4261.282227,4440.897461,4247.05127,4275.512695,,,,,,,,,,,,,,,,,,,,,,,,,,,,,,,,,,,,,,,,,,,,,,,,,,,,,,,,,,,,,,,,,,,,,,
1720080375,53,0,4335.128418,4393.717773,4305.256348,4338.461426,4371.794922,4169.358887,4412.94873,4327.05127,4419.871582,4315.512695,4254.615234,4436.025879,4247.563965,4269.230957,,,,,,,,,,,,,,,,,,,,,,,,,,,,,,,,,,,,,,,,,,,,,,,,,,,,,,,,,,,,,,,,,,,,,,
1720080375,54,0,4333.333496,4395,4310.641113,4340.769043,4374.615234,4164.615234,4413.333496,4336.794922,4424.487305,4322.436035,4261.410156,4446.794922,4248.205078,4282.05127,,,,,,,,,,,,,,,,,,,,,,,,,,,,,,,,,,,,,,,,,,,,,,,,,,,,,,,,,,,,,,,,,,,,,,
1720080375,55,0,4337.94873,4400.384766,4314.102539,4342.563965,4376.025879,4166.153809,4406.794922,4339.615234,4425.641113,4331.153809,4268.461426,4450,4251.153809,4293.461426,,,,,,,,,,,,,,,,,,,,,,,,,,,,,,,,,,,,,,,,,,,,,,,,,,,,,,,,,,,,,,,,,,,,,,
1720080375,56,0,4328.333496,4391.410156,4303.077148,4332.692383,4371.666504,4153.461426,4387.05127,4321.282227,4412.307617,4318.205078,4253.589844,4430.641113,4239.487305,4277.307617,,,,,,,,,,,,,,,,,,,,,,,,,,,,,,,,,,,,,,,,,,,,,,,,,,,,,,,,,,,,,,,,,,,,,,
1720080375,57,0,4310.128418,4373.461426,4287.307617,4317.436035,4361.666504,4135.384766,4373.333496,4306.282227,4387.307617,4297.94873,4223.205078,4407.820313,4210.128418,4248.205078,,,,,,,,,,,,,,,,,,,,,,,,,,,,,,,,,,,,,,,,,,,,,,,,,,,,,,,,,,,,,,,,,,,,,,
1720080375,58,0,4311.025879,4366.025879,4281.282227,4310.128418,4355.384766,4134.615234,4375,4312.692383,4364.487305,4297.94873,4217.94873,4404.487305,4200.769043,4239.102539,,,,,,,,,,,,,,,,,,,,,,,,,,,,,,,,,,,,,,,,,,,,,,,,,,,,,,,,,,,,,,,,,,,,,,
1720080375,59,0,4326.153809,4376.282227,4292.820313,4321.410156,4361.538574,4146.922852,4387.692383,4328.589844,4368.077148,4317.05127,4246.794922,4427.692383,4225.897461,4262.05127,,,,,,,,,,,,,,,,,,,,,,,,,,,,,,,,,,,,,,,,,,,,,,,,,,,,,,,,,,,,,,,,,,,,,,
1720080375,60,0,4339.230957,4393.974121,4316.410156,4342.563965,4371.666504,4156.282227,4399.487305,4338.077148,4394.615234,4331.282227,4270.769043,4453.717773,4248.974121,4293.974121,,,,,,,,,,,,,,,,,,,,,,,,,,,,,,,,,,,,,,,,,,,,,,,,,,,,,,,,,,,,,,,,,,,,,,
1720080375,61,0,4346.538574,4403.205078,4324.102539,4351.410156,4375.769043,4160.769043,4400,4338.461426,4410.384766,4331.410156,4268.205078,4454.358887,4251.025879,4302.94873,,,,,,,,,,,,,,,,,,,,,,,,,,,,,,,,,,,,,,,,,,,,,,,,,,,,,,,,,,,,,,,,,,,,,,
1720080375,62,0,4341.794922,4399.102539,4312.179688,4342.179688,4373.077148,4166.410156,4398.461426,4339.358887,4406.282227,4327.692383,4261.538574,4448.846191,4250.384766,4292.692383,,,,,,,,,,,,,,,,,,,,,,,,,,,,,,,,,,,,,,,,,,,,,,,,,,,,,,,,,,,,,,,,,,,,,,
1720080375,63,0,4340,4395.641113,4307.820313,4338.077148,4372.179688,4170.897461,4398.974121,4335.128418,4404.102539,4326.666504,4264.358887,4446.794922,4252.563965,4289.743652,,,,,,,,,,,,,,,,,,,,,,,,,,,,,,,,,,,,,,,,,,,,,,,,,,,,,,,,,,,,,,,,,,,,,,
1720080375,64,0,4352.436035,4400.384766,4313.461426,4348.205078,4377.563965,4172.436035,4397.436035,4326.666504,4416.025879,4327.692383,4265.256348,4442.179688,4248.974121,4292.94873,,,,,,,,,,,,,,,,,,,,,,,,,,,,,,,,,,,,,,,,,,,,,,,,,,,,,,,,,,,,,,,,,,,,,,
1720080375,65,0,4360.897461,4404.358887,4312.94873,4352.307617,4380.769043,4174.102539,4392.692383,4325.128418,4428.205078,4326.922852,4262.820313,4442.692383,4242.179688,4289.871582,4.490219,3.835813,0.892893,1.76507,0.454118,1.715434,1.893506,0.391134,0.415091,0.41924,3.414186,2.003078,0.597252,0.590516,0.269996,1.52765,1.405256,0.499287,0.444694,0.24089,0.478958,0.688649,0.259423,0.153548,0.118306,4.11589,0.575966,0.425237,0.227647,0.115412,1.857545,1.265552,0.689429,0.301934,0.137396,4.170583,1.102805,0.611101,0.234808,0.19847,83.086922,20.772463,7.912769,2.460266,0.463618,3.443673,0.623791,0.793697,0.286097,0.320819,2.42344,2.401258,1.449801,0.903407,0.375018,2.746378,2.095069,1.233699,0.750783,0.384198,1.588742,1.627757,1.446456,0.952242,0.377281,4.284834,2.799224,1.595556,0.886492,0.320963
1720080375,66,0,4351.153809,4401.794922,4304.102539,4343.461426,4373.974121,4173.461426,4380.256348,4318.077148,4431.794922,4317.436035,4251.794922,4434.358887,4235.256348,4277.692383,,,,,,,,,,,,,,,,,,,,,,,,,,,,,,,,,,,,,,,,,,,,,,,,,,,,,,,,,,,,,,,,,,,,,,
1720080375,67,0,4340.128418,4396.025879,4298.461426,4338.974121,4367.179688,4172.692383,4370.512695,4306.794922,4436.410156,4308.205078,4233.077148,4420,4225.512695,4266.025879,,,,,,,,,,,,,,,,,,,,,,,,,,,,,,,,,,,,,,,,,,,,,,,,,,,,,,,,,,,,,,,,,,,,,,
1720080375,68,0,4342.820313,4398.333496,4302.563965,4346.538574,4371.153809,4180.769043,4372.307617,4307.94873,4443.717773,4308.846191,4236.282227,4427.692383,4228.077148,4270.256348,,,,,,,,,,,,,,,,,,,,,,,,,,,,,,,,,,,,,,,,,,,,,,,,,,,,,,,,,,,,,,,,,,,,,,
1720080375,69,0,4353.077148,4409.230957,4315.128418,4355.512695,4379.743652,4193.461426,4377.436035,4315.128418,4450.384766,4311.922852,4256.538574,4445.512695,4244.358887,4283.077148,,,,,,,,,,,,,,,,,,,,,,,,,,,,,,,,,,,,,,,,,,,,,,,,,,,,,,,,,,,,,,,,,,,,,,
1720080375,70,0,4354.358887,4411.794922,4317.94873,4359.615234,4381.025879,4200.384766,4380.512695,4314.487305,4462.179688,4311.153809,4259.230957,4442.692383,4250.256348,4284.871582,,,,,,,,,,,,,,,,,,,,,,,,,,,,,,,,,,,,,,,,,,,,,,,,,,,,,,,,,,,,,,,,,,,,,,
1720080375,71,0,4345.897461,4401.922852,4303.461426,4358.205078,4374.615234,4201.666504,4380.769043,4310.769043,4466.922852,4308.846191,4251.538574,4433.205078,4246.153809,4276.153809,,,,,,,,,,,,,,,,,,,,,,,,,,,,,,,,,,,,,,,,,,,,,,,,,,,,,,,,,,,,,,,,,,,,,,
1720080375,72,0,4339.102539,4395.128418,4297.179688,4357.436035,4372.179688,4205.769043,4378.461426,4314.230957,4455.897461,4313.717773,4255,4436.282227,4244.102539,4276.282227,,,,,,,,,,,,,,,,,,,,,,,,,,,,,,,,,,,,,,,,,,,,,,,,,,,,,,,,,,,,,,,,,,,,,,
1720080375,73,0,4329.871582,4389.102539,4301.794922,4356.153809,4371.538574,4213.717773,4375.384766,4319.743652,4440.128418,4321.025879,4254.102539,4440.256348,4240.128418,4279.743652,,,,,,,,,,,,,,,,,,,,,,,,,,,,,,,,,,,,,,,,,,,,,,,,,,,,,,,,,,,,,,,,,,,,,,
1720080375,74,0,4326.282227,4384.615234,4301.153809,4352.820313,4365.384766,4216.538574,4373.205078,4321.922852,4434.230957,4318.846191,4243.333496,4438.589844,4233.205078,4275.128418,,,,,,,,,,,,,,,,,,,,,,,,,,,,,,,,,,,,,,,,,,,,,,,,,,,,,,,,,,,,,,,,,,,,,,
1720080375,75,0,4340.769043,4394.615234,4300.897461,4357.179688,4368.077148,4215.769043,4372.307617,4321.666504,4449.615234,4319.358887,4247.563965,4438.205078,4241.410156,4278.846191,,,,,,,,,,,,,,,,,,,,,,,,,,,,,,,,,,,,,,,,,,,,,,,,,,,,,,,,,,,,,,,,,,,,,,
1720080375,76,0,4347.05127,4398.333496,4298.974121,4356.922852,4372.436035,4222.179688,4371.282227,4318.333496,4465.897461,4318.333496,4253.077148,4441.794922,4245.256348,4283.205078,,,,,,,,,,,,,,,,,,,,,,,,,,,,,,,,,,,,,,,,,,,,,,,,,,,,,,,,,,,,,,,,,,,,,,
1720080375,77,0,4338.846191,4389.871582,4293.333496,4348.077148,4367.563965,4229.358887,4364.102539,4310.512695,4456.794922,4303.205078,4243.205078,4441.282227,4229.871582,4272.94873,,,,,,,,,,,,,,,,,,,,,,,,,,,,,,,,,,,,,,,,,,,,,,,,,,,,,,,,,,,,,,,,,,,,,,
1720080375,78,0,4342.179688,4392.563965,4296.666504,4347.820313,4367.94873,4231.025879,4358.205078,4307.692383,4444.871582,4298.205078,4242.94873,4439.358887,4230.897461,4268.077148,,,,,,,,,,,,,,,,,,,,,,,,,,,,,,,,,,,,,,,,,,,,,,,,,,,,,,,,,,,,,,,,,,,,,,
1720080375,79,0,4344.230957,4398.974121,4303.333496,4350.897461,4372.563965,4233.717773,4361.153809,4314.743652,4446.666504,4309.358887,4253.333496,4445.897461,4247.436035,4280.128418,,,,,,,,,,,,,,,,,,,,,,,,,,,,,,,,,,,,,,,,,,,,,,,,,,,,,,,,,,,,,,,,,,,,,,
1720080375,80,0,4331.410156,4392.820313,4298.846191,4344.871582,4370.641113,4236.153809,4364.230957,4321.025879,4438.077148,4314.230957,4256.153809,4451.410156,4250.641113,4286.666504,,,,,,,,,,,,,,,,,,,,,,,,,,,,,,,,,,,,,,,,,,,,,,,,,,,,,,,,,,,,,,,,,,,,,,
1720080375,81,0,4324.358887,4385.641113,4295.512695,4338.461426,4367.05127,4235.256348,4364.615234,4325.384766,4413.333496,4316.666504,4255.897461,4453.461426,4245.128418,4281.666504,5.255798,4.326679,0.905285,1.931882,0.443532,1.884501,1.982206,0.403647,0.407195,0.401862,4.033483,2.090939,0.568555,0.611696,0.264326,1.681358,1.482223,0.511332,0.461193,0.227565,0.53093,0.716808,0.263272,0.162123,0.117502,3.716652,0.541332,0.445417,0.228196,0.107691,1.888469,1.211415,0.586273,0.298507,0.142056,3.815012,0.676461,0.502123,0.233431,0.188532,80.982498,22.510971,7.561625,2.403388,0.391799,3.297184,0.487299,0.706463,0.275618,0.304463,2.826224,2.198183,1.563015,0.867043,0.366966,2.955184,1.919492,1.230732,0.792766,0.378705,1.960921,1.557711,1.59283,0.93558,0.436034,5.274708,2.798943,1.773631,0.906603,0.324266
1720080375,82,0,4331.025879,4389.487305,4303.846191,4340.897461,4368.205078,4240.256348,4369.358887,4331.153809,4401.153809,4324.615234,4261.922852,4460.512695,4248.205078,4287.563965,,,,,,,,,,,,,,,,,,,,,,,,,,,,,,,,,,,,,,,,,,,,,,,,,,,,,,,,,,,,,,,,,,,,,,
1720080375,83,0,4340.769043,4392.94873,4306.538574,4343.589844,4369.871582,4248.589844,4375.384766,4333.333496,4415.384766,4327.436035,4263.077148,4464.230957,4251.666504,4293.717773,,,,,,,,,,,,,,,,,,,,,,,,,,,,,,,,,,,,,,,,,,,,,,,,,,,,,,,,,,,,,,,,,,,,,,
1720080375,84,0,4341.794922,4384.871582,4299.615234,4340.641113,4371.666504,4250.512695,4375.384766,4333.077148,4429.230957,4325,4259.358887,4458.974121,4247.94873,4284.615234,,,,,,,,,,,,,,,,,,,,,,,,,,,,,,,,,,,,,,,,,,,,,,,,,,,,,,,,,,,,,,,,,,,,,,
1720080375,85,0,4332.94873,4374.615234,4298.205078,4337.179688,4369.743652,4249.871582,4373.333496,4331.794922,4417.692383,4317.436035,4255.128418,4457.94873,4244.230957,4276.282227,,,,,,,,,,,,,,,,,,,,,,,,,,,,,,,,,,,,,,,,,,,,,,,,,,,,,,,,,,,,,,,,,,,,,,
1720080375,86,0,4324.871582,4375.897461,4298.717773,4338.846191,4366.666504,4251.153809,4370.384766,4330.512695,4399.230957,4311.666504,4252.94873,4460.641113,4243.846191,4276.153809,,,,,,,,,,,,,,,,,,,,,,,,,,,,,,,,,,,,,,,,,,,,,,,,,,,,,,,,,,,,,,,,,,,,,,
1720080375,87,0,4323.077148,4380,4293.461426,4338.205078,4370.384766,4256.282227,4368.717773,4328.974121,4392.563965,4319.743652,4256.025879,4462.179688,4249.615234,4279.487305,,,,,,,,,,,,,,,,,,,,,,,,,,,,,,,,,,,,,,,,,,,,,,,,,,,,,,,,,,,,,,,,,,,,,,
1720080375,88,0,4322.05127,4376.666504,4286.153809,4328.846191,4370.769043,4262.05127,4367.436035,4327.563965,4380.897461,4319.358887,4253.461426,4464.487305,4246.794922,4278.846191,,,,,,,,,,,,,,,,,,,,,,,,,,,,,,,,,,,,,,,,,,,,,,,,,,,,,,,,,,,,,,,,,,,,,,
1720080375,89,0,4317.94873,4376.153809,4287.307617,4322.820313,4365.641113,4261.922852,4363.205078,4327.820313,4361.538574,4309.743652,4247.94873,4463.974121,4242.05127,4274.615234,,,,,,,,,,,,,,,,,,,,,,,,,,,,,,,,,,,,,,,,,,,,,,,,,,,,,,,,,,,,,,,,,,,,,,
1720080375,90,0,4321.410156,4381.666504,4296.538574,4322.820313,4367.436035,4262.05127,4371.922852,4338.205078,4361.025879,4316.153809,4259.615234,4472.692383,4254.102539,4282.820313,,,,,,,,,,,,,,,,,,,,,,,,,,,,,,,,,,,,,,,,,,,,,,,,,,,,,,,,,,,,,,,,,,,,,,
1720080375,91,0,4337.436035,4383.077148,4304.487305,4321.025879,4373.846191,4267.05127,4384.871582,4351.794922,4372.820313,4331.282227,4272.94873,4484.743652,4266.025879,4298.333496,,,,,,,,,,,,,,,,,,,,,,,,,,,,,,,,,,,,,,,,,,,,,,,,,,,,,,,,,,,,,,,,,,,,,,
1720080375,92,0,4343.205078,4381.153809,4302.436035,4317.436035,4375.128418,4266.410156,4378.846191,4347.436035,4370.128418,4334.230957,4265.897461,4477.05127,4261.025879,4297.307617,,,,,,,,,,,,,,,,,,,,,,,,,,,,,,,,,,,,,,,,,,,,,,,,,,,,,,,,,,,,,,,,,,,,,,
1720080375,93,0,4328.077148,4382.436035,4298.077148,4320.256348,4372.692383,4261.538574,4372.307617,4339.615234,4363.077148,4332.94873,4260.641113,4468.461426,4259.487305,4291.153809,,,,,,,,,,,,,,,,,,,,,,,,,,,,,,,,,,,,,,,,,,,,,,,,,,,,,,,,,,,,,,,,,,,,,,
1720080375,94,0,4323.974121,4389.871582,4305.641113,4327.05127,4373.974121,4260.897461,4380.769043,4346.922852,4373.461426,4341.794922,4275.897461,4479.230957,4272.692383,4302.94873,,,,,,,,,,,,,,,,,,,,,,,,,,,,,,,,,,,,,,,,,,,,,,,,,,,,,,,,,,,,,,,,,,,,,,
1720080375,95,0,4344.358887,4399.487305,4316.538574,4329.102539,4379.615234,4263.461426,4385.384766,4358.077148,4389.102539,4351.153809,4293.205078,4489.487305,4283.333496,4315.769043,,,,,,,,,,,,,,,,,,,,,,,,,,,,,,,,,,,,,,,,,,,,,,,,,,,,,,,,,,,,,,,,,,,,,,
1720080375,96,0,4354.743652,4405.256348,4319.102539,4329.743652,4385.512695,4266.538574,4379.615234,4358.333496,4388.974121,4345.256348,4293.589844,4484.102539,4283.589844,4314.743652,,,,,,,,,,,,,,,,,,,,,,,,,,,,,,,,,,,,,,,,,,,,,,,,,,,,,,,,,,,,,,,,,,,,,,
1720080375,97,0,4351.153809,4403.077148,4317.436035,4331.025879,4387.820313,4267.436035,4372.436035,4349.102539,4380.384766,4331.153809,4284.102539,4475.897461,4277.307617,4312.563965,5.54019,4.485152,0.889452,1.933812,0.408602,1.901566,1.901075,0.432541,0.371003,0.369196,4.3165,2.024924,0.562617,0.579624,0.256071,1.709489,1.391882,0.519557,0.434867,0.2188,0.551596,0.657533,0.2524,0.159614,0.112463,3.39263,0.483502,0.431253,0.211377,0.099656,2.087973,1.44756,0.573199,0.315841,0.16296,3.280678,0.453783,0.441036,0.230025,0.180778,75.727882,21.742861,6.694838,2.278248,0.343852,2.959718,0.436432,0.658584,0.265977,0.286218,2.891561,1.910393,1.608177,0.786728,0.370839,2.984347,1.760111,1.208841,0.768947,0.375414,2.128914,1.425284,1.676983,0.880949,0.495495,5.817144,2.72994,1.875134,0.865631,0.337166
1720080375,98,0,4356.025879,4403.333496,4318.717773,4331.025879,4386.794922,4266.025879,4370.769043,4346.025879,4381.538574,4332.307617,4287.692383,4476.794922,4281.282227,4320.256348,,,,,,,,,,,,,,,,,,,,,,,,,,,,,,,,,,,,,,,,,,,,,,,,,,,,,,,,,,,,,,,,,,,,,,
1720080375,99,0,4352.307617,4407.307617,4322.692383,4329.743652,4382.692383,4265.128418,4375.769043,4353.589844,4388.974121,4343.589844,4300.512695,4488.077148,4293.846191,4328.589844,,,,,,,,,,,,,,,,,,,,,,,,,,,,,,,,,,,,,,,,,,,,,,,,,,,,,,,,,,,,,,,,,,,,,,
1720080375,100,0,4331.922852,4400.256348,4317.179688,4325.769043,4379.102539,4265.384766,4368.205078,4351.794922,4386.410156,4340.769043,4297.307617,4485.641113,4291.922852,4322.05127,,,,,,,,,,,,,,,,,,,,,,,,,,,,,,,,,,,,,,,,,,,,,,,,,,,,,,,,,,,,,,,,,,,,,,
1720080375,101,0,4318.974121,4390.256348,4303.461426,4322.179688,4381.153809,4260.897461,4355.512695,4339.871582,4377.820313,4335,4280.512695,4464.487305,4276.025879,4310,,,,,,,,,,,,,,,,,,,,,,,,,,,,,,,,,,,,,,,,,,,,,,,,,,,,,,,,,,,,,,,,,,,,,,
1720080375,102,0,4321.794922,4390.769043,4301.794922,4319.743652,4380.256348,4255.128418,4362.820313,4344.615234,4377.94873,4340.384766,4275.256348,4462.94873,4270.384766,4308.974121,,,,,,,,,,,,,,,,,,,,,,,,,,,,,,,,,,,,,,,,,,,,,,,,,,,,,,,,,,,,,,,,,,,,,,
1720080375,103,0,4326.538574,4390.897461,4307.436035,4314.871582,4374.487305,4245.897461,4367.05127,4352.692383,4386.538574,4343.974121,4280.384766,4475,4287.563965,4313.589844,,,,,,,,,,,,,,,,,,,,,,,,,,,,,,,,,,,,,,,,,,,,,,,,,,,,,,,,,,,,,,,,,,,,,,
1720080375,104,0,4324.615234,4385.384766,4300.641113,4311.153809,4371.410156,4237.692383,4357.94873,4344.230957,4384.615234,4337.94873,4282.820313,4470.256348,4295.384766,4314.358887,,,,,,,,,,,,,,,,,,,,,,,,,,,,,,,,,,,,,,,,,,,,,,,,,,,,,,,,,,,,,,,,,,,,,,
1720080375,105,0,4325.256348,4392.436035,4301.282227,4317.94873,4374.102539,4241.538574,4359.487305,4344.230957,4366.794922,4338.461426,4282.179688,4465.128418,4285.128418,4317.179688,,,,,,,,,,,,,,,,,,,,,,,,,,,,,,,,,,,,,,,,,,,,,,,,,,,,,,,,,,,,,,,,,,,,,,
1720080375,106,0,4331.666504,4404.358887,4313.974121,4327.436035,4379.615234,4244.743652,4368.205078,4357.307617,4349.743652,4352.307617,4281.025879,4471.666504,4285,4321.666504,,,,,,,,,,,,,,,,,,,,,,,,,,,,,,,,,,,,,,,,,,,,,,,,,,,,,,,,,,,,,,,,,,,,,,
1720080375,107,0,4324.615234,4401.794922,4313.846191,4327.94873,4378.717773,4240.641113,4367.307617,4361.794922,4334.743652,4361.410156,4283.974121,4459.487305,4294.615234,4320.384766,,,,,,,,,,,,,,,,,,,,,,,,,,,,,,,,,,,,,,,,,,,,,,,,,,,,,,,,,,,,,,,,,,,,,,
1720080375,108,0,4308.205078,4395.384766,4306.153809,4321.025879,4372.307617,4240,4363.846191,4361.025879,4312.94873,4357.820313,4290.256348,4416.153809,4293.205078,4318.461426,,,,,,,,,,,,,,,,,,,,,,,,,,,,,,,,,,,,,,,,,,,,,,,,,,,,,,,,,,,,,,,,,,,,,,
1720080375,109,0,4312.179688,4395.641113,4309.615234,4321.153809,4374.871582,4246.153809,4368.589844,4369.230957,4296.922852,4359.743652,4294.230957,4390.512695,4293.717773,4322.307617,,,,,,,,,,,,,,,,,,,,,,,,,,,,,,,,,,,,,,,,,,,,,,,,,,,,,,,,,,,,,,,,,,,,,,
1720080375,110,0,4322.05127,4397.307617,4318.333496,4324.230957,4381.538574,4247.692383,4375.769043,4377.563965,4287.436035,4367.692383,4295.256348,4403.205078,4303.974121,4328.077148,,,,,,,,,,,,,,,,,,,,,,,,,,,,,,,,,,,,,,,,,,,,,,,,,,,,,,,,,,,,,,,,,,,,,,
1720080375,111,0,4313.333496,4394.615234,4318.461426,4319.615234,4376.025879,4244.743652,4375.256348,4377.179688,4277.563965,4368.333496,4293.461426,4410.512695,4300.384766,4326.282227,,,,,,,,,,,,,,,,,,,,,,,,,,,,,,,,,,,,,,,,,,,,,,,,,,,,,,,,,,,,,,,,,,,,,,
1720080375,112,0,4309.743652,4394.230957,4311.538574,4318.077148,4371.153809,4243.846191,4372.307617,4372.820313,4282.94873,4368.205078,4289.102539,4399.871582,4291.282227,4322.692383,,,,,,,,,,,,,,,,,,,,,,,,,,,,,,,,,,,,,,,,,,,,,,,,,,,,,,,,,,,,,,,,,,,,,,
1720080375,113,0,4313.333496,4396.538574,4310.256348,4324.487305,4377.436035,4242.94873,4378.333496,4372.179688,4299.102539,4372.692383,4288.846191,4400.897461,4297.563965,4323.717773,5.145866,4.217442,0.850656,1.778696,0.361831,1.724212,1.65335,0.48382,0.323386,0.33126,4.12581,1.784688,0.599915,0.505634,0.25047,1.559436,1.159554,0.53403,0.376874,0.218554,0.53428,0.534182,0.229522,0.1487,0.106026,3.428497,0.439237,0.399983,0.185089,0.093882,2.516556,1.958743,0.677713,0.350543,0.198726,2.625104,0.397356,0.442942,0.227464,0.175067,68.701691,18.745993,5.529987,2.096336,0.322452,2.495263,0.456365,0.674268,0.253772,0.269765,2.622947,1.560482,1.616632,0.684141,0.390987,2.867505,1.601095,1.199569,0.700172,0.376001,2.036708,1.235846,1.718087,0.798591,0.542813,5.715734,2.554881,1.91232,0.786983,0.362243
1720080375,114,0,4306.666504,4395.256348,4318.461426,4326.794922,4382.820313,4239.487305,4380.384766,4371.794922,4296.666504,4373.205078,4291.922852,4408.333496,4302.820313,4324.358887,,,,,,,,,,,,,,,,,,,,,,,,,,,,,,,,,,,,,,,,,,,,,,,,,,,,,,,,,,,,,,,,,,,,,,
1720080375,115,0,4305.256348,4394.615234,4324.358887,4323.974121,4378.846191,4230.512695,4371.282227,4364.487305,4282.179688,4368.589844,4288.461426,4404.358887,4295.769043,4321.794922,,,,,,,,,,,,,,,,,,,,,,,,,,,,,,,,,,,,,,,,,,,,,,,,,,,,,,,,,,,,,,,,,,,,,,
1720080375,116,0,4321.538574,4402.179688,4328.461426,4326.153809,4372.820313,4229.743652,4371.410156,4366.666504,4276.282227,4369.615234,4287.94873,4409.102539,4294.871582,4325.256348,,,,,,,,,,,,,,,,,,,,,,,,,,,,,,,,,,,,,,,,,,,,,,,,,,,,,,,,,,,,,,,,,,,,,,
1720080375,117,0,4333.205078,4406.922852,4331.922852,4332.179688,4376.153809,4233.077148,4379.487305,4376.922852,4277.563965,4373.589844,4293.461426,4420.384766,4300.256348,4332.563965,,,,,,,,,,,,,,,,,,,,,,,,,,,,,,,,,,,,,,,,,,,,,,,,,,,,,,,,,,,,,,,,,,,,,,
1720080375,118,0,4335.769043,4401.794922,4328.717773,4332.436035,4383.205078,4224.615234,4384.487305,4378.333496,4287.179688,4375.769043,4294.102539,4418.333496,4298.717773,4330,,,,,,,,,,,,,,,,,,,,,,,,,,,,,,,,,,,,,,,,,,,,,,,,,,,,,,,,,,,,,,,,,,,,,,
1720080375,119,0,4340.641113,4399.358887,4325.897461,4327.94873,4381.282227,4209.230957,4381.794922,4373.205078,4300,4375.641113,4291.794922,4411.153809,4297.94873,4325.128418,,,,,,,,,,,,,,,,,,,,,,,,,,,,,,,,,,,,,,,,,,,,,,,,,,,,,,,,,,,,,,,,,,,,,,
1720080375,120,0,4341.794922,4402.436035,4330.641113,4327.692383,4378.333496,4200.897461,4374.358887,4370.769043,4310.641113,4371.794922,4290.384766,4411.538574,4300.128418,4327.563965,,,,,,,,,,,,,,,,,,,,,,,,,,,,,,,,,,,,,,,,,,,,,,,,,,,,,,,,,,,,,,,,,,,,,,
1720080375,121,0,4339.743652,4403.717773,4335.769043,4334.102539,4382.692383,4198.846191,4376.794922,4372.563965,4313.333496,4367.820313,4286.153809,4416.282227,4296.153809,4330.512695,,,,,,,,,,,,,,,,,,,,,,,,,,,,,,,,,,,,,,,,,,,,,,,,,,,,,,,,,,,,,,,,,,,,,,
1720080375,122,0,4340.769043,4404.871582,4332.307617,4336.410156,4383.205078,4192.307617,4381.794922,4374.743652,4302.05127,4364.615234,4281.666504,4416.410156,4291.922852,4330.641113,,,,,,,,,,,,,,,,,,,,,,,,,,,,,,,,,,,,,,,,,,,,,,,,,,,,,,,,,,,,,,,,,,,,,,
1720080375,123,0,4342.94873,4402.436035,4329.102539,4333.717773,4379.615234,4183.974121,4376.922852,4375.384766,4293.589844,4365.512695,4288.717773,4417.563965,4294.230957,4329.743652,,,,,,,,,,,,,,,,,,,,,,,,,,,,,,,,,,,,,,,,,,,,,,,,,,,,,,,,,,,,,,,,,,,,,,
1720080375,124,0,4342.563965,4391.922852,4328.846191,4327.179688,4378.974121,4184.615234,4373.333496,4374.487305,4296.410156,4365.769043,4294.871582,4420.641113,4294.615234,4328.333496,,,,,,,,,,,,,,,,,,,,,,,,,,,,,,,,,,,,,,,,,,,,,,,,,,,,,,,,,,,,,,,,,,,,,,
1720080375,125,0,4347.692383,4389.615234,4327.94873,4322.307617,4378.077148,4185.897461,4378.077148,4375.128418,4299.615234,4361.538574,4287.179688,4418.846191,4295.641113,4329.487305,,,,,,,,,,,,,,,,,,,,,,,,,,,,,,,,,,,,,,,,,,,,,,,,,,,,,,,,,,,,,,,,,,,,,,
1720080375,126,0,4354.358887,4391.282227,4320,4319.102539,4376.794922,4173.974121,4371.922852,4369.743652,4295,4355.512695,4275.641113,4407.307617,4288.205078,4324.487305,,,,,,,,,,,,,,,,,,,,,,,,,,,,,,,,,,,,,,,,,,,,,,,,,,,,,,,,,,,,,,,,,,,,,,
1720080375,127,0,4357.436035,4396.410156,4321.025879,4320.641113,4379.102539,4170.384766,4365.897461,4363.846191,4296.538574,4354.871582,4280.512695,4408.333496,4281.666504,4322.563965,,,,,,,,,,,,,,,,,,,,,,,,,,,,,,,,,,,,,,,,,,,,,,,,,,,,,,,,,,,,,,,,,,,,,,
1720080375,0,0,4367.307617,4413.717773,4339.871582,4332.563965,4384.871582,4182.94873,4380.512695,4374.487305,4294.743652,4371.794922,4302.307617,4430.256348,4301.153809,4344.615234,,,,,,,,,,,,,,,,,,,,,,,,,,,,,,,,,,,,,,,,,,,,,,,,,,,,,,,,,,,,,,,,,,,,,,
1720080375,1,0,4363.974121,4408.077148,4333.717773,4329.615234,4380.769043,4176.666504,4386.282227,4382.05127,4260.641113,4382.820313,4305.512695,4429.230957,4311.153809,4349.615234,4.264118,3.626101,0.822254,1.540129,0.32153,1.431314,1.325068,0.562591,0.286507,0.298489,3.532226,1.438195,0.688893,0.421961,0.253918,1.297928,0.872071,0.579024,0.313647,0.227063,0.499684,0.393228,0.206754,0.135522,0.101213,3.918028,0.421232,0.373388,0.161882,0.092018,3.091756,2.63576,0.904224,0.394199,0.242704,1.981786,0.485262,0.531653,0.232781,0.173296,62.460434,14.410577,4.3106,1.892305,0.326705,2.008899,0.535021,0.766543,0.246243,0.259893,2.120935,1.239998,1.653343,0.595511,0.428947,2.670079,1.460667,1.246928,0.631074,0.383858,1.711994,1.048731,1.786539,0.717059,0.571575,5.000515,2.307869,1.933756,0.718324,0.400777
1720080375,2,0,4353.974121,4386.153809,4313.589844,4317.179688,4370.897461,4157.05127,4374.358887,4374.743652,4220.256348,4375.128418,4290.897461,4412.05127,4295,4327.436035,,,,,,,,,,,,,,,,,,,,,,,,,,,,,,,,,,,,,,,,,,,,,,,,,,,,,,,,,,,,,,,,,,,,,,
1720080375,3,0,4365.512695,4397.307617,4319.487305,4325.641113,4375.769043,4153.974121,4371.794922,4372.179688,4222.436035,4376.922852,4292.179688,4416.538574,4290.641113,4329.615234,,,,,,,,,,,,,,,,,,,,,,,,,,,,,,,,,,,,,,,,,,,,,,,,,,,,,,,,,,,,,,,,,,,,,,
1720080375,4,0,4383.205078,4414.871582,4328.717773,4337.179688,4383.461426,4157.307617,4378.461426,4376.410156,4251.922852,4386.666504,4303.077148,4427.05127,4302.563965,4345.769043,,,,,,,,,,,,,,,,,,,,,,,,,,,,,,,,,,,,,,,,,,,,,,,,,,,,,,,,,,,,,,,,,,,,,,
1720080375,5,0,4374.871582,4398.589844,4315.512695,4326.922852,4375.769043,4151.025879,4375.769043,4374.102539,4262.692383,4374.230957,4292.692383,4418.205078,4297.436035,4330.384766,,,,,,,,,,,,,,,,,,,,,,,,,,,,,,,,,,,,,,,,,,,,,,,,,,,,,,,,,,,,,,,,,,,,,,
1720080375,6,0,4357.179688,4386.282227,4305.641113,4316.922852,4372.179688,4148.461426,4369.615234,4367.05127,4272.692383,4360,4277.820313,4406.666504,4287.179688,4310.641113,,,,,,,,,,,,,,,,,,,,,,,,,,,,,,,,,,,,,,,,,,,,,,,,,,,,,,,,,,,,,,,,,,,,,,
1720080375,7,0,4360.641113,4401.794922,4318.589844,4327.436035,4385.128418,4153.333496,4375,4368.846191,4301.282227,4369.487305,4292.307617,4421.282227,4297.307617,4327.179688,,,,,,,,,,,,,,,,,,,,,,,,,,,,,,,,,,,,,,,,,,,,,,,,,,,,,,,,,,,,,,,,,,,,,,
1720080375,8,0,4366.922852,4405.641113,4328.333496,4335.641113,4389.871582,4155.128418,4381.922852,4378.333496,4324.743652,4374.743652,4306.025879,4438.077148,4304.871582,4341.794922,,,,,,,,,,,,,,,,,,,,,,,,,,,,,,,,,,,,,,,,,,,,,,,,,,,,,,,,,,,,,,,,,,,,,,
1720080375,9,0,4360.384766,4395,4322.179688,4330.641113,4384.358887,4156.025879,4382.179688,4376.153809,4336.282227,4370.384766,4293.461426,4429.358887,4295.897461,4328.461426,,,,,,,,,,,,,,,,,,,,,,,,,,,,,,,,,,,,,,,,,,,,,,,,,,,,,,,,,,,,,,,,,,,,,,
1720080375,10,0,4353.205078,4391.410156,4308.974121,4320.128418,4377.94873,4155.384766,4372.05127,4358.717773,4337.563965,4365.641113,4276.153809,4406.282227,4280.769043,4310.641113,,,,,,,,,,,,,,,,,,,,,,,,,,,,,,,,,,,,,,,,,,,,,,,,,,,,,,,,,,,,,,,,,,,,,,
1720080375,11,0,4357.820313,4390.641113,4303.461426,4314.102539,4372.05127,4152.820313,4360.897461,4351.025879,4327.692383,4358.846191,4274.358887,4398.717773,4276.922852,4308.333496,,,,,,,,,,,,,,,,,,,,,,,,,,,,,,,,,,,,,,,,,,,,,,,,,,,,,,,,,,,,,,,,,,,,,,
1720080375,12,0,4371.794922,4391.538574,4309.871582,4318.846191,4375.641113,4151.666504,4368.205078,4365.769043,4326.153809,4366.025879,4288.205078,4413.077148,4291.410156,4319.615234,,,,,,,,,,,,,,,,,,,,,,,,,,,,,,,,,,,,,,,,,,,,,,,,,,,,,,,,,,,,,,,,,,,,,,
1720080375,13,0,4380.897461,4396.410156,4315.897461,4326.538574,4383.205078,4153.717773,4380.256348,4377.436035,4337.179688,4377.436035,4300,4427.563965,4301.922852,4328.974121,,,,,,,,,,,,,,,,,,,,,,,,,,,,,,,,,,,,,,,,,,,,,,,,,,,,,,,,,,,,,,,,,,,,,,
1720080375,14,0,4375.256348,4399.487305,4316.153809,4327.307617,4381.666504,4156.666504,4376.922852,4372.307617,4332.307617,4369.743652,4295.384766,4428.589844,4291.538574,4330.641113,,,,,,,,,,,,,,,,,,,,,,,,,,,,,,,,,,,,,,,,,,,,,,,,,,,,,,,,,,,,,,,,,,,,,,
1720080375,15,0,4361.025879,4395.641113,4309.743652,4324.871582,4378.717773,4156.153809,4369.871582,4367.436035,4313.461426,4364.358887,4285.384766,4421.922852,4280.128418,4326.153809,,,,,,,,,,,,,,,,,,,,,,,,,,,,,,,,,,,,,,,,,,,,,,,,,,,,,,,,,,,,,,,,,,,,,,
1720080375,16,0,4355,4389.615234,4304.615234,4324.358887,4381.282227,4155.384766,4375.128418,4371.794922,4302.692383,4376.410156,4292.179688,4423.589844,4288.974121,4325.897461,,,,,,,,,,,,,,,,,,,,,,,,,,,,,,,,,,,,,,,,,,,,,,,,,,,,,,,,,,,,,,,,,,,,,,
1720080375,17,0,4352.94873,4382.563965,4301.538574,4317.94873,4377.692383,4154.230957,4375.897461,4372.692383,4298.589844,4378.461426,4297.692383,4424.487305,4297.307617,4325,3.362392,2.930771,0.81911,1.30876,0.302112,1.164681,1.035458,0.659967,0.274353,0.276984,2.765135,1.109778,0.80232,0.359376,0.268667,1.061291,0.635108,0.656319,0.268311,0.239935,0.467754,0.283584,0.19384,0.125355,0.099938,4.853225,0.430263,0.367615,0.149837,0.093477,3.654794,3.284531,1.183822,0.431691,0.283904,1.5413,0.66866,0.676756,0.248583,0.177149,58.440208,9.923435,3.298394,1.712122,0.351993,1.590953,0.661711,0.909407,0.247596,0.259605,1.604482,1.05512,1.738262,0.539878,0.478652,2.4358,1.377987,1.361803,0.603745,0.401628,1.284596,0.930858,1.915207,0.653336,0.581757,3.975333,2.054107,1.959666,0.690885,0.446294
1720080375,18,0,4350.256348,4376.794922,4298.974121,4311.025879,4371.794922,4151.538574,4369.102539,4365,4297.179688,4371.282227,4288.589844,4417.94873,4291.153809,4317.307617,,,,,,,,,,,,,,,,,,,,,,,,,,,,,,,,,,,,,,,,,,,,,,,,,,,,,,,,,,,,,,,,,,,,,,
1720080375,19,0,4357.05127,4381.282227,4304.871582,4316.538574,4375.384766,4152.05127,4373.589844,4363.077148,4294.102539,4375.128418,4285.769043,4421.538574,4287.307617,4317.820313,,,,,,,,,,,,,,,,,,,,,,,,,,,,,,,,,,,,,,,,,,,,,,,,,,,,,,,,,,,,,,,,,,,,,,
1720080375,20,0,4370.512695,4391.666504,4321.538574,4327.563965,4382.692383,4155.256348,4383.717773,4371.282227,4292.94873,4385,4300.512695,4440.897461,4299.230957,4336.410156,,,,,,,,,,,,,,,,,,,,,,,,,,,,,,,,,,,,,,,,,,,,,,,,,,,,,,,,,,,,,,,,,,,,,,
1720080375,21,0,4371.282227,4398.846191,4333.333496,4332.820313,4386.538574,4157.179688,4384.358887,4375.128418,4298.333496,4386.922852,4313.333496,4456.410156,4310.897461,4351.025879,,,,,,,,,,,,,,,,,,,,,,,,,,,,,,,,,,,,,,,,,,,,,,,,,,,,,,,,,,,,,,,,,,,,,,
1720080376,22,0,4353.589844,4390.384766,4323.589844,4323.717773,4380.769043,4155.256348,4374.102539,4366.282227,4296.922852,4377.179688,4298.846191,4441.538574,4299.102539,4336.153809,,,,,,,,,,,,,,,,,,,,,,,,,,,,,,,,,,,,,,,,,,,,,,,,,,,,,,,,,,,,,,,,,,,,,,
1720080376,23,0,4339.487305,4372.563965,4304.487305,4309.487305,4372.179688,4151.282227,4364.358887,4357.563965,4279.615234,4370.512695,4281.922852,4422.692383,4284.871582,4316.282227,,,,,,,,,,,,,,,,,,,,,,,,,,,,,,,,,,,,,,,,,,,,,,,,,,,,,,,,,,,,,,,,,,,,,,
1720080376,24,0,4339.230957,4369.102539,4297.179688,4306.282227,4375.128418,4149.871582,4362.179688,4357.563965,4268.333496,4372.692383,4288.461426,4429.230957,4290.641113,4320,,,,,,,,,,,,,,,,,,,,,,,,,,,,,,,,,,,,,,,,,,,,,,,,,,,,,,,,,,,,,,,,,,,,,,
1720080376,25,0,4342.307617,4376.666504,4305.384766,4313.333496,4381.282227,4159.743652,4369.358887,4365.256348,4267.563965,4377.05127,4296.666504,4441.538574,4297.94873,4332.820313,,,,,,,,,,,,,,,,,,,,,,,,,,,,,,,,,,,,,,,,,,,,,,,,,,,,,,,,,,,,,,,,,,,,,,
1720080376,26,0,4344.230957,4377.436035,4307.692383,4312.692383,4375.641113,4168.077148,4378.077148,4375.641113,4244.358887,4386.538574,4292.436035,4435.128418,4295,4335.384766,,,,,,,,,,,,,,,,,,,,,,,,,,,,,,,,,,,,,,,,,,,,,,,,,,,,,,,,,,,,,,,,,,,,,,
1720080376,27,0,4336.282227,4370.256348,4294.615234,4301.025879,4370.128418,4166.282227,4382.179688,4383.589844,4205.897461,4397.563965,4291.282227,4423.589844,4294.615234,4331.410156,,,,,,,,,,,,,,,,,,,,,,,,,,,,,,,,,,,,,,,,,,,,,,,,,,,,,,,,,,,,,,,,,,,,,,
1720080376,28,0,4311.538574,4357.692383,4284.230957,4290.384766,4371.282227,4173.333496,4384.102539,4383.717773,4189.358887,4397.05127,4291.794922,4424.487305,4296.282227,4324.871582,,,,,,,,,,,,,,,,,,,,,,,,,,,,,,,,,,,,,,,,,,,,,,,,,,,,,,,,,,,,,,,,,,,,,,
1720080376,29,0,4286.282227,4348.717773,4283.589844,4291.025879,4368.974121,4182.179688,4381.922852,4373.333496,4198.717773,4390.512695,4285.512695,4422.307617,4294.871582,4317.436035,,,,,,,,,,,,,,,,,,,,,,,,,,,,,,,,,,,,,,,,,,,,,,,,,,,,,,,,,,,,,,,,,,,,,,
1720080376,30,0,4278.974121,4352.820313,4283.846191,4294.230957,4366.794922,4182.436035,4380.256348,4368.333496,4211.153809,4388.333496,4277.692383,4414.358887,4289.615234,4314.102539,,,,,,,,,,,,,,,,,,,,,,,,,,,,,,,,,,,,,,,,,,,,,,,,,,,,,,,,,,,,,,,,,,,,,,
1720080376,31,0,4285.769043,4355.512695,4286.025879,4293.717773,4370.512695,4187.692383,4383.974121,4373.461426,4214.871582,4391.922852,4276.282227,4419.230957,4286.410156,4318.333496,,,,,,,,,,,,,,,,,,,,,,,,,,,,,,,,,,,,,,,,,,,,,,,,,,,,,,,,,,,,,,,,,,,,,,
1720080376,32,0,4302.05127,4357.05127,4298.077148,4300.641113,4375.641113,4200,4389.487305,4377.307617,4216.410156,4399.743652,4290.512695,4436.282227,4296.794922,4332.94873,,,,,,,,,,,,,,,,,,,,,,,,,,,,,,,,,,,,,,,,,,,,,,,,,,,,,,,,,,,,,,,,,,,,,,
1720080376,33,0,4323.205078,4374.487305,4316.410156,4319.871582,4380.641113,4212.436035,4393.205078,4377.94873,4221.794922,4402.179688,4308.717773,4451.922852,4310.897461,4348.461426,2.829689,2.355586,0.833623,1.149681,0.307784,1.06167,0.873019,0.752673,0.288438,0.26783,2.101552,0.900961,0.894608,0.333841,0.291773,0.886655,0.517956,0.741216,0.25081,0.250865,0.471671,0.22964,0.192019,0.120479,0.103041,5.693781,0.470776,0.385332,0.149965,0.097177,4.003277,3.686213,1.408955,0.446268,0.311284,1.288631,0.879354,0.819568,0.271267,0.186759,55.99939,6.240758,2.700407,1.595553,0.392531,1.283646,0.822631,1.053481,0.257555,0.267574,1.240063,1.045013,1.831229,0.513602,0.528724,2.358617,1.376878,1.512633,0.639495,0.430675,0.935181,0.904056,2.063515,0.606335,0.577989,2.983425,1.838046,1.96324,0.705396,0.487472
1720080376,34,0,4332.436035,4386.410156,4319.871582,4329.743652,4385,4222.05127,4396.794922,4380.897461,4226.153809,4398.333496,4306.666504,4454.358887,4312.179688,4349.102539,,,,,,,,,,,,,,,,,,,,,,,,,,,,,,,,,,,,,,,,,,,,,,,,,,,,,,,,,,,,,,,,,,,,,,
1720080376,35,0,4329.102539,4376.410156,4308.846191,4319.615234,4385.128418,4228.333496,4397.94873,4380.769043,4230.769043,4400.512695,4303.205078,4450.384766,4310.897461,4343.846191,,,,,,,,,,,,,,,,,,,,,,,,,,,,,,,,,,,,,,,,,,,,,,,,,,,,,,,,,,,,,,,,,,,,,,
1720080376,36,0,4327.05127,4370.256348,4303.846191,4308.717773,4378.974121,4231.922852,4396.538574,4373.077148,4247.563965,4399.743652,4310.897461,4448.717773,4313.333496,4345.769043,,,,,,,,,,,,,,,,,,,,,,,,,,,,,,,,,,,,,,,,,,,,,,,,,,,,,,,,,,,,,,,,,,,,,,
1720080376,37,0,4325.769043,4374.615234,4308.461426,4312.307617,4374.358887,4235.384766,4396.153809,4366.922852,4267.94873,4391.922852,4308.205078,4452.05127,4312.179688,4347.692383,,,,,,,,,,,,,,,,,,,,,,,,,,,,,,,,,,,,,,,,,,,,,,,,,,,,,,,,,,,,,,,,,,,,,,
1720080376,38,0,4324.358887,4375.641113,4314.230957,4320.897461,4379.230957,4240.641113,4399.102539,4370.384766,4288.846191,4394.487305,4304.358887,4460.256348,4315.128418,4353.333496,,,,,,,,,,,,,,,,,,,,,,,,,,,,,,,,,,,,,,,,,,,,,,,,,,,,,,,,,,,,,,,,,,,,,,
1720080376,39,0,4322.436035,4372.94873,4317.94873,4319.487305,4384.358887,4253.974121,4403.717773,4371.922852,4315.897461,4392.820313,4309.487305,4466.538574,4315.128418,4360.384766,,,,,,,,,,,,,,,,,,,,,,,,,,,,,,,,,,,,,,,,,,,,,,,,,,,,,,,,,,,,,,,,,,,,,,
1720080376,40,0,4319.358887,4369.743652,4315,4313.077148,4380.641113,4263.589844,4402.05127,4364.743652,4326.794922,4377.436035,4304.615234,4463.461426,4300.769043,4355.897461,,,,,,,,,,,,,,,,,,,,,,,,,,,,,,,,,,,,,,,,,,,,,,,,,,,,,,,,,,,,,,,,,,,,,,
1720080376,41,0,4309.230957,4360.256348,4305.512695,4307.692383,4374.230957,4255.128418,4392.179688,4355.769043,4313.077148,4366.922852,4287.692383,4448.846191,4287.436035,4340.897461,,,,,,,,,,,,,,,,,,,,,,,,,,,,,,,,,,,,,,,,,,,,,,,,,,,,,,,,,,,,,,,,,,,,,,
1720080376,42,0,4293.461426,4343.974121,4292.05127,4295.769043,4367.436035,4245,4378.717773,4347.436035,4302.179688,4354.871582,4266.410156,4426.922852,4271.025879,4315.897461,,,,,,,,,,,,,,,,,,,,,,,,,,,,,,,,,,,,,,,,,,,,,,,,,,,,,,,,,,,,,,,,,,,,,,
1720080376,43,0,4291.922852,4334.102539,4282.179688,4284.743652,4361.794922,4245.897461,4369.871582,4337.436035,4311.025879,4341.153809,4250,4410.769043,4248.333496,4297.563965,,,,,,,,,,,,,,,,,,,,,,,,,,,,,,,,,,,,,,,,,,,,,,,,,,,,,,,,,,,,,,,,,,,,,,
1720080376,44,0,4315.512695,4348.333496,4296.025879,4297.05127,4366.794922,4257.436035,4382.307617,4345.769043,4337.307617,4356.666504,4267.94873,4427.307617,4260,4319.358887,,,,,,,,,,,,,,,,,,,,,,,,,,,,,,,,,,,,,,,,,,,,,,,,,,,,,,,,,,,,,,,,,,,,,,
1720080376,45,0,4334.358887,4370,4317.563965,4319.615234,4376.666504,4266.922852,4399.615234,4364.615234,4361.794922,4387.692383,4307.820313,4458.717773,4302.563965,4358.333496,,,,,,,,,,,,,,,,,,,,,,,,,,,,,,,,,,,,,,,,,,,,,,,,,,,,,,,,,,,,,,,,,,,,,,
1720080376,46,0,4330,4371.410156,4317.05127,4322.820313,4378.589844,4265.384766,4394.487305,4361.922852,4364.487305,4386.794922,4313.333496,4460.641113,4307.94873,4363.205078,,,,,,,,,,,,,,,,,,,,,,,,,,,,,,,,,,,,,,,,,,,,,,,,,,,,,,,,,,,,,,,,,,,,,,
1720080376,47,0,4324.487305,4365,4312.94873,4318.717773,4376.794922,4268.205078,4386.794922,4353.589844,4365,4372.05127,4298.205078,4450.641113,4277.05127,4349.615234,,,,,,,,,,,,,,,,,,,,,,,,,,,,,,,,,,,,,,,,,,,,,,,,,,,,,,,,,,,,,,,,,,,,,,
1720080376,48,0,4324.230957,4363.846191,4311.666504,4319.615234,4376.282227,4276.538574,4390.512695,4356.282227,4376.666504,4373.077148,4297.05127,4451.025879,4263.205078,4344.615234,,,,,,,,,,,,,,,,,,,,,,,,,,,,,,,,,,,,,,,,,,,,,,,,,,,,,,,,,,,,,,,,,,,,,,
1720080376,49,0,4330.512695,4366.922852,4309.487305,4320.897461,4379.358887,4278.717773,4387.563965,4356.922852,4380.641113,4376.538574,4299.743652,4452.820313,4266.025879,4344.230957,2.763607,2.022705,0.837158,1.080546,0.329746,1.119609,0.851744,0.810397,0.321943,0.268324,1.691726,0.843813,0.92626,0.345921,0.316343,0.85844,0.527935,0.792969,0.258139,0.254549,0.502577,0.225477,0.194689,0.121076,0.110418,6.300704,0.526073,0.415914,0.157039,0.102341,3.948571,3.687594,1.492053,0.431207,0.318726,1.175009,1.054435,0.907281,0.296292,0.2004,54.258713,3.873739,2.57993,1.560622,0.44256,1.135084,0.994887,1.153031,0.273032,0.278872,1.126828,1.16679,1.856607,0.500128,0.568346,2.54476,1.461152,1.636039,0.735284,0.469416,0.741679,0.934486,2.13713,0.563275,0.567903,2.291442,1.667733,1.894906,0.73812,0.514734
1720080376,50,0,4342.436035,4372.436035,4312.94873,4324.230957,4379.743652,4275.512695,4380.128418,4354.615234,4379.358887,4373.333496,4296.282227,4456.025879,4261.025879,4341.794922,,,,,,,,,,,,,,,,,,,,,,,,,,,,,,,,,,,,,,,,,,,,,,,,,,,,,,,,,,,,,,,,,,,,,,
1720080376,51,0,4335.512695,4370.641113,4314.871582,4328.974121,4375.384766,4274.487305,4377.179688,4353.205078,4391.025879,4368.461426,4291.282227,4456.538574,4256.666504,4333.717773,,,,,,,,,,,,,,,,,,,,,,,,,,,,,,,,,,,,,,,,,,,,,,,,,,,,,,,,,,,,,,,,,,,,,,
1720080376,52,0,4319.102539,4363.205078,4306.794922,4323.589844,4376.922852,4276.153809,4372.436035,4346.282227,4412.820313,4361.922852,4285.384766,4443.974121,4257.179688,4322.05127,,,,,,,,,,,,,,,,,,,,,,,,,,,,,,,,,,,,,,,,,,,,,,,,,,,,,,,,,,,,,,,,,,,,,,
1720080376,53,0,4327.436035,4368.461426,4307.563965,4320.512695,4383.205078,4278.461426,4373.333496,4343.974121,4428.589844,4358.974121,4280.384766,4439.615234,4254.743652,4316.410156,,,,,,,,,,,,,,,,,,,,,,,,,,,,,,,,,,,,,,,,,,,,,,,,,,,,,,,,,,,,,,,,,,,,,,
