Timestamp,EEG.Counter,EEG.Interpolated,EEG.AF3,EEG.F7,EEG.F3,EEG.FC5,EEG.T7,EEG.P7,EEG.O1,EEG.O2,EEG.P8,EEG.T8,EEG.FC6,EEG.F4,EEG.F8,EEG.AF4,POW.AF3.Theta,POW.AF3.Alpha,POW.AF3.BetaL,POW.AF3.BetaH,POW.AF3.Gamma,POW.F7.Theta,POW.F7.Alpha,POW.F7.BetaL,POW.F7.BetaH,POW.F7.Gamma,POW.F3.Theta,POW.F3.Alpha,POW.F3.BetaL,POW.F3.BetaH,POW.F3.Gamma,POW.FC5.Theta,POW.FC5.Alpha,POW.FC5.BetaL,POW.FC5.BetaH,POW.FC5.Gamma,POW.T7.Theta,POW.T7.Alpha,POW.T7.BetaL,POW.T7.BetaH,POW.T7.Gamma,POW.P7.Theta,POW.P7.Alpha,POW.P7.BetaL,POW.P7.BetaH,POW.P7.Gamma,POW.O1.Theta,POW.O1.Alpha,POW.O1.BetaL,POW.O1.BetaH,POW.O1.Gamma,POW.O2.Theta,POW.O2.Alpha,POW.O2.BetaL,POW.O2.BetaH,POW.O2.Gamma,POW.P8.Theta,POW.P8.Alpha,POW.P8.BetaL,POW.P8.BetaH,POW.P8.Gamma,POW.T8.Theta,POW.T8.Alpha,POW.T8.BetaL,POW.T8.BetaH,POW.T8.Gamma,POW.FC6.Theta,POW.FC6.Alpha,POW.FC6.BetaL,POW.FC6.BetaH,POW.FC6.Gamma,POW.F4.Theta,POW.F4.Alpha,POW.F4.BetaL,POW.F4.BetaH,POW.F4.Gamma,POW.F8.Theta,POW.F8.Alpha,POW.F8.BetaL,POW.F8.BetaH,POW.F8.Gamma,POW.AF4.Theta,POW.AF4.Alpha,POW.AF4.BetaL,POW.AF4.BetaH,POW.AF4.Gamma
1720078853,60,0,4342.05127,4384.102539,4315,4370,4397.307617,4436.282227,4411.794922,4396.794922,4401.538574,4475.641113,4302.436035,4605.641113,4330.384766,4346.538574,,,,,,,,,,,,,,,,,,,,,,,,,,,,,,,,,,,,,,,,,,,,,,,,,,,,,,,,,,,,,,,,,,,,,,
1720078853,61,0,4342.05127,4379.615234,4312.436035,4353.717773,4401.025879,4435.128418,4416.410156,4397.692383,4403.717773,4470.512695,4295.256348,4596.153809,4331.153809,4347.94873,,,,,,,,,,,,,,,,,,,,,,,,,,,,,,,,,,,,,,,,,,,,,,,,,,,,,,,,,,,,,,,,,,,,,,
1720078853,62,0,4341.666504,4380.897461,4318.205078,4349.230957,4405,4443.333496,4428.589844,4399.743652,4416.025879,4480.769043,4299.230957,4593.589844,4331.794922,4351.538574,,,,,,,,,,,,,,,,,,,,,,,,,,,,,,,,,,,,,,,,,,,,,,,,,,,,,,,,,,,,,,,,,,,,,,
1720078854,63,0,4340,4379.358887,4314.358887,4350.769043,4398.974121,4442.307617,4427.05127,4409.743652,4415.641113,4490.641113,4300.769043,4617.820313,4326.025879,4351.153809,,,,,,,,,,,,,,,,,,,,,,,,,,,,,,,,,,,,,,,,,,,,,,,,,,,,,,,,,,,,,,,,,,,,,,
1720078854,64,0,4341.666504,4376.794922,4316.153809,4359.487305,4402.05127,4442.179688,4418.077148,4401.282227,4404.615234,4482.179688,4293.461426,4594.615234,4323.333496,4342.179688,,,,,,,,,,,,,,,,,,,,,,,,,,,,,,,,,,,,,,,,,,,,,,,,,,,,,,,,,,,,,,,,,,,,,,
1720078854,65,0,4343.205078,4379.615234,4325.256348,4367.820313,4414.615234,4441.410156,4415.641113,4395.512695,4405.384766,4473.974121,4296.153809,4575.769043,4328.077148,4341.666504,,,,,,,,,,,,,,,,,,,,,,,,,,,,,,,,,,,,,,,,,,,,,,,,,,,,,,,,,,,,,,,,,,,,,,
1720078854,66,0,4336.410156,4377.563965,4315.897461,4368.333496,4409.615234,4432.436035,4414.102539,4409.358887,4409.743652,4475.384766,4298.589844,4612.692383,4322.179688,4348.461426,,,,,,,,,,,,,,,,,,,,,,,,,,,,,,,,,,,,,,,,,,,,,,,,,,,,,,,,,,,,,,,,,,,,,,
1720078854,67,0,4334.358887,4375.256348,4307.692383,4365.256348,4398.974121,4434.102539,4412.563965,4404.358887,4409.358887,4476.410156,4291.025879,4598.974121,4312.436035,4342.94873,,,,,,,,,,,,,,,,,,,,,,,,,,,,,,,,,,,,,,,,,,,,,,,,,,,,,,,,,,,,,,,,,,,,,,
1720078854,68,0,4346.538574,4385.512695,4322.05127,4368.974121,4410.256348,4444.871582,4416.153809,4399.358887,4408.974121,4476.410156,4294.487305,4579.615234,4319.743652,4342.436035,,,,,,,,,,,,,,,,,,,,,,,,,,,,,,,,,,,,,,,,,,,,,,,,,,,,,,,,,,,,,,,,,,,,,,
1720078854,69,0,4354.102539,4390.256348,4330.897461,4372.820313,4418.974121,4444.102539,4417.179688,4409.743652,4407.94873,4477.692383,4299.102539,4602.436035,4324.871582,4347.05127,,,,,,,,,,,,,,,,,,,,,,,,,,,,,,,,,,,,,,,,,,,,,,,,,,,,,,,,,,,,,,,,,,,,,,
1720078854,70,0,4348.461426,4380.128418,4324.102539,4365.769043,4408.333496,4438.717773,4411.666504,4406.538574,4403.846191,4473.846191,4293.589844,4598.077148,4314.230957,4341.666504,,,,,,,,,,,,,,,,,,,,,,,,,,,,,,,,,,,,,,,,,,,,,,,,,,,,,,,,,,,,,,,,,,,,,,
1720078854,71,0,4350.897461,4381.666504,4327.307617,4363.333496,4404.230957,4442.436035,4414.487305,4403.205078,4402.94873,4471.922852,4302.179688,4592.563965,4315.256348,4345.641113,,,,,,,,,,,,,,,,,,,,,,,,,,,,,,,,,,,,,,,,,,,,,,,,,,,,,,,,,,,,,,,,,,,,,,
1720078854,72,0,4365.897461,4395.512695,4340.384766,4384.615234,4412.563965,4442.820313,4426.666504,4409.615234,4406.153809,4473.846191,4318.461426,4608.077148,4332.563965,4360.641113,15.602851,1.554569,1.827799,0.310801,0.214702,2.655497,1.161231,1.325305,0.305756,0.197617,6.073116,1.202387,1.27372,0.24541,0.286492,2.177914,1.319506,1.2051,1.437861,1.064889,0.460069,0.447697,0.418156,0.194221,0.290866,0.49961,0.493697,0.160733,0.116178,0.125068,1.722095,0.466466,0.553402,0.15579,0.123167,1.268104,0.275883,0.343886,0.109724,0.164963,0.840732,0.828746,0.78421,0.190316,0.176458,6.582717,0.801202,0.607428,0.262487,0.179435,3.054831,0.821322,0.879321,0.338466,0.173245,0.177008,0.071837,0.049314,0.113298,0.833323,5.441244,1.400501,1.10765,0.389144,0.138635,11.988043,1.453267,1.336691,0.197133,0.198655
1720078854,73,0,4374.102539,4402.05127,4347.563965,4405.256348,4415.384766,4433.974121,4427.692383,4406.538574,4406.538574,4475.512695,4318.717773,4590,4337.307617,4356.410156,,,,,,,,,,,,,,,,,,,,,,,,,,,,,,,,,,,,,,,,,,,,,,,,,,,,,,,,,,,,,,,,,,,,,,
1720078854,74,0,4370.128418,4401.153809,4343.589844,4398.589844,4408.589844,4429.871582,4419.358887,4404.871582,4406.025879,4476.153809,4310.641113,4581.922852,4333.846191,4341.666504,,,,,,,,,,,,,,,,,,,,,,,,,,,,,,,,,,,,,,,,,,,,,,,,,,,,,,,,,,,,,,,,,,,,,,
1720078854,75,0,4360.512695,4395.769043,4330.384766,4378.205078,4397.436035,4432.05127,4412.692383,4413.846191,4401.282227,4474.358887,4309.230957,4616.025879,4332.436035,4339.487305,,,,,,,,,,,,,,,,,,,,,,,,,,,,,,,,,,,,,,,,,,,,,,,,,,,,,,,,,,,,,,,,,,,,,,
1720078854,76,0,4356.025879,4389.102539,4322.179688,4363.077148,4395,4429.615234,4405.897461,4409.102539,4395.897461,4472.820313,4316.538574,4599.615234,4331.794922,4332.692383,,,,,,,,,,,,,,,,,,,,,,,,,,,,,,,,,,,,,,,,,,,,,,,,,,,,,,,,,,,,,,,,,,,,,,
1720078854,77,0,4360.256348,4391.794922,4326.666504,4368.846191,4401.153809,4425.256348,4406.538574,4408.846191,4398.589844,4472.307617,4324.102539,4589.743652,4336.153809,4333.974121,,,,,,,,,,,,,,,,,,,,,,,,,,,,,,,,,,,,,,,,,,,,,,,,,,,,,,,,,,,,,,,,,,,,,,
1720078854,78,0,4362.05127,4398.846191,4330,4379.743652,4401.666504,4430.384766,4413.205078,4413.077148,4400.897461,4466.922852,4318.589844,4608.846191,4339.102539,4343.974121,,,,,,,,,,,,,,,,,,,,,,,,,,,,,,,,,,,,,,,,,,,,,,,,,,,,,,,,,,,,,,,,,,,,,,
1720078854,79,0,4356.922852,4398.461426,4322.820313,4371.410156,4399.358887,4434.871582,4409.743652,4405.512695,4396.922852,4458.461426,4310.384766,4593.974121,4336.025879,4335.641113,,,,,,,,,,,,,,,,,,,,,,,,,,,,,,,,,,,,,,,,,,,,,,,,,,,,,,,,,,,,,,,,,,,,,,
1720078854,80,0,4353.846191,4391.538574,4319.230957,4366.153809,4398.846191,4433.205078,4404.743652,4408.717773,4394.358887,4462.563965,4312.436035,4597.94873,4333.461426,4325.384766,,,,,,,,,,,,,,,,,,,,,,,,,,,,,,,,,,,,,,,,,,,,,,,,,,,,,,,,,,,,,,,,,,,,,,
1720078854,81,0,4356.282227,4385.769043,4325.897461,4377.820313,4400.769043,4433.333496,4409.743652,4414.230957,4398.589844,4473.205078,4314.358887,4602.179688,4331.666504,4325.641113,,,,,,,,,,,,,,,,,,,,,,,,,,,,,,,,,,,,,,,,,,,,,,,,,,,,,,,,,,,,,,,,,,,,,,
1720078854,82,0,4359.358887,4390.384766,4328.461426,4383.077148,4405.897461,4431.922852,4404.871582,4411.666504,4398.205078,4468.077148,4313.333496,4595.384766,4328.974121,4328.205078,,,,,,,,,,,,,,,,,,,,,,,,,,,,,,,,,,,,,,,,,,,,,,,,,,,,,,,,,,,,,,,,,,,,,,
1720078854,83,0,4358.077148,4396.410156,4323.846191,4372.692383,4403.717773,4428.589844,4394.102539,4411.538574,4390.512695,4457.179688,4311.922852,4598.333496,4328.077148,4323.589844,,,,,,,,,,,,,,,,,,,,,,,,,,,,,,,,,,,,,,,,,,,,,,,,,,,,,,,,,,,,,,,,,,,,,,
1720078854,84,0,4352.692383,4390.641113,4323.589844,4366.538574,4394.230957,4431.153809,4395,4415.256348,4391.153809,4457.692383,4309.358887,4598.461426,4326.666504,4319.358887,,,,,,,,,,,,,,,,,,,,,,,,,,,,,,,,,,,,,,,,,,,,,,,,,,,,,,,,,,,,,,,,,,,,,,
1720078854,85,0,4352.692383,4386.153809,4326.282227,4364.743652,4393.846191,4437.692383,4398.846191,4414.487305,4396.153809,4458.974121,4306.410156,4599.871582,4326.025879,4320.897461,,,,,,,,,,,,,,,,,,,,,,,,,,,,,,,,,,,,,,,,,,,,,,,,,,,,,,,,,,,,,,,,,,,,,,
1720078854,86,0,4359.871582,4394.615234,4328.461426,4365.128418,4403.589844,4436.922852,4403.461426,4411.666504,4395.384766,4464.102539,4306.794922,4599.871582,4328.974121,4318.589844,,,,,,,,,,,,,,,,,,,,,,,,,,,,,,,,,,,,,,,,,,,,,,,,,,,,,,,,,,,,,,,,,,,,,,
1720078854,87,0,4361.538574,4395.897461,4331.794922,4370.512695,4401.922852,4433.974121,4409.358887,4417.692383,4394.615234,4473.333496,4309.615234,4600.128418,4327.692383,4313.717773,,,,,,,,,,,,,,,,,,,,,,,,,,,,,,,,,,,,,,,,,,,,,,,,,,,,,,,,,,,,,,,,,,,,,,
1720078854,88,0,4355.128418,4385.512695,4331.922852,4382.692383,4390.512695,4434.871582,4408.717773,4420.512695,4396.410156,4467.820313,4305.512695,4605.769043,4326.282227,4316.410156,20.296032,2.00088,1.533723,0.267545,0.22001,3.025493,1.136115,1.037062,0.245478,0.195084,7.281029,1.342911,1.160139,0.238448,0.297289,2.662391,1.327652,1.224676,1.371668,1.144402,0.489401,0.425699,0.388636,0.164283,0.279108,0.430739,0.556134,0.160714,0.120231,0.121924,1.891699,0.503252,0.546523,0.140052,0.1198,1.318242,0.236517,0.330906,0.109025,0.172995,0.834829,0.762926,0.715796,0.177224,0.175172,5.333492,0.764948,0.535411,0.227194,0.193469,3.46463,0.89272,0.866126,0.332721,0.178627,0.16868,0.068038,0.06307,0.137404,0.842268,6.074311,1.394304,1.09537,0.374846,0.134509,14.946571,1.784856,1.009032,0.1918,0.192813
1720078854,89,0,4348.205078,4381.153809,4325.769043,4386.025879,4388.589844,4431.410156,4402.307617,4412.692383,4395.512695,4462.563965,4297.307617,4602.94873,4326.794922,4316.153809,,,,,,,,,,,,,,,,,,,,,,,,,,,,,,,,,,,,,,,,,,,,,,,,,,,,,,,,,,,,,,,,,,,,,,
1720078854,90,0,4341.666504,4380.769043,4317.179688,4364.615234,4397.436035,4427.436035,4401.282227,4409.102539,4396.666504,4473.333496,4296.410156,4592.563965,4320,4308.333496,,,,,,,,,,,,,,,,,,,,,,,,,,,,,,,,,,,,,,,,,,,,,,,,,,,,,,,,,,,,,,,,,,,,,,
1720078854,91,0,4342.563965,4382.05127,4317.05127,4351.153809,4397.05127,4430.384766,4406.538574,4421.538574,4396.282227,4477.179688,4300.641113,4610.769043,4316.922852,4313.846191,,,,,,,,,,,,,,,,,,,,,,,,,,,,,,,,,,,,,,,,,,,,,,,,,,,,,,,,,,,,,,,,,,,,,,
1720078854,92,0,4358.077148,4393.846191,4327.692383,4368.974121,4396.410156,4433.589844,4412.563965,4421.794922,4393.077148,4473.333496,4306.794922,4603.205078,4328.717773,4324.358887,,,,,,,,,,,,,,,,,,,,,,,,,,,,,,,,,,,,,,,,,,,,,,,,,,,,,,,,,,,,,,,,,,,,,,
1720078854,93,0,4368.589844,4405.384766,4338.461426,4392.179688,4408.974121,4435.384766,4416.922852,4416.538574,4407.307617,4479.871582,4321.025879,4578.717773,4342.179688,4328.333496,,,,,,,,,,,,,,,,,,,,,,,,,,,,,,,,,,,,,,,,,,,,,,,,,,,,,,,,,,,,,,,,,,,,,,
1720078854,94,0,4362.307617,4403.589844,4338.974121,4392.179688,4410.384766,4441.282227,4416.410156,4429.358887,4414.230957,4481.410156,4329.230957,4612.436035,4337.94873,4333.077148,,,,,,,,,,,,,,,,,,,,,,,,,,,,,,,,,,,,,,,,,,,,,,,,,,,,,,,,,,,,,,,,,,,,,,
1720078854,95,0,4356.922852,4398.205078,4331.282227,4376.666504,4398.205078,4444.230957,4413.589844,4422.05127,4394.743652,4475.512695,4319.230957,4609.743652,4327.94873,4328.717773,,,,,,,,,,,,,,,,,,,,,,,,,,,,,,,,,,,,,,,,,,,,,,,,,,,,,,,,,,,,,,,,,,,,,,
1720078854,96,0,4358.077148,4396.025879,4327.692383,4376.794922,4402.05127,4441.538574,4412.05127,4411.666504,4386.538574,4471.410156,4312.179688,4583.717773,4326.025879,4320,,,,,,,,,,,,,,,,,,,,,,,,,,,,,,,,,,,,,,,,,,,,,,,,,,,,,,,,,,,,,,,,,,,,,,
1720078854,97,0,4357.563965,4402.563965,4330.384766,4390.897461,4416.666504,4443.205078,4413.974121,4426.794922,4399.358887,4465.256348,4316.794922,4604.230957,4326.666504,4319.358887,,,,,,,,,,,,,,,,,,,,,,,,,,,,,,,,,,,,,,,,,,,,,,,,,,,,,,,,,,,,,,,,,,,,,,
1720078854,98,0,4361.153809,4408.846191,4333.077148,4391.538574,4410.512695,4441.410156,4416.410156,4429.743652,4399.871582,4467.05127,4314.743652,4603.205078,4319.230957,4320,,,,,,,,,,,,,,,,,,,,,,,,,,,,,,,,,,,,,,,,,,,,,,,,,,,,,,,,,,,,,,,,,,,,,,
1720078854,99,0,4369.102539,4400.256348,4333.589844,4377.05127,4393.846191,4434.102539,4411.025879,4424.230957,4389.487305,4472.436035,4306.282227,4582.436035,4311.410156,4320.769043,,,,,,,,,,,,,,,,,,,,,,,,,,,,,,,,,,,,,,,,,,,,,,,,,,,,,,,,,,,,,,,,,,,,,,
1720078854,100,0,4368.974121,4392.436035,4334.358887,4368.717773,4393.461426,4436.922852,4405.384766,4440.256348,4391.922852,4465.384766,4308.589844,4602.307617,4314.230957,4326.410156,,,,,,,,,,,,,,,,,,,,,,,,,,,,,,,,,,,,,,,,,,,,,,,,,,,,,,,,,,,,,,,,,,,,,,
1720078854,101,0,4365.641113,4401.538574,4333.846191,4371.282227,4401.538574,4442.179688,4406.922852,4448.461426,4394.358887,4458.077148,4311.538574,4606.153809,4315.128418,4326.282227,,,,,,,,,,,,,,,,,,,,,,,,,,,,,,,,,,,,,,,,,,,,,,,,,,,,,,,,,,,,,,,,,,,,,,
1720078854,102,0,4367.179688,4405.897461,4333.333496,4381.410156,4401.666504,4434.615234,4408.717773,4439.743652,4389.487305,4459.358887,4310.384766,4583.333496,4308.717773,4319.358887,,,,,,,,,,,,,,,,,,,,,,,,,,,,,,,,,,,,,,,,,,,,,,,,,,,,,,,,,,,,,,,,,,,,,,
1720078854,103,0,4366.282227,4396.410156,4332.307617,4383.717773,4398.077148,4428.589844,4407.307617,4445.897461,4390,4458.333496,4318.333496,4604.615234,4306.410156,4321.282227,,,,,,,,,,,,,,,,,,,,,,,,,,,,,,,,,,,,,,,,,,,,,,,,,,,,,,,,,,,,,,,,,,,,,,
1720078854,104,0,4365.384766,4395.512695,4333.077148,4382.179688,4396.794922,4441.282227,4410.256348,4449.102539,4397.436035,4464.102539,4319.871582,4605.384766,4310.769043,4323.461426,23.076818,2.338923,1.269497,0.245027,0.212916,3.230934,1.103151,0.807297,0.201532,0.185899,7.756656,1.457128,1.07438,0.237227,0.291776,2.948947,1.275606,1.312215,1.3874,1.180739,0.512084,0.40476,0.366717,0.141865,0.257586,0.369568,0.609619,0.147414,0.12636,0.120598,1.90901,0.570145,0.514717,0.125364,0.114571,1.279368,0.210722,0.293672,0.107594,0.179248,0.824788,0.667603,0.638863,0.164665,0.162365,4.069101,0.743484,0.497679,0.19662,0.200777,3.630579,0.96819,0.828379,0.309061,0.184341,0.179488,0.0711,0.076571,0.155259,0.880709,6.259224,1.341366,1.069651,0.344077,0.126249,16.816746,2.02979,0.775576,0.19209,0.181842
1720078854,105,0,4368.974121,4400.897461,4337.820313,4392.05127,4393.974121,4446.666504,4413.717773,4447.692383,4399.358887,4472.179688,4307.179688,4590.512695,4312.05127,4320.897461,,,,,,,,,,,,,,,,,,,,,,,,,,,,,,,,,,,,,,,,,,,,,,,,,,,,,,,,,,,,,,,,,,,,,,
1720078854,106,0,4365.256348,4399.487305,4337.563965,4383.974121,4400.256348,4437.94873,4412.05127,4456.025879,4397.820313,4470.769043,4303.846191,4605,4307.179688,4318.205078,,,,,,,,,,,,,,,,,,,,,,,,,,,,,,,,,,,,,,,,,,,,,,,,,,,,,,,,,,,,,,,,,,,,,,
1720078854,107,0,4359.230957,4393.846191,4335.384766,4364.102539,4407.820313,4437.436035,4412.179688,4458.589844,4403.461426,4472.820313,4315.128418,4601.282227,4307.563965,4316.922852,,,,,,,,,,,,,,,,,,,,,,,,,,,,,,,,,,,,,,,,,,,,,,,,,,,,,,,,,,,,,,,,,,,,,,
1720078854,108,0,4364.102539,4394.615234,4341.538574,4376.922852,4404.871582,4440.769043,4413.846191,4458.205078,4403.846191,4475,4326.666504,4598.077148,4318.333496,4326.922852,,,,,,,,,,,,,,,,,,,,,,,,,,,,,,,,,,,,,,,,,,,,,,,,,,,,,,,,,,,,,,,,,,,,,,
1720078854,109,0,4368.205078,4397.563965,4343.333496,4384.615234,4400.128418,4438.717773,4412.692383,4459.487305,4401.666504,4471.666504,4328.333496,4600.641113,4327.436035,4331.025879,,,,,,,,,,,,,,,,,,,,,,,,,,,,,,,,,,,,,,,,,,,,,,,,,,,,,,,,,,,,,,,,,,,,,,
1720078854,110,0,4366.666504,4395.256348,4338.077148,4371.538574,4398.333496,4440,4413.333496,4460.769043,4407.307617,4473.846191,4322.820313,4600,4326.794922,4325.641113,,,,,,,,,,,,,,,,,,,,,,,,,,,,,,,,,,,,,,,,,,,,,,,,,,,,,,,,,,,,,,,,,,,,,,
1720078854,111,0,4373.461426,4396.153809,4342.05127,4390.128418,4402.179688,4444.102539,4414.358887,4456.794922,4414.487305,4478.205078,4318.717773,4600.256348,4327.692383,4329.230957,,,,,,,,,,,,,,,,,,,,,,,,,,,,,,,,,,,,,,,,,,,,,,,,,,,,,,,,,,,,,,,,,,,,,,
1720078854,112,0,4374.743652,4397.05127,4345.384766,4398.333496,4408.461426,4436.922852,4408.205078,4447.436035,4409.743652,4474.487305,4321.282227,4599.487305,4329.102539,4331.922852,,,,,,,,,,,,,,,,,,,,,,,,,,,,,,,,,,,,,,,,,,,,,,,,,,,,,,,,,,,,,,,,,,,,,,
1720078854,113,0,4367.563965,4399.102539,4341.025879,4370.128418,4410.641113,4427.307617,4399.615234,4442.307617,4399.230957,4474.102539,4328.461426,4600.512695,4329.230957,4329.230957,,,,,,,,,,,,,,,,,,,,,,,,,,,,,,,,,,,,,,,,,,,,,,,,,,,,,,,,,,,,,,,,,,,,,,
1720078854,114,0,4372.692383,4407.563965,4343.846191,4376.025879,4404.358887,4431.666504,4400.512695,4443.717773,4401.153809,4475.384766,4331.922852,4600.897461,4335.384766,4329.358887,,,,,,,,,,,,,,,,,,,,,,,,,,,,,,,,,,,,,,,,,,,,,,,,,,,,,,,,,,,,,,,,,,,,,,
1720078854,115,0,4380,4413.077148,4350.641113,4403.589844,4401.794922,4440.641113,4408.974121,4444.102539,4405,4469.615234,4327.179688,4597.436035,4340.128418,4330.384766,,,,,,,,,,,,,,,,,,,,,,,,,,,,,,,,,,,,,,,,,,,,,,,,,,,,,,,,,,,,,,,,,,,,,,
1720078854,116,0,4374.102539,4410.256348,4349.358887,4393.333496,4408.589844,4443.461426,4418.461426,4444.230957,4402.563965,4469.615234,4325.384766,4603.974121,4336.025879,4331.025879,,,,,,,,,,,,,,,,,,,,,,,,,,,,,,,,,,,,,,,,,,,,,,,,,,,,,,,,,,,,,,,,,,,,,,
1720078854,117,0,4369.743652,4408.333496,4346.410156,4375.384766,4413.717773,4441.666504,4426.282227,4450.256348,4405.512695,4471.538574,4326.153809,4605.128418,4336.282227,4330.128418,,,,,,,,,,,,,,,,,,,,,,,,,,,,,,,,,,,,,,,,,,,,,,,,,,,,,,,,,,,,,,,,,,,,,,
1720078854,118,0,4376.794922,4415.512695,4352.692383,4390.384766,4413.205078,4443.461426,4428.589844,4447.94873,4414.230957,4469.743652,4324.487305,4591.025879,4343.333496,4330.512695,,,,,,,,,,,,,,,,,,,,,,,,,,,,,,,,,,,,,,,,,,,,,,,,,,,,,,,,,,,,,,,,,,,,,,
1720078854,119,0,4382.179688,4419.102539,4361.025879,4415.641113,4402.94873,4443.333496,4423.846191,4448.333496,4411.794922,4470.512695,4327.692383,4608.589844,4345.256348,4340.512695,,,,,,,,,,,,,,,,,,,,,,,,,,,,,,,,,,,,,,,,,,,,,,,,,,,,,,,,,,,,,,,,,,,,,,
1720078854,120,0,4380.256348,4416.666504,4359.615234,4420.128418,4403.461426,4440.512695,4422.563965,4452.179688,4406.538574,4470.897461,4325.641113,4610,4344.743652,4338.333496,22.885752,2.458398,1.060584,0.241737,0.196152,3.158445,1.042278,0.656092,0.17587,0.172636,7.291332,1.503544,0.986047,0.243474,0.275083,2.93561,1.161328,1.400189,1.498392,1.165227,0.523983,0.394791,0.344498,0.128756,0.235015,0.331911,0.641461,0.125584,0.136128,0.120511,1.770518,0.655722,0.467059,0.12059,0.109092,1.135457,0.197881,0.240057,0.103056,0.184886,0.798053,0.57452,0.564708,0.152409,0.143106,2.723083,0.725422,0.494784,0.176364,0.200734,3.509207,1.01715,0.763788,0.271913,0.190176,0.20334,0.079887,0.087079,0.161171,0.951297,5.94174,1.245592,1.015198,0.30893,0.117345,16.906504,2.104597,0.641765,0.20549,0.170235
1720078854,121,0,4376.153809,4416.410156,4355.128418,4395.769043,4419.230957,4442.05127,4421.153809,4444.102539,4411.153809,4469.487305,4320.641113,4581.410156,4352.820313,4326.410156,,,,,,,,,,,,,,,,,,,,,,,,,,,,,,,,,,,,,,,,,,,,,,,,,,,,,,,,,,,,,,,,,,,,,,
1720078854,122,0,4375.641113,4416.282227,4355.897461,4380.897461,4416.794922,4441.794922,4416.794922,4450,4409.743652,4471.922852,4331.666504,4609.230957,4362.05127,4339.615234,,,,,,,,,,,,,,,,,,,,,,,,,,,,,,,,,,,,,,,,,,,,,,,,,,,,,,,,,,,,,,,,,,,,,,
1720078854,123,0,4378.205078,4415,4356.025879,4392.436035,4398.077148,4442.692383,4419.871582,4454.230957,4405.384766,4478.846191,4337.05127,4616.666504,4361.922852,4348.846191,,,,,,,,,,,,,,,,,,,,,,,,,,,,,,,,,,,,,,,,,,,,,,,,,,,,,,,,,,,,,,,,,,,,,,
1720078854,124,0,4374.102539,4414.615234,4352.563965,4398.333496,4394.102539,4442.563965,4425.128418,4442.563965,4408.974121,4480.128418,4332.692383,4584.230957,4358.333496,4336.922852,,,,,,,,,,,,,,,,,,,,,,,,,,,,,,,,,,,,,,,,,,,,,,,,,,,,,,,,,,,,,,,,,,,,,,
1720078854,125,0,4368.846191,4416.153809,4351.025879,4404.615234,4406.153809,4437.436035,4425.897461,4447.94873,4413.846191,4477.179688,4339.358887,4601.794922,4359.487305,4337.179688,,,,,,,,,,,,,,,,,,,,,,,,,,,,,,,,,,,,,,,,,,,,,,,,,,,,,,,,,,,,,,,,,,,,,,
1720078854,126,0,4362.94873,4413.461426,4345.897461,4403.589844,4405.897461,4434.615234,4422.692383,4455.128418,4407.179688,4476.410156,4337.820313,4620.256348,4360.512695,4339.487305,,,,,,,,,,,,,,,,,,,,,,,,,,,,,,,,,,,,,,,,,,,,,,,,,,,,,,,,,,,,,,,,,,,,,,
1720078854,127,0,4357.820313,4408.846191,4339.358887,4376.282227,4397.94873,4434.871582,4417.563965,4442.563965,4396.538574,4476.666504,4324.102539,4586.538574,4355.256348,4325.897461,,,,,,,,,,,,,,,,,,,,,,,,,,,,,,,,,,,,,,,,,,,,,,,,,,,,,,,,,,,,,,,,,,,,,,
1720078854,0,0,4361.025879,4411.153809,4342.307617,4367.307617,4395.384766,4429.871582,4416.538574,4445.256348,4403.205078,4474.487305,4325.769043,4587.307617,4347.94873,4325,,,,,,,,,,,,,,,,,,,,,,,,,,,,,,,,,,,,,,,,,,,,,,,,,,,,,,,,,,,,,,,,,,,,,,
1720078854,1,0,4366.153809,4414.230957,4349.230957,4392.563965,4398.205078,4424.615234,4422.307617,4459.487305,4411.153809,4470,4332.692383,4614.871582,4346.153809,4335.897461,,,,,,,,,,,,,,,,,,,,,,,,,,,,,,,,,,,,,,,,,,,,,,,,,,,,,,,,,,,,,,,,,,,,,,
1720078854,2,0,4368.333496,4419.487305,4356.538574,4400.769043,4411.538574,4432.94873,4427.820313,4453.717773,4405.897461,4472.820313,4332.94873,4595,4349.871582,4330.256348,,,,,,,,,,,,,,,,,,,,,,,,,,,,,,,,,,,,,,,,,,,,,,,,,,,,,,,,,,,,,,,,,,,,,,
1720078854,3,0,4370.128418,4425.641113,4359.487305,4398.461426,4416.025879,4441.153809,4427.179688,4450.384766,4405.641113,4475.897461,4333.333496,4594.871582,4352.563965,4326.666504,,,,,,,,,,,,,,,,,,,,,,,,,,,,,,,,,,,,,,,,,,,,,,,,,,,,,,,,,,,,,,,,,,,,,,
1720078854,4,0,4367.179688,4423.461426,4351.025879,4410.897461,4405.256348,4434.358887,4426.282227,4450.512695,4412.692383,4472.94873,4329.102539,4606.538574,4349.102539,4328.205078,,,,,,,,,,,,,,,,,,,,,,,,,,,,,,,,,,,,,,,,,,,,,,,,,,,,,,,,,,,,,,,,,,,,,,
1720078854,5,0,4364.102539,4421.410156,4349.615234,4412.692383,4403.846191,4432.05127,4428.077148,4447.436035,4413.333496,4475.256348,4328.205078,4598.205078,4350.256348,4325,,,,,,,,,,,,,,,,,,,,,,,,,,,,,,,,,,,,,,,,,,,,,,,,,,,,,,,,,,,,,,,,,,,,,,
1720078854,6,0,4369.358887,4424.102539,4357.307617,4394.871582,4414.615234,4438.974121,4429.615234,4451.282227,4411.282227,4473.461426,4334.615234,4604.615234,4355.512695,4329.358887,,,,,,,,,,,,,,,,,,,,,,,,,,,,,,,,,,,,,,,,,,,,,,,,,,,,,,,,,,,,,,,,,,,,,,
1720078854,7,0,4370,4424.871582,4352.692383,4380.256348,4414.358887,4438.333496,4426.922852,4446.025879,4410.384766,4462.820313,4326.153809,4601.282227,4350.128418,4327.94873,,,,,,,,,,,,,,,,,,,,,,,,,,,,,,,,,,,,,,,,,,,,,,,,,,,,,,,,,,,,,,,,,,,,,,
1720078854,8,0,4364.102539,4424.230957,4344.615234,4385.256348,4409.487305,4432.692383,4423.205078,4440.769043,4404.487305,4457.563965,4310.897461,4597.94873,4341.666504,4316.153809,19.856926,2.316452,0.894441,0.250522,0.175874,2.815997,0.939419,0.557548,0.165542,0.160923,6.060029,1.466473,0.868963,0.257592,0.254328,2.646552,1.00547,1.405027,1.671435,1.106907,0.523711,0.399989,0.314791,0.124687,0.222443,0.311773,0.642148,0.104243,0.149739,0.121092,1.531152,0.728763,0.413958,0.133442,0.105504,0.90049,0.188731,0.181428,0.096686,0.191739,0.747996,0.502212,0.490733,0.141401,0.125541,1.795049,0.695398,0.507206,0.169616,0.195007,3.140877,1.012904,0.680434,0.23494,0.195552,0.230574,0.092039,0.092886,0.153716,1.045876,5.205972,1.119725,0.921319,0.280139,0.112275,15.181832,1.982498,0.577306,0.236324,0.161698
1720078854,9,0,4363.077148,4423.846191,4344.358887,4394.102539,4414.230957,4433.846191,4420.641113,4444.230957,4402.563965,4461.153809,4309.871582,4601.922852,4342.692383,4313.461426,,,,,,,,,,,,,,,,,,,,,,,,,,,,,,,,,,,,,,,,,,,,,,,,,,,,,,,,,,,,,,,,,,,,,,
1720078854,10,0,4362.94873,4421.666504,4343.333496,4400.128418,4414.487305,4431.410156,4416.282227,4444.487305,4405.897461,4466.153809,4310.384766,4602.436035,4345.384766,4316.410156,,,,,,,,,,,,,,,,,,,,,,,,,,,,,,,,,,,,,,,,,,,,,,,,,,,,,,,,,,,,,,,,,,,,,,
1720078854,11,0,4363.461426,4420.384766,4346.282227,4408.589844,4408.333496,4426.025879,4413.717773,4442.820313,4400.897461,4463.077148,4308.205078,4602.563965,4342.94873,4314.358887,,,,,,,,,,,,,,,,,,,,,,,,,,,,,,,,,,,,,,,,,,,,,,,,,,,,,,,,,,,,,,,,,,,,,,
1720078854,12,0,4365,4422.563965,4351.794922,4403.333496,4410.641113,4429.230957,4417.692383,4440.256348,4393.846191,4454.743652,4309.871582,4598.717773,4342.436035,4316.794922,,,,,,,,,,,,,,,,,,,,,,,,,,,,,,,,,,,,,,,,,,,,,,,,,,,,,,,,,,,,,,,,,,,,,,
1720078854,13,0,4369.230957,4424.871582,4349.871582,4393.589844,4416.538574,4434.871582,4425,4440.512695,4394.487305,4455.256348,4310.512695,4599.358887,4343.589844,4330,,,,,,,,,,,,,,,,,,,,,,,,,,,,,,,,,,,,,,,,,,,,,,,,,,,,,,,,,,,,,,,,,,,,,,
1720078854,14,0,4377.307617,4430.256348,4350.512695,4407.436035,4413.846191,4435.384766,4427.179688,4444.871582,4402.820313,4463.205078,4307.692383,4605.769043,4341.410156,4336.922852,,,,,,,,,,,,,,,,,,,,,,,,,,,,,,,,,,,,,,,,,,,,,,,,,,,,,,,,,,,,,,,,,,,,,,
1720078854,15,0,4376.410156,4425.897461,4350.897461,4405.769043,4408.974121,4432.692383,4420.512695,4442.94873,4410.641113,4461.538574,4306.538574,4600.897461,4342.179688,4330,,,,,,,,,,,,,,,,,,,,,,,,,,,,,,,,,,,,,,,,,,,,,,,,,,,,,,,,,,,,,,,,,,,,,,
1720078854,16,0,4367.820313,4413.333496,4342.692383,4381.153809,4410.769043,4429.871582,4415,4441.666504,4411.025879,4459.358887,4313.589844,4603.974121,4348.077148,4334.871582,,,,,,,,,,,,,,,,,,,,,,,,,,,,,,,,,,,,,,,,,,,,,,,,,,,,,,,,,,,,,,,,,,,,,,
1720078854,17,0,4370.641113,4411.282227,4341.025879,4387.436035,4410.897461,4428.077148,4417.05127,4444.871582,4410.256348,4465.384766,4320.256348,4612.436035,4352.94873,4346.410156,,,,,,,,,,,,,,,,,,,,,,,,,,,,,,,,,,,,,,,,,,,,,,,,,,,,,,,,,,,,,,,,,,,,,,
1720078854,18,0,4373.974121,4419.358887,4346.794922,4405.256348,4415,4431.025879,4421.153809,4437.179688,4411.153809,4447.179688,4317.563965,4587.179688,4350.384766,4338.205078,,,,,,,,,,,,,,,,,,,,,,,,,,,,,,,,,,,,,,,,,,,,,,,,,,,,,,,,,,,,,,,,,,,,,,
1720078854,19,0,4372.94873,4426.922852,4351.794922,4397.179688,4425.256348,4439.487305,4424.615234,4441.153809,4411.025879,4406.922852,4316.666504,4600.769043,4347.94873,4338.461426,,,,,,,,,,,,,,,,,,,,,,,,,,,,,,,,,,,,,,,,,,,,,,,,,,,,,,,,,,,,,,,,,,,,,,
1720078854,20,0,4379.615234,4427.179688,4356.410156,4393.461426,4427.307617,4446.922852,4428.461426,4451.538574,4409.743652,4393.461426,4320.512695,4625.384766,4352.05127,4348.846191,,,,,,,,,,,,,,,,,,,,,,,,,,,,,,,,,,,,,,,,,,,,,,,,,,,,,,,,,,,,,,,,,,,,,,
1720078854,21,0,4380.897461,4419.615234,4358.717773,4408.461426,4419.615234,4445.256348,4429.230957,4434.487305,4411.153809,4403.974121,4315.512695,4585.641113,4348.846191,4335.256348,,,,,,,,,,,,,,,,,,,,,,,,,,,,,,,,,,,,,,,,,,,,,,,,,,,,,,,,,,,,,,,,,,,,,,
1720078854,22,0,4373.846191,4412.563965,4357.692383,4414.871582,4413.333496,4437.179688,4426.025879,4434.230957,4410.128418,4402.05127,4312.307617,4591.153809,4338.974121,4321.153809,,,,,,,,,,,,,,,,,,,,,,,,,,,,,,,,,,,,,,,,,,,,,,,,,,,,,,,,,,,,,,,,,,,,,,
1720078854,23,0,4372.94873,4412.179688,4352.179688,4410.897461,4412.436035,4433.077148,4421.666504,4445.897461,4404.358887,4393.461426,4316.538574,4612.692383,4335.897461,4320.897461,,,,,,,,,,,,,,,,,,,,,,,,,,,,,,,,,,,,,,,,,,,,,,,,,,,,,,,,,,,,,,,,,,,,,,
1720078854,24,0,4370.512695,4406.538574,4343.589844,4395,4412.436035,4430.769043,4416.794922,4435.128418,4400.769043,4396.025879,4313.205078,4593.205078,4333.717773,4316.025879,14.886188,1.953431,0.742769,0.265011,0.158351,2.308781,0.796703,0.472169,0.165662,0.156159,4.432785,1.353586,0.713257,0.277566,0.23509,2.201777,0.84314,1.293702,1.855428,1.030733,0.523054,0.413103,0.27663,0.12665,0.228938,0.298792,0.607769,0.09036,0.166132,0.122205,1.259305,0.764826,0.367709,0.167871,0.104713,0.671104,0.17773,0.133908,0.09228,0.200016,0.682937,0.454387,0.413111,0.134423,0.11748,1.174966,0.64238,0.506226,0.174452,0.185857,2.664503,0.938033,0.596135,0.216346,0.199289,0.247644,0.104313,0.093445,0.135673,1.143777,4.252786,0.977189,0.798214,0.263439,0.113806,12.178863,1.692921,0.542155,0.281827,0.157596
1720078854,25,0,4367.563965,4394.358887,4340.897461,4372.307617,4413.333496,4428.077148,4416.410156,4433.077148,4397.692383,4397.436035,4306.666504,4600.769043,4330.256348,4312.563965,,,,,,,,,,,,,,,,,,,,,,,,,,,,,,,,,,,,,,,,,,,,,,,,,,,,,,,,,,,,,,,,,,,,,,
1720078854,26,0,4374.743652,4399.230957,4343.461426,4377.307617,4413.717773,4428.077148,4420.641113,4439.615234,4395.384766,4394.487305,4308.974121,4608.077148,4331.794922,4317.179688,,,,,,,,,,,,,,,,,,,,,,,,,,,,,,,,,,,,,,,,,,,,,,,,,,,,,,,,,,,,,,,,,,,,,,
1720078854,27,0,4378.589844,4412.94873,4344.487305,4395.384766,4415.897461,4429.871582,4425,4434.102539,4399.871582,4394.743652,4313.461426,4585.256348,4336.025879,4319.487305,,,,,,,,,,,,,,,,,,,,,,,,,,,,,,,,,,,,,,,,,,,,,,,,,,,,,,,,,,,,,,,,,,,,,,
1720078854,28,0,4370.512695,4409.358887,4339.487305,4388.846191,4414.230957,4427.563965,4426.153809,4438.846191,4406.538574,4397.05127,4311.538574,4598.461426,4340.128418,4318.205078,,,,,,,,,,,,,,,,,,,,,,,,,,,,,,,,,,,,,,,,,,,,,,,,,,,,,,,,,,,,,,,,,,,,,,
1720078854,29,0,4367.05127,4400.897461,4335.384766,4388.333496,4403.333496,4423.846191,4420.384766,4446.025879,4404.102539,4399.615234,4309.487305,4624.871582,4342.820313,4318.077148,,,,,,,,,,,,,,,,,,,,,,,,,,,,,,,,,,,,,,,,,,,,,,,,,,,,,,,,,,,,,,,,,,,,,,
1720078854,30,0,4374.743652,4404.230957,4336.794922,4414.615234,4406.410156,4427.692383,4417.563965,4426.282227,4398.077148,4400.384766,4309.615234,4589.871582,4341.025879,4313.205078,,,,,,,,,,,,,,,,,,,,,,,,,,,,,,,,,,,,,,,,,,,,,,,,,,,,,,,,,,,,,,,,,,,,,,
1720078854,31,0,4373.846191,4402.820313,4333.589844,4403.461426,4418.205078,4429.102539,4420.512695,4421.794922,4397.307617,4397.820313,4309.615234,4588.589844,4334.615234,4307.820313,,,,,,,,,,,,,,,,,,,,,,,,,,,,,,,,,,,,,,,,,,,,,,,,,,,,,,,,,,,,,,,,,,,,,,
1720078854,32,0,4361.922852,4395.384766,4323.717773,4361.666504,4415.769043,4428.205078,4418.461426,4430.897461,4395.256348,4394.487305,4310.384766,4607.05127,4329.102539,4298.974121,,,,,,,,,,,,,,,,,,,,,,,,,,,,,,,,,,,,,,,,,,,,,,,,,,,,,,,,,,,,,,,,,,,,,,
1720078854,33,0,4361.794922,4393.589844,4324.230957,4365.769043,4415,4430.256348,4417.179688,4422.820313,4392.563965,4395.128418,4310.384766,4588.589844,4328.077148,4294.743652,,,,,,,,,,,,,,,,,,,,,,,,,,,,,,,,,,,,,,,,,,,,,,,,,,,,,,,,,,,,,,,,,,,,,,
1720078854,34,0,4376.794922,4401.153809,4337.692383,4396.025879,4423.717773,4433.205078,4422.179688,4424.358887,4398.333496,4401.794922,4311.410156,4598.333496,4338.717773,4311.794922,,,,,,,,,,,,,,,,,,,,,,,,,,,,,,,,,,,,,,,,,,,,,,,,,,,,,,,,,,,,,,,,,,,,,,
1720078854,35,0,4385.512695,4411.538574,4345.256348,4402.692383,4419.487305,4438.846191,4423.461426,4428.846191,4408.717773,4406.794922,4312.436035,4598.205078,4350.897461,4319.871582,,,,,,,,,,,,,,,,,,,,,,,,,,,,,,,,,,,,,,,,,,,,,,,,,,,,,,,,,,,,,,,,,,,,,,
1720078854,36,0,4380.128418,4407.563965,4344.102539,4392.820313,4405.897461,4443.205078,4417.94873,4426.538574,4405.769043,4401.666504,4310.641113,4591.922852,4349.871582,4312.563965,,,,,,,,,,,,,,,,,,,,,,,,,,,,,,,,,,,,,,,,,,,,,,,,,,,,,,,,,,,,,,,,,,,,,,
1720078854,37,0,4374.230957,4394.487305,4341.666504,4384.871582,4411.153809,4442.179688,4416.922852,4425.897461,4399.487305,4395.641113,4308.077148,4599.743652,4346.410156,4309.358887,,,,,,,,,,,,,,,,,,,,,,,,,,,,,,,,,,,,,,,,,,,,,,,,,,,,,,,,,,,,,,,,,,,,,,
1720078854,38,0,4372.436035,4396.922852,4340.512695,4381.794922,4420,4441.538574,4419.615234,4427.05127,4406.666504,4397.179688,4313.974121,4591.666504,4351.538574,4309.615234,,,,,,,,,,,,,,,,,,,,,,,,,,,,,,,,,,,,,,,,,,,,,,,,,,,,,,,,,,,,,,,,,,,,,,
1720078854,39,0,4368.846191,4405.384766,4339.230957,4378.333496,4415.128418,4443.077148,4418.205078,4426.666504,4409.102539,4397.179688,4318.077148,4590.897461,4352.436035,4311.025879,,,,,,,,,,,,,,,,,,,,,,,,,,,,,,,,,,,,,,,,,,,,,,,,,,,,,,,,,,,,,,,,,,,,,,
1720078854,40,0,4363.846191,4399.487305,4336.410156,4384.102539,4410.384766,4434.102539,4417.307617,4424.871582,4401.538574,4394.358887,4308.717773,4599.230957,4344.871582,4308.461426,9.670435,1.494736,0.59396,0.282151,0.147062,1.811717,0.646349,0.386403,0.173368,0.159526,2.879522,1.204225,0.542052,0.298783,0.219329,1.766099,0.719816,1.100021,2.006335,0.968062,0.532335,0.42881,0.233317,0.129261,0.256631,0.290824,0.551083,0.086029,0.18324,0.123599,1.02954,0.760114,0.335474,0.221236,0.105524,0.522792,0.165627,0.109398,0.091658,0.207722,0.621946,0.425667,0.332276,0.133929,0.122441,0.934937,0.564167,0.477243,0.186818,0.175075,2.21123,0.80403,0.529758,0.229609,0.200144,0.247619,0.112727,0.089006,0.11231,1.219751,3.325175,0.840267,0.667442,0.256413,0.121275,8.818969,1.311503,0.511183,0.330749,0.157354
1720078854,41,0,4366.153809,4394.358887,4340.256348,4408.974121,4413.717773,4426.025879,4424.871582,4426.922852,4404.358887,4400.128418,4310.512695,4598.077148,4345.128418,4301.153809,,,,,,,,,,,,,,,,,,,,,,,,,,,,,,,,,,,,,,,,,,,,,,,,,,,,,,,,,,,,,,,,,,,,,,
1720078854,42,0,4373.717773,4400.769043,4345.512695,4408.717773,4416.922852,4437.436035,4428.333496,4430.641113,4412.563965,4409.230957,4323.717773,4600.128418,4352.179688,4299.102539,,,,,,,,,,,,,,,,,,,,,,,,,,,,,,,,,,,,,,,,,,,,,,,,,,,,,,,,,,,,,,,,,,,,,,
1720078854,43,0,4371.282227,4401.410156,4341.153809,4371.538574,4414.487305,4442.820313,4423.461426,4427.692383,4411.666504,4413.717773,4322.307617,4596.538574,4351.538574,4296.794922,,,,,,,,,,,,,,,,,,,,,,,,,,,,,,,,,,,,,,,,,,,,,,,,,,,,,,,,,,,,,,,,,,,,,,
1720078854,44,0,4366.666504,4393.461426,4338.333496,4369.615234,4411.794922,4433.333496,4422.307617,4428.461426,4410.128418,4411.282227,4315.769043,4595.512695,4346.410156,4296.538574,,,,,,,,,,,,,,,,,,,,,,,,,,,,,,,,,,,,,,,,,,,,,,,,,,,,,,,,,,,,,,,,,,,,,,
1720078854,45,0,4372.692383,4397.179688,4341.922852,4400.641113,4410.769043,4434.487305,4420.769043,4434.230957,4406.282227,4400.897461,4315.769043,4610.384766,4343.974121,4305.769043,,,,,,,,,,,,,,,,,,,,,,,,,,,,,,,,,,,,,,,,,,,,,,,,,,,,,,,,,,,,,,,,,,,,,,
1720078854,46,0,4381.282227,4409.102539,4341.794922,4396.153809,4411.794922,4445.897461,4413.205078,4419.487305,4398.589844,4399.487305,4310.512695,4585.641113,4342.563965,4302.307617,,,,,,,,,,,,,,,,,,,,,,,,,,,,,,,,,,,,,,,,,,,,,,,,,,,,,,,,,,,,,,,,,,,,,,
1720078854,47,0,4387.563965,4413.205078,4340.512695,4383.974121,4413.333496,4440.512695,4411.666504,4414.615234,4397.692383,4407.692383,4308.205078,4584.615234,4343.333496,4300,,,,,,,,,,,,,,,,,,,,,,,,,,,,,,,,,,,,,,,,,,,,,,,,,,,,,,,,,,,,,,,,,,,,,,
1720078854,48,0,4395.769043,4416.410156,4343.717773,4405.769043,4412.436035,4428.461426,4415.128418,4432.436035,4400,4405.512695,4314.230957,4626.025879,4344.871582,4318.077148,,,,,,,,,,,,,,,,,,,,,,,,,,,,,,,,,,,,,,,,,,,,,,,,,,,,,,,,,,,,,,,,,,,,,,
1720078854,49,0,4399.871582,4419.871582,4345,4418.461426,4412.179688,4430.769043,4414.102539,4421.282227,4403.974121,4403.461426,4312.692383,4596.922852,4342.436035,4318.077148,,,,,,,,,,,,,,,,,,,,,,,,,,,,,,,,,,,,,,,,,,,,,,,,,,,,,,,,,,,,,,,,,,,,,,
1720078854,50,0,4392.94873,4416.025879,4342.94873,4396.794922,4412.05127,4432.436035,4412.692383,4414.743652,4407.05127,4419.230957,4310.384766,4581.666504,4341.282227,4304.230957,,,,,,,,,,,,,,,,,,,,,,,,,,,,,,,,,,,,,,,,,,,,,,,,,,,,,,,,,,,,,,,,,,,,,,
1720078854,51,0,4385.384766,4410.897461,4337.436035,4378.717773,4414.615234,4426.538574,4413.717773,4425.641113,4407.307617,4430.384766,4313.077148,4607.05127,4344.230957,4302.94873,,,,,,,,,,,,,,,,,,,,,,,,,,,,,,,,,,,,,,,,,,,,,,,,,,,,,,,,,,,,,,,,,,,,,,
1720078854,52,0,4383.077148,4408.846191,4328.461426,4385.512695,4415.128418,4425.128418,4412.307617,4415.641113,4404.358887,4425.512695,4308.589844,4593.974121,4342.179688,4305.512695,,,,,,,,,,,,,,,,,,,,,,,,,,,,,,,,,,,,,,,,,,,,,,,,,,,,,,,,,,,,,,,,,,,,,,
1720078854,53,0,4380.256348,4404.615234,4325.128418,4387.820313,4403.717773,4426.922852,4410.256348,4411.538574,4398.077148,4424.358887,4308.333496,4590.384766,4336.794922,4301.538574,,,,,,,,,,,,,,,,,,,,,,,,,,,,,,,,,,,,,,,,,,,,,,,,,,,,,,,,,,,,,,,,,,,,,,
1720078854,54,0,4376.282227,4397.307617,4325.384766,4371.666504,4397.692383,4426.025879,4410.769043,4419.487305,4400.897461,4429.102539,4312.692383,4606.794922,4334.871582,4292.94873,,,,,,,,,,,,,,,,,,,,,,,,,,,,,,,,,,,,,,,,,,,,,,,,,,,,,,,,,,,,,,,,,,,,,,
1720078854,55,0,4372.94873,4395.512695,4323.846191,4372.563965,4409.615234,4426.922852,4413.461426,4407.94873,4409.615234,4432.436035,4305.641113,4587.436035,4336.410156,4286.410156,,,,,,,,,,,,,,,,,,,,,,,,,,,,,,,,,,,,,,,,,,,,,,,,,,,,,,,,,,,,,,,,,,,,,,
1720078854,56,0,4374.358887,4398.974121,4323.974121,4388.974121,4408.974121,4428.846191,4413.974121,4404.230957,4407.820313,4433.846191,4294.102539,4584.358887,4333.589844,4286.282227,5.44714,1.068894,0.4663,0.298321,0.142047,1.466591,0.517467,0.311799,0.186751,0.167497,1.744366,1.062917,0.399345,0.314923,0.2057,1.463315,0.653611,0.896592,2.097453,0.943256,0.560434,0.443037,0.192501,0.129015,0.298661,0.283303,0.496594,0.090292,0.199598,0.124652,0.884791,0.729208,0.318861,0.284645,0.10515,0.520687,0.158016,0.1083,0.094333,0.212826,0.578216,0.412236,0.252605,0.140348,0.137882,0.921429,0.509391,0.429138,0.207133,0.164879,1.873894,0.644569,0.490847,0.274449,0.197186,0.229705,0.114342,0.08045,0.089096,1.25707,2.573398,0.736697,0.550644,0.253874,0.130963,5.921688,0.942974,0.475105,0.368051,0.159751
1720078854,57,0,4381.538574,4401.538574,4326.538574,4389.230957,4397.94873,4427.94873,4417.436035,4419.871582,4402.05127,4432.94873,4299.871582,4619.871582,4330.512695,4291.025879,,,,,,,,,,,,,,,,,,,,,,,,,,,,,,,,,,,,,,,,,,,,,,,,,,,,,,,,,,,,,,,,,,,,,,
1720078854,58,0,4382.692383,4401.666504,4332.05127,4389.871582,4405,4428.589844,4422.820313,4413.333496,4411.153809,4433.333496,4307.563965,4593.717773,4331.153809,4287.05127,,,,,,,,,,,,,,,,,,,,,,,,,,,,,,,,,,,,,,,,,,,,,,,,,,,,,,,,,,,,,,,,,,,,,,
1720078854,59,0,4376.538574,4400.897461,4333.333496,4391.922852,4413.846191,4429.102539,4418.205078,4407.563965,4417.436035,4438.205078,4298.333496,4577.94873,4329.743652,4286.666504,,,,,,,,,,,,,,,,,,,,,,,,,,,,,,,,,,,,,,,,,,,,,,,,,,,,,,,,,,,,,,,,,,,,,,
1720078854,60,0,4376.282227,4402.307617,4330.769043,4379.358887,4410.512695,4427.692383,4409.230957,4415.769043,4408.589844,4443.461426,4293.717773,4605.256348,4325.256348,4292.307617,,,,,,,,,,,,,,,,,,,,,,,,,,,,,,,,,,,,,,,,,,,,,,,,,,,,,,,,,,,,,,,,,,,,,,
1720078854,61,0,4380,4406.666504,4337.179688,4379.487305,4409.102539,4427.05127,4405.641113,4407.692383,4406.538574,4442.94873,4301.794922,4593.333496,4324.871582,4288.077148,,,,,,,,,,,,,,,,,,,,,,,,,,,,,,,,,,,,,,,,,,,,,,,,,,,,,,,,,,,,,,,,,,,,,,
1720078854,62,0,4379.871582,4409.358887,4348.717773,4400.512695,4412.307617,4427.307617,4404.487305,4404.102539,4409.102539,4436.153809,4307.692383,4592.692383,4329.871582,4293.205078,,,,,,,,,,,,,,,,,,,,,,,,,,,,,,,,,,,,,,,,,,,,,,,,,,,,,,,,,,,,,,,,,,,,,,
1720078854,63,0,4382.820313,4410,4352.692383,4406.025879,4415.256348,4427.94873,4403.205078,4408.205078,4403.846191,4429.871582,4308.974121,4597.94873,4331.794922,4304.230957,,,,,,,,,,,,,,,,,,,,,,,,,,,,,,,,,,,,,,,,,,,,,,,,,,,,,,,,,,,,,,,,,,,,,,
1720078855,64,0,4386.538574,4411.922852,4349.487305,4398.846191,4409.871582,4427.05127,4403.589844,4406.282227,4395.641113,4426.794922,4309.743652,4592.05127,4328.205078,4302.563965,,,,,,,,,,,,,,,,,,,,,,,,,,,,,,,,,,,,,,,,,,,,,,,,,,,,,,,,,,,,,,,,,,,,,,
1720078855,65,0,4384.615234,4409.743652,4345.256348,4403.589844,4404.743652,4426.282227,4408.717773,4405.512695,4397.436035,4425.641113,4307.179688,4597.179688,4326.922852,4298.077148,,,,,,,,,,,,,,,,,,,,,,,,,,,,,,,,,,,,,,,,,,,,,,,,,,,,,,,,,,,,,,,,,,,,,,
1720078855,66,0,4382.179688,4405.256348,4343.717773,4399.871582,4413.717773,4426.794922,4413.717773,4406.794922,4406.538574,4431.025879,4303.205078,4594.230957,4330,4298.974121,,,,,,,,,,,,,,,,,,,,,,,,,,,,,,,,,,,,,,,,,,,,,,,,,,,,,,,,,,,,,,,,,,,,,,
1720078855,67,0,4387.94873,4409.871582,4346.153809,4383.974121,4418.846191,4427.820313,4413.717773,4409.358887,4411.410156,4441.153809,4309.102539,4591.282227,4338.974121,4306.025879,,,,,,,,,,,,,,,,,,,,,,,,,,,,,,,,,,,,,,,,,,,,,,,,,,,,,,,,,,,,,,,,,,,,,,
1720078855,68,0,4391.794922,4414.102539,4346.153809,4384.358887,4407.94873,4430.256348,4414.102539,4412.307617,4412.94873,4445.897461,4315.641113,4595.641113,4345.256348,4307.692383,,,,,,,,,,,,,,,,,,,,,,,,,,,,,,,,,,,,,,,,,,,,,,,,,,,,,,,,,,,,,,,,,,,,,,
1720078855,69,0,4381.153809,4406.794922,4343.205078,4399.358887,4399.358887,4424.615234,4411.922852,4406.922852,4408.461426,4437.307617,4307.436035,4593.205078,4337.692383,4299.102539,,,,,,,,,,,,,,,,,,,,,,,,,,,,,,,,,,,,,,,,,,,,,,,,,,,,,,,,,,,,,,,,,,,,,,
1720078855,70,0,4371.153809,4396.794922,4340.769043,4400.641113,4396.922852,4411.922852,4400.641113,4402.307617,4405.512695,4426.025879,4299.743652,4597.436035,4328.077148,4293.974121,,,,,,,,,,,,,,,,,,,,,,,,,,,,,,,,,,,,,,,,,,,,,,,,,,,,,,,,,,,,,,,,,,,,,,
1720078855,71,0,4372.179688,4396.538574,4336.410156,4392.179688,4395.512695,4409.487305,4394.615234,4404.871582,4409.615234,4427.94873,4302.436035,4598.077148,4332.05127,4295.897461,,,,,,,,,,,,,,,,,,,,,,,,,,,,,,,,,,,,,,,,,,,,,,,,,,,,,,,,,,,,,,,,,,,,,,
1720078855,72,0,4370.769043,4402.94873,4331.153809,4395.128418,4403.205078,4414.615234,4400.512695,4407.179688,4411.282227,4433.589844,4307.05127,4590.769043,4335.897461,4297.436035,2.841836,0.759531,0.375553,0.312788,0.141034,1.285918,0.424325,0.258975,0.206703,0.17517,1.117356,0.950478,0.313211,0.32457,0.191129,1.300215,0.628581,0.778688,2.134583,0.965002,0.599101,0.452201,0.157423,0.127821,0.342205,0.287309,0.467653,0.101391,0.214556,0.124733,0.810219,0.689526,0.307646,0.345198,0.100819,0.64297,0.160117,0.12337,0.098467,0.21445,0.551353,0.416591,0.182921,0.152664,0.156822,1.14531,0.5402,0.395301,0.238483,0.158066,1.656127,0.495805,0.472567,0.336408,0.190374,0.20118,0.108827,0.068938,0.070005,1.253139,2.048572,0.66692,0.466809,0.250443,0.13833,3.915579,0.669846,0.444026,0.384099,0.164516
1720078855,73,0,4362.436035,4398.717773,4327.307617,4388.077148,4406.794922,4414.230957,4402.436035,4410.512695,4408.974121,4427.05127,4308.205078,4610,4327.179688,4295.384766,,,,,,,,,,,,,,,,,,,,,,,,,,,,,,,,,,,,,,,,,,,,,,,,,,,,,,,,,,,,,,,,,,,,,,
1720078855,74,0,4361.025879,4388.333496,4323.333496,4366.666504,4402.307617,4418.846191,4402.563965,4403.717773,4411.282227,4426.922852,4302.436035,4596.666504,4322.94873,4282.692383,,,,,,,,,,,,,,,,,,,,,,,,,,,,,,,,,,,,,,,,,,,,,,,,,,,,,,,,,,,,,,,,,,,,,,
1720078855,75,0,4363.589844,4390,4321.410156,4371.538574,4406.410156,4427.94873,4406.538574,4397.692383,4415.256348,4439.487305,4301.922852,4581.153809,4330.512695,4279.358887,,,,,,,,,,,,,,,,,,,,,,,,,,,,,,,,,,,,,,,,,,,,,,,,,,,,,,,,,,,,,,,,,,,,,,
1720078855,76,0,4365.512695,4398.589844,4330,4404.487305,4416.025879,4428.717773,4410.128418,4412.436035,4412.692383,4446.025879,4312.307617,4621.666504,4337.05127,4292.179688,,,,,,,,,,,,,,,,,,,,,,,,,,,,,,,,,,,,,,,,,,,,,,,,,,,,,,,,,,,,,,,,,,,,,,
1720078855,77,0,4370.897461,4399.230957,4338.589844,4406.025879,4412.692383,4428.974121,4410,4411.410156,4412.563965,4441.794922,4314.871582,4609.230957,4335.897461,4290.128418,,,,,,,,,,,,,,,,,,,,,,,,,,,,,,,,,,,,,,,,,,,,,,,,,,,,,,,,,,,,,,,,,,,,,,
1720078855,78,0,4369.743652,4394.871582,4331.410156,4374.358887,4403.974121,4428.589844,4406.538574,4398.974121,4413.077148,4430.512695,4310.769043,4586.538574,4331.922852,4284.743652,,,,,,,,,,,,,,,,,,,,,,,,,,,,,,,,,,,,,,,,,,,,,,,,,,,,,,,,,,,,,,,,,,,,,,
1720078855,79,0,4370.897461,4396.538574,4327.436035,4373.333496,4408.077148,4425.512695,4404.102539,4400.256348,4408.077148,4431.025879,4313.077148,4607.179688,4330.256348,4289.743652,,,,,,,,,,,,,,,,,,,,,,,,,,,,,,,,,,,,,,,,,,,,,,,,,,,,,,,,,,,,,,,,,,,,,,
1720078855,80,0,4378.589844,4402.436035,4333.974121,4393.333496,4411.282227,4426.153809,4402.307617,4398.717773,4404.102539,4440.512695,4310.769043,4601.410156,4328.589844,4286.538574,,,,,,,,,,,,,,,,,,,,,,,,,,,,,,,,,,,,,,,,,,,,,,,,,,,,,,,,,,,,,,,,,,,,,,
1720078855,81,0,4377.05127,4402.563965,4330.769043,4389.102539,4407.179688,4425.769043,4400,4398.589844,4400.384766,4433.974121,4302.820313,4599.743652,4324.102539,4284.358887,,,,,,,,,,,,,,,,,,,,,,,,,,,,,,,,,,,,,,,,,,,,,,,,,,,,,,,,,,,,,,,,,,,,,,
1720078855,82,0,4373.717773,4400,4325.897461,4390.769043,4410.897461,4426.666504,4404.358887,4400.384766,4403.589844,4427.94873,4305.769043,4607.436035,4324.230957,4288.333496,,,,,,,,,,,,,,,,,,,,,,,,,,,,,,,,,,,,,,,,,,,,,,,,,,,,,,,,,,,,,,,,,,,,,,
1720078855,83,0,4382.179688,4402.05127,4334.230957,4406.922852,4417.436035,4428.589844,4411.922852,4396.410156,4409.487305,4441.794922,4312.179688,4595,4327.820313,4288.589844,,,,,,,,,,,,,,,,,,,,,,,,,,,,,,,,,,,,,,,,,,,,,,,,,,,,,,,,,,,,,,,,,,,,,,
1720078855,84,0,4388.717773,4402.692383,4341.922852,4403.077148,4415.769043,4423.077148,4412.05127,4400.384766,4407.94873,4447.820313,4312.820313,4597.307617,4327.307617,4291.666504,,,,,,,,,,,,,,,,,,,,,,,,,,,,,,,,,,,,,,,,,,,,,,,,,,,,,,,,,,,,,,,,,,,,,,
1720078855,85,0,4385.641113,4398.333496,4339.102539,4387.436035,4410,4418.974121,4410.128418,4407.94873,4405.384766,4441.153809,4311.025879,4618.077148,4328.717773,4300.769043,,,,,,,,,,,,,,,,,,,,,,,,,,,,,,,,,,,,,,,,,,,,,,,,,,,,,,,,,,,,,,,,,,,,,,
1720078855,86,0,4387.436035,4399.358887,4337.05127,4391.922852,4408.717773,4425.769043,4413.846191,4398.333496,4413.077148,4445.641113,4310.769043,4590.256348,4335.128418,4297.820313,,,,,,,,,,,,,,,,,,,,,,,,,,,,,,,,,,,,,,,,,,,,,,,,,,,,,,,,,,,,,,,,,,,,,,
1720078855,87,0,4389.102539,4402.563965,4335.512695,4398.974121,4410.128418,4429.230957,4416.538574,4398.077148,4420.128418,4448.717773,4318.974121,4583.461426,4335.769043,4293.974121,,,,,,,,,,,,,,,,,,,,,,,,,,,,,,,,,,,,,,,,,,,,,,,,,,,,,,,,,,,,,,,,,,,,,,
1720078855,88,0,4383.717773,4398.077148,4329.743652,4387.692383,4412.05127,4423.974121,4412.307617,4406.282227,4413.846191,4442.436035,4326.282227,4613.461426,4333.205078,4301.025879,1.577251,0.606049,0.327605,0.326219,0.14155,1.19264,0.382725,0.237953,0.233938,0.179239,0.887297,0.869462,0.282545,0.329196,0.173564,1.208752,0.622052,0.809617,2.138168,1.024884,0.622653,0.455977,0.131682,0.130513,0.373655,0.309612,0.473308,0.11832,0.226874,0.123862,0.763857,0.654167,0.286351,0.39083,0.091658,0.819284,0.172385,0.141215,0.101836,0.21499,0.544084,0.439774,0.131745,0.169365,0.171997,1.555513,0.681164,0.412444,0.282227,0.157707,1.522758,0.389845,0.45604,0.391593,0.181841,0.170042,0.098078,0.056236,0.057376,1.226612,1.78037,0.620352,0.420891,0.244758,0.140294,2.842924,0.546147,0.43172,0.377583,0.173122
1720078855,89,0,4383.461426,4397.820313,4327.692383,4386.538574,4410,4422.563965,4405.512695,4392.692383,4408.717773,4445,4322.692383,4593.461426,4337.820313,4301.538574,,,,,,,,,,,,,,,,,,,,,,,,,,,,,,,,,,,,,,,,,,,,,,,,,,,,,,,,,,,,,,,,,,,,,,
1720078855,90,0,4393.461426,4408.205078,4337.179688,4400.769043,4408.974121,4423.717773,4406.025879,4394.230957,4412.436035,4453.589844,4323.589844,4590.384766,4344.487305,4305.384766,,,,,,,,,,,,,,,,,,,,,,,,,,,,,,,,,,,,,,,,,,,,,,,,,,,,,,,,,,,,,,,,,,,,,,
1720078855,91,0,4397.692383,4413.077148,4345.512695,4394.358887,4413.077148,4427.307617,4413.077148,4407.820313,4415.512695,4451.410156,4327.563965,4604.230957,4337.179688,4306.282227,,,,,,,,,,,,,,,,,,,,,,,,,,,,,,,,,,,,,,,,,,,,,,,,,,,,,,,,,,,,,,,,,,,,,,
1720078855,92,0,4392.179688,4411.282227,4341.922852,4382.820313,4418.205078,4429.487305,4416.922852,4402.692383,4412.692383,4443.205078,4325.512695,4597.307617,4327.692383,4297.692383,,,,,,,,,,,,,,,,,,,,,,,,,,,,,,,,,,,,,,,,,,,,,,,,,,,,,,,,,,,,,,,,,,,,,,
1720078855,93,0,4387.94873,4413.717773,4341.025879,4397.820313,4414.358887,4420.256348,4412.05127,4394.230957,4406.794922,4442.179688,4324.102539,4599.615234,4328.333496,4298.333496,,,,,,,,,,,,,,,,,,,,,,,,,,,,,,,,,,,,,,,,,,,,,,,,,,,,,,,,,,,,,,,,,,,,,,
1720078855,94,0,4384.487305,4413.205078,4343.333496,4402.94873,4400.384766,4416.538574,4405.769043,4392.563965,4398.589844,4438.461426,4320.641113,4596.794922,4330.384766,4297.820313,,,,,,,,,,,,,,,,,,,,,,,,,,,,,,,,,,,,,,,,,,,,,,,,,,,,,,,,,,,,,,,,,,,,,,
1720078855,95,0,4383.205078,4410.128418,4341.282227,4394.358887,4399.743652,4425.897461,4408.461426,4393.461426,4399.102539,4433.077148,4317.307617,4594.230957,4329.743652,4289.615234,,,,,,,,,,,,,,,,,,,,,,,,,,,,,,,,,,,,,,,,,,,,,,,,,,,,,,,,,,,,,,,,,,,,,,
1720078855,96,0,4386.666504,4415,4346.666504,4408.461426,4413.461426,4430,4414.743652,4391.666504,4411.153809,4438.846191,4319.615234,4597.820313,4329.871582,4290.512695,,,,,,,,,,,,,,,,,,,,,,,,,,,,,,,,,,,,,,,,,,,,,,,,,,,,,,,,,,,,,,,,,,,,,,
1720078855,97,0,4385.512695,4414.743652,4350.128418,4407.436035,4415.897461,4427.05127,4414.230957,4393.717773,4412.820313,4445.641113,4323.974121,4595.128418,4331.794922,4296.538574,,,,,,,,,,,,,,,,,,,,,,,,,,,,,,,,,,,,,,,,,,,,,,,,,,,,,,,,,,,,,,,,,,,,,,
1720078855,98,0,4377.563965,4404.871582,4340.128418,4382.05127,4408.461426,4428.077148,4412.436035,4397.820313,4412.820313,4446.538574,4326.538574,4597.94873,4336.538574,4298.717773,,,,,,,,,,,,,,,,,,,,,,,,,,,,,,,,,,,,,,,,,,,,,,,,,,,,,,,,,,,,,,,,,,,,,,
1720078855,99,0,4375.512695,4402.692383,4338.205078,4376.153809,4411.922852,4427.563965,4416.025879,4395.256348,4423.589844,4447.307617,4329.743652,4599.615234,4340.128418,4300.256348,,,,,,,,,,,,,,,,,,,,,,,,,,,,,,,,,,,,,,,,,,,,,,,,,,,,,,,,,,,,,,,,,,,,,,
1720078855,100,0,4375.641113,4403.846191,4343.974121,4389.871582,4417.436035,4425.384766,4414.230957,4390.897461,4425.512695,4446.153809,4326.282227,4590.384766,4335.641113,4299.102539,,,,,,,,,,,,,,,,,,,,,,,,,,,,,,,,,,,,,,,,,,,,,,,,,,,,,,,,,,,,,,,,,,,,,,
1720078855,101,0,4368.589844,4397.179688,4335,4387.94873,4409.743652,4426.666504,4408.333496,4394.358887,4414.615234,4448.589844,4321.538574,4604.102539,4330.384766,4301.025879,,,,,,,,,,,,,,,,,,,,,,,,,,,,,,,,,,,,,,,,,,,,,,,,,,,,,,,,,,,,,,,,,,,,,,
1720078855,102,0,4365.384766,4394.743652,4327.436035,4379.358887,4408.461426,4430.641113,4416.153809,4388.846191,4413.846191,4458.077148,4325.641113,4593.589844,4328.077148,4298.974121,,,,,,,,,,,,,,,,,,,,,,,,,,,,,,,,,,,,,,,,,,,,,,,,,,,,,,,,,,,,,,,,,,,,,,
1720078855,103,0,4368.205078,4398.205078,4332.692383,4379.871582,4412.179688,4431.282227,4426.282227,4380.769043,4418.974121,4460.769043,4323.717773,4574.102539,4325.512695,4292.307617,,,,,,,,,,,,,,,,,,,,,,,,,,,,,,,,,,,,,,,,,,,,,,,,,,,,,,,,,,,,,,,,,,,,,,
1720078855,104,0,4368.589844,4394.743652,4329.487305,4373.333496,4408.333496,4424.102539,4427.05127,4397.307617,4419.358887,4457.436035,4312.94873,4613.974121,4325.384766,4298.205078,1.116508,0.593616,0.313833,0.334956,0.141511,1.115859,0.404389,0.247899,0.26411,0.178952,0.887466,0.810926,0.284873,0.329544,0.152989,1.13061,0.615262,0.982606,2.129328,1.103164,0.612667,0.458784,0.119861,0.141504,0.383968,0.355702,0.507243,0.142973,0.235324,0.122306,0.69871,0.629999,0.258127,0.41378,0.079258,0.958018,0.187606,0.152982,0.103162,0.217763,0.553334,0.470451,0.106237,0.188898,0.178384,2.061247,0.88977,0.502136,0.334788,0.165098,1.411066,0.340654,0.419494,0.41723,0.17466,0.147481,0.085254,0.044169,0.051398,1.201428,1.693626,0.582185,0.401395,0.237915,0.136268,2.455374,0.580236,0.442952,0.35259,0.186461
1720078855,105,0,4364.615234,4387.94873,4323.077148,4367.563965,4408.461426,4422.05127,4423.589844,4398.461426,4418.717773,4459.615234,4305.128418,4606.410156,4321.153809,4297.307617,,,,,,,,,,,,,,,,,,,,,,,,,,,,,,,,,,,,,,,,,,,,,,,,,,,,,,,,,,,,,,,,,,,,,,
1720078855,106,0,4363.846191,4386.538574,4326.666504,4371.538574,4408.205078,4427.05127,4416.410156,4384.358887,4414.358887,4457.563965,4305.512695,4580.128418,4319.615234,4291.282227,,,,,,,,,,,,,,,,,,,,,,,,,,,,,,,,,,,,,,,,,,,,,,,,,,,,,,,,,,,,,,,,,,,,,,
1720078855,107,0,4368.717773,4391.153809,4329.615234,4380,4403.461426,4423.717773,4410.641113,4387.692383,4413.846191,4454.871582,4310.128418,4606.538574,4326.410156,4298.077148,,,,,,,,,,,,,,,,,,,,,,,,,,,,,,,,,,,,,,,,,,,,,,,,,,,,,,,,,,,,,,,,,,,,,,
1720078855,108,0,4373.717773,4397.820313,4332.692383,4381.410156,4410.384766,4420,4413.205078,4386.025879,4417.436035,4467.820313,4311.794922,4601.410156,4328.461426,4304.615234,,,,,,,,,,,,,,,,,,,,,,,,,,,,,,,,,,,,,,,,,,,,,,,,,,,,,,,,,,,,,,,,,,,,,,
1720078855,109,0,4374.871582,4399.871582,4339.871582,4379.102539,4416.410156,4426.794922,4414.615234,4382.692383,4418.077148,4476.282227,4315.256348,4591.025879,4326.282227,4309.230957,,,,,,,,,,,,,,,,,,,,,,,,,,,,,,,,,,,,,,,,,,,,,,,,,,,,,,,,,,,,,,,,,,,,,,
1720078855,110,0,4372.94873,4395.769043,4341.666504,4380,4409.743652,4429.358887,4416.922852,4388.974121,4418.717773,4466.922852,4316.282227,4610,4327.820313,4313.461426,,,,,,,,,,,,,,,,,,,,,,,,,,,,,,,,,,,,,,,,,,,,,,,,,,,,,,,,,,,,,,,,,,,,,,
1720078855,111,0,4373.205078,4393.717773,4338.974121,4374.871582,4408.974121,4425.897461,4423.333496,4387.563965,4415.897461,4459.743652,4313.333496,4598.461426,4328.333496,4310,,,,,,,,,,,,,,,,,,,,,,,,,,,,,,,,,,,,,,,,,,,,,,,,,,,,,,,,,,,,,,,,,,,,,,
1720078855,112,0,4374.230957,4396.153809,4337.563965,4369.358887,4409.743652,4426.282227,4418.077148,4383.461426,4416.538574,4461.410156,4311.025879,4578.974121,4323.974121,4302.820313,,,,,,,,,,,,,,,,,,,,,,,,,,,,,,,,,,,,,,,,,,,,,,,,,,,,,,,,,,,,,,,,,,,,,,
1720078855,113,0,4375.256348,4396.025879,4337.307617,4372.436035,4404.358887,4427.820313,4414.102539,4396.153809,4415.769043,4460.641113,4312.05127,4607.179688,4321.282227,4305.769043,,,,,,,,,,,,,,,,,,,,,,,,,,,,,,,,,,,,,,,,,,,,,,,,,,,,,,,,,,,,,,,,,,,,,,
1720078855,114,0,4379.615234,4395.384766,4342.179688,4389.615234,4410,4427.692383,4425.641113,4393.589844,4375.384766,4454.487305,4312.563965,4601.153809,4320.512695,4306.666504,,,,,,,,,,,,,,,,,,,,,,,,,,,,,,,,,,,,,,,,,,,,,,,,,,,,,,,,,,,,,,,,,,,,,,
1720078855,115,0,4385.641113,4400.897461,4347.563965,4394.871582,4420.769043,4427.94873,4430.641113,4384.743652,4314.358887,4446.153809,4311.025879,4584.487305,4320.256348,4305.512695,,,,,,,,,,,,,,,,,,,,,,,,,,,,,,,,,,,,,,,,,,,,,,,,,,,,,,,,,,,,,,,,,,,,,,
1720078855,116,0,4392.94873,4412.563965,4351.025879,4396.538574,4426.666504,4432.563965,4428.846191,4394.230957,4297.179688,4440.641113,4316.794922,4607.307617,4323.589844,4314.230957,,,,,,,,,,,,,,,,,,,,,,,,,,,,,,,,,,,,,,,,,,,,,,,,,,,,,,,,,,,,,,,,,,,,,,
1720078855,117,0,4399.102539,4416.922852,4357.05127,4414.230957,4427.05127,4434.743652,4432.307617,4391.794922,4307.692383,4442.692383,4323.974121,4601.922852,4326.153809,4315.512695,,,,,,,,,,,,,,,,,,,,,,,,,,,,,,,,,,,,,,,,,,,,,,,,,,,,,,,,,,,,,,,,,,,,,,
1720078855,118,0,4395.384766,4408.589844,4355.128418,4406.538574,4417.94873,4428.077148,4430.769043,4386.153809,4301.025879,4442.05127,4326.025879,4597.692383,4325.384766,4310.512695,,,,,,,,,,,,,,,,,,,,,,,,,,,,,,,,,,,,,,,,,,,,,,,,,,,,,,,,,,,,,,,,,,,,,,
1720078855,119,0,4384.615234,4400.256348,4343.205078,4368.205078,4413.717773,4425,4428.333496,4388.717773,4300.128418,4440.897461,4321.282227,4596.153809,4323.974121,4307.05127,,,,,,,,,,,,,,,,,,,,,,,,,,,,,,,,,,,,,,,,,,,,,,,,,,,,,,,,,,,,,,,,,,,,,,
1720078855,120,0,4379.487305,4397.94873,4338.974121,4358.077148,4419.871582,4428.589844,4433.717773,4389.102539,4311.410156,4443.846191,4313.333496,4591.153809,4322.563965,4303.461426,0.991216,0.679844,0.31952,0.334048,0.140117,1.011801,0.48946,0.275506,0.288696,0.175959,1.032797,0.770194,0.295637,0.327138,0.131957,1.045781,0.597597,1.209084,2.119493,1.179638,0.561666,0.460301,0.125816,0.160549,0.371268,0.421932,0.549382,0.178809,0.238579,0.120499,0.599648,0.606063,0.245173,0.411272,0.0671,0.979898,0.196231,0.154635,0.102299,0.224961,0.578638,0.494147,0.110151,0.209382,0.174603,2.481442,1.093024,0.654606,0.387696,0.179136,1.271567,0.338012,0.355501,0.40152,0.171233,0.139176,0.073146,0.034228,0.050989,1.195441,1.624926,0.536874,0.399668,0.230919,0.128596,2.43943,0.718645,0.47356,0.316764,0.203053
1720078855,121,0,4379.615234,4396.410156,4341.794922,4388.974121,4417.820313,4429.615234,4431.922852,4386.025879,4310.641113,4445.256348,4315.128418,4602.94873,4323.205078,4304.615234,,,,,,,,,,,,,,,,,,,,,,,,,,,,,,,,,,,,,,,,,,,,,,,,,,,,,,,,,,,,,,,,,,,,,,
1720078855,122,0,4377.94873,4394.230957,4336.025879,4398.717773,4406.538574,4429.102539,4426.410156,4381.538574,4310.769043,4446.282227,4320,4601.794922,4325.384766,4305.256348,,,,,,,,,,,,,,,,,,,,,,,,,,,,,,,,,,,,,,,,,,,,,,,,,,,,,,,,,,,,,,,,,,,,,,
1720078855,123,0,4381.025879,4393.846191,4334.615234,4376.666504,4413.077148,4429.743652,4428.461426,4385.512695,4323.077148,4447.307617,4323.333496,4596.025879,4327.563965,4306.282227,,,,,,,,,,,,,,,,,,,,,,,,,,,,,,,,,,,,,,,,,,,,,,,,,,,,,,,,,,,,,,,,,,,,,,
1720078855,124,0,4392.820313,4395.897461,4346.922852,4379.871582,4425.512695,4428.333496,4430.512695,4388.846191,4328.077148,4448.846191,4326.666504,4600.512695,4327.05127,4309.358887,,,,,,,,,,,,,,,,,,,,,,,,,,,,,,,,,,,,,,,,,,,,,,,,,,,,,,,,,,,,,,,,,,,,,,
1720078855,125,0,4398.461426,4397.179688,4348.717773,4399.743652,4416.794922,4425.897461,4427.820313,4384.358887,4320.384766,4448.461426,4322.692383,4600.897461,4323.589844,4305.128418,,,,,,,,,,,,,,,,,,,,,,,,,,,,,,,,,,,,,,,,,,,,,,,,,,,,,,,,,,,,,,,,,,,,,,
1720078855,126,0,4396.410156,4397.563965,4339.615234,4383.461426,4414.230957,4425.256348,4427.94873,4380.897461,4321.282227,4447.436035,4311.153809,4596.153809,4320.512695,4296.282227,,,,,,,,,,,,,,,,,,,,,,,,,,,,,,,,,,,,,,,,,,,,,,,,,,,,,,,,,,,,,,,,,,,,,,
1720078855,127,0,4398.717773,4397.692383,4339.102539,4355.641113,4425.769043,4425.897461,4429.871582,4383.846191,4328.974121,4452.05127,4310,4597.820313,4324.102539,4296.153809,,,,,,,,,,,,,,,,,,,,,,,,,,,,,,,,,,,,,,,,,,,,,,,,,,,,,,,,,,,,,,,,,,,,,,
1720078855,0,0,4403.589844,4398.589844,4343.974121,4378.589844,4418.333496,4426.025879,4426.794922,4382.563965,4325.256348,4460.128418,4319.871582,4593.205078,4330.512695,4297.563965,,,,,,,,,,,,,,,,,,,,,,,,,,,,,,,,,,,,,,,,,,,,,,,,,,,,,,,,,,,,,,,,,,,,,,
1720078855,1,0,4402.820313,4397.692383,4338.974121,4405.384766,4403.461426,4424.871582,4425.512695,4379.615234,4321.922852,4459.230957,4322.692383,4602.436035,4328.461426,4295.128418,,,,,,,,,,,,,,,,,,,,,,,,,,,,,,,,,,,,,,,,,,,,,,,,,,,,,,,,,,,,,,,,,,,,,,
1720078855,2,0,4398.589844,4396.410156,4326.922852,4383.974121,4412.563965,4425.128418,4428.077148,4379.871582,4329.871582,4450.256348,4322.179688,4601.282227,4326.666504,4293.333496,,,,,,,,,,,,,,,,,,,,,,,,,,,,,,,,,,,,,,,,,,,,,,,,,,,,,,,,,,,,,,,,,,,,,,
1720078855,3,0,4399.230957,4398.717773,4325,4374.743652,4420,4426.025879,4427.820313,4376.922852,4335.512695,4450.128418,4323.333496,4577.436035,4328.333496,4290.256348,,,,,,,,,,,,,,,,,,,,,,,,,,,,,,,,,,,,,,,,,,,,,,,,,,,,,,,,,,,,,,,,,,,,,,
1720078855,4,0,4407.563965,4401.025879,4336.153809,4397.436035,4413.717773,4425.769043,4426.538574,4388.333496,4336.794922,4448.205078,4318.333496,4609.102539,4320.128418,4293.974121,,,,,,,,,,,,,,,,,,,,,,,,,,,,,,,,,,,,,,,,,,,,,,,,,,,,,,,,,,,,,,,,,,,,,,
1720078855,5,0,4414.102539,4404.615234,4339.487305,4391.538574,4413.589844,4428.205078,4428.205078,4390.256348,4342.05127,4434.743652,4311.538574,4614.487305,4313.077148,4296.794922,,,,,,,,,,,,,,,,,,,,,,,,,,,,,,,,,,,,,,,,,,,,,,,,,,,,,,,,,,,,,,,,,,,,,,
1720078855,6,0,4408.974121,4405.769043,4327.436035,4371.282227,4413.846191,4426.538574,4428.333496,4374.487305,4345.128418,4425.256348,4309.743652,4580.641113,4321.282227,4291.282227,,,,,,,,,,,,,,,,,,,,,,,,,,,,,,,,,,,,,,,,,,,,,,,,,,,,,,,,,,,,,,,,,,,,,,
1720078855,7,0,4400.384766,4401.025879,4324.102539,4379.230957,4411.666504,4421.282227,4427.05127,4379.743652,4342.179688,4424.743652,4316.153809,4602.179688,4328.205078,4290.384766,,,,,,,,,,,,,,,,,,,,,,,,,,,,,,,,,,,,,,,,,,,,,,,,,,,,,,,,,,,,,,,,,,,,,,
1720078855,8,0,4398.846191,4393.974121,4329.871582,4381.153809,4411.538574,4422.820313,4426.794922,4384.871582,4341.666504,4423.717773,4324.102539,4606.666504,4323.846191,4290.641113,1.063634,0.821386,0.336946,0.322157,0.137764,0.925788,0.623416,0.302448,0.298627,0.172564,1.308149,0.750612,0.305258,0.32475,0.114869,1.00772,0.582457,1.375016,2.10488,1.236987,0.494656,0.456712,0.152372,0.181712,0.341276,0.497186,0.576184,0.224989,0.234713,0.119086,0.482258,0.566556,0.274187,0.386821,0.058977,0.887838,0.190533,0.148256,0.10076,0.236044,0.675668,0.512063,0.14745,0.230986,0.164535,2.700314,1.225061,0.828651,0.430041,0.196513,1.112265,0.362534,0.277674,0.348957,0.172425,0.145836,0.06414,0.027773,0.055264,1.207633,1.512455,0.484238,0.41487,0.222407,0.120969,2.554947,0.884347,0.513698,0.277996,0.218122
1720078855,9,0,4399.487305,4389.230957,4325.512695,4364.230957,4412.307617,4429.102539,4427.436035,4375.384766,4344.871582,4423.333496,4326.410156,4585.128418,4328.846191,4293.461426,,,,,,,,,,,,,,,,,,,,,,,,,,,,,,,,,,,,,,,,,,,,,,,,,,,,,,,,,,,,,,,,,,,,,,
1720078855,10,0,4398.974121,4389.358887,4324.615234,4376.025879,4410.769043,4431.922852,4430,4377.820313,4348.589844,4428.589844,4326.282227,4603.077148,4343.589844,4304.230957,,,,,,,,,,,,,,,,,,,,,,,,,,,,,,,,,,,,,,,,,,,,,,,,,,,,,,,,,,,,,,,,,,,,,,
1720078855,11,0,4398.974121,4390.384766,4335.128418,4395.128418,4409.487305,4429.743652,4427.820313,4382.436035,4354.743652,4430.384766,4326.794922,4609.615234,4346.282227,4307.94873,,,,,,,,,,,,,,,,,,,,,,,,,,,,,,,,,,,,,,,,,,,,,,,,,,,,,,,,,,,,,,,,,,,,,,
1720078855,12,0,4400,4387.692383,4333.461426,4381.794922,4411.794922,4427.05127,4421.410156,4376.410156,4356.666504,4428.589844,4325.128418,4586.666504,4341.538574,4301.922852,,,,,,,,,,,,,,,,,,,,,,,,,,,,,,,,,,,,,,,,,,,,,,,,,,,,,,,,,,,,,,,,,,,,,,
1720078855,13,0,4394.743652,4381.922852,4316.666504,4359.358887,4411.794922,4426.025879,4421.025879,4380.897461,4354.615234,4430.128418,4320.641113,4606.282227,4341.794922,4304.102539,,,,,,,,,,,,,,,,,,,,,,,,,,,,,,,,,,,,,,,,,,,,,,,,,,,,,,,,,,,,,,,,,,,,,,
1720078855,14,0,4384.615234,4378.461426,4309.102539,4358.077148,4410.384766,4427.692383,4422.563965,4381.922852,4354.487305,4429.871582,4315,4610.769043,4341.410156,4304.615234,,,,,,,,,,,,,,,,,,,,,,,,,,,,,,,,,,,,,,,,,,,,,,,,,,,,,,,,,,,,,,,,,,,,,,
1720078855,15,0,4379.487305,4375.641113,4310,4366.153809,4407.692383,4428.974121,4421.794922,4377.563965,4354.230957,4424.230957,4311.025879,4585.897461,4335.256348,4297.94873,,,,,,,,,,,,,,,,,,,,,,,,,,,,,,,,,,,,,,,,,,,,,,,,,,,,,,,,,,,,,,,,,,,,,,
1720078855,16,0,4380.897461,4376.153809,4305.512695,4354.358887,4403.589844,4424.743652,4424.358887,4386.410156,4355.384766,4425.641113,4313.461426,4601.410156,4335.128418,4297.307617,,,,,,,,,,,,,,,,,,,,,,,,,,,,,,,,,,,,,,,,,,,,,,,,,,,,,,,,,,,,,,,,,,,,,,
1720078855,17,0,4379.102539,4379.487305,4300.769043,4350,4402.179688,4422.179688,4423.077148,4383.717773,4355.512695,4431.922852,4312.820313,4600.512695,4336.538574,4290.512695,,,,,,,,,,,,,,,,,,,,,,,,,,,,,,,,,,,,,,,,,,,,,,,,,,,,,,,,,,,,,,,,,,,,,,
1720078855,18,0,4379.615234,4380.897461,4305.641113,4375.256348,4402.94873,4420.641113,4418.717773,4375.128418,4352.179688,4420.769043,4308.077148,4591.282227,4331.666504,4284.487305,,,,,,,,,,,,,,,,,,,,,,,,,,,,,,,,,,,,,,,,,,,,,,,,,,,,,,,,,,,,,,,,,,,,,,
1720078855,19,0,4391.922852,4386.410156,4311.410156,4380.384766,4404.230957,4420,4423.717773,4377.179688,4355.641113,4412.307617,4319.358887,4599.230957,4337.179688,4292.692383,,,,,,,,,,,,,,,,,,,,,,,,,,,,,,,,,,,,,,,,,,,,,,,,,,,,,,,,,,,,,,,,,,,,,,
1720078855,20,0,4398.333496,4388.333496,4310.641113,4364.358887,4402.563965,4424.487305,4424.743652,4379.487305,4367.307617,4423.717773,4327.05127,4597.94873,4346.410156,4295.384766,,,,,,,,,,,,,,,,,,,,,,,,,,,,,,,,,,,,,,,,,,,,,,,,,,,,,,,,,,,,,,,,,,,,,,
1720078855,21,0,4391.282227,4381.794922,4314.871582,4375.256348,4402.05127,4426.410156,4415,4378.717773,4368.333496,4428.589844,4313.205078,4597.05127,4340.897461,4288.846191,,,,,,,,,,,,,,,,,,,,,,,,,,,,,,,,,,,,,,,,,,,,,,,,,,,,,,,,,,,,,,,,,,,,,,
1720078855,22,0,4394.230957,4386.922852,4326.794922,4383.205078,4407.05127,4419.743652,4411.153809,4376.922852,4363.333496,4425.641113,4314.230957,4599.743652,4338.205078,4293.717773,,,,,,,,,,,,,,,,,,,,,,,,,,,,,,,,,,,,,,,,,,,,,,,,,,,,,,,,,,,,,,,,,,,,,,
1720078855,23,0,4407.179688,4396.282227,4332.179688,4363.205078,4409.230957,4417.05127,4412.05127,4378.077148,4369.102539,4427.94873,4335.641113,4597.94873,4344.230957,4302.436035,,,,,,,,,,,,,,,,,,,,,,,,,,,,,,,,,,,,,,,,,,,,,,,,,,,,,,,,,,,,,,,,,,,,,,
1720078855,24,0,4404.230957,4387.563965,4325.897461,4365.128418,4400,4421.666504,4410.256348,4379.615234,4374.487305,4427.179688,4334.102539,4596.153809,4338.461426,4297.94873,1.332768,0.973743,0.362999,0.302328,0.13464,0.931578,0.773861,0.31657,0.289754,0.169793,1.699209,0.751418,0.311681,0.324998,0.105103,1.08268,0.591575,1.407605,2.07551,1.263625,0.431389,0.44233,0.198649,0.197995,0.304608,0.559168,0.573362,0.270984,0.222386,0.11816,0.375998,0.509028,0.348792,0.348476,0.056881,0.71333,0.169449,0.1386,0.10053,0.247734,1.132308,0.627644,0.241509,0.264339,0.157732,2.736306,1.241025,0.966273,0.452948,0.212263,0.969432,0.401466,0.211006,0.27799,0.176904,0.160397,0.058612,0.025923,0.062833,1.220998,1.33931,0.433489,0.44272,0.209437,0.115898,2.666752,1.005556,0.543646,0.242081,0.225445
1720078855,25,0,4394.615234,4381.025879,4326.025879,4376.153809,4399.102539,4424.230957,4417.307617,4379.871582,4373.846191,4425.897461,4319.743652,4594.230957,4330.512695,4290.769043,,,,,,,,,,,,,,,,,,,,,,,,,,,,,,,,,,,,,,,,,,,,,,,,,,,,,,,,,,,,,,,,,,,,,,
1720078855,26,0,4401.922852,4390.256348,4337.436035,4376.025879,4414.102539,4425.641113,4428.077148,4383.333496,4377.307617,4430.897461,4325,4598.846191,4339.615234,4295.641113,,,,,,,,,,,,,,,,,,,,,,,,,,,,,,,,,,,,,,,,,,,,,,,,,,,,,,,,,,,,,,,,,,,,,,
1720078855,27,0,4409.871582,4393.846191,4340.256348,4391.666504,4415.128418,4429.102539,4430.256348,4389.358887,4381.666504,4431.025879,4330,4610,4345.897461,4302.692383,,,,,,,,,,,,,,,,,,,,,,,,,,,,,,,,,,,,,,,,,,,,,,,,,,,,,,,,,,,,,,,,,,,,,,
1720078855,28,0,4399.102539,4389.230957,4328.205078,4387.436035,4405.769043,4429.102539,4429.615234,4379.487305,4377.94873,4425.384766,4318.077148,4581.410156,4335.384766,4286.153809,,,,,,,,,,,,,,,,,,,,,,,,,,,,,,,,,,,,,,,,,,,,,,,,,,,,,,,,,,,,,,,,,,,,,,
1720078855,29,0,4385.897461,4386.025879,4321.410156,4365.641113,4407.692383,4426.794922,4421.153809,4379.230957,4367.820313,4418.333496,4312.563965,4594.358887,4323.589844,4274.871582,,,,,,,,,,,,,,,,,,,,,,,,,,,,,,,,,,,,,,,,,,,,,,,,,,,,,,,,,,,,,,,,,,,,,,
1720078855,30,0,4389.743652,4391.025879,4331.282227,4384.230957,4412.692383,4425.384766,4414.871582,4389.230957,4368.333496,4416.922852,4320.384766,4626.794922,4326.282227,4285.769043,,,,,,,,,,,,,,,,,,,,,,,,,,,,,,,,,,,,,,,,,,,,,,,,,,,,,,,,,,,,,,,,,,,,,,
1720078855,31,0,4400.384766,4401.922852,4336.666504,4403.205078,4415.641113,4428.333496,4423.077148,4371.922852,4380.897461,4427.307617,4320.256348,4568.717773,4336.025879,4280.384766,,,,,,,,,,,,,,,,,,,,,,,,,,,,,,,,,,,,,,,,,,,,,,,,,,,,,,,,,,,,,,,,,,,,,,
1720078855,32,0,4396.666504,4400.512695,4328.846191,4375,4411.153809,4429.230957,4428.589844,4375.512695,4381.794922,4427.563965,4320.256348,4586.025879,4336.794922,4280.128418,,,,,,,,,,,,,,,,,,,,,,,,,,,,,,,,,,,,,,,,,,,,,,,,,,,,,,,,,,,,,,,,,,,,,,
1720078855,33,0,4387.05127,4392.05127,4323.461426,4359.102539,4406.922852,4426.153809,4423.461426,4385.769043,4377.307617,4419.615234,4321.922852,4621.025879,4328.205078,4281.153809,,,,,,,,,,,,,,,,,,,,,,,,,,,,,,,,,,,,,,,,,,,,,,,,,,,,,,,,,,,,,,,,,,,,,,
1720078855,34,0,4391.922852,4396.666504,4327.563965,4383.461426,4414.358887,4428.974121,4424.743652,4372.436035,4383.333496,4425.256348,4314.358887,4581.282227,4323.077148,4273.461426,,,,,,,,,,,,,,,,,,,,,,,,,,,,,,,,,,,,,,,,,,,,,,,,,,,,,,,,,,,,,,,,,,,,,,
1720078855,35,0,4399.487305,4403.974121,4329.230957,4394.871582,4416.666504,4431.410156,4431.538574,4380.769043,4388.333496,4429.358887,4311.666504,4599.743652,4329.102539,4287.94873,,,,,,,,,,,,,,,,,,,,,,,,,,,,,,,,,,,,,,,,,,,,,,,,,,,,,,,,,,,,,,,,,,,,,,
1720078855,36,0,4395.769043,4403.205078,4326.538574,4391.922852,4406.153809,4423.077148,4425.128418,4380.769043,4386.153809,4421.922852,4311.922852,4604.615234,4334.487305,4295.897461,,,,,,,,,,,,,,,,,,,,,,,,,,,,,,,,,,,,,,,,,,,,,,,,,,,,,,,,,,,,,,,,,,,,,,
1720078855,37,0,4393.974121,4398.077148,4326.538574,4388.846191,4400.384766,4412.05127,4413.333496,4371.538574,4380.769043,4412.692383,4308.717773,4587.692383,4329.230957,4287.820313,,,,,,,,,,,,,,,,,,,,,,,,,,,,,,,,,,,,,,,,,,,,,,,,,,,,,,,,,,,,,,,,,,,,,,
1720078855,38,0,4396.666504,4392.179688,4322.94873,4371.538574,4398.846191,4412.307617,4410.512695,4380.256348,4375.256348,4412.307617,4303.077148,4601.410156,4322.05127,4281.922852,,,,,,,,,,,,,,,,,,,,,,,,,,,,,,,,,,,,,,,,,,,,,,,,,,,,,,,,,,,,,,,,,,,,,,
1720078855,39,0,4394.102539,4392.179688,4318.333496,4369.743652,4399.743652,4418.589844,4416.666504,4382.05127,4378.205078,4421.538574,4296.025879,4597.820313,4324.102539,4275.897461,,,,,,,,,,,,,,,,,,,,,,,,,,,,,,,,,,,,,,,,,,,,,,,,,,,,,,,,,,,,,,,,,,,,,,
1720078855,40,0,4394.102539,4397.05127,4323.077148,4392.179688,4403.846191,4417.436035,4420.897461,4376.025879,4386.922852,4429.358887,4296.922852,4584.230957,4325.769043,4276.025879,1.73524,1.063242,0.394741,0.280609,0.130542,1.06073,0.885038,0.314741,0.264755,0.166457,2.127062,0.756005,0.317871,0.32963,0.10457,1.284138,0.624541,1.304185,2.019393,1.261462,0.38623,0.413293,0.259787,0.204253,0.271846,0.584511,0.537136,0.302148,0.202612,0.116932,0.306387,0.442956,0.445067,0.305666,0.060111,0.515366,0.140556,0.129857,0.102505,0.255698,2.365243,0.998438,0.426877,0.324939,0.164854,2.611871,1.132399,1.02604,0.451162,0.2215,0.863352,0.434344,0.178347,0.215955,0.181092,0.174024,0.056285,0.028695,0.071114,1.216333,1.137137,0.385086,0.477768,0.192485,0.11387,2.654139,1.007795,0.544875,0.213202,0.220661
1720078855,41,0,4398.461426,4398.974121,4327.307617,4386.538574,4403.205078,4414.871582,4416.410156,4387.05127,4386.153809,4432.820313,4301.410156,4610,4320.128418,4286.922852,,,,,,,,,,,,,,,,,,,,,,,,,,,,,,,,,,,,,,,,,,,,,,,,,,,,,,,,,,,,,,,,,,,,,,
1720078855,42,0,4395.384766,4397.563965,4319.871582,4366.794922,4406.410156,4416.410156,4412.307617,4383.077148,4382.179688,4432.94873,4294.615234,4608.974121,4316.922852,4284.871582,,,,,,,,,,,,,,,,,,,,,,,,,,,,,,,,,,,,,,,,,,,,,,,,,,,,,,,,,,,,,,,,,,,,,,
1720078855,43,0,4396.153809,4395,4318.717773,4378.077148,4414.871582,4416.538574,4418.077148,4366.153809,4386.025879,4429.358887,4278.974121,4579.615234,4317.563965,4274.871582,,,,,,,,,,,,,,,,,,,,,,,,,,,,,,,,,,,,,,,,,,,,,,,,,,,,,,,,,,,,,,,,,,,,,,
1720078855,44,0,4408.717773,4399.102539,4328.974121,4382.05127,4409.615234,4420.641113,4426.922852,4379.615234,4394.743652,4433.205078,4258.974121,4607.563965,4324.743652,4288.461426,,,,,,,,,,,,,,,,,,,,,,,,,,,,,,,,,,,,,,,,,,,,,,,,,,,,,,,,,,,,,,,,,,,,,,
1720078855,45,0,4415.384766,4409.102539,4329.102539,4365.128418,4400.384766,4425,4426.794922,4384.102539,4398.717773,4444.358887,4223.333496,4605.769043,4328.333496,4292.692383,,,,,,,,,,,,,,,,,,,,,,,,,,,,,,,,,,,,,,,,,,,,,,,,,,,,,,,,,,,,,,,,,,,,,,
1720078855,46,0,4410.256348,4410.769043,4323.974121,4370.128418,4404.615234,4421.538574,4424.871582,4374.615234,4390.641113,4445.384766,4195.512695,4586.153809,4317.179688,4278.974121,,,,,,,,,,,,,,,,,,,,,,,,,,,,,,,,,,,,,,,,,,,,,,,,,,,,,,,,,,,,,,,,,,,,,,
1720078855,47,0,4410.512695,4410.384766,4331.153809,4393.077148,4409.743652,4422.820313,4429.615234,4382.436035,4389.358887,4447.05127,4196.922852,4603.717773,4316.410156,4280,,,,,,,,,,,,,,,,,,,,,,,,,,,,,,,,,,,,,,,,,,,,,,,,,,,,,,,,,,,,,,,,,,,,,,
1720078855,48,0,4417.436035,4415.512695,4338.077148,4397.94873,4410,4429.743652,4430.897461,4386.538574,4399.230957,4460.128418,4201.794922,4598.461426,4327.94873,4285.641113,,,,,,,,,,,,,,,,,,,,,,,,,,,,,,,,,,,,,,,,,,,,,,,,,,,,,,,,,,,,,,,,,,,,,,
1720078855,49,0,4415.897461,4410.512695,4328.589844,4383.461426,4412.563965,4422.94873,4427.307617,4384.358887,4395.769043,4459.871582,4195.641113,4591.666504,4321.794922,4282.436035,,,,,,,,,,,,,,,,,,,,,,,,,,,,,,,,,,,,,,,,,,,,,,,,,,,,,,,,,,,,,,,,,,,,,,
1720078855,50,0,4405.256348,4399.487305,4314.487305,4374.230957,4408.077148,4411.282227,4426.282227,4384.230957,4387.692383,4455.384766,4190.384766,4598.846191,4310.769043,4274.743652,,,,,,,,,,,,,,,,,,,,,,,,,,,,,,,,,,,,,,,,,,,,,,,,,,,,,,,,,,,,,,,,,,,,,,
1720078855,51,0,4399.871582,4397.692383,4313.974121,4379.487305,4401.282227,4411.025879,4427.307617,4385.384766,4397.307617,4469.871582,4196.025879,4593.846191,4322.563965,4272.436035,,,,,,,,,,,,,,,,,,,,,,,,,,,,,,,,,,,,,,,,,,,,,,,,,,,,,,,,,,,,,,,,,,,,,,
1720078855,52,0,4406.282227,4400.128418,4322.820313,4380.128418,4407.436035,4414.615234,4427.436035,4388.333496,4404.487305,4479.743652,4203.461426,4593.589844,4330.384766,4277.94873,,,,,,,,,,,,,,,,,,,,,,,,,,,,,,,,,,,,,,,,,,,,,,,,,,,,,,,,,,,,,,,,,,,,,,
1720078855,53,0,4417.179688,4402.820313,4329.487305,4379.743652,4414.871582,4413.333496,4427.820313,4388.846191,4399.102539,4478.205078,4203.589844,4602.436035,4325,4283.846191,,,,,,,,,,,,,,,,,,,,,,,,,,,,,,,,,,,,,,,,,,,,,,,,,,,,,,,,,,,,,,,,,,,,,,
1720078855,54,0,4416.282227,4400.384766,4326.922852,4381.922852,4405.512695,4407.05127,4426.153809,4383.717773,4396.410156,4478.589844,4203.846191,4592.820313,4327.307617,4281.410156,,,,,,,,,,,,,,,,,,,,,,,,,,,,,,,,,,,,,,,,,,,,,,,,,,,,,,,,,,,,,,,,,,,,,,
1720078855,55,0,4406.666504,4392.692383,4322.692383,4368.333496,4398.333496,4402.692383,4425,4387.820313,4395.641113,4477.820313,4202.692383,4602.94873,4328.333496,4280.384766,,,,,,,,,,,,,,,,,,,,,,,,,,,,,,,,,,,,,,,,,,,,,,,,,,,,,,,,,,,,,,,,,,,,,,
1720078855,56,0,4416.153809,4400.128418,4333.205078,4374.871582,4409.487305,4407.692383,4428.717773,4385.897461,4398.461426,4483.333496,4195.384766,4593.589844,4324.871582,4280.256348,2.16677,1.044533,0.428602,0.262871,0.12568,1.289774,0.915123,0.300699,0.232351,0.160036,2.482413,0.746642,0.324911,0.336215,0.113052,1.561354,0.660222,1.125098,1.929985,1.247314,0.359189,0.370166,0.326691,0.200857,0.249487,0.566077,0.472999,0.306379,0.179456,0.114165,0.274704,0.379305,0.527607,0.267338,0.066169,0.350477,0.114127,0.123887,0.105963,0.255817,4.591445,1.711327,0.713712,0.41889,0.190856,2.47092,0.943369,0.995155,0.42527,0.221472,0.807434,0.456654,0.18735,0.186063,0.181824,0.179258,0.055279,0.035745,0.077799,1.181428,0.93038,0.353357,0.515309,0.173603,0.114301,2.487084,0.894606,0.518006,0.193632,0.203844
1720078855,57,0,4429.487305,4410.128418,4344.230957,4393.205078,4414.615234,4408.333496,4430.897461,4386.025879,4400.897461,4491.666504,4195.897461,4591.410156,4325.641113,4285.769043,,,,,,,,,,,,,,,,,,,,,,,,,,,,,,,,,,,,,,,,,,,,,,,,,,,,,,,,,,,,,,,,,,,,,,
1720078855,58,0,4419.358887,4400.769043,4339.615234,4381.922852,4411.794922,4401.922852,4433.846191,4398.974121,4401.025879,4492.436035,4201.666504,4625.769043,4328.077148,4297.05127,,,,,,,,,,,,,,,,,,,,,,,,,,,,,,,,,,,,,,,,,,,,,,,,,,,,,,,,,,,,,,,,,,,,,,
1720078855,59,0,4414.871582,4399.358887,4335.128418,4376.794922,4416.025879,4400.384766,4441.410156,4382.94873,4408.205078,4497.179688,4198.589844,4579.358887,4326.153809,4282.692383,,,,,,,,,,,,,,,,,,,,,,,,,,,,,,,,,,,,,,,,,,,,,,,,,,,,,,,,,,,,,,,,,,,,,,
1720078855,60,0,4421.794922,4407.563965,4338.077148,4385.128418,4415.769043,4395.256348,4438.333496,4380.256348,4408.846191,4502.307617,4204.230957,4581.282227,4321.922852,4276.922852,,,,,,,,,,,,,,,,,,,,,,,,,,,,,,,,,,,,,,,,,,,,,,,,,,,,,,,,,,,,,,,,,,,,,,
1720078855,61,0,4419.615234,4404.743652,4339.102539,4375.128418,4411.153809,4387.94873,4428.077148,4393.077148,4400.641113,4500.769043,4213.205078,4620.384766,4322.820313,4285.128418,,,,,,,,,,,,,,,,,,,,,,,,,,,,,,,,,,,,,,,,,,,,,,,,,,,,,,,,,,,,,,,,,,,,,,
1720078855,62,0,4418.333496,4403.333496,4343.589844,4385,4414.615234,4392.179688,4429.230957,4378.974121,4406.666504,4502.307617,4215.256348,4583.205078,4327.94873,4280.769043,,,,,,,,,,,,,,,,,,,,,,,,,,,,,,,,,,,,,,,,,,,,,,,,,,,,,,,,,,,,,,,,,,,,,,
1720078855,63,0,4427.307617,4410.128418,4351.666504,4416.922852,4414.487305,4392.307617,4434.871582,4382.307617,4413.717773,4503.461426,4223.846191,4592.94873,4330,4289.487305,,,,,,,,,,,,,,,,,,,,,,,,,,,,,,,,,,,,,,,,,,,,,,,,,,,,,,,,,,,,,,,,,,,,,,
1720078856,64,0,4435.256348,4418.205078,4350.256348,4414.487305,4408.461426,4382.94873,4436.922852,4391.794922,4407.94873,4499.102539,4225.128418,4602.307617,4326.410156,4294.358887,,,,,,,,,,,,,,,,,,,,,,,,,,,,,,,,,,,,,,,,,,,,,,,,,,,,,,,,,,,,,,,,,,,,,,
1720078856,65,0,4442.179688,4424.743652,4350,4397.820313,4409.487305,4378.589844,4436.410156,4385.256348,4408.077148,4492.563965,4221.282227,4586.922852,4324.743652,4292.436035,,,,,,,,,,,,,,,,,,,,,,,,,,,,,,,,,,,,,,,,,,,,,,,,,,,,,,,,,,,,,,,,,,,,,,
1720078856,66,0,4453.846191,4427.307617,4357.563965,4402.179688,4414.358887,4378.205078,4437.563965,4381.922852,4412.692383,4482.05127,4225.641113,4602.179688,4321.794922,4298.846191,,,,,,,,,,,,,,,,,,,,,,,,,,,,,,,,,,,,,,,,,,,,,,,,,,,,,,,,,,,,,,,,,,,,,,
1720078856,67,0,4462.692383,4429.615234,4363.205078,4404.358887,4414.102539,4375.897461,4437.563965,4383.205078,4409.487305,4473.717773,4226.538574,4607.563965,4317.692383,4303.717773,,,,,,,,,,,,,,,,,,,,,,,,,,,,,,,,,,,,,,,,,,,,,,,,,,,,,,,,,,,,,,,,,,,,,,
1720078856,68,0,4465.384766,4434.230957,4359.358887,4398.461426,4411.666504,4372.820313,4432.05127,4382.05127,4405.256348,4472.94873,4230.384766,4587.436035,4320.641113,4303.974121,,,,,,,,,,,,,,,,,,,,,,,,,,,,,,,,,,,,,,,,,,,,,,,,,,,,,,,,,,,,,,,,,,,,,,
1720078856,69,0,4457.692383,4427.692383,4350.897461,4399.743652,4415.769043,4369.871582,4428.333496,4384.743652,4405.256348,4467.94873,4236.153809,4595.512695,4320.128418,4300.384766,,,,,,,,,,,,,,,,,,,,,,,,,,,,,,,,,,,,,,,,,,,,,,,,,,,,,,,,,,,,,,,,,,,,,,
1720078856,70,0,4443.461426,4411.153809,4342.820313,4398.974121,4415.256348,4362.820313,4424.615234,4386.153809,4402.820313,4456.794922,4227.820313,4610.641113,4304.615234,4291.794922,,,,,,,,,,,,,,,,,,,,,,,,,,,,,,,,,,,,,,,,,,,,,,,,,,,,,,,,,,,,,,,,,,,,,,
1720078856,71,0,4428.461426,4396.922852,4329.871582,4379.487305,4401.153809,4352.94873,4413.461426,4378.333496,4394.615234,4450.641113,4215.384766,4588.333496,4288.461426,4280.384766,,,,,,,,,,,,,,,,,,,,,,,,,,,,,,,,,,,,,,,,,,,,,,,,,,,,,,,,,,,,,,,,,,,,,,
1720078856,72,0,4424.871582,4396.666504,4325.128418,4375.769043,4395.897461,4352.436035,4411.922852,4383.205078,4395.256348,4451.538574,4219.102539,4594.615234,4295.512695,4281.922852,2.517947,0.930953,0.45962,0.251082,0.122627,1.546468,0.862882,0.281014,0.202421,0.149817,2.695815,0.724439,0.333182,0.338979,0.129814,1.82714,0.673839,0.957192,1.813157,1.245347,0.348173,0.317791,0.384283,0.192116,0.238493,0.515262,0.394797,0.279204,0.158154,0.108765,0.272785,0.324399,0.568848,0.240496,0.072978,0.237433,0.09811,0.119311,0.108584,0.248008,7.507174,2.687971,1.070924,0.533278,0.231394,2.374231,0.7454,0.89764,0.382433,0.213111,0.872235,0.486974,0.245685,0.199645,0.179169,0.171733,0.054917,0.046045,0.081995,1.131522,0.739742,0.353553,0.550384,0.155047,0.117676,2.204638,0.733445,0.477368,0.183015,0.181494
1720078856,73,0,4440.384766,4408.846191,4338.589844,4398.461426,4410.256348,4360,4427.179688,4389.743652,4410.641113,4459.615234,4229.743652,4604.871582,4314.230957,4292.436035,,,,,,,,,,,,,,,,,,,,,,,,,,,,,,,,,,,,,,,,,,,,,,,,,,,,,,,,,,,,,,,,,,,,,,
1720078856,74,0,4441.922852,4410.128418,4346.153809,4402.692383,4414.230957,4359.871582,4431.282227,4389.487305,4418.846191,4465,4235.128418,4596.666504,4318.717773,4293.974121,,,,,,,,,,,,,,,,,,,,,,,,,,,,,,,,,,,,,,,,,,,,,,,,,,,,,,,,,,,,,,,,,,,,,,
1720078856,75,0,4428.974121,4402.94873,4338.589844,4387.692383,4401.538574,4352.820313,4424.871582,4391.794922,4411.538574,4458.077148,4234.487305,4601.922852,4310.256348,4289.871582,,,,,,,,,,,,,,,,,,,,,,,,,,,,,,,,,,,,,,,,,,,,,,,,,,,,,,,,,,,,,,,,,,,,,,
1720078856,76,0,4428.589844,4406.794922,4336.410156,4395.128418,4402.179688,4353.461426,4428.589844,4393.333496,4409.871582,4447.307617,4232.05127,4599.743652,4307.05127,4292.692383,,,,,,,,,,,,,,,,,,,,,,,,,,,,,,,,,,,,,,,,,,,,,,,,,,,,,,,,,,,,,,,,,,,,,,
1720078856,77,0,4433.333496,4408.205078,4341.410156,4400.512695,4411.794922,4354.871582,4429.487305,4395.256348,4412.307617,4446.410156,4231.025879,4595,4311.025879,4299.102539,,,,,,,,,,,,,,,,,,,,,,,,,,,,,,,,,,,,,,,,,,,,,,,,,,,,,,,,,,,,,,,,,,,,,,
1720078856,78,0,4430.769043,4400.128418,4342.307617,4385,4409.102539,4350.256348,4419.871582,4391.666504,4408.974121,4449.615234,4228.461426,4596.025879,4310.256348,4300.256348,,,,,,,,,,,,,,,,,,,,,,,,,,,,,,,,,,,,,,,,,,,,,,,,,,,,,,,,,,,,,,,,,,,,,,
1720078856,79,0,4431.410156,4405.256348,4343.333496,4392.179688,4405.512695,4344.615234,4414.230957,4385,4407.307617,4451.922852,4226.922852,4596.025879,4309.358887,4304.743652,,,,,,,,,,,,,,,,,,,,,,,,,,,,,,,,,,,,,,,,,,,,,,,,,,,,,,,,,,,,,,,,,,,,,,
1720078856,80,0,4432.179688,4414.743652,4343.589844,4410.384766,4408.717773,4340.769043,4412.563965,4381.282227,4404.615234,4457.05127,4229.102539,4594.230957,4312.820313,4311.794922,,,,,,,,,,,,,,,,,,,,,,,,,,,,,,,,,,,,,,,,,,,,,,,,,,,,,,,,,,,,,,,,,,,,,,
1720078856,81,0,4426.538574,4408.077148,4342.436035,4399.230957,4403.974121,4340.769043,4403.589844,4376.922852,4396.794922,4455.512695,4228.589844,4596.282227,4311.153809,4308.205078,,,,,,,,,,,,,,,,,,,,,,,,,,,,,,,,,,,,,,,,,,,,,,,,,,,,,,,,,,,,,,,,,,,,,,
1720078856,82,0,4426.666504,4402.94873,4341.538574,4382.94873,4398.974121,4342.94873,4401.538574,4375.897461,4398.461426,4451.410156,4225.256348,4596.282227,4306.922852,4299.615234,,,,,,,,,,,,,,,,,,,,,,,,,,,,,,,,,,,,,,,,,,,,,,,,,,,,,,,,,,,,,,,,,,,,,,
1720078856,83,0,4429.615234,4408.461426,4339.487305,4388.461426,4406.538574,4342.692383,4409.871582,4384.615234,4406.153809,4452.436035,4230.641113,4602.436035,4313.974121,4302.820313,,,,,,,,,,,,,,,,,,,,,,,,,,,,,,,,,,,,,,,,,,,,,,,,,,,,,,,,,,,,,,,,,,,,,,
1720078856,84,0,4426.922852,4413.333496,4340.256348,4403.205078,4415.641113,4344.615234,4408.589844,4382.692383,4405.769043,4448.846191,4240,4586.410156,4321.922852,4302.05127,,,,,,,,,,,,,,,,,,,,,,,,,,,,,,,,,,,,,,,,,,,,,,,,,,,,,,,,,,,,,,,,,,,,,,
1720078856,85,0,4426.794922,4415.512695,4343.974121,4407.94873,4421.794922,4349.102539,4405,4378.974121,4405.384766,4443.846191,4244.743652,4578.333496,4321.538574,4296.922852,,,,,,,,,,,,,,,,,,,,,,,,,,,,,,,,,,,,,,,,,,,,,,,,,,,,,,,,,,,,,,,,,,,,,,
1720078856,86,0,4427.692383,4416.922852,4343.333496,4405.897461,4422.94873,4348.974121,4411.666504,4396.153809,4409.743652,4445.769043,4248.077148,4616.282227,4321.666504,4303.717773,,,,,,,,,,,,,,,,,,,,,,,,,,,,,,,,,,,,,,,,,,,,,,,,,,,,,,,,,,,,,,,,,,,,,,
1720078856,87,0,4428.717773,4420.384766,4341.410156,4402.692383,4421.025879,4347.692383,4414.743652,4392.692383,4412.563965,4445.384766,4247.05127,4595.769043,4319.743652,4299.743652,,,,,,,,,,,,,,,,,,,,,,,,,,,,,,,,,,,,,,,,,,,,,,,,,,,,,,,,,,,,,,,,,,,,,,
1720078856,88,0,4430.897461,4421.153809,4345.897461,4400.128418,4419.743652,4347.94873,4407.563965,4381.538574,4410.769043,4440,4244.102539,4573.589844,4317.307617,4292.179688,2.772474,0.795683,0.483088,0.246692,0.126399,1.755233,0.774608,0.261414,0.183217,0.138384,2.769811,0.711786,0.344603,0.33571,0.153992,2.012224,0.667386,0.864714,1.684776,1.268848,0.352624,0.264031,0.417375,0.184001,0.235779,0.467614,0.321494,0.22882,0.142785,0.101102,0.296072,0.28117,0.565164,0.228984,0.079748,0.179549,0.095313,0.114254,0.108391,0.23489,10.382051,3.678425,1.421097,0.637203,0.274351,2.398067,0.607124,0.775344,0.333634,0.200161,1.197826,0.591388,0.370827,0.253134,0.176224,0.151519,0.055067,0.056923,0.083949,1.090215,0.57621,0.384668,0.580088,0.140624,0.12603,1.86124,0.605342,0.44158,0.182062,0.162782
1720078856,89,0,4432.692383,4420,4349.358887,4402.05127,4419.487305,4343.461426,4407.179688,4391.153809,4408.077148,4442.05127,4242.307617,4602.179688,4316.794922,4297.820313,,,,,,,,,,,,,,,,,,,,,,,,,,,,,,,,,,,,,,,,,,,,,,,,,,,,,,,,,,,,,,,,,,,,,,
1720078856,90,0,4439.102539,4422.05127,4348.717773,4408.077148,4418.333496,4340,4413.589844,4390.897461,4410.384766,4450.769043,4240.769043,4590.897461,4315.256348,4299.871582,,,,,,,,,,,,,,,,,,,,,,,,,,,,,,,,,,,,,,,,,,,,,,,,,,,,,,,,,,,,,,,,,,,,,,
1720078856,91,0,4442.692383,4421.025879,4348.846191,4412.94873,4413.077148,4342.05127,4416.282227,4392.94873,4413.589844,4447.94873,4244.743652,4589.230957,4312.307617,4302.94873,,,,,,,,,,,,,,,,,,,,,,,,,,,,,,,,,,,,,,,,,,,,,,,,,,,,,,,,,,,,,,,,,,,,,,
1720078856,92,0,4435.897461,4419.102539,4349.871582,4411.922852,4406.282227,4343.205078,4413.717773,4400.897461,4411.538574,4436.794922,4253.846191,4603.717773,4308.333496,4308.589844,,,,,,,,,,,,,,,,,,,,,,,,,,,,,,,,,,,,,,,,,,,,,,,,,,,,,,,,,,,,,,,,,,,,,,
1720078856,93,0,4431.666504,4421.025879,4349.487305,4397.692383,4409.230957,4341.794922,4406.922852,4393.205078,4410.128418,4433.974121,4253.717773,4588.717773,4303.974121,4303.846191,,,,,,,,,,,,,,,,,,,,,,,,,,,,,,,,,,,,,,,,,,,,,,,,,,,,,,,,,,,,,,,,,,,,,,
1720078856,94,0,4431.410156,4419.743652,4344.615234,4379.358887,4417.307617,4344.230957,4404.743652,4390,4411.666504,4438.846191,4249.230957,4594.871582,4304.358887,4296.794922,,,,,,,,,,,,,,,,,,,,,,,,,,,,,,,,,,,,,,,,,,,,,,,,,,,,,,,,,,,,,,,,,,,,,,
1720078856,95,0,4422.692383,4412.307617,4333.717773,4374.743652,4414.102539,4344.358887,4404.871582,4398.461426,4410.384766,4459.487305,4252.820313,4614.102539,4307.436035,4296.922852,,,,,,,,,,,,,,,,,,,,,,,,,,,,,,,,,,,,,,,,,,,,,,,,,,,,,,,,,,,,,,,,,,,,,,
1720078856,96,0,4413.333496,4411.794922,4326.794922,4384.230957,4411.538574,4337.307617,4399.487305,4389.871582,4410.512695,4500.897461,4251.794922,4586.794922,4305,4292.692383,,,,,,,,,,,,,,,,,,,,,,,,,,,,,,,,,,,,,,,,,,,,,,,,,,,,,,,,,,,,,,,,,,,,,,
1720078856,97,0,4412.436035,4414.102539,4329.358887,4387.179688,4414.358887,4330.897461,4393.461426,4385.897461,4409.487305,4519.358887,4250.897461,4584.615234,4305.897461,4291.538574,,,,,,,,,,,,,,,,,,,,,,,,,,,,,,,,,,,,,,,,,,,,,,,,,,,,,,,,,,,,,,,,,,,,,,
1720078856,98,0,4410.641113,4410.384766,4335.256348,4393.205078,4411.538574,4329.230957,4396.538574,4395.128418,4408.077148,4507.94873,4266.666504,4611.282227,4312.179688,4299.230957,,,,,,,,,,,,,,,,,,,,,,,,,,,,,,,,,,,,,,,,,,,,,,,,,,,,,,,,,,,,,,,,,,,,,,
1720078856,99,0,4410.641113,4405.769043,4336.922852,4402.05127,4410.769043,4332.692383,4402.05127,4393.205078,4413.333496,4510.641113,4276.153809,4595.769043,4314.871582,4302.05127,,,,,,,,,,,,,,,,,,,,,,,,,,,,,,,,,,,,,,,,,,,,,,,,,,,,,,,,,,,,,,,,,,,,,,
1720078856,100,0,4410.769043,4401.922852,4330.128418,4382.820313,4413.205078,4335,4400.128418,4397.179688,4413.461426,4509.615234,4261.922852,4597.179688,4310.512695,4300.256348,,,,,,,,,,,,,,,,,,,,,,,,,,,,,,,,,,,,,,,,,,,,,,,,,,,,,,,,,,,,,,,,,,,,,,
1720078856,101,0,4409.230957,4406.282227,4329.102539,4369.358887,4413.717773,4328.589844,4401.538574,4401.922852,4408.461426,4492.307617,4253.333496,4603.589844,4306.666504,4297.436035,,,,,,,,,,,,,,,,,,,,,,,,,,,,,,,,,,,,,,,,,,,,,,,,,,,,,,,,,,,,,,,,,,,,,,
1720078856,102,0,4414.487305,4414.743652,4342.692383,4390.512695,4412.179688,4327.436035,4409.230957,4400.384766,4411.538574,4488.205078,4266.666504,4594.487305,4310.769043,4301.666504,,,,,,,,,,,,,,,,,,,,,,,,,,,,,,,,,,,,,,,,,,,,,,,,,,,,,,,,,,,,,,,,,,,,,,
1720078856,103,0,4419.743652,4413.333496,4351.922852,4400.641113,4409.230957,4335.897461,4411.282227,4400.384766,4412.436035,4490.897461,4273.717773,4599.230957,4312.05127,4308.717773,,,,,,,,,,,,,,,,,,,,,,,,,,,,,,,,,,,,,,,,,,,,,,,,,,,,,,,,,,,,,,,,,,,,,,
1720078856,104,0,4415.769043,4411.410156,4343.846191,4385,4409.615234,4338.077148,4408.077148,4394.102539,4408.846191,4487.179688,4265.512695,4600.897461,4306.410156,4306.410156,2.837505,0.712981,0.503051,0.250295,0.141545,1.873604,0.705392,0.254438,0.178268,0.130652,2.747212,0.725707,0.359399,0.328081,0.183161,2.072861,0.651906,0.861551,1.561388,1.312037,0.372602,0.220672,0.419131,0.179107,0.23663,0.441876,0.269534,0.173869,0.134781,0.093016,0.335572,0.254639,0.532979,0.230252,0.086876,0.151814,0.102165,0.107591,0.104292,0.220679,12.270691,4.358179,1.667241,0.69468,0.305659,2.564994,0.555736,0.665874,0.289977,0.186568,2.067274,0.844503,0.574467,0.329474,0.176491,0.12321,0.056491,0.065417,0.08418,1.077321,0.454831,0.433812,0.600578,0.136444,0.14139,1.537417,0.568983,0.427525,0.190573,0.155222
1720078856,105,0,4412.05127,4421.282227,4338.205078,4382.436035,4416.282227,4336.025879,4411.282227,4391.794922,4418.461426,4487.05127,4266.410156,4602.307617,4307.94873,4306.410156,,,,,,,,,,,,,,,,,,,,,,,,,,,,,,,,,,,,,,,,,,,,,,,,,,,,,,,,,,,,,,,,,,,,,,
1720078856,106,0,4416.794922,4426.922852,4345.256348,4398.205078,4418.333496,4340.384766,4414.871582,4393.077148,4426.025879,4493.461426,4272.563965,4600,4318.461426,4311.025879,,,,,,,,,,,,,,,,,,,,,,,,,,,,,,,,,,,,,,,,,,,,,,,,,,,,,,,,,,,,,,,,,,,,,,
1720078856,107,0,4419.743652,4419.358887,4347.05127,4402.563965,4413.717773,4338.077148,4406.153809,4389.102539,4418.333496,4493.205078,4271.025879,4597.179688,4317.94873,4309.615234,,,,,,,,,,,,,,,,,,,,,,,,,,,,,,,,,,,,,,,,,,,,,,,,,,,,,,,,,,,,,,,,,,,,,,
1720078856,108,0,4416.410156,4417.179688,4344.615234,4402.692383,4416.410156,4333.333496,4402.05127,4387.820313,4419.230957,4491.025879,4277.436035,4599.358887,4312.820313,4306.794922,,,,,,,,,,,,,,,,,,,,,,,,,,,,,,,,,,,,,,,,,,,,,,,,,,,,,,,,,,,,,,,,,,,,,,
1720078856,109,0,4419.487305,4425.128418,4349.871582,4402.692383,4421.666504,4342.563965,4411.410156,4393.461426,4431.025879,4493.846191,4287.436035,4601.794922,4320,4311.410156,,,,,,,,,,,,,,,,,,,,,,,,,,,,,,,,,,,,,,,,,,,,,,,,,,,,,,,,,,,,,,,,,,,,,,
1720078856,110,0,4426.410156,4430.128418,4355.641113,4404.230957,4423.589844,4347.692383,4415.641113,4396.922852,4429.743652,4490,4286.922852,4600.641113,4326.666504,4314.487305,,,,,,,,,,,,,,,,,,,,,,,,,,,,,,,,,,,,,,,,,,,,,,,,,,,,,,,,,,,,,,,,,,,,,,
1720078856,111,0,4429.358887,4430.512695,4355.512695,4408.205078,4420.897461,4341.282227,4412.436035,4397.692383,4424.230957,4474.358887,4286.025879,4604.871582,4323.077148,4315.384766,,,,,,,,,,,,,,,,,,,,,,,,,,,,,,,,,,,,,,,,,,,,,,,,,,,,,,,,,,,,,,,,,,,,,,
1720078856,112,0,4435.256348,4433.333496,4356.666504,4406.538574,4415.384766,4340.641113,4410.256348,4395.897461,4427.94873,4465.641113,4290.128418,4599.230957,4318.846191,4320,,,,,,,,,,,,,,,,,,,,,,,,,,,,,,,,,,,,,,,,,,,,,,,,,,,,,,,,,,,,,,,,,,,,,,
1720078856,113,0,4445.641113,4441.025879,4370,4415.512695,4418.717773,4346.538574,4413.333496,4396.666504,4428.589844,4467.563965,4296.282227,4596.282227,4320.641113,4325.769043,,,,,,,,,,,,,,,,,,,,,,,,,,,,,,,,,,,,,,,,,,,,,,,,,,,,,,,,,,,,,,,,,,,,,,
1720078856,114,0,4449.230957,4443.461426,4380,4426.282227,4423.077148,4346.922852,4416.410156,4407.179688,4424.230957,4463.077148,4304.102539,4620.769043,4322.563965,4335.897461,,,,,,,,,,,,,,,,,,,,,,,,,,,,,,,,,,,,,,,,,,,,,,,,,,,,,,,,,,,,,,,,,,,,,,
1720078856,115,0,4444.743652,4435,4369.230957,4410.512695,4420.641113,4343.846191,4414.487305,4394.487305,4421.922852,4457.820313,4299.487305,4593.077148,4318.333496,4329.743652,,,,,,,,,,,,,,,,,,,,,,,,,,,,,,,,,,,,,,,,,,,,,,,,,,,,,,,,,,,,,,,,,,,,,,
1720078856,116,0,4442.94873,4434.230957,4357.563965,4394.743652,4419.487305,4340.512695,4411.025879,4382.563965,4419.871582,4454.230957,4286.538574,4577.692383,4311.410156,4321.922852,,,,,,,,,,,,,,,,,,,,,,,,,,,,,,,,,,,,,,,,,,,,,,,,,,,,,,,,,,,,,,,,,,,,,,
1720078856,117,0,4445.512695,4445.897461,4366.410156,4411.794922,4423.846191,4336.410156,4412.820313,4399.358887,4415.128418,4446.025879,4286.153809,4619.871582,4310.128418,4333.589844,,,,,,,,,,,,,,,,,,,,,,,,,,,,,,,,,,,,,,,,,,,,,,,,,,,,,,,,,,,,,,,,,,,,,,
1720078856,118,0,4444.743652,4447.563965,4371.025879,4422.692383,4423.717773,4337.820313,4415.256348,4395.384766,4415.769043,4443.205078,4288.333496,4596.794922,4312.692383,4330.897461,,,,,,,,,,,,,,,,,,,,,,,,,,,,,,,,,,,,,,,,,,,,,,,,,,,,,,,,,,,,,,,,,,,,,,
1720078856,119,0,4443.589844,4443.333496,4360.769043,4406.410156,4420.512695,4339.743652,4412.820313,4386.153809,4424.102539,4446.025879,4289.615234,4579.615234,4311.666504,4324.615234,,,,,,,,,,,,,,,,,,,,,,,,,,,,,,,,,,,,,,,,,,,,,,,,,,,,,,,,,,,,,,,,,,,,,,
1720078856,120,0,4443.717773,4444.487305,4356.410156,4409.102539,4420.641113,4340.256348,4416.922852,4398.717773,4430.897461,4446.922852,4293.205078,4610,4310.128418,4331.410156,2.85697,0.723373,0.524981,0.261112,0.168104,1.934926,0.682401,0.273641,0.185297,0.130446,2.691188,0.765986,0.373053,0.319694,0.212384,2.031912,0.635029,0.907423,1.457113,1.35061,0.412512,0.194175,0.395531,0.177264,0.237256,0.458398,0.24448,0.1337,0.131781,0.086998,0.385684,0.258908,0.501639,0.234713,0.095211,0.149849,0.117171,0.102938,0.096498,0.209263,12.486595,4.484587,1.737785,0.681286,0.315636,2.826864,0.579443,0.603381,0.265212,0.174989,3.445678,1.271206,0.841376,0.407577,0.181901,0.096164,0.058489,0.069635,0.083184,1.097873,0.418235,0.487574,0.605747,0.148597,0.163611,1.255048,0.636095,0.435949,0.205943,0.16088
1720078856,121,0,4436.025879,4442.820313,4350.128418,4412.436035,4416.922852,4341.922852,4425.128418,4398.974121,4430,4441.538574,4285.897461,4595.769043,4311.025879,4325.641113,,,,,,,,,,,,,,,,,,,,,,,,,,,,,,,,,,,,,,,,,,,,,,,,,,,,,,,,,,,,,,,,,,,,,,
1720078856,122,0,4429.230957,4441.153809,4341.282227,4396.025879,4413.589844,4345.641113,4427.692383,4391.538574,4428.589844,4438.333496,4280,4583.205078,4310.769043,4317.307617,,,,,,,,,,,,,,,,,,,,,,,,,,,,,,,,,,,,,,,,,,,,,,,,,,,,,,,,,,,,,,,,,,,,,,
1720078856,123,0,4439.358887,4444.615234,4347.563965,4400.512695,4418.974121,4347.692383,4429.102539,4399.871582,4437.692383,4442.820313,4294.102539,4613.717773,4311.666504,4330.512695,,,,,,,,,,,,,,,,,,,,,,,,,,,,,,,,,,,,,,,,,,,,,,,,,,,,,,,,,,,,,,,,,,,,,,
1720078856,124,0,4448.461426,4445.384766,4355,4416.538574,4424.615234,4346.922852,4425.897461,4396.282227,4442.436035,4440.128418,4309.615234,4605.128418,4318.974121,4340.512695,,,,,,,,,,,,,,,,,,,,,,,,,,,,,,,,,,,,,,,,,,,,,,,,,,,,,,,,,,,,,,,,,,,,,,
1720078856,125,0,4448.974121,4444.743652,4354.487305,4412.179688,4424.871582,4343.717773,4415.384766,4383.077148,4432.692383,4425.512695,4307.563965,4588.974121,4323.717773,4333.205078,,,,,,,,,,,,,,,,,,,,,,,,,,,,,,,,,,,,,,,,,,,,,,,,,,,,,,,,,,,,,,,,,,,,,,
1720078856,126,0,4451.410156,4447.179688,4356.410156,4401.666504,4422.94873,4338.974121,4408.205078,4384.230957,4426.538574,4423.974121,4302.692383,4610.384766,4320.897461,4331.025879,,,,,,,,,,,,,,,,,,,,,,,,,,,,,,,,,,,,,,,,,,,,,,,,,,,,,,,,,,,,,,,,,,,,,,
1720078856,127,0,4449.871582,4446.153809,4357.94873,4402.94873,4421.025879,4338.846191,4410.641113,4380.897461,4429.358887,4430.256348,4308.205078,4606.794922,4320.128418,4333.205078,,,,,,,,,,,,,,,,,,,,,,,,,,,,,,,,,,,,,,,,,,,,,,,,,,,,,,,,,,,,,,,,,,,,,,
1720078856,0,0,4450,4447.94873,4359.102539,4412.692383,4423.205078,4341.794922,4417.820313,4381.538574,4427.307617,4423.333496,4312.436035,4601.538574,4317.94873,4335.128418,,,,,,,,,,,,,,,,,,,,,,,,,,,,,,,,,,,,,,,,,,,,,,,,,,,,,,,,,,,,,,,,,,,,,,
1720078856,1,0,4455.897461,4454.358887,4363.589844,4418.717773,4428.846191,4342.692383,4425.641113,4388.717773,4427.436035,4415,4306.025879,4605.512695,4307.563965,4331.410156,,,,,,,,,,,,,,,,,,,,,,,,,,,,,,,,,,,,,,,,,,,,,,,,,,,,,,,,,,,,,,,,,,,,,,
1720078856,2,0,4451.922852,4452.436035,4362.05127,4409.358887,4425.641113,4342.436035,4430.897461,4385.641113,4429.487305,4411.025879,4303.461426,4598.589844,4307.563965,4328.461426,,,,,,,,,,,,,,,,,,,,,,,,,,,,,,,,,,,,,,,,,,,,,,,,,,,,,,,,,,,,,,,,,,,,,,
1720078856,3,0,4442.307617,4441.153809,4358.461426,4404.358887,4417.307617,4342.05127,4426.794922,4378.974121,4421.794922,4405.256348,4312.436035,4600.512695,4320.769043,4333.846191,,,,,,,,,,,,,,,,,,,,,,,,,,,,,,,,,,,,,,,,,,,,,,,,,,,,,,,,,,,,,,,,,,,,,,
1720078856,4,0,4436.538574,4428.974121,4356.922852,4411.666504,4416.025879,4339.743652,4418.846191,4379.615234,4421.538574,4406.794922,4319.230957,4607.820313,4329.358887,4340.384766,,,,,,,,,,,,,,,,,,,,,,,,,,,,,,,,,,,,,,,,,,,,,,,,,,,,,,,,,,,,,,,,,,,,,,
1720078856,5,0,4432.179688,4420.512695,4352.820313,4400.897461,4414.230957,4337.05127,4420.256348,4386.282227,4430.256348,4412.820313,4319.102539,4607.563965,4336.410156,4345.256348,,,,,,,,,,,,,,,,,,,,,,,,,,,,,,,,,,,,,,,,,,,,,,,,,,,,,,,,,,,,,,,,,,,,,,
1720078856,6,0,4426.025879,4415.641113,4347.563965,4379.102539,4412.563965,4338.205078,4421.538574,4386.282227,4428.333496,4412.05127,4320.769043,4599.358887,4347.307617,4350.384766,,,,,,,,,,,,,,,,,,,,,,,,,,,,,,,,,,,,,,,,,,,,,,,,,,,,,,,,,,,,,,,,,,,,,,
1720078856,7,0,4419.102539,4412.436035,4347.820313,4383.974121,4414.871582,4335.128418,4417.692383,4385.769043,4430,4412.179688,4328.717773,4600.384766,4352.94873,4354.615234,,,,,,,,,,,,,,,,,,,,,,,,,,,,,,,,,,,,,,,,,,,,,,,,,,,,,,,,,,,,,,,,,,,,,,
1720078856,8,0,4418.205078,4409.487305,4351.282227,4402.307617,4412.820313,4332.179688,4420.769043,4387.692383,4441.922852,4418.717773,4336.153809,4606.794922,4354.871582,4354.487305,2.830028,0.842745,0.552368,0.274563,0.200387,1.985757,0.713307,0.323219,0.198246,0.138044,2.640427,0.828315,0.382594,0.313259,0.236458,1.933458,0.643322,0.942807,1.379639,1.354265,0.470829,0.186381,0.364567,0.177146,0.235824,0.513985,0.243141,0.122451,0.130136,0.084895,0.431335,0.312225,0.499612,0.233066,0.105325,0.171697,0.145639,0.108225,0.08678,0.20196,10.959642,4.02183,1.615004,0.597309,0.302332,3.120089,0.689675,0.61923,0.275435,0.166536,5.188219,1.795426,1.115118,0.469546,0.191958,0.078988,0.059548,0.068738,0.081223,1.137088,0.490643,0.528646,0.585486,0.17804,0.188919,1.022466,0.769863,0.448665,0.224054,0.175403
1720078856,9,0,4420.897461,4410.384766,4349.871582,4400,4411.538574,4340.256348,4425.897461,4386.153809,4443.461426,4414.358887,4337.307617,4606.538574,4355.384766,4352.436035,,,,,,,,,,,,,,,,,,,,,,,,,,,,,,,,,,,,,,,,,,,,,,,,,,,,,,,,,,,,,,,,,,,,,,
1720078856,10,0,4416.410156,4412.820313,4343.974121,4386.153809,4416.282227,4345.769043,4423.205078,4385.384766,4440.641113,4405.128418,4334.358887,4600.256348,4349.358887,4348.333496,,,,,,,,,,,,,,,,,,,,,,,,,,,,,,,,,,,,,,,,,,,,,,,,,,,,,,,,,,,,,,,,,,,,,,
1720078856,11,0,4411.666504,4412.307617,4343.205078,4383.333496,4416.025879,4340.384766,4422.179688,4388.974121,4441.153809,4399.487305,4333.205078,4602.94873,4346.922852,4348.333496,,,,,,,,,,,,,,,,,,,,,,,,,,,,,,,,,,,,,,,,,,,,,,,,,,,,,,,,,,,,,,,,,,,,,,
1720078856,12,0,4414.358887,4412.307617,4348.461426,4390,4411.538574,4340.384766,4426.153809,4388.205078,4435.769043,4373.077148,4333.974121,4600,4351.025879,4350.256348,,,,,,,,,,,,,,,,,,,,,,,,,,,,,,,,,,,,,,,,,,,,,,,,,,,,,,,,,,,,,,,,,,,,,,
1720078856,13,0,4416.666504,4416.666504,4350.769043,4390.769043,4417.436035,4346.410156,4423.974121,4384.358887,4433.461426,4330.512695,4332.05127,4588.333496,4346.410156,4348.589844,,,,,,,,,,,,,,,,,,,,,,,,,,,,,,,,,,,,,,,,,,,,,,,,,,,,,,,,,,,,,,,,,,,,,,
1720078856,14,0,4422.820313,4424.487305,4355.512695,4401.282227,4425.256348,4347.563965,4424.358887,4396.153809,4440.769043,4315.512695,4333.077148,4608.589844,4344.230957,4357.179688,,,,,,,,,,,,,,,,,,,,,,,,,,,,,,,,,,,,,,,,,,,,,,,,,,,,,,,,,,,,,,,,,,,,,,
1720078856,15,0,4431.025879,4426.666504,4358.461426,4417.307617,4418.589844,4352.563965,4431.153809,4397.05127,4447.179688,4328.717773,4332.307617,4599.743652,4353.461426,4357.05127,,,,,,,,,,,,,,,,,,,,,,,,,,,,,,,,,,,,,,,,,,,,,,,,,,,,,,,,,,,,,,,,,,,,,,
1720078856,16,0,4423.077148,4415.256348,4347.563965,4403.077148,4408.205078,4356.410156,4425.641113,4386.794922,4443.717773,4326.794922,4323.974121,4578.974121,4353.974121,4342.820313,,,,,,,,,,,,,,,,,,,,,,,,,,,,,,,,,,,,,,,,,,,,,,,,,,,,,,,,,,,,,,,,,,,,,,
1720078856,17,0,4410.256348,4404.230957,4338.589844,4377.820313,4408.589844,4348.333496,4411.153809,4397.307617,4435.128418,4310.512695,4322.307617,4612.179688,4345,4343.205078,,,,,,,,,,,,,,,,,,,,,,,,,,,,,,,,,,,,,,,,,,,,,,,,,,,,,,,,,,,,,,,,,,,,,,
1720078856,18,0,4414.358887,4407.94873,4342.05127,4381.025879,4417.05127,4343.461426,4405,4396.538574,4437.307617,4309.358887,4330.512695,4601.922852,4344.358887,4346.794922,,,,,,,,,,,,,,,,,,,,,,,,,,,,,,,,,,,,,,,,,,,,,,,,,,,,,,,,,,,,,,,,,,,,,,
1720078856,19,0,4423.461426,4413.717773,4343.974121,4394.871582,4417.820313,4345.641113,4403.846191,4385.512695,4443.077148,4319.230957,4333.461426,4576.666504,4348.589844,4341.922852,,,,,,,,,,,,,,,,,,,,,,,,,,,,,,,,,,,,,,,,,,,,,,,,,,,,,,,,,,,,,,,,,,,,,,
1720078856,20,0,4424.358887,4412.820313,4342.563965,4399.102539,4410.384766,4341.794922,4401.794922,4392.692383,4435.384766,4324.871582,4326.153809,4612.436035,4347.307617,4342.94873,,,,,,,,,,,,,,,,,,,,,,,,,,,,,,,,,,,,,,,,,,,,,,,,,,,,,,,,,,,,,,,,,,,,,,
1720078856,21,0,4420,4415.256348,4341.666504,4413.461426,4410.641113,4338.717773,4404.743652,4393.589844,4428.846191,4329.743652,4317.179688,4613.717773,4341.794922,4340,,,,,,,,,,,,,,,,,,,,,,,,,,,,,,,,,,,,,,,,,,,,,,,,,,,,,,,,,,,,,,,,,,,,,,
1720078856,22,0,4419.102539,4417.820313,4340.769043,4418.077148,4417.692383,4342.436035,4409.743652,4381.410156,4427.563965,4338.846191,4313.077148,4579.743652,4340.128418,4332.820313,,,,,,,,,,,,,,,,,,,,,,,,,,,,,,,,,,,,,,,,,,,,,,,,,,,,,,,,,,,,,,,,,,,,,,
1720078856,23,0,4422.692383,4413.333496,4340.512695,4392.436035,4413.974121,4339.230957,4409.743652,4385.512695,4421.153809,4327.307617,4318.205078,4600.512695,4342.94873,4338.461426,,,,,,,,,,,,,,,,,,,,,,,,,,,,,,,,,,,,,,,,,,,,,,,,,,,,,,,,,,,,,,,,,,,,,,
1720078856,24,0,4424.230957,4407.563965,4340.256348,4375.512695,4405,4333.974121,4406.666504,4387.94873,4416.922852,4288.077148,4324.487305,4616.666504,4342.563965,4340.769043,2.917539,1.043119,0.583694,0.283667,0.228307,2.107,0.777146,0.396732,0.210474,0.149967,2.618199,0.901502,0.39009,0.309379,0.251717,1.872809,0.689811,0.923735,1.324958,1.300078,0.554169,0.193962,0.346563,0.176187,0.231484,0.597249,0.25611,0.143173,0.127178,0.086911,0.45481,0.42333,0.537171,0.223055,0.116681,0.207632,0.194339,0.128804,0.077676,0.198413,8.211875,3.15326,1.335838,0.467873,0.271763,3.427514,0.913255,0.731376,0.332221,0.161686,6.749016,2.278768,1.32396,0.50433,0.203954,0.077056,0.058122,0.063898,0.078349,1.174744,0.665414,0.548002,0.533538,0.216873,0.210544,0.839175,0.910502,0.441371,0.239568,0.190718
1720078856,25,0,4424.615234,4408.589844,4340.384766,4380.128418,4409.358887,4338.717773,4404.871582,4380.384766,4419.743652,4261.153809,4321.153809,4595.769043,4343.974121,4333.974121,,,,,,,,,,,,,,,,,,,,,,,,,,,,,,,,,,,,,,,,,,,,,,,,,,,,,,,,,,,,,,,,,,,,,,
1720078856,26,0,4425.769043,4410.256348,4338.333496,4387.820313,4408.589844,4337.94873,4403.333496,4382.820313,4416.794922,4259.102539,4319.615234,4599.743652,4352.436035,4335.512695,,,,,,,,,,,,,,,,,,,,,,,,,,,,,,,,,,,,,,,,,,,,,,,,,,,,,,,,,,,,,,,,,,,,,,
1720078856,27,0,4427.436035,4404.743652,4334.358887,4396.794922,4397.307617,4328.333496,4399.230957,4381.025879,4410.641113,4257.307617,4327.179688,4602.563965,4353.589844,4336.282227,,,,,,,,,,,,,,,,,,,,,,,,,,,,,,,,,,,,,,,,,,,,,,,,,,,,,,,,,,,,,,,,,,,,,,
1720078856,28,0,4423.333496,4401.794922,4334.871582,4402.307617,4402.307617,4326.666504,4398.974121,4376.922852,4416.153809,4248.589844,4329.743652,4596.282227,4347.563965,4329.102539,,,,,,,,,,,,,,,,,,,,,,,,,,,,,,,,,,,,,,,,,,,,,,,,,,,,,,,,,,,,,,,,,,,,,,
1720078856,29,0,4415.641113,4403.461426,4333.717773,4392.436035,4414.487305,4335.128418,4404.615234,4377.820313,4426.666504,4247.307617,4321.538574,4600.641113,4345.512695,4323.333496,,,,,,,,,,,,,,,,,,,,,,,,,,,,,,,,,,,,,,,,,,,,,,,,,,,,,,,,,,,,,,,,,,,,,,
1720078856,30,0,4410.384766,4399.102539,4326.282227,4380.897461,4415.256348,4343.461426,4407.05127,4377.563965,4424.102539,4249.487305,4316.538574,4603.846191,4340.256348,4318.333496,,,,,,,,,,,,,,,,,,,,,,,,,,,,,,,,,,,,,,,,,,,,,,,,,,,,,,,,,,,,,,,,,,,,,,
1720078856,31,0,4409.487305,4398.589844,4326.794922,4382.05127,4411.794922,4348.333496,4407.436035,4376.282227,4416.025879,4245.512695,4312.692383,4601.794922,4328.589844,4311.410156,,,,,,,,,,,,,,,,,,,,,,,,,,,,,,,,,,,,,,,,,,,,,,,,,,,,,,,,,,,,,,,,,,,,,,
1720078856,32,0,4413.205078,4404.615234,4334.871582,4387.307617,4412.179688,4348.205078,4413.333496,4372.692383,4419.358887,4243.333496,4305.384766,4600,4322.820313,4307.563965,,,,,,,,,,,,,,,,,,,,,,,,,,,,,,,,,,,,,,,,,,,,,,,,,,,,,,,,,,,,,,,,,,,,,,
1720078856,33,0,4412.820313,4403.846191,4335.512695,4389.487305,4418.589844,4348.974121,4414.102539,4368.974121,4424.230957,4245.256348,4306.666504,4603.077148,4325.384766,4307.179688,,,,,,,,,,,,,,,,,,,,,,,,,,,,,,,,,,,,,,,,,,,,,,,,,,,,,,,,,,,,,,,,,,,,,,
1720078856,34,0,4412.05127,4403.974121,4334.871582,4390.769043,4423.461426,4354.871582,4408.974121,4371.025879,4422.563965,4245.384766,4317.563965,4603.205078,4331.922852,4308.717773,,,,,,,,,,,,,,,,,,,,,,,,,,,,,,,,,,,,,,,,,,,,,,,,,,,,,,,,,,,,,,,,,,,,,,
1720078856,35,0,4417.179688,4413.333496,4340.256348,4393.589844,4420.769043,4357.307617,4410.897461,4378.333496,4426.538574,4248.846191,4321.025879,4605.128418,4335.128418,4311.410156,,,,,,,,,,,,,,,,,,,,,,,,,,,,,,,,,,,,,,,,,,,,,,,,,,,,,,,,,,,,,,,,,,,,,,
1720078856,36,0,4423.077148,4415.384766,4341.538574,4396.666504,4421.666504,4354.358887,4415.384766,4378.974121,4430.769043,4256.666504,4318.461426,4607.179688,4334.230957,4307.307617,,,,,,,,,,,,,,,,,,,,,,,,,,,,,,,,,,,,,,,,,,,,,,,,,,,,,,,,,,,,,,,,,,,,,,
1720078856,37,0,4422.94873,4412.436035,4339.487305,4400.512695,4426.794922,4353.333496,4412.563965,4375.512695,4428.846191,4258.461426,4319.615234,4601.922852,4333.717773,4299.102539,,,,,,,,,,,,,,,,,,,,,,,,,,,,,,,,,,,,,,,,,,,,,,,,,,,,,,,,,,,,,,,,,,,,,,
1720078856,38,0,4417.436035,4413.077148,4337.05127,4398.077148,4418.589844,4354.615234,4408.589844,4372.692383,4428.461426,4250.897461,4312.179688,4595,4331.153809,4292.179688,,,,,,,,,,,,,,,,,,,,,,,,,,,,,,,,,,,,,,,,,,,,,,,,,,,,,,,,,,,,,,,,,,,,,,
1720078856,39,0,4419.358887,4411.666504,4333.589844,4385.897461,4411.666504,4355.256348,4405.897461,4371.794922,4425,4246.538574,4305.641113,4605,4331.410156,4293.717773,,,,,,,,,,,,,,,,,,,,,,,,,,,,,,,,,,,,,,,,,,,,,,,,,,,,,,,,,,,,,,,,,,,,,,
1720078856,40,0,4426.666504,4411.153809,4335,4387.179688,4418.333496,4353.974121,4404.230957,4370.256348,4417.179688,4249.615234,4317.94873,4605.641113,4338.717773,4302.05127,3.061129,1.273997,0.607396,0.283549,0.242095,2.320345,0.843591,0.477524,0.21901,0.161121,2.615957,0.978905,0.391721,0.306525,0.256598,1.902925,0.758969,0.841671,1.28502,1.187634,0.640977,0.210409,0.350187,0.172978,0.222668,0.697984,0.270376,0.188198,0.121424,0.091395,0.453941,0.575251,0.601811,0.208499,0.127297,0.257336,0.261664,0.165137,0.071129,0.197162,5.215546,2.193843,0.982307,0.331359,0.234436,3.83451,1.263793,0.960001,0.43303,0.161824,7.618042,2.570429,1.406689,0.511288,0.21407,0.092781,0.055588,0.057503,0.074534,1.19274,0.919908,0.560055,0.464213,0.252522,0.221247,0.729668,1.010237,0.409327,0.247604,0.198848
1720078856,41,0,4430.769043,4414.358887,4336.025879,4395,4415.769043,4353.333496,4407.820313,4368.077148,4419.487305,4252.692383,4331.794922,4584.743652,4343.589844,4305.512695,,,,,,,,,,,,,,,,,,,,,,,,,,,,,,,,,,,,,,,,,,,,,,,,,,,,,,,,,,,,,,,,,,,,,,
1720078856,42,0,4427.436035,4411.410156,4328.717773,4383.589844,4408.589844,4355,4407.820313,4378.333496,4422.436035,4245.641113,4327.820313,4611.153809,4342.307617,4306.922852,,,,,,,,,,,,,,,,,,,,,,,,,,,,,,,,,,,,,,,,,,,,,,,,,,,,,,,,,,,,,,,,,,,,,,
1720078856,43,0,4420,4403.205078,4326.282227,4368.846191,4412.179688,4357.94873,4401.282227,4374.487305,4418.333496,4239.358887,4318.717773,4619.487305,4338.717773,4302.05127,,,,,,,,,,,,,,,,,,,,,,,,,,,,,,,,,,,,,,,,,,,,,,,,,,,,,,,,,,,,,,,,,,,,,,
1720078856,44,0,4421.282227,4402.692383,4338.974121,4383.846191,4417.436035,4361.794922,4402.820313,4360.256348,4417.94873,4248.077148,4319.487305,4578.461426,4333.461426,4295.769043,,,,,,,,,,,,,,,,,,,,,,,,,,,,,,,,,,,,,,,,,,,,,,,,,,,,,,,,,,,,,,,,,,,,,,
1720078856,45,0,4425.641113,4405.384766,4344.358887,4403.333496,4411.410156,4363.077148,4405.769043,4368.974121,4416.538574,4251.025879,4317.820313,4593.846191,4326.794922,4298.846191,,,,,,,,,,,,,,,,,,,,,,,,,,,,,,,,,,,,,,,,,,,,,,,,,,,,,,,,,,,,,,,,,,,,,,
1720078856,46,0,4418.717773,4399.743652,4332.179688,4391.282227,4402.692383,4359.102539,4401.538574,4374.102539,4415.769043,4248.205078,4312.05127,4618.461426,4324.358887,4296.538574,,,,,,,,,,,,,,,,,,,,,,,,,,,,,,,,,,,,,,,,,,,,,,,,,,,,,,,,,,,,,,,,,,,,,,
1720078856,47,0,4408.589844,4391.666504,4323.589844,4365.384766,4407.692383,4359.743652,4405.384766,4363.846191,4421.410156,4253.589844,4306.153809,4592.179688,4326.922852,4289.358887,,,,,,,,,,,,,,,,,,,,,,,,,,,,,,,,,,,,,,,,,,,,,,,,,,,,,,,,,,,,,,,,,,,,,,
1720078856,48,0,4411.025879,4392.94873,4328.974121,4365.512695,4416.410156,4368.589844,4414.102539,4368.077148,4421.794922,4254.358887,4305.769043,4591.025879,4332.563965,4295.641113,,,,,,,,,,,,,,,,,,,,,,,,,,,,,,,,,,,,,,,,,,,,,,,,,,,,,,,,,,,,,,,,,,,,,,
1720078856,49,0,4415.641113,4397.307617,4338.077148,4385,4413.461426,4367.94873,4412.179688,4378.205078,4417.820313,4253.461426,4315,4613.461426,4338.589844,4300.769043,,,,,,,,,,,,,,,,,,,,,,,,,,,,,,,,,,,,,,,,,,,,,,,,,,,,,,,,,,,,,,,,,,,,,,
1720078856,50,0,4412.692383,4393.846191,4339.487305,4384.743652,4404.871582,4358.205078,4411.410156,4372.563965,4422.820313,4259.615234,4319.487305,4600.128418,4335.256348,4292.436035,,,,,,,,,,,,,,,,,,,,,,,,,,,,,,,,,,,,,,,,,,,,,,,,,,,,,,,,,,,,,,,,,,,,,,
1720078856,51,0,4411.410156,4389.102539,4337.307617,4377.820313,4403.077148,4360.384766,4418.077148,4370.641113,4427.307617,4264.487305,4318.846191,4591.025879,4328.846191,4291.153809,,,,,,,,,,,,,,,,,,,,,,,,,,,,,,,,,,,,,,,,,,,,,,,,,,,,,,,,,,,,,,,,,,,,,,
1720078856,52,0,4412.307617,4393.589844,4338.846191,4387.179688,4407.692383,4370.641113,4417.05127,4376.025879,4425.128418,4264.871582,4325.256348,4603.205078,4333.077148,4295.641113,,,,,,,,,,,,,,,,,,,,,,,,,,,,,,,,,,,,,,,,,,,,,,,,,,,,,,,,,,,,,,,,,,,,,,
1720078856,53,0,4409.743652,4402.692383,4340.641113,4385.641113,4417.179688,4370.512695,4410.897461,4372.692383,4427.05127,4270.128418,4333.077148,4603.205078,4341.282227,4295.641113,,,,,,,,,,,,,,,,,,,,,,,,,,,,,,,,,,,,,,,,,,,,,,,,,,,,,,,,,,,,,,,,,,,,,,
1720078856,54,0,4401.410156,4402.05127,4338.589844,4372.692383,4418.846191,4363.461426,4408.461426,4368.461426,4427.179688,4275,4325.512695,4601.794922,4336.922852,4295.256348,,,,,,,,,,,,,,,,,,,,,,,,,,,,,,,,,,,,,,,,,,,,,,,,,,,,,,,,,,,,,,,,,,,,,,
1720078856,55,0,4391.282227,4397.692383,4338.077148,4378.974121,4412.563965,4364.487305,4405.641113,4366.025879,4422.307617,4276.153809,4317.563965,4602.563965,4328.846191,4292.179688,,,,,,,,,,,,,,,,,,,,,,,,,,,,,,,,,,,,,,,,,,,,,,,,,,,,,,,,,,,,,,,,,,,,,,
1720078856,56,0,4381.410156,4397.692383,4335.256348,4391.410156,4418.846191,4369.487305,4401.922852,4366.282227,4420.256348,4271.794922,4316.794922,4604.871582,4324.358887,4283.846191,3.257688,1.483015,0.604421,0.275003,0.237254,2.596581,0.891934,0.543096,0.224238,0.167104,2.605568,1.062459,0.382066,0.303453,0.251469,2.01969,0.819899,0.725693,1.270636,1.040776,0.703357,0.229261,0.369764,0.167446,0.208849,0.79566,0.272498,0.24096,0.113214,0.096057,0.441284,0.723837,0.671539,0.197788,0.134392,0.310237,0.334659,0.211046,0.068126,0.197294,2.770094,1.424974,0.649131,0.221823,0.201158,4.313474,1.849265,1.30439,0.559932,0.169236,7.510732,2.578002,1.338237,0.497972,0.219932,0.125302,0.05471,0.051514,0.070216,1.190487,1.23207,0.589532,0.405922,0.274212,0.217107,0.704748,1.039259,0.367011,0.246149,0.196332
1720078856,57,0,4370.512695,4395.897461,4329.102539,4396.153809,4422.307617,4368.589844,4405.641113,4364.487305,4419.102539,4263.589844,4311.410156,4603.077148,4318.333496,4278.461426,,,,,,,,,,,,,,,,,,,,,,,,,,,,,,,,,,,,,,,,,,,,,,,,,,,,,,,,,,,,,,,,,,,,,,
1720078856,58,0,4366.410156,4389.871582,4328.974121,4397.94873,4410.512695,4363.077148,4413.077148,4362.692383,4414.487305,4263.077148,4306.922852,4603.589844,4314.230957,4283.846191,,,,,,,,,,,,,,,,,,,,,,,,,,,,,,,,,,,,,,,,,,,,,,,,,,,,,,,,,,,,,,,,,,,,,,
1720078856,59,0,4364.230957,4383.589844,4329.743652,4378.333496,4404.487305,4360.897461,4414.102539,4365.512695,4414.102539,4261.794922,4302.820313,4606.538574,4313.717773,4287.05127,,,,,,,,,,,,,,,,,,,,,,,,,,,,,,,,,,,,,,,,,,,,,,,,,,,,,,,,,,,,,,,,,,,,,,
1720078856,60,0,4358.205078,4382.94873,4325.897461,4355.128418,4412.563965,4364.358887,4413.461426,4370.256348,4421.794922,4262.307617,4305.256348,4603.333496,4319.487305,4280.256348,,,,,,,,,,,,,,,,,,,,,,,,,,,,,,,,,,,,,,,,,,,,,,,,,,,,,,,,,,,,,,,,,,,,,,
1720078856,61,0,4356.922852,4384.615234,4326.794922,4359.487305,4411.794922,4368.974121,4412.94873,4373.717773,4422.05127,4267.436035,4317.692383,4601.794922,4327.94873,4274.102539,,,,,,,,,,,,,,,,,,,,,,,,,,,,,,,,,,,,,,,,,,,,,,,,,,,,,,,,,,,,,,,,,,,,,,
1720078856,62,0,4357.820313,4385.641113,4331.025879,4381.538574,4407.820313,4372.179688,4411.538574,4371.282227,4415.897461,4266.794922,4325,4602.563965,4329.358887,4266.922852,,,,,,,,,,,,,,,,,,,,,,,,,,,,,,,,,,,,,,,,,,,,,,,,,,,,,,,,,,,,,,,,,,,,,,
1720078856,63,0,4354.230957,4385.512695,4330.128418,4390.512695,4411.410156,4370.512695,4409.615234,4367.563965,4416.025879,4262.05127,4319.102539,4603.974121,4325.769043,4260.769043,,,,,,,,,,,,,,,,,,,,,,,,,,,,,,,,,,,,,,,,,,,,,,,,,,,,,,,,,,,,,,,,,,,,,,
1720078857,64,0,4352.436035,4382.563965,4325,4381.666504,4403.717773,4366.538574,4406.025879,4365.512695,4413.333496,4253.717773,4308.846191,4602.94873,4318.974121,4260.512695,,,,,,,,,,,,,,,,,,,,,,,,,,,,,,,,,,,,,,,,,,,,,,,,,,,,,,,,,,,,,,,,,,,,,,
1720078857,65,0,4356.025879,4380,4323.077148,4370.256348,4400.641113,4366.410156,4404.871582,4365.256348,4407.563965,4245.897461,4309.615234,4600,4313.717773,4259.615234,,,,,,,,,,,,,,,,,,,,,,,,,,,,,,,,,,,,,,,,,,,,,,,,,,,,,,,,,,,,,,,,,,,,,,
1720078857,66,0,4356.538574,4381.538574,4324.358887,4367.307617,4409.102539,4372.05127,4409.230957,4367.05127,4414.358887,4249.743652,4320,4599.358887,4313.974121,4257.692383,,,,,,,,,,,,,,,,,,,,,,,,,,,,,,,,,,,,,,,,,,,,,,,,,,,,,,,,,,,,,,,,,,,,,,
1720078857,67,0,4357.307617,4386.538574,4328.589844,4377.692383,4411.538574,4377.436035,4413.589844,4372.05127,4425.128418,4262.307617,4326.153809,4607.436035,4318.717773,4260.897461,,,,,,,,,,,,,,,,,,,,,,,,,,,,,,,,,,,,,,,,,,,,,,,,,,,,,,,,,,,,,,,,,,,,,,
1720078857,68,0,4362.307617,4385.256348,4332.05127,4381.025879,4407.563965,4380,4415,4374.487305,4423.974121,4265.384766,4320.897461,4609.871582,4319.615234,4261.025879,,,,,,,,,,,,,,,,,,,,,,,,,,,,,,,,,,,,,,,,,,,,,,,,,,,,,,,,,,,,,,,,,,,,,,
1720078857,69,0,4365.897461,4382.05127,4332.179688,4369.487305,4408.846191,4383.461426,4415.128418,4365.384766,4419.615234,4266.153809,4318.717773,4588.333496,4318.205078,4258.461426,,,,,,,,,,,,,,,,,,,,,,,,,,,,,,,,,,,,,,,,,,,,,,,,,,,,,,,,,,,,,,,,,,,,,,
1720078857,70,0,4371.538574,4385.641113,4337.563965,4370.769043,4405.256348,4383.846191,4411.025879,4370.897461,4414.743652,4269.743652,4328.205078,4605.512695,4320.769043,4272.563965,,,,,,,,,,,,,,,,,,,,,,,,,,,,,,,,,,,,,,,,,,,,,,,,,,,,,,,,,,,,,,,,,,,,,,
1720078857,71,0,4378.461426,4390.384766,4345.512695,4395.769043,4397.307617,4378.461426,4408.077148,4379.615234,4414.358887,4268.846191,4329.487305,4620,4324.358887,4287.820313,,,,,,,,,,,,,,,,,,,,,,,,,,,,,,,,,,,,,,,,,,,,,,,,,,,,,,,,,,,,,,,,,,,,,,
1720078857,72,0,4376.025879,4387.820313,4338.589844,4398.974121,4402.94873,4376.538574,4409.102539,4367.820313,4419.871582,4271.666504,4321.794922,4585.256348,4325,4280.384766,3.387469,1.628104,0.561337,0.262117,0.215993,2.833119,0.917127,0.575881,0.22691,0.165289,2.539575,1.145481,0.356253,0.297638,0.237885,2.148027,0.839954,0.618682,1.298999,0.894262,0.727278,0.24819,0.388618,0.159717,0.192374,0.917242,0.255259,0.285261,0.104327,0.099367,0.443592,0.818671,0.727041,0.197994,0.135627,0.373506,0.393633,0.254511,0.068469,0.198256,1.35688,0.973292,0.400041,0.154742,0.178439,4.952084,2.806091,1.709413,0.690176,0.185863,6.479669,2.321818,1.150676,0.474523,0.221616,0.170007,0.0578,0.046486,0.066406,1.180821,1.557693,0.6622,0.384367,0.277482,0.199078,0.755088,0.989587,0.33286,0.237184,0.184586
1720078857,73,0,4366.538574,4377.436035,4325.384766,4373.846191,4405.641113,4378.205078,4408.717773,4371.282227,4418.205078,4276.153809,4327.820313,4599.487305,4322.179688,4273.717773,,,,,,,,,,,,,,,,,,,,,,,,,,,,,,,,,,,,,,,,,,,,,,,,,,,,,,,,,,,,,,,,,,,,,,
1720078857,74,0,4366.282227,4377.94873,4324.743652,4369.102539,4406.153809,4377.563965,4409.871582,4378.205078,4414.358887,4280.384766,4335,4613.077148,4323.077148,4272.307617,,,,,,,,,,,,,,,,,,,,,,,,,,,,,,,,,,,,,,,,,,,,,,,,,,,,,,,,,,,,,,,,,,,,,,
1720078857,75,0,4370.897461,4387.820313,4329.230957,4375.641113,4409.615234,4378.205078,4407.05127,4367.94873,4416.794922,4287.820313,4328.589844,4585.384766,4325.256348,4271.410156,,,,,,,,,,,,,,,,,,,,,,,,,,,,,,,,,,,,,,,,,,,,,,,,,,,,,,,,,,,,,,,,,,,,,,
1720078857,76,0,4369.358887,4390.897461,4326.538574,4370.128418,4409.743652,4381.282227,4401.025879,4366.922852,4415.128418,4293.333496,4330.512695,4599.743652,4324.871582,4278.974121,,,,,,,,,,,,,,,,,,,,,,,,,,,,,,,,,,,,,,,,,,,,,,,,,,,,,,,,,,,,,,,,,,,,,,
1720078857,77,0,4371.922852,4390.512695,4325.641113,4376.025879,4411.153809,4383.077148,4405.384766,4374.358887,4416.025879,4302.307617,4341.538574,4617.05127,4328.589844,4283.205078,,,,,,,,,,,,,,,,,,,,,,,,,,,,,,,,,,,,,,,,,,,,,,,,,,,,,,,,,,,,,,,,,,,,,,
1720078857,78,0,4376.025879,4388.461426,4326.410156,4391.410156,4410.128418,4383.846191,4409.102539,4368.333496,4423.589844,4311.282227,4338.205078,4587.179688,4330,4279.358887,,,,,,,,,,,,,,,,,,,,,,,,,,,,,,,,,,,,,,,,,,,,,,,,,,,,,,,,,,,,,,,,,,,,,,
1720078857,79,0,4375.256348,4388.974121,4325.384766,4384.615234,4404.358887,4385.256348,4403.461426,4370.897461,4418.461426,4320.384766,4332.820313,4596.025879,4326.410156,4285.384766,,,,,,,,,,,,,,,,,,,,,,,,,,,,,,,,,,,,,,,,,,,,,,,,,,,,,,,,,,,,,,,,,,,,,,
1720078857,80,0,4376.282227,4389.743652,4326.153809,4374.230957,4400.384766,4385,4404.487305,4383.589844,4412.692383,4349.743652,4333.589844,4619.487305,4323.333496,4290.256348,,,,,,,,,,,,,,,,,,,,,,,,,,,,,,,,,,,,,,,,,,,,,,,,,,,,,,,,,,,,,,,,,,,,,,
1720078857,81,0,4378.717773,4387.307617,4325.897461,4377.820313,4406.794922,4384.487305,4411.153809,4382.307617,4423.333496,4385.769043,4335.512695,4595.641113,4323.717773,4284.102539,,,,,,,,,,,,,,,,,,,,,,,,,,,,,,,,,,,,,,,,,,,,,,,,,,,,,,,,,,,,,,,,,,,,,,
1720078857,82,0,4380.769043,4386.794922,4325.512695,4375.128418,4412.94873,4387.563965,4409.102539,4382.179688,4428.589844,4389.871582,4346.666504,4597.692383,4328.846191,4289.102539,,,,,,,,,,,,,,,,,,,,,,,,,,,,,,,,,,,,,,,,,,,,,,,,,,,,,,,,,,,,,,,,,,,,,,
1720078857,83,0,4389.743652,4392.05127,4327.692383,4366.410156,4411.410156,4390.769043,4406.538574,4382.692383,4423.717773,4378.717773,4349.615234,4606.922852,4334.871582,4298.717773,,,,,,,,,,,,,,,,,,,,,,,,,,,,,,,,,,,,,,,,,,,,,,,,,,,,,,,,,,,,,,,,,,,,,,
1720078857,84,0,4400.128418,4395.384766,4333.205078,4374.615234,4403.589844,4389.230957,4408.205078,4384.487305,4428.589844,4380.641113,4338.461426,4602.94873,4333.205078,4301.153809,,,,,,,,,,,,,,,,,,,,,,,,,,,,,,,,,,,,,,,,,,,,,,,,,,,,,,,,,,,,,,,,,,,,,,
1720078857,85,0,4401.282227,4395.256348,4340,4384.871582,4401.025879,4384.871582,4408.333496,4390.256348,4436.410156,4382.179688,4341.025879,4606.666504,4328.717773,4301.153809,,,,,,,,,,,,,,,,,,,,,,,,,,,,,,,,,,,,,,,,,,,,,,,,,,,,,,,,,,,,,,,,,,,,,,
1720078857,86,0,4398.333496,4399.230957,4338.589844,4383.717773,4410.256348,4385.769043,4410.128418,4386.666504,4435.512695,4378.846191,4350.641113,4601.153809,4327.05127,4296.025879,,,,,,,,,,,,,,,,,,,,,,,,,,,,,,,,,,,,,,,,,,,,,,,,,,,,,,,,,,,,,,,,,,,,,,
1720078857,87,0,4397.05127,4397.436035,4332.692383,4387.563965,4412.94873,4392.820313,4411.666504,4384.102539,4428.589844,4382.436035,4342.692383,4601.153809,4318.974121,4293.846191,,,,,,,,,,,,,,,,,,,,,,,,,,,,,,,,,,,,,,,,,,,,,,,,,,,,,,,,,,,,,,,,,,,,,,
1720078857,88,0,4396.282227,4394.615234,4336.153809,4389.358887,4410.641113,4396.282227,4410.769043,4385.128418,4423.333496,4389.358887,4334.615234,4602.05127,4311.922852,4298.717773,3.419267,1.6806,0.476388,0.246051,0.186242,2.932638,0.925334,0.563994,0.225729,0.156234,2.390541,1.20223,0.312572,0.286356,0.218875,2.19901,0.796813,0.545154,1.380947,0.778272,0.725789,0.266541,0.387713,0.150867,0.177913,1.044417,0.221032,0.308465,0.097054,0.101158,0.482768,0.825869,0.756337,0.209129,0.130237,0.439125,0.421493,0.281746,0.07109,0.199234,0.890677,0.790877,0.251093,0.125169,0.165938,5.421216,4.136029,2.080891,0.802482,0.210898,4.915166,1.916931,0.917199,0.449085,0.220383,0.216544,0.064801,0.041965,0.063789,1.178232,1.832131,0.792675,0.409304,0.266378,0.172423,0.866673,0.873742,0.321713,0.224662,0.167942
1720078857,89,0,4397.820313,4398.205078,4344.358887,4382.05127,4414.358887,4391.538574,4411.538574,4386.025879,4425.897461,4394.487305,4344.871582,4601.666504,4319.487305,4303.077148,,,,,,,,,,,,,,,,,,,,,,,,,,,,,,,,,,,,,,,,,,,,,,,,,,,,,,,,,,,,,,,,,,,,,,
1720078857,90,0,4400.897461,4398.077148,4342.563965,4378.461426,4415.641113,4387.94873,4411.922852,4385.769043,4428.589844,4398.333496,4351.538574,4601.538574,4326.666504,4301.153809,,,,,,,,,,,,,,,,,,,,,,,,,,,,,,,,,,,,,,,,,,,,,,,,,,,,,,,,,,,,,,,,,,,,,,
1720078857,91,0,4405,4396.025879,4339.102539,4387.179688,4412.05127,4393.846191,4409.743652,4384.230957,4424.487305,4407.179688,4349.358887,4601.410156,4324.230957,4303.717773,,,,,,,,,,,,,,,,,,,,,,,,,,,,,,,,,,,,,,,,,,,,,,,,,,,,,,,,,,,,,,,,,,,,,,
