Timestamp,EEG.Counter,EEG.Interpolated,EEG.AF3,EEG.F7,EEG.F3,EEG.FC5,EEG.T7,EEG.P7,EEG.O1,EEG.O2,EEG.P8,EEG.T8,EEG.FC6,EEG.F4,EEG.F8,EEG.AF4,POW.AF3.Theta,POW.AF3.Alpha,POW.AF3.BetaL,POW.AF3.BetaH,POW.AF3.Gamma,POW.F7.Theta,POW.F7.Alpha,POW.F7.BetaL,POW.F7.BetaH,POW.F7.Gamma,POW.F3.Theta,POW.F3.Alpha,POW.F3.BetaL,POW.F3.BetaH,POW.F3.Gamma,POW.FC5.Theta,POW.FC5.Alpha,POW.FC5.BetaL,POW.FC5.BetaH,POW.FC5.Gamma,POW.T7.Theta,POW.T7.Alpha,POW.T7.BetaL,POW.T7.BetaH,POW.T7.Gamma,POW.P7.Theta,POW.P7.Alpha,POW.P7.BetaL,POW.P7.BetaH,POW.P7.Gamma,POW.O1.Theta,POW.O1.Alpha,POW.O1.BetaL,POW.O1.BetaH,POW.O1.Gamma,POW.O2.Theta,POW.O2.Alpha,POW.O2.BetaL,POW.O2.BetaH,POW.O2.Gamma,POW.P8.Theta,POW.P8.Alpha,POW.P8.BetaL,POW.P8.BetaH,POW.P8.Gamma,POW.T8.Theta,POW.T8.Alpha,POW.T8.BetaL,POW.T8.BetaH,POW.T8.Gamma,POW.FC6.Theta,POW.FC6.Alpha,POW.FC6.BetaL,POW.FC6.BetaH,POW.FC6.Gamma,POW.F4.Theta,POW.F4.Alpha,POW.F4.BetaL,POW.F4.BetaH,POW.F4.Gamma,POW.F8.Theta,POW.F8.Alpha,POW.F8.BetaL,POW.F8.BetaH,POW.F8.Gamma,POW.AF4.Theta,POW.AF4.Alpha,POW.AF4.BetaL,POW.AF4.BetaH,POW.AF4.Gamma
1720086392,112,0,4376.410156,4388.974121,4438.461426,4384.487305,4362.820313,4392.179688,4342.94873,4341.025879,4374.487305,4341.410156,4532.436035,4502.05127,4571.153809,4444.358887,,,,,,,,,,,,,,,,,,,,,,,,,,,,,,,,,,,,,,,,,,,,,,,,,,,,,,,,,,,,,,,,,,,,,,
1720086392,113,0,4378.461426,4389.102539,4440.897461,4383.333496,4370.512695,4390.897461,4342.179688,4345.256348,4378.589844,4343.077148,4526.538574,4493.717773,4569.871582,4437.94873,,,,,,,,,,,,,,,,,,,,,,,,,,,,,,,,,,,,,,,,,,,,,,,,,,,,,,,,,,,,,,,,,,,,,,
1720086392,114,0,4381.282227,4390.769043,4440,4381.410156,4373.846191,4389.743652,4339.102539,4343.333496,4389.871582,4338.205078,4515.128418,4507.307617,4561.538574,4440.641113,,,,,,,,,,,,,,,,,,,,,,,,,,,,,,,,,,,,,,,,,,,,,,,,,,,,,,,,,,,,,,,,,,,,,,
1720086392,115,0,4382.94873,4386.666504,4439.615234,4380.769043,4370.256348,4387.820313,4344.743652,4344.871582,4380.641113,4326.025879,4516.410156,4504.487305,4551.666504,4438.333496,0.705963,1.267352,0.369102,0.279677,0.104443,2.530886,2.547652,0.498486,0.336967,0.222332,0.843141,1.088209,0.651273,0.30446,0.164316,1.078008,1.345765,0.313254,0.280144,0.152527,1.183983,0.920554,0.611125,0.153361,0.154144,50.172619,16.287443,8.721106,3.642472,1.2856,1.330047,0.614475,0.521269,0.255011,0.110443,1.458064,0.271695,0.409524,0.28606,0.139575,1.056921,0.888025,0.402564,0.243707,0.203727,1.155545,1.265222,1.134387,0.573867,0.392871,1.118251,1.734533,1.703293,0.608838,0.254866,0.433512,0.326781,0.249031,0.16882,0.411351,5.144116,3.053372,1.035857,0.344549,0.289382,4.372612,3.630877,2.024555,0.628775,0.317622
1720086392,116,0,4382.05127,4387.563965,4447.179688,4382.820313,4364.871582,4383.333496,4350.256348,4355.128418,4374.102539,4324.487305,4523.333496,4504.230957,4550.128418,4436.025879,,,,,,,,,,,,,,,,,,,,,,,,,,,,,,,,,,,,,,,,,,,,,,,,,,,,,,,,,,,,,,,,,,,,,,
1720086392,117,0,4383.974121,4394.743652,4449.358887,4383.077148,4363.077148,4375.128418,4346.410156,4359.487305,4379.230957,4334.487305,4521.538574,4509.871582,4550.897461,4432.563965,,,,,,,,,,,,,,,,,,,,,,,,,,,,,,,,,,,,,,,,,,,,,,,,,,,,,,,,,,,,,,,,,,,,,,
1720086392,118,0,4385.641113,4395.897461,4443.846191,4380.256348,4366.922852,4371.153809,4340.512695,4349.230957,4373.333496,4330,4520.769043,4506.410156,4547.563965,4429.871582,,,,,,,,,,,,,,,,,,,,,,,,,,,,,,,,,,,,,,,,,,,,,,,,,,,,,,,,,,,,,,,,,,,,,,
1720086392,119,0,4381.538574,4393.589844,4445,4380.769043,4365.512695,4369.487305,4340.128418,4346.153809,4363.974121,4318.589844,4519.615234,4509.230957,4543.589844,4432.94873,,,,,,,,,,,,,,,,,,,,,,,,,,,,,,,,,,,,,,,,,,,,,,,,,,,,,,,,,,,,,,,,,,,,,,
1720086392,120,0,4380.769043,4394.871582,4444.487305,4382.436035,4359.743652,4367.307617,4345.769043,4355.769043,4365.897461,4325.384766,4515.256348,4508.974121,4543.205078,4431.153809,,,,,,,,,,,,,,,,,,,,,,,,,,,,,,,,,,,,,,,,,,,,,,,,,,,,,,,,,,,,,,,,,,,,,,
1720086392,121,0,4389.743652,4396.794922,4446.666504,4382.05127,4361.538574,4370.128418,4353.974121,4365.128418,4378.205078,4338.717773,4520.512695,4513.333496,4550.769043,4434.230957,,,,,,,,,,,,,,,,,,,,,,,,,,,,,,,,,,,,,,,,,,,,,,,,,,,,,,,,,,,,,,,,,,,,,,
1720086392,122,0,4394.487305,4395.897461,4456.794922,4385.256348,4366.538574,4374.487305,4357.820313,4366.538574,4386.153809,4344.487305,4527.307617,4520.256348,4556.794922,4443.974121,,,,,,,,,,,,,,,,,,,,,,,,,,,,,,,,,,,,,,,,,,,,,,,,,,,,,,,,,,,,,,,,,,,,,,
1720086392,123,0,4388.846191,4394.102539,4457.563965,4388.461426,4361.153809,4373.846191,4355.769043,4365.128418,4383.846191,4345.641113,4531.410156,4516.538574,4554.487305,4445.512695,,,,,,,,,,,,,,,,,,,,,,,,,,,,,,,,,,,,,,,,,,,,,,,,,,,,,,,,,,,,,,,,,,,,,,
1720086392,124,0,4388.717773,4390.897461,4451.794922,4385.512695,4354.102539,4376.922852,4356.666504,4363.077148,4383.077148,4336.538574,4538.205078,4513.974121,4553.974121,4442.05127,,,,,,,,,,,,,,,,,,,,,,,,,,,,,,,,,,,,,,,,,,,,,,,,,,,,,,,,,,,,,,,,,,,,,,
1720086392,125,0,4387.179688,4376.922852,4451.922852,4373.846191,4361.153809,4384.487305,4358.589844,4361.538574,4387.563965,4326.794922,4532.307617,4521.025879,4551.794922,4441.410156,,,,,,,,,,,,,,,,,,,,,,,,,,,,,,,,,,,,,,,,,,,,,,,,,,,,,,,,,,,,,,,,,,,,,,
1720086392,126,0,4373.589844,4360.897461,4446.922852,4360.897461,4371.153809,4383.333496,4358.205078,4362.94873,4384.230957,4324.487305,4511.666504,4514.230957,4545.512695,4435.256348,,,,,,,,,,,,,,,,,,,,,,,,,,,,,,,,,,,,,,,,,,,,,,,,,,,,,,,,,,,,,,,,,,,,,,
1720086392,127,0,4377.436035,4370.641113,4447.179688,4367.05127,4373.589844,4387.94873,4360.128418,4367.692383,4382.563965,4324.102539,4512.179688,4517.179688,4556.282227,4440.256348,,,,,,,,,,,,,,,,,,,,,,,,,,,,,,,,,,,,,,,,,,,,,,,,,,,,,,,,,,,,,,,,,,,,,,
1720086392,0,0,4399.615234,4395,4463.589844,4389.102539,4375,4394.743652,4363.717773,4371.538574,4392.820313,4334.358887,4528.333496,4534.487305,4573.461426,4460.128418,,,,,,,,,,,,,,,,,,,,,,,,,,,,,,,,,,,,,,,,,,,,,,,,,,,,,,,,,,,,,,,,,,,,,,
1720086392,1,0,4408.846191,4402.820313,4467.307617,4398.589844,4378.461426,4381.282227,4362.436035,4365.769043,4393.205078,4344.230957,4521.922852,4520.256348,4576.282227,4461.410156,,,,,,,,,,,,,,,,,,,,,,,,,,,,,,,,,,,,,,,,,,,,,,,,,,,,,,,,,,,,,,,,,,,,,,
1720086392,2,0,4410.384766,4405.512695,4463.974121,4398.974121,4383.846191,4370.256348,4358.846191,4362.820313,4392.436035,4335,4512.179688,4520.128418,4580.897461,4461.153809,,,,,,,,,,,,,,,,,,,,,,,,,,,,,,,,,,,,,,,,,,,,,,,,,,,,,,,,,,,,,,,,,,,,,,
1720086392,3,0,4419.102539,4417.692383,4470,4408.974121,4389.102539,4370.384766,4355.641113,4365.384766,4395.128418,4324.230957,4517.820313,4536.538574,4592.820313,4467.820313,0.577192,1.039475,0.324022,0.288283,0.104112,1.548633,1.758121,0.329483,0.262195,0.181014,0.873186,1.042068,0.724111,0.328499,0.177874,1.103561,1.102296,0.303636,0.301163,0.155218,1.010279,0.8951,0.675861,0.15138,0.161003,15.406116,4.935773,2.847896,1.153482,0.43662,1.327917,0.594321,0.453496,0.232502,0.096468,1.394265,0.184529,0.426868,0.296929,0.141885,1.195547,0.88766,0.450546,0.273845,0.201163,1.012083,1.121317,1.496593,0.613624,0.396956,1.252157,1.484819,1.977981,0.558719,0.208131,0.403171,0.300517,0.301848,0.177487,0.429564,7.13935,3.772751,1.658059,0.351057,0.32007,4.894718,3.637954,2.237728,0.728884,0.340823
1720086392,4,0,4423.974121,4421.025879,4470.512695,4415.128418,4390.256348,4364.615234,4346.794922,4361.282227,4389.230957,4327.436035,4519.230957,4523.717773,4591.538574,4460.256348,,,,,,,,,,,,,,,,,,,,,,,,,,,,,,,,,,,,,,,,,,,,,,,,,,,,,,,,,,,,,,,,,,,,,,
1720086392,5,0,4418.846191,4415.256348,4465.769043,4410.384766,4386.153809,4361.282227,4339.230957,4357.94873,4386.538574,4321.794922,4511.538574,4520,4584.102539,4455,,,,,,,,,,,,,,,,,,,,,,,,,,,,,,,,,,,,,,,,,,,,,,,,,,,,,,,,,,,,,,,,,,,,,,
1720086392,6,0,4409.487305,4412.05127,4460.897461,4406.922852,4386.410156,4368.461426,4345.384766,4358.205078,4385.897461,4309.871582,4508.077148,4526.922852,4582.820313,4455.512695,,,,,,,,,,,,,,,,,,,,,,,,,,,,,,,,,,,,,,,,,,,,,,,,,,,,,,,,,,,,,,,,,,,,,,
1720086392,7,0,4408.589844,4411.410156,4460.128418,4409.358887,4390.512695,4373.974121,4358.589844,4363.846191,4380,4309.871582,4508.846191,4526.666504,4580.384766,4454.102539,,,,,,,,,,,,,,,,,,,,,,,,,,,,,,,,,,,,,,,,,,,,,,,,,,,,,,,,,,,,,,,,,,,,,,
1720086392,8,0,4421.025879,4418.461426,4474.358887,4419.487305,4391.794922,4376.794922,4366.794922,4372.179688,4378.846191,4310.384766,4510.769043,4534.615234,4579.615234,4461.153809,,,,,,,,,,,,,,,,,,,,,,,,,,,,,,,,,,,,,,,,,,,,,,,,,,,,,,,,,,,,,,,,,,,,,,
1720086392,9,0,4425.897461,4429.487305,4487.436035,4425.256348,4387.05127,4379.487305,4368.846191,4371.538574,4381.794922,4309.358887,4513.461426,4535.897461,4586.922852,4466.282227,,,,,,,,,,,,,,,,,,,,,,,,,,,,,,,,,,,,,,,,,,,,,,,,,,,,,,,,,,,,,,,,,,,,,,
1720086392,10,0,4421.410156,4427.692383,4484.871582,4417.179688,4377.05127,4378.974121,4367.563965,4363.717773,4377.563965,4312.436035,4509.102539,4526.025879,4586.538574,4459.615234,,,,,,,,,,,,,,,,,,,,,,,,,,,,,,,,,,,,,,,,,,,,,,,,,,,,,,,,,,,,,,,,,,,,,,
1720086392,11,0,4422.179688,4414.230957,4481.410156,4410,4371.666504,4376.025879,4365.128418,4362.563965,4376.666504,4308.589844,4504.487305,4536.153809,4573.974121,4460.512695,,,,,,,,,,,,,,,,,,,,,,,,,,,,,,,,,,,,,,,,,,,,,,,,,,,,,,,,,,,,,,,,,,,,,,
1720086392,12,0,4422.94873,4414.615234,4482.94873,4412.94873,4371.153809,4368.461426,4367.307617,4366.666504,4378.974121,4303.077148,4512.94873,4538.205078,4572.94873,4466.025879,,,,,,,,,,,,,,,,,,,,,,,,,,,,,,,,,,,,,,,,,,,,,,,,,,,,,,,,,,,,,,,,,,,,,,
1720086392,13,0,4418.333496,4418.461426,4480.256348,4412.94873,4370.128418,4362.94873,4371.794922,4366.666504,4375.256348,4306.153809,4520.897461,4527.820313,4579.102539,4459.102539,,,,,,,,,,,,,,,,,,,,,,,,,,,,,,,,,,,,,,,,,,,,,,,,,,,,,,,,,,,,,,,,,,,,,,
1720086392,14,0,4415.897461,4412.436035,4479.615234,4414.358887,4373.461426,4363.461426,4374.230957,4364.358887,4373.974121,4313.717773,4520.384766,4539.358887,4574.102539,4453.205078,,,,,,,,,,,,,,,,,,,,,,,,,,,,,,,,,,,,,,,,,,,,,,,,,,,,,,,,,,,,,,,,,,,,,,
1720086392,15,0,4422.436035,4420.512695,4482.307617,4427.436035,4380.512695,4361.410156,4372.436035,4363.077148,4372.94873,4315,4521.794922,4540,4573.717773,4455,,,,,,,,,,,,,,,,,,,,,,,,,,,,,,,,,,,,,,,,,,,,,,,,,,,,,,,,,,,,,,,,,,,,,,
1720086392,16,0,4430.512695,4435.512695,4481.153809,4433.461426,4380.641113,4361.922852,4367.692383,4363.461426,4371.538574,4304.358887,4522.436035,4532.563965,4578.333496,4457.05127,,,,,,,,,,,,,,,,,,,,,,,,,,,,,,,,,,,,,,,,,,,,,,,,,,,,,,,,,,,,,,,,,,,,,,
1720086392,17,0,4426.025879,4432.820313,4478.974121,4425.256348,4379.743652,4369.230957,4366.025879,4359.230957,4364.487305,4297.563965,4514.230957,4532.436035,4563.333496,4449.487305,,,,,,,,,,,,,,,,,,,,,,,,,,,,,,,,,,,,,,,,,,,,,,,,,,,,,,,,,,,,,,,,,,,,,,
1720086392,18,0,4421.153809,4424.230957,4479.743652,4418.717773,4378.461426,4374.230957,4371.666504,4354.102539,4357.307617,4305.769043,4506.794922,4530.256348,4545.512695,4438.974121,,,,,,,,,,,,,,,,,,,,,,,,,,,,,,,,,,,,,,,,,,,,,,,,,,,,,,,,,,,,,,,,,,,,,,
1720086392,19,0,4429.871582,4427.05127,4482.692383,4417.179688,4372.692383,4372.563965,4379.615234,4362.820313,4362.563965,4306.410156,4513.461426,4538.333496,4552.692383,4442.94873,0.500223,0.82326,0.279771,0.306906,0.100191,0.923338,1.176209,0.257719,0.213951,0.14787,0.830475,0.960106,0.729066,0.354355,0.181844,1.078257,0.896999,0.285415,0.309433,0.156915,0.855262,0.9062,0.72132,0.141197,0.164323,3.506501,0.828962,0.571111,0.235829,0.126197,1.284974,0.54821,0.370418,0.205912,0.08953,1.216429,0.135131,0.464073,0.296412,0.142534,1.234703,0.875892,0.504407,0.285434,0.195607,0.861932,1.022333,1.818722,0.628646,0.395451,1.477775,1.333906,2.246062,0.546454,0.168064,0.343817,0.269569,0.347541,0.193747,0.44015,9.316498,4.777614,2.35595,0.357737,0.34126,4.975882,3.248563,2.21464,0.775525,0.339135
1720086392,20,0,4430.512695,4429.487305,4478.333496,4414.487305,4375.641113,4368.717773,4386.153809,4371.794922,4368.589844,4295.769043,4520.512695,4543.589844,4556.282227,4447.307617,,,,,,,,,,,,,,,,,,,,,,,,,,,,,,,,,,,,,,,,,,,,,,,,,,,,,,,,,,,,,,,,,,,,,,
1720086392,21,0,4417.179688,4422.563965,4470.897461,4412.692383,4382.563965,4365.769043,4390.897461,4368.846191,4368.077148,4294.743652,4516.922852,4537.05127,4542.179688,4437.179688,,,,,,,,,,,,,,,,,,,,,,,,,,,,,,,,,,,,,,,,,,,,,,,,,,,,,,,,,,,,,,,,,,,,,,
1720086392,22,0,4418.205078,4418.974121,4468.205078,4411.922852,4381.794922,4359.487305,4389.102539,4362.179688,4365.512695,4300.256348,4511.025879,4531.922852,4538.333496,4428.974121,,,,,,,,,,,,,,,,,,,,,,,,,,,,,,,,,,,,,,,,,,,,,,,,,,,,,,,,,,,,,,,,,,,,,,
1720086392,23,0,4434.615234,4424.358887,4469.487305,4409.871582,4379.743652,4352.94873,4381.282227,4359.487305,4363.717773,4296.153809,4515.384766,4535.897461,4549.102539,4437.563965,,,,,,,,,,,,,,,,,,,,,,,,,,,,,,,,,,,,,,,,,,,,,,,,,,,,,,,,,,,,,,,,,,,,,,
1720086392,24,0,4444.871582,4427.179688,4478.461426,4411.666504,4382.179688,4352.94873,4379.743652,4365.769043,4365.128418,4289.102539,4530.384766,4543.974121,4558.717773,4450.897461,,,,,,,,,,,,,,,,,,,,,,,,,,,,,,,,,,,,,,,,,,,,,,,,,,,,,,,,,,,,,,,,,,,,,,
1720086392,25,0,4442.307617,4418.077148,4482.563965,4411.666504,4379.230957,4354.102539,4380.256348,4368.589844,4372.692383,4297.436035,4539.871582,4548.589844,4556.666504,4455.641113,,,,,,,,,,,,,,,,,,,,,,,,,,,,,,,,,,,,,,,,,,,,,,,,,,,,,,,,,,,,,,,,,,,,,,
1720086392,26,0,4437.692383,4409.487305,4471.282227,4402.94873,4373.846191,4354.230957,4377.563965,4362.179688,4374.615234,4315.128418,4533.461426,4537.307617,4550.897461,4450.897461,,,,,,,,,,,,,,,,,,,,,,,,,,,,,,,,,,,,,,,,,,,,,,,,,,,,,,,,,,,,,,,,,,,,,,
1720086392,27,0,4435.769043,4407.307617,4467.436035,4399.358887,4377.563965,4359.615234,4385.897461,4366.666504,4368.461426,4317.563965,4527.05127,4536.538574,4552.563965,4449.487305,,,,,,,,,,,,,,,,,,,,,,,,,,,,,,,,,,,,,,,,,,,,,,,,,,,,,,,,,,,,,,,,,,,,,,
1720086392,28,0,4437.05127,4405.384766,4478.846191,4406.025879,4380.641113,4365.128418,4395.384766,4379.615234,4367.436035,4306.666504,4542.692383,4556.922852,4552.179688,4457.436035,,,,,,,,,,,,,,,,,,,,,,,,,,,,,,,,,,,,,,,,,,,,,,,,,,,,,,,,,,,,,,,,,,,,,,
1720086392,29,0,4442.563965,4404.487305,4480.512695,4409.615234,4384.871582,4367.179688,4391.410156,4375.256348,4364.230957,4304.871582,4574.358887,4547.179688,4543.333496,4457.05127,,,,,,,,,,,,,,,,,,,,,,,,,,,,,,,,,,,,,,,,,,,,,,,,,,,,,,,,,,,,,,,,,,,,,,
1720086392,30,0,4452.94873,4409.615234,4479.871582,4413.846191,4393.846191,4373.205078,4388.717773,4367.820313,4366.282227,4304.743652,4595.384766,4542.692383,4538.846191,4456.410156,,,,,,,,,,,,,,,,,,,,,,,,,,,,,,,,,,,,,,,,,,,,,,,,,,,,,,,,,,,,,,,,,,,,,,
1720086392,31,0,4457.94873,4420.769043,4487.563965,4425.256348,4398.717773,4372.179688,4389.230957,4366.666504,4372.820313,4295,4595.769043,4556.538574,4540.641113,4456.794922,,,,,,,,,,,,,,,,,,,,,,,,,,,,,,,,,,,,,,,,,,,,,,,,,,,,,,,,,,,,,,,,,,,,,,
1720086392,32,0,4455.128418,4429.487305,4486.666504,4430.384766,4400.769043,4366.153809,4381.922852,4356.282227,4365.512695,4290.384766,4592.307617,4542.563965,4539.102539,4444.358887,,,,,,,,,,,,,,,,,,,,,,,,,,,,,,,,,,,,,,,,,,,,,,,,,,,,,,,,,,,,,,,,,,,,,,
1720086392,33,0,4453.846191,4430.128418,4478.974121,4427.179688,4406.666504,4367.94873,4373.846191,4346.025879,4361.666504,4292.179688,4594.743652,4541.025879,4542.05127,4441.538574,,,,,,,,,,,,,,,,,,,,,,,,,,,,,,,,,,,,,,,,,,,,,,,,,,,,,,,,,,,,,,,,,,,,,,
1720086392,34,0,4452.820313,4431.666504,4475.641113,4427.307617,4406.410156,4364.871582,4372.820313,4345.769043,4366.025879,4296.282227,4587.307617,4550.897461,4543.333496,4443.077148,,,,,,,,,,,,,,,,,,,,,,,,,,,,,,,,,,,,,,,,,,,,,,,,,,,,,,,,,,,,,,,,,,,,,,
1720086392,35,0,4449.358887,4437.307617,4474.358887,4421.538574,4400.641113,4356.922852,4374.230957,4349.230957,4364.487305,4299.358887,4578.846191,4542.436035,4536.025879,4422.436035,0.500088,0.630814,0.246707,0.336872,0.095598,0.703549,0.841232,0.303034,0.20007,0.129169,0.758178,0.828142,0.663476,0.381824,0.176024,1.02444,0.750584,0.273876,0.30816,0.156425,0.800384,0.930768,0.733338,0.126827,0.167028,1.03978,0.22063,0.141164,0.079605,0.077953,1.242481,0.494974,0.303507,0.186301,0.089709,1.003032,0.127645,0.509818,0.288088,0.14186,1.155099,0.851362,0.561614,0.27756,0.190535,0.778462,0.958009,2.016985,0.617695,0.387492,1.648546,1.254384,2.404528,0.56447,0.14187,0.281065,0.238852,0.370717,0.21419,0.442664,11.074271,5.869722,2.950377,0.356407,0.347106,4.579339,2.559092,1.952559,0.755561,0.31399
1720086392,36,0,4452.94873,4444.230957,4473.077148,4404.102539,4405.256348,4352.692383,4378.717773,4351.922852,4364.102539,4301.410156,4587.94873,4545.384766,4544.871582,4409.102539,,,,,,,,,,,,,,,,,,,,,,,,,,,,,,,,,,,,,,,,,,,,,,,,,,,,,,,,,,,,,,,,,,,,,,
1720086392,37,0,4455.769043,4448.589844,4470.641113,4395.769043,4412.436035,4349.102539,4386.538574,4356.025879,4367.563965,4307.820313,4597.05127,4554.102539,4558.077148,4415.256348,,,,,,,,,,,,,,,,,,,,,,,,,,,,,,,,,,,,,,,,,,,,,,,,,,,,,,,,,,,,,,,,,,,,,,
1720086392,38,0,4444.615234,4439.743652,4466.922852,4395.256348,4411.922852,4347.94873,4393.974121,4361.410156,4364.615234,4307.307617,4586.922852,4543.717773,4542.563965,4408.589844,,,,,,,,,,,,,,,,,,,,,,,,,,,,,,,,,,,,,,,,,,,,,,,,,,,,,,,,,,,,,,,,,,,,,,
1720086392,39,0,4439.743652,4430.641113,4469.487305,4389.615234,4410,4354.358887,4396.153809,4364.615234,4365.384766,4296.922852,4581.282227,4548.717773,4530,4403.846191,,,,,,,,,,,,,,,,,,,,,,,,,,,,,,,,,,,,,,,,,,,,,,,,,,,,,,,,,,,,,,,,,,,,,,
1720086392,40,0,4448.974121,4435.641113,4474.358887,4386.538574,4408.846191,4355.769043,4392.563965,4362.307617,4371.282227,4296.538574,4594.615234,4557.820313,4549.358887,4418.333496,,,,,,,,,,,,,,,,,,,,,,,,,,,,,,,,,,,,,,,,,,,,,,,,,,,,,,,,,,,,,,,,,,,,,,
1720086392,41,0,4443.974121,4433.589844,4467.05127,4382.179688,4406.410156,4352.563965,4388.205078,4355,4367.436035,4305.897461,4602.820313,4543.333496,4557.692383,4420.897461,,,,,,,,,,,,,,,,,,,,,,,,,,,,,,,,,,,,,,,,,,,,,,,,,,,,,,,,,,,,,,,,,,,,,,
1720086392,42,0,4428.846191,4416.410156,4460.128418,4372.820313,4400.641113,4356.410156,4388.205078,4355.128418,4368.333496,4310.128418,4600,4546.153809,4542.94873,4412.307617,,,,,,,,,,,,,,,,,,,,,,,,,,,,,,,,,,,,,,,,,,,,,,,,,,,,,,,,,,,,,,,,,,,,,,
1720086392,43,0,4429.487305,4407.563965,4463.846191,4373.333496,4396.922852,4359.487305,4394.487305,4362.05127,4375.128418,4312.307617,4599.358887,4553.717773,4543.333496,4417.179688,,,,,,,,,,,,,,,,,,,,,,,,,,,,,,,,,,,,,,,,,,,,,,,,,,,,,,,,,,,,,,,,,,,,,,
1720086392,44,0,4434.230957,4411.538574,4467.307617,4378.205078,4402.436035,4354.487305,4399.871582,4365.897461,4377.436035,4314.487305,4601.282227,4550.897461,4550.897461,4425.641113,,,,,,,,,,,,,,,,,,,,,,,,,,,,,,,,,,,,,,,,,,,,,,,,,,,,,,,,,,,,,,,,,,,,,,
1720086392,45,0,4428.077148,4417.179688,4463.333496,4376.538574,4406.666504,4347.307617,4396.153809,4361.153809,4375.641113,4309.871582,4602.820313,4555.769043,4543.717773,4427.563965,,,,,,,,,,,,,,,,,,,,,,,,,,,,,,,,,,,,,,,,,,,,,,,,,,,,,,,,,,,,,,,,,,,,,,
1720086392,46,0,4427.179688,4421.538574,4457.94873,4378.589844,4406.025879,4348.846191,4395.384766,4356.410156,4371.282227,4309.230957,4602.05127,4555.641113,4538.846191,4432.820313,,,,,,,,,,,,,,,,,,,,,,,,,,,,,,,,,,,,,,,,,,,,,,,,,,,,,,,,,,,,,,,,,,,,,,
1720086392,47,0,4430.641113,4418.589844,4453.589844,4379.102539,4409.615234,4355.384766,4397.436035,4358.461426,4370.384766,4313.461426,4594.743652,4550.769043,4538.205078,4441.794922,,,,,,,,,,,,,,,,,,,,,,,,,,,,,,,,,,,,,,,,,,,,,,,,,,,,,,,,,,,,,,,,,,,,,,
1720086392,48,0,4426.025879,4410.897461,4451.282227,4372.05127,4410.128418,4352.94873,4391.666504,4356.025879,4363.461426,4303.846191,4587.820313,4547.179688,4528.589844,4443.205078,,,,,,,,,,,,,,,,,,,,,,,,,,,,,,,,,,,,,,,,,,,,,,,,,,,,,,,,,,,,,,,,,,,,,,
1720086392,49,0,4424.743652,4412.692383,4455,4374.487305,4399.487305,4347.179688,4390.256348,4353.974121,4356.922852,4293.846191,4585.769043,4548.846191,4523.205078,4441.922852,,,,,,,,,,,,,,,,,,,,,,,,,,,,,,,,,,,,,,,,,,,,,,,,,,,,,,,,,,,,,,,,,,,,,,
1720086392,50,0,4430,4418.205078,4454.743652,4381.410156,4394.358887,4346.410156,4395.897461,4357.692383,4360.256348,4300.256348,4577.820313,4554.871582,4525.512695,4447.94873,,,,,,,,,,,,,,,,,,,,,,,,,,,,,,,,,,,,,,,,,,,,,,,,,,,,,,,,,,,,,,,,,,,,,,
1720086392,51,0,4428.589844,4414.871582,4450.641113,4381.282227,4399.615234,4347.94873,4397.436035,4357.820313,4358.333496,4300.384766,4566.025879,4556.666504,4520.641113,4450.256348,0.545612,0.472686,0.233447,0.376177,0.09499,0.870464,0.707287,0.449059,0.221107,0.127012,0.637313,0.651204,0.549045,0.408767,0.163877,0.950056,0.662688,0.281026,0.30804,0.153759,0.835356,0.9297,0.696483,0.114071,0.170005,0.832521,0.316766,0.124022,0.065502,0.077904,1.164207,0.457359,0.270673,0.181264,0.09411,0.820793,0.15225,0.545989,0.277383,0.140589,1.025798,0.810306,0.616929,0.255389,0.188039,0.786606,0.89717,2.048984,0.587221,0.37356,1.894777,1.190279,2.370394,0.591572,0.131844,0.227909,0.209153,0.362472,0.231604,0.435532,12.070034,6.714575,3.274227,0.350559,0.336192,3.889697,1.77212,1.528679,0.680036,0.274119
1720086392,52,0,4425.128418,4414.615234,4455.769043,4386.538574,4397.436035,4348.846191,4393.974121,4355,4350.641113,4291.153809,4568.205078,4551.282227,4518.461426,4445.384766,,,,,,,,,,,,,,,,,,,,,,,,,,,,,,,,,,,,,,,,,,,,,,,,,,,,,,,,,,,,,,,,,,,,,,
1720086392,53,0,4430.641113,4424.358887,4464.615234,4391.025879,4395.256348,4348.846191,4389.871582,4357.94873,4358.846191,4298.717773,4579.487305,4562.307617,4524.487305,4454.487305,,,,,,,,,,,,,,,,,,,,,,,,,,,,,,,,,,,,,,,,,,,,,,,,,,,,,,,,,,,,,,,,,,,,,,
1720086392,54,0,4433.717773,4425.769043,4461.282227,4384.487305,4405.769043,4345,4388.461426,4359.358887,4362.820313,4310.384766,4581.025879,4567.307617,4525.641113,4460.256348,,,,,,,,,,,,,,,,,,,,,,,,,,,,,,,,,,,,,,,,,,,,,,,,,,,,,,,,,,,,,,,,,,,,,,
1720086392,55,0,4426.153809,4415.641113,4452.563965,4382.05127,4412.436035,4341.794922,4388.589844,4350.897461,4349.358887,4306.794922,4572.179688,4545.897461,4521.282227,4437.563965,,,,,,,,,,,,,,,,,,,,,,,,,,,,,,,,,,,,,,,,,,,,,,,,,,,,,,,,,,,,,,,,,,,,,,
1720086392,56,0,4425.512695,4415.384766,4457.436035,4391.538574,4409.615234,4348.717773,4389.487305,4347.436035,4357.307617,4307.820313,4571.282227,4554.102539,4521.922852,4427.820313,,,,,,,,,,,,,,,,,,,,,,,,,,,,,,,,,,,,,,,,,,,,,,,,,,,,,,,,,,,,,,,,,,,,,,
1720086392,57,0,4430.769043,4421.153809,4463.589844,4399.358887,4409.615234,4353.077148,4392.436035,4349.487305,4367.307617,4316.153809,4574.871582,4562.05127,4520.769043,4436.666504,,,,,,,,,,,,,,,,,,,,,,,,,,,,,,,,,,,,,,,,,,,,,,,,,,,,,,,,,,,,,,,,,,,,,,
1720086392,58,0,4426.153809,4418.077148,4458.461426,4397.94873,4413.205078,4350.512695,4398.461426,4350,4354.615234,4312.179688,4563.461426,4545.128418,4505.897461,4428.205078,,,,,,,,,,,,,,,,,,,,,,,,,,,,,,,,,,,,,,,,,,,,,,,,,,,,,,,,,,,,,,,,,,,,,,
1720086392,59,0,4417.307617,4416.922852,4449.487305,4395.256348,4412.94873,4351.025879,4399.487305,4349.615234,4350.512695,4304.743652,4551.538574,4548.333496,4493.974121,4416.282227,,,,,,,,,,,,,,,,,,,,,,,,,,,,,,,,,,,,,,,,,,,,,,,,,,,,,,,,,,,,,,,,,,,,,,
1720086392,60,0,4410.512695,4415.384766,4441.538574,4396.538574,4411.025879,4352.820313,4402.307617,4350.256348,4354.743652,4307.692383,4551.410156,4551.025879,4488.717773,4413.461426,,,,,,,,,,,,,,,,,,,,,,,,,,,,,,,,,,,,,,,,,,,,,,,,,,,,,,,,,,,,,,,,,,,,,,
1720086392,61,0,4410.641113,4409.615234,4442.436035,4396.410156,4409.487305,4353.717773,4408.974121,4355.641113,4352.820313,4308.589844,4543.846191,4546.538574,4481.922852,4411.794922,,,,,,,,,,,,,,,,,,,,,,,,,,,,,,,,,,,,,,,,,,,,,,,,,,,,,,,,,,,,,,,,,,,,,,
1720086392,62,0,4415.641113,4417.94873,4449.487305,4395,4410.769043,4350.769043,4407.692383,4355,4346.666504,4300.769043,4527.820313,4549.230957,4480.128418,4412.94873,,,,,,,,,,,,,,,,,,,,,,,,,,,,,,,,,,,,,,,,,,,,,,,,,,,,,,,,,,,,,,,,,,,,,,
1720086392,63,0,4418.974121,4429.230957,4452.94873,4397.436035,4412.05127,4348.205078,4404.871582,4349.615234,4344.487305,4302.179688,4531.538574,4551.410156,4488.589844,4419.102539,,,,,,,,,,,,,,,,,,,,,,,,,,,,,,,,,,,,,,,,,,,,,,,,,,,,,,,,,,,,,,,,,,,,,,
1720086392,64,0,4417.05127,4419.358887,4452.563965,4398.077148,4408.589844,4350,4408.205078,4353.717773,4348.589844,4312.307617,4559.358887,4553.974121,4499.358887,4424.615234,,,,,,,,,,,,,,,,,,,,,,,,,,,,,,,,,,,,,,,,,,,,,,,,,,,,,,,,,,,,,,,,,,,,,,
1720086392,65,0,4414.230957,4411.025879,4453.846191,4400.128418,4405.641113,4353.205078,4413.205078,4362.05127,4349.358887,4313.333496,4581.282227,4557.820313,4504.487305,4428.717773,,,,,,,,,,,,,,,,,,,,,,,,,,,,,,,,,,,,,,,,,,,,,,,,,,,,,,,,,,,,,,,,,,,,,,
1720086392,66,0,4418.589844,4424.358887,4460.897461,4410.769043,4406.666504,4352.563965,4413.333496,4361.538574,4347.692383,4309.871582,4587.436035,4556.410156,4509.358887,4434.358887,,,,,,,,,,,,,,,,,,,,,,,,,,,,,,,,,,,,,,,,,,,,,,,,,,,,,,,,,,,,,,,,,,,,,,
1720086392,67,0,4421.410156,4427.94873,4467.179688,4413.333496,4406.153809,4348.717773,4408.077148,4355.256348,4352.436035,4311.922852,4588.077148,4555.769043,4512.94873,4437.179688,0.684802,0.356563,0.242043,0.422437,0.102778,1.320365,0.724755,0.646344,0.273999,0.140133,0.54374,0.456947,0.423747,0.431191,0.150885,0.949233,0.6342,0.317492,0.323163,0.149906,1.021663,0.888464,0.613796,0.109525,0.171388,0.724643,0.524853,0.169109,0.06095,0.076523,1.094587,0.45384,0.283244,0.193166,0.098384,0.732009,0.198064,0.560027,0.267938,0.140148,0.921531,0.750768,0.656203,0.227928,0.187773,0.874712,0.830662,1.931834,0.547348,0.355445,2.006961,1.118893,2.120812,0.611503,0.137739,0.195226,0.17927,0.323514,0.238464,0.41905,12.085847,7.01357,3.241123,0.346366,0.313616,3.183372,1.098409,1.07063,0.578342,0.232978
1720086392,68,0,4418.974121,4417.94873,4463.205078,4403.717773,4402.692383,4345,4401.282227,4348.333496,4352.563965,4312.05127,4589.871582,4559.230957,4511.282227,4434.615234,,,,,,,,,,,,,,,,,,,,,,,,,,,,,,,,,,,,,,,,,,,,,,,,,,,,,,,,,,,,,,,,,,,,,,
1720086392,69,0,4417.436035,4420.128418,4456.922852,4405.256348,4398.333496,4342.307617,4397.820313,4344.358887,4346.538574,4311.153809,4590.769043,4553.589844,4507.179688,4430.897461,,,,,,,,,,,,,,,,,,,,,,,,,,,,,,,,,,,,,,,,,,,,,,,,,,,,,,,,,,,,,,,,,,,,,,
1720086392,70,0,4418.589844,4429.102539,4458.333496,4414.871582,4396.666504,4344.871582,4397.179688,4350,4351.538574,4312.05127,4587.436035,4556.666504,4505.512695,4434.871582,,,,,,,,,,,,,,,,,,,,,,,,,,,,,,,,,,,,,,,,,,,,,,,,,,,,,,,,,,,,,,,,,,,,,,
1720086392,71,0,4422.05127,4430.384766,4457.05127,4413.205078,4399.487305,4345,4395.512695,4355.641113,4351.922852,4306.794922,4584.615234,4557.94873,4508.333496,4436.794922,,,,,,,,,,,,,,,,,,,,,,,,,,,,,,,,,,,,,,,,,,,,,,,,,,,,,,,,,,,,,,,,,,,,,,
1720086392,72,0,4417.179688,4423.333496,4452.94873,4410.769043,4401.794922,4344.102539,4395.641113,4352.94873,4345.897461,4304.487305,4584.102539,4553.205078,4507.307617,4434.743652,,,,,,,,,,,,,,,,,,,,,,,,,,,,,,,,,,,,,,,,,,,,,,,,,,,,,,,,,,,,,,,,,,,,,,
1720086392,73,0,4404.615234,4415.769043,4450.897461,4413.333496,4400.769043,4344.615234,4396.282227,4349.230957,4351.282227,4308.589844,4582.05127,4558.333496,4506.025879,4445.128418,,,,,,,,,,,,,,,,,,,,,,,,,,,,,,,,,,,,,,,,,,,,,,,,,,,,,,,,,,,,,,,,,,,,,,
1720086392,74,0,4397.179688,4412.692383,4444.615234,4409.487305,4395.769043,4339.102539,4395.256348,4346.282227,4347.94873,4303.589844,4576.282227,4551.794922,4502.692383,4456.025879,,,,,,,,,,,,,,,,,,,,,,,,,,,,,,,,,,,,,,,,,,,,,,,,,,,,,,,,,,,,,,,,,,,,,,
1720086392,75,0,4400,4412.563965,4443.077148,4406.410156,4391.538574,4336.794922,4396.153809,4349.230957,4343.077148,4299.615234,4574.487305,4547.179688,4495.641113,4457.563965,,,,,,,,,,,,,,,,,,,,,,,,,,,,,,,,,,,,,,,,,,,,,,,,,,,,,,,,,,,,,,,,,,,,,,
1720086392,76,0,4404.871582,4412.692383,4447.820313,4410.641113,4395.897461,4340.128418,4392.94873,4348.205078,4348.589844,4303.846191,4576.666504,4555.384766,4492.94873,4462.05127,,,,,,,,,,,,,,,,,,,,,,,,,,,,,,,,,,,,,,,,,,,,,,,,,,,,,,,,,,,,,,,,,,,,,,
1720086392,77,0,4404.743652,4412.05127,4444.743652,4409.615234,4400.256348,4340,4378.846191,4329.487305,4341.153809,4293.589844,4568.846191,4547.179688,4487.307617,4466.282227,,,,,,,,,,,,,,,,,,,,,,,,,,,,,,,,,,,,,,,,,,,,,,,,,,,,,,,,,,,,,,,,,,,,,,
1720086392,78,0,4402.820313,4411.282227,4440,4404.358887,4396.410156,4339.487305,4368.461426,4317.05127,4328.589844,4279.358887,4556.282227,4537.307617,4481.153809,4464.230957,,,,,,,,,,,,,,,,,,,,,,,,,,,,,,,,,,,,,,,,,,,,,,,,,,,,,,,,,,,,,,,,,,,,,,
1720086392,79,0,4408.717773,4417.179688,4448.846191,4408.717773,4394.487305,4340.769043,4373.974121,4325.769043,4338.974121,4293.077148,4558.589844,4552.436035,4485.897461,4469.230957,,,,,,,,,,,,,,,,,,,,,,,,,,,,,,,,,,,,,,,,,,,,,,,,,,,,,,,,,,,,,,,,,,,,,,
1720086392,80,0,4418.974121,4426.025879,4457.179688,4415.384766,4395.769043,4336.410156,4382.820313,4332.820313,4349.487305,4313.589844,4569.743652,4551.666504,4494.615234,4477.05127,,,,,,,,,,,,,,,,,,,,,,,,,,,,,,,,,,,,,,,,,,,,,,,,,,,,,,,,,,,,,,,,,,,,,,
1720086392,81,0,4416.153809,4421.153809,4453.974121,4414.102539,4392.692383,4335.641113,4382.307617,4331.282227,4348.205078,4308.205078,4570.897461,4541.922852,4496.153809,4473.077148,,,,,,,,,,,,,,,,,,,,,,,,,,,,,,,,,,,,,,,,,,,,,,,,,,,,,,,,,,,,,,,,,,,,,,
1720086392,82,0,4404.743652,4409.230957,4448.461426,4412.05127,4388.205078,4338.333496,4380,4335.512695,4349.230957,4294.487305,4561.794922,4554.358887,4494.230957,4469.102539,,,,,,,,,,,,,,,,,,,,,,,,,,,,,,,,,,,,,,,,,,,,,,,,,,,,,,,,,,,,,,,,,,,,,,
1720086392,83,0,4398.461426,4406.282227,4440.897461,4411.538574,4389.487305,4333.077148,4384.871582,4338.717773,4336.538574,4291.538574,4557.692383,4546.666504,4492.820313,4469.871582,0.884999,0.295288,0.267713,0.47082,0.120438,1.923753,0.884124,0.846074,0.351686,0.16513,0.476773,0.293142,0.322446,0.443911,0.141907,1.117611,0.695,0.384909,0.360393,0.146007,1.279936,0.81969,0.505585,0.117604,0.167896,0.659747,0.835064,0.271106,0.061065,0.07358,1.03463,0.490433,0.344454,0.220404,0.099253,0.749818,0.260161,0.54982,0.26157,0.141538,0.886575,0.670363,0.661381,0.202006,0.187378,0.994046,0.767892,1.726795,0.506372,0.335688,2.167435,1.070849,1.731341,0.621279,0.159737,0.179279,0.151934,0.264658,0.230884,0.396067,11.185312,6.60859,2.874889,0.34867,0.289876,2.811331,0.659599,0.701414,0.484303,0.20374
1720086392,84,0,4401.410156,4408.846191,4442.820313,4411.922852,4393.846191,4336.025879,4389.871582,4338.589844,4327.05127,4293.717773,4564.743652,4543.717773,4497.94873,4478.589844,,,,,,,,,,,,,,,,,,,,,,,,,,,,,,,,,,,,,,,,,,,,,,,,,,,,,,,,,,,,,,,,,,,,,,
1720086392,85,0,4405.512695,4410.128418,4450,4412.692383,4395,4346.025879,4390.897461,4341.153809,4337.692383,4294.871582,4572.820313,4556.153809,4508.461426,4483.205078,,,,,,,,,,,,,,,,,,,,,,,,,,,,,,,,,,,,,,,,,,,,,,,,,,,,,,,,,,,,,,,,,,,,,,
1720086392,86,0,4402.563965,4410.384766,4446.922852,4411.666504,4391.410156,4345.128418,4390.897461,4340.256348,4340.897461,4296.410156,4562.563965,4547.820313,4505.384766,4468.461426,,,,,,,,,,,,,,,,,,,,,,,,,,,,,,,,,,,,,,,,,,,,,,,,,,,,,,,,,,,,,,,,,,,,,,
1720086392,87,0,4400.128418,4410.128418,4440.641113,4412.179688,4383.974121,4343.077148,4388.589844,4337.436035,4333.974121,4292.94873,4539.743652,4542.179688,4488.846191,4464.743652,,,,,,,,,,,,,,,,,,,,,,,,,,,,,,,,,,,,,,,,,,,,,,,,,,,,,,,,,,,,,,,,,,,,,,
1720086392,88,0,4397.692383,4408.333496,4438.077148,4411.794922,4379.615234,4344.230957,4384.102539,4333.846191,4334.230957,4283.461426,4532.563965,4544.487305,4478.974121,4480.769043,,,,,,,,,,,,,,,,,,,,,,,,,,,,,,,,,,,,,,,,,,,,,,,,,,,,,,,,,,,,,,,,,,,,,,
1720086392,89,0,4387.692383,4403.974121,4436.025879,4406.282227,4382.563965,4341.538574,4380.256348,4333.461426,4339.615234,4278.717773,4539.487305,4545,4478.974121,4484.358887,,,,,,,,,,,,,,,,,,,,,,,,,,,,,,,,,,,,,,,,,,,,,,,,,,,,,,,,,,,,,,,,,,,,,,
1720086392,90,0,4384.358887,4399.230957,4433.077148,4405,4384.487305,4340,4374.358887,4331.538574,4334.358887,4278.461426,4537.05127,4546.794922,4481.025879,4475.256348,,,,,,,,,,,,,,,,,,,,,,,,,,,,,,,,,,,,,,,,,,,,,,,,,,,,,,,,,,,,,,,,,,,,,,
1720086392,91,0,4395.769043,4404.487305,4432.692383,4411.410156,4382.436035,4343.333496,4366.410156,4320.897461,4330,4277.94873,4529.102539,4540.512695,4479.743652,4474.743652,,,,,,,,,,,,,,,,,,,,,,,,,,,,,,,,,,,,,,,,,,,,,,,,,,,,,,,,,,,,,,,,,,,,,,
1720086392,92,0,4400.769043,4411.282227,4431.922852,4414.487305,4382.179688,4344.743652,4364.230957,4314.102539,4333.717773,4277.692383,4527.179688,4535.641113,4471.153809,4480.128418,,,,,,,,,,,,,,,,,,,,,,,,,,,,,,,,,,,,,,,,,,,,,,,,,,,,,,,,,,,,,,,,,,,,,,
1720086392,93,0,4399.102539,4408.589844,4430.512695,4412.179688,4380.384766,4345.256348,4364.615234,4318.717773,4333.974121,4276.794922,4535.512695,4543.589844,4474.487305,4486.538574,,,,,,,,,,,,,,,,,,,,,,,,,,,,,,,,,,,,,,,,,,,,,,,,,,,,,,,,,,,,,,,,,,,,,,
1720086392,94,0,4401.410156,4405.256348,4428.717773,4411.025879,4376.666504,4346.922852,4365,4321.794922,4332.820313,4282.436035,4549.230957,4542.307617,4491.410156,4493.461426,,,,,,,,,,,,,,,,,,,,,,,,,,,,,,,,,,,,,,,,,,,,,,,,,,,,,,,,,,,,,,,,,,,,,,
1720086392,95,0,4402.820313,4409.743652,4432.692383,4415.512695,4379.487305,4347.307617,4369.487305,4323.846191,4339.871582,4295.128418,4550.769043,4542.563965,4495.897461,4500.897461,,,,,,,,,,,,,,,,,,,,,,,,,,,,,,,,,,,,,,,,,,,,,,,,,,,,,,,,,,,,,,,,,,,,,,
1720086392,96,0,4403.205078,4412.820313,4438.461426,4419.871582,4380.128418,4347.307617,4371.538574,4330,4344.358887,4299.487305,4544.230957,4555.897461,4490.256348,4510.897461,,,,,,,,,,,,,,,,,,,,,,,,,,,,,,,,,,,,,,,,,,,,,,,,,,,,,,,,,,,,,,,,,,,,,,
1720086392,97,0,4401.153809,4408.461426,4427.692383,4414.230957,4373.846191,4347.436035,4367.179688,4325.897461,4335.641113,4293.846191,4547.692383,4543.461426,4490.641113,4511.025879,,,,,,,,,,,,,,,,,,,,,,,,,,,,,,,,,,,,,,,,,,,,,,,,,,,,,,,,,,,,,,,,,,,,,,
1720086393,98,0,4397.563965,4407.94873,4418.589844,4406.538574,4372.307617,4351.153809,4367.563965,4322.820313,4334.871582,4292.179688,4552.179688,4535.769043,4490.512695,4504.487305,,,,,,,,,,,,,,,,,,,,,,,,,,,,,,,,,,,,,,,,,,,,,,,,,,,,,,,,,,,,,,,,,,,,,,
1720086393,99,0,4406.025879,4413.717773,4428.333496,4413.846191,4375,4357.563965,4374.743652,4327.94873,4338.205078,4296.922852,4554.487305,4551.025879,4492.563965,4513.589844,1.164538,0.295155,0.291817,0.512582,0.145521,2.661447,1.176209,0.990805,0.437088,0.196724,0.505964,0.201453,0.255503,0.442739,0.139922,1.537123,0.852449,0.463585,0.413232,0.143229,1.634515,0.748899,0.403416,0.1387,0.15729,0.652115,1.193485,0.412076,0.06171,0.070207,0.982061,0.553049,0.446305,0.25862,0.09567,0.83422,0.336522,0.528876,0.259468,0.144766,0.914346,0.576185,0.620982,0.180279,0.184969,1.10122,0.726452,1.511415,0.466876,0.317031,2.392175,1.111398,1.324178,0.626882,0.195874,0.177212,0.13054,0.201409,0.209987,0.371733,9.713705,5.599596,2.312791,0.35387,0.274985,3.050989,0.476648,0.477147,0.417166,0.193662
1720086393,100,0,4427.820313,4422.307617,4439.487305,4423.461426,4373.717773,4360,4373.205078,4326.282227,4332.05127,4296.922852,4560.641113,4551.282227,4501.794922,4535,,,,,,,,,,,,,,,,,,,,,,,,,,,,,,,,,,,,,,,,,,,,,,,,,,,,,,,,,,,,,,,,,,,,,,
1720086393,101,0,4447.692383,4436.025879,4447.179688,4431.025879,4374.230957,4360.769043,4363.461426,4321.153809,4328.589844,4286.922852,4559.743652,4548.589844,4500.128418,4549.615234,,,,,,,,,,,,,,,,,,,,,,,,,,,,,,,,,,,,,,,,,,,,,,,,,,,,,,,,,,,,,,,,,,,,,,
1720086393,102,0,4468.333496,4453.974121,4458.974121,4447.05127,4380.512695,4360.641113,4362.94873,4323.461426,4329.871582,4289.358887,4560,4554.615234,4502.05127,4564.743652,,,,,,,,,,,,,,,,,,,,,,,,,,,,,,,,,,,,,,,,,,,,,,,,,,,,,,,,,,,,,,,,,,,,,,
1720086393,103,0,4501.410156,4472.307617,4476.538574,4462.436035,4383.077148,4362.436035,4370.769043,4332.179688,4334.487305,4308.846191,4581.410156,4563.461426,4522.05127,4594.230957,,,,,,,,,,,,,,,,,,,,,,,,,,,,,,,,,,,,,,,,,,,,,,,,,,,,,,,,,,,,,,,,,,,,,,
1720086393,104,0,4524.487305,4479.102539,4487.179688,4468.589844,4377.94873,4362.94873,4370.128418,4330,4335.384766,4309.487305,4592.820313,4564.230957,4533.205078,4615.769043,,,,,,,,,,,,,,,,,,,,,,,,,,,,,,,,,,,,,,,,,,,,,,,,,,,,,,,,,,,,,,,,,,,,,,
1720086393,105,0,4529.358887,4482.179688,4490,4473.077148,4376.922852,4361.922852,4370.641113,4325.897461,4329.102539,4291.794922,4582.05127,4560.512695,4529.487305,4620.128418,,,,,,,,,,,,,,,,,,,,,,,,,,,,,,,,,,,,,,,,,,,,,,,,,,,,,,,,,,,,,,,,,,,,,,
1720086393,106,0,4539.230957,4488.077148,4492.820313,4475.897461,4382.692383,4362.94873,4380.769043,4331.538574,4326.025879,4290.128418,4581.538574,4565.512695,4528.974121,4625.641113,,,,,,,,,,,,,,,,,,,,,,,,,,,,,,,,,,,,,,,,,,,,,,,,,,,,,,,,,,,,,,,,,,,,,,
1720086393,107,0,4551.794922,4495.256348,4498.205078,4477.179688,4386.794922,4361.922852,4386.025879,4333.077148,4324.871582,4295.256348,4584.743652,4571.153809,4528.333496,4635,,,,,,,,,,,,,,,,,,,,,,,,,,,,,,,,,,,,,,,,,,,,,,,,,,,,,,,,,,,,,,,,,,,,,,
1720086393,108,0,4553.589844,4503.974121,4499.743652,4482.94873,4383.589844,4356.282227,4382.692383,4324.102539,4318.461426,4284.615234,4573.974121,4562.05127,4521.666504,4636.666504,,,,,,,,,,,,,,,,,,,,,,,,,,,,,,,,,,,,,,,,,,,,,,,,,,,,,,,,,,,,,,,,,,,,,,
1720086393,109,0,4552.692383,4504.487305,4499.102539,4484.487305,4378.205078,4355.384766,4381.538574,4322.692383,4319.230957,4278.974121,4565,4561.922852,4523.077148,4639.230957,,,,,,,,,,,,,,,,,,,,,,,,,,,,,,,,,,,,,,,,,,,,,,,,,,,,,,,,,,,,,,,,,,,,,,
1720086393,110,0,4554.358887,4501.666504,4502.307617,4481.410156,4384.615234,4367.436035,4384.230957,4332.94873,4329.615234,4289.230957,4567.307617,4580.256348,4531.410156,4649.230957,,,,,,,,,,,,,,,,,,,,,,,,,,,,,,,,,,,,,,,,,,,,,,,,,,,,,,,,,,,,,,,,,,,,,,
1720086393,111,0,4549.102539,4502.820313,4501.666504,4485.384766,4394.743652,4379.615234,4384.615234,4331.025879,4326.282227,4295,4570.769043,4568.461426,4535.256348,4648.077148,,,,,,,,,,,,,,,,,,,,,,,,,,,,,,,,,,,,,,,,,,,,,,,,,,,,,,,,,,,,,,,,,,,,,,
1720086393,112,0,4546.794922,4501.025879,4500,4484.487305,4390.897461,4384.871582,4379.102539,4324.871582,4321.922852,4295.512695,4568.461426,4560.512695,4535.769043,4648.077148,,,,,,,,,,,,,,,,,,,,,,,,,,,,,,,,,,,,,,,,,,,,,,,,,,,,,,,,,,,,,,,,,,,,,,
1720086393,113,0,4547.692383,4489.743652,4503.077148,4475.769043,4384.871582,4383.077148,4372.94873,4326.794922,4324.871582,4293.461426,4567.820313,4573.717773,4534.230957,4653.461426,,,,,,,,,,,,,,,,,,,,,,,,,,,,,,,,,,,,,,,,,,,,,,,,,,,,,,,,,,,,,,,,,,,,,,
1720086393,114,0,4541.922852,4482.179688,4501.922852,4473.461426,4389.615234,4381.538574,4373.077148,4327.563965,4321.282227,4291.410156,4570.256348,4564.358887,4526.025879,4646.153809,,,,,,,,,,,,,,,,,,,,,,,,,,,,,,,,,,,,,,,,,,,,,,,,,,,,,,,,,,,,,,,,,,,,,,
1720086393,115,0,4542.563965,4481.794922,4502.05127,4477.05127,4390.769043,4386.410156,4373.461426,4327.563965,4323.717773,4299.230957,4574.230957,4566.666504,4521.153809,4648.717773,1.450607,0.34703,0.294769,0.538976,0.172362,3.387523,1.523026,1.026487,0.506847,0.228083,0.58315,0.208398,0.2176,0.426188,0.144854,2.138077,1.059247,0.522811,0.462737,0.14203,1.972765,0.693576,0.329147,0.167449,0.140182,0.668069,1.500776,0.55509,0.062293,0.067564,1.021859,0.621006,0.565573,0.301814,0.088906,0.938691,0.429489,0.512596,0.26245,0.149363,0.948996,0.489871,0.539025,0.163513,0.18047,1.14247,0.723762,1.338749,0.428503,0.300389,2.758542,1.330447,1.040051,0.631635,0.241208,0.175472,0.121483,0.150729,0.181634,0.350436,8.026168,4.317264,1.74471,0.351639,0.273099,3.952694,0.485895,0.379925,0.374499,0.201927
1720086393,116,0,4542.692383,4476.666504,4502.692383,4476.025879,4385.641113,4385.512695,4371.282227,4328.461426,4325.384766,4303.205078,4570.512695,4577.692383,4521.282227,4653.461426,,,,,,,,,,,,,,,,,,,,,,,,,,,,,,,,,,,,,,,,,,,,,,,,,,,,,,,,,,,,,,,,,,,,,,
1720086393,117,0,4534.358887,4474.230957,4501.794922,4475.256348,4388.461426,4383.974121,4374.102539,4329.230957,4319.743652,4294.102539,4558.333496,4570.641113,4510.897461,4643.077148,,,,,,,,,,,,,,,,,,,,,,,,,,,,,,,,,,,,,,,,,,,,,,,,,,,,,,,,,,,,,,,,,,,,,,
1720086393,118,0,4531.410156,4474.871582,4501.410156,4477.179688,4390.769043,4390.128418,4376.410156,4331.153809,4320,4292.692383,4554.230957,4570.897461,4503.333496,4641.025879,,,,,,,,,,,,,,,,,,,,,,,,,,,,,,,,,,,,,,,,,,,,,,,,,,,,,,,,,,,,,,,,,,,,,,
1720086393,119,0,4530.641113,4473.333496,4501.794922,4475.897461,4383.846191,4387.692383,4373.205078,4332.179688,4316.410156,4294.487305,4554.487305,4573.589844,4506.538574,4645,,,,,,,,,,,,,,,,,,,,,,,,,,,,,,,,,,,,,,,,,,,,,,,,,,,,,,,,,,,,,,,,,,,,,,
1720086393,120,0,4528.974121,4471.410156,4504.615234,4475.128418,4378.974121,4378.846191,4369.358887,4324.743652,4306.922852,4289.487305,4552.307617,4565.512695,4510,4639.230957,,,,,,,,,,,,,,,,,,,,,,,,,,,,,,,,,,,,,,,,,,,,,,,,,,,,,,,,,,,,,,,,,,,,,,
1720086393,121,0,4534.230957,4471.666504,4510,4473.333496,4385.769043,4379.743652,4366.794922,4320.256348,4316.666504,4298.077148,4552.05127,4572.563965,4515.512695,4641.410156,,,,,,,,,,,,,,,,,,,,,,,,,,,,,,,,,,,,,,,,,,,,,,,,,,,,,,,,,,,,,,,,,,,,,,
1720086393,122,0,4534.230957,4476.025879,4510.384766,4466.410156,4389.743652,4380.256348,4366.538574,4324.871582,4320.256348,4305.641113,4552.692383,4575,4519.871582,4648.461426,,,,,,,,,,,,,,,,,,,,,,,,,,,,,,,,,,,,,,,,,,,,,,,,,,,,,,,,,,,,,,,,,,,,,,
1720086393,123,0,4523.205078,4475.384766,4501.922852,4457.179688,4379.871582,4377.179688,4370,4325.256348,4300.641113,4290,4545,4559.615234,4511.666504,4638.333496,,,,,,,,,,,,,,,,,,,,,,,,,,,,,,,,,,,,,,,,,,,,,,,,,,,,,,,,,,,,,,,,,,,,,,
1720086393,124,0,4515.769043,4466.922852,4491.794922,4448.333496,4371.538574,4378.846191,4367.307617,4320.897461,4297.692383,4277.94873,4524.230957,4560.512695,4491.922852,4619.102539,,,,,,,,,,,,,,,,,,,,,,,,,,,,,,,,,,,,,,,,,,,,,,,,,,,,,,,,,,,,,,,,,,,,,,
1720086393,125,0,4508.461426,4464.102539,4483.205078,4443.333496,4372.820313,4377.05127,4357.436035,4320.128418,4304.230957,4279.615234,4509.487305,4556.794922,4477.436035,4603.846191,,,,,,,,,,,,,,,,,,,,,,,,,,,,,,,,,,,,,,,,,,,,,,,,,,,,,,,,,,,,,,,,,,,,,,
1720086393,126,0,4501.922852,4468.846191,4480.897461,4443.205078,4374.230957,4377.436035,4356.794922,4323.974121,4304.102539,4283.974121,4517.179688,4552.94873,4483.717773,4603.589844,,,,,,,,,,,,,,,,,,,,,,,,,,,,,,,,,,,,,,,,,,,,,,,,,,,,,,,,,,,,,,,,,,,,,,
1720086393,127,0,4505.769043,4473.589844,4485,4445.128418,4373.333496,4381.410156,4359.871582,4321.153809,4308.846191,4290.897461,4527.307617,4562.692383,4496.153809,4611.282227,,,,,,,,,,,,,,,,,,,,,,,,,,,,,,,,,,,,,,,,,,,,,,,,,,,,,,,,,,,,,,,,,,,,,,
1720086393,0,0,4506.538574,4473.589844,4485.769043,4446.410156,4374.487305,4377.179688,4353.205078,4310.769043,4309.230957,4290.641113,4511.153809,4555.897461,4483.333496,4603.333496,,,,,,,,,,,,,,,,,,,,,,,,,,,,,,,,,,,,,,,,,,,,,,,,,,,,,,,,,,,,,,,,,,,,,,
1720086393,1,0,4499.230957,4468.333496,4482.94873,4441.410156,4371.922852,4374.743652,4348.205078,4305.897461,4305.641113,4282.436035,4490.256348,4549.102539,4463.077148,4590.641113,,,,,,,,,,,,,,,,,,,,,,,,,,,,,,,,,,,,,,,,,,,,,,,,,,,,,,,,,,,,,,,,,,,,,,
1720086393,2,0,4497.692383,4461.410156,4475,4437.436035,4365.384766,4383.461426,4349.743652,4307.307617,4303.205078,4275.512695,4494.230957,4550.769043,4467.820313,4586.666504,,,,,,,,,,,,,,,,,,,,,,,,,,,,,,,,,,,,,,,,,,,,,,,,,,,,,,,,,,,,,,,,,,,,,,
1720086393,3,0,4500.256348,4460.256348,4474.487305,4438.205078,4367.692383,4387.436035,4346.666504,4308.589844,4307.820313,4278.461426,4502.05127,4553.461426,4477.94873,4589.615234,1.826998,0.438509,0.272354,0.54459,0.194252,4.019687,1.79089,0.940175,0.542461,0.252323,0.74529,0.303702,0.196823,0.395464,0.153503,2.755733,1.231546,0.535696,0.486532,0.141446,2.21521,0.653801,0.29283,0.195192,0.120037,0.680388,1.660061,0.656975,0.063789,0.066168,1.118485,0.685135,0.66597,0.338695,0.081629,1.012087,0.547415,0.506883,0.268009,0.153853,0.957607,0.43535,0.431504,0.152724,0.174859,1.098774,0.767773,1.208521,0.392408,0.2856,3.536143,1.747914,0.951231,0.632149,0.289019,0.186979,0.127934,0.120422,0.152351,0.333273,6.53827,3.176561,1.325307,0.335238,0.281266,5.568664,0.601012,0.360764,0.342807,0.221162
1720086393,4,0,4494.230957,4462.179688,4480,4434.743652,4371.666504,4383.589844,4341.922852,4303.589844,4313.974121,4290.897461,4498.717773,4556.025879,4477.307617,4591.025879,,,,,,,,,,,,,,,,,,,,,,,,,,,,,,,,,,,,,,,,,,,,,,,,,,,,,,,,,,,,,,,,,,,,,,
1720086393,5,0,4487.436035,4457.94873,4475.897461,4428.077148,4368.717773,4384.615234,4342.307617,4295,4308.077148,4287.692383,4494.230957,4553.717773,4474.358887,4584.871582,,,,,,,,,,,,,,,,,,,,,,,,,,,,,,,,,,,,,,,,,,,,,,,,,,,,,,,,,,,,,,,,,,,,,,
1720086393,6,0,4483.589844,4450.897461,4466.794922,4427.307617,4366.282227,4389.871582,4342.692383,4294.230957,4297.05127,4267.436035,4490,4549.102539,4471.410156,4578.974121,,,,,,,,,,,,,,,,,,,,,,,,,,,,,,,,,,,,,,,,,,,,,,,,,,,,,,,,,,,,,,,,,,,,,,
1720086393,7,0,4474.743652,4443.077148,4461.538574,4423.589844,4364.102539,4390.641113,4342.307617,4297.820313,4298.461426,4264.871582,4480.641113,4546.922852,4465,4575.384766,,,,,,,,,,,,,,,,,,,,,,,,,,,,,,,,,,,,,,,,,,,,,,,,,,,,,,,,,,,,,,,,,,,,,,
1720086393,8,0,4466.410156,4440.769043,4455.128418,4416.666504,4361.538574,4388.461426,4342.563965,4295,4296.666504,4266.025879,4468.717773,4541.410156,4454.358887,4567.820313,,,,,,,,,,,,,,,,,,,,,,,,,,,,,,,,,,,,,,,,,,,,,,,,,,,,,,,,,,,,,,,,,,,,,,
1720086393,9,0,4467.179688,4444.871582,4452.05127,4418.333496,4362.307617,4388.333496,4338.461426,4294.358887,4286.410156,4252.307617,4464.743652,4539.358887,4447.94873,4561.922852,,,,,,,,,,,,,,,,,,,,,,,,,,,,,,,,,,,,,,,,,,,,,,,,,,,,,,,,,,,,,,,,,,,,,,
1720086393,10,0,4471.666504,4445.897461,4455.256348,4423.461426,4361.025879,4388.717773,4332.179688,4300.641113,4291.025879,4254.743652,4462.563965,4549.358887,4444.743652,4562.05127,,,,,,,,,,,,,,,,,,,,,,,,,,,,,,,,,,,,,,,,,,,,,,,,,,,,,,,,,,,,,,,,,,,,,,
1720086393,11,0,4464.743652,4440.384766,4445.897461,4416.794922,4358.974121,4382.820313,4326.153809,4296.922852,4288.717773,4258.589844,4444.230957,4535.897461,4413.461426,4546.410156,,,,,,,,,,,,,,,,,,,,,,,,,,,,,,,,,,,,,,,,,,,,,,,,,,,,,,,,,,,,,,,,,,,,,,
1720086393,12,0,4456.538574,4434.102539,4436.666504,4406.666504,4355.384766,4378.077148,4322.820313,4293.846191,4277.692383,4246.282227,4432.436035,4527.436035,4369.102539,4531.922852,,,,,,,,,,,,,,,,,,,,,,,,,,,,,,,,,,,,,,,,,,,,,,,,,,,,,,,,,,,,,,,,,,,,,,
1720086393,13,0,4460.641113,4436.666504,4445,4404.871582,4346.922852,4380.897461,4325.256348,4303.846191,4285.769043,4249.102539,4447.94873,4550.256348,4364.871582,4544.230957,,,,,,,,,,,,,,,,,,,,,,,,,,,,,,,,,,,,,,,,,,,,,,,,,,,,,,,,,,,,,,,,,,,,,,
1720086393,14,0,4465.641113,4442.94873,4449.743652,4403.461426,4346.538574,4384.743652,4325.256348,4305,4292.179688,4257.436035,4453.717773,4543.846191,4376.282227,4543.974121,,,,,,,,,,,,,,,,,,,,,,,,,,,,,,,,,,,,,,,,,,,,,,,,,,,,,,,,,,,,,,,,,,,,,,
1720086393,15,0,4466.922852,4444.615234,4448.205078,4398.333496,4356.922852,4387.820313,4322.563965,4294.487305,4290,4249.871582,4440.641113,4532.436035,4368.974121,4532.94873,,,,,,,,,,,,,,,,,,,,,,,,,,,,,,,,,,,,,,,,,,,,,,,,,,,,,,,,,,,,,,,,,,,,,,
1720086393,16,0,4463.205078,4439.230957,4450.256348,4391.666504,4360.128418,4387.692383,4325.384766,4292.436035,4288.589844,4248.205078,4438.974121,4542.05127,4369.230957,4537.05127,,,,,,,,,,,,,,,,,,,,,,,,,,,,,,,,,,,,,,,,,,,,,,,,,,,,,,,,,,,,,,,,,,,,,,
1720086393,17,0,4456.922852,4431.410156,4450.769043,4386.025879,4355.769043,4381.410156,4329.358887,4298.589844,4285.897461,4250.512695,4443.717773,4541.153809,4382.94873,4533.974121,,,,,,,,,,,,,,,,,,,,,,,,,,,,,,,,,,,,,,,,,,,,,,,,,,,,,,,,,,,,,,,,,,,,,,
1720086393,18,0,4453.205078,4429.358887,4445.128418,4381.922852,4351.922852,4376.282227,4324.102539,4294.743652,4282.94873,4238.974121,4434.358887,4536.666504,4376.410156,4518.717773,,,,,,,,,,,,,,,,,,,,,,,,,,,,,,,,,,,,,,,,,,,,,,,,,,,,,,,,,,,,,,,,,,,,,,
1720086393,19,0,4449.230957,4427.307617,4435.128418,4376.410156,4345.256348,4374.743652,4316.794922,4282.692383,4280.384766,4232.307617,4418.846191,4533.846191,4359.615234,4509.230957,2.540164,0.604748,0.251998,0.527711,0.206354,4.503628,1.877159,0.769176,0.537182,0.264381,0.974121,0.458427,0.18803,0.35433,0.161772,3.201604,1.305318,0.502914,0.471362,0.139774,2.230759,0.605598,0.284017,0.213162,0.10177,0.679848,1.621162,0.681393,0.06803,0.065752,1.291832,0.744888,0.714448,0.356055,0.076815,1.036074,0.688359,0.504202,0.271068,0.157275,0.902576,0.418185,0.322359,0.150484,0.170387,1.003904,0.837676,1.093064,0.366326,0.275002,4.396009,2.287433,1.038876,0.62017,0.333048,0.200189,0.147698,0.108206,0.127726,0.31904,5.489801,2.443525,1.126079,0.308578,0.292047,7.583374,0.758422,0.382089,0.313406,0.242435
1720086393,20,0,4445.512695,4424.102539,4429.102539,4371.666504,4343.077148,4374.743652,4317.05127,4284.230957,4278.974121,4241.282227,4411.410156,4527.179688,4370.384766,4506.025879,,,,,,,,,,,,,,,,,,,,,,,,,,,,,,,,,,,,,,,,,,,,,,,,,,,,,,,,,,,,,,,,,,,,,,
1720086393,21,0,4443.717773,4425.769043,4433.077148,4371.538574,4348.077148,4376.538574,4319.230957,4295.512695,4284.871582,4243.974121,4410.256348,4536.410156,4391.794922,4507.94873,,,,,,,,,,,,,,,,,,,,,,,,,,,,,,,,,,,,,,,,,,,,,,,,,,,,,,,,,,,,,,,,,,,,,,
1720086393,22,0,4439.358887,4425.384766,4437.05127,4374.743652,4350.128418,4379.615234,4321.666504,4297.436035,4286.153809,4237.692383,4409.230957,4544.871582,4389.743652,4510.128418,,,,,,,,,,,,,,,,,,,,,,,,,,,,,,,,,,,,,,,,,,,,,,,,,,,,,,,,,,,,,,,,,,,,,,
1720086393,23,0,4435.384766,4417.820313,4436.666504,4376.025879,4345.256348,4381.666504,4326.922852,4297.820313,4280.384766,4238.589844,4407.692383,4531.153809,4379.615234,4502.820313,,,,,,,,,,,,,,,,,,,,,,,,,,,,,,,,,,,,,,,,,,,,,,,,,,,,,,,,,,,,,,,,,,,,,,
1720086393,24,0,4438.077148,4415.256348,4437.05127,4374.871582,4341.538574,4383.077148,4327.307617,4299.358887,4286.025879,4241.794922,4407.307617,4532.436035,4384.743652,4497.179688,,,,,,,,,,,,,,,,,,,,,,,,,,,,,,,,,,,,,,,,,,,,,,,,,,,,,,,,,,,,,,,,,,,,,,
1720086393,25,0,4439.358887,4418.333496,4437.05127,4373.974121,4348.205078,4380.256348,4318.333496,4288.461426,4286.794922,4234.615234,4395.512695,4535.128418,4384.230957,4494.487305,,,,,,,,,,,,,,,,,,,,,,,,,,,,,,,,,,,,,,,,,,,,,,,,,,,,,,,,,,,,,,,,,,,,,,
1720086393,26,0,4432.820313,4415.256348,4434.230957,4372.563965,4351.410156,4375.512695,4307.94873,4278.333496,4276.666504,4223.333496,4375.641113,4524.230957,4369.358887,4483.461426,,,,,,,,,,,,,,,,,,,,,,,,,,,,,,,,,,,,,,,,,,,,,,,,,,,,,,,,,,,,,,,,,,,,,,
1720086393,27,0,4429.102539,4410,4430.512695,4369.743652,4343.589844,4372.820313,4305.384766,4281.538574,4277.307617,4218.205078,4368.846191,4525.256348,4364.358887,4473.077148,,,,,,,,,,,,,,,,,,,,,,,,,,,,,,,,,,,,,,,,,,,,,,,,,,,,,,,,,,,,,,,,,,,,,,
1720086393,28,0,4429.102539,4411.666504,4427.692383,4367.563965,4341.282227,4371.153809,4307.94873,4282.563965,4280.128418,4218.589844,4371.153809,4530.641113,4368.461426,4472.820313,,,,,,,,,,,,,,,,,,,,,,,,,,,,,,,,,,,,,,,,,,,,,,,,,,,,,,,,,,,,,,,,,,,,,,
1720086393,29,0,4429.102539,4418.333496,4431.666504,4370.512695,4345,4372.179688,4311.922852,4285.512695,4277.05127,4218.461426,4371.666504,4534.358887,4368.717773,4476.666504,,,,,,,,,,,,,,,,,,,,,,,,,,,,,,,,,,,,,,,,,,,,,,,,,,,,,,,,,,,,,,,,,,,,,,
1720086393,30,0,4425.897461,4417.05127,4432.436035,4369.487305,4341.153809,4375.384766,4314.615234,4293.974121,4272.05127,4215.256348,4369.358887,4532.307617,4363.717773,4469.871582,,,,,,,,,,,,,,,,,,,,,,,,,,,,,,,,,,,,,,,,,,,,,,,,,,,,,,,,,,,,,,,,,,,,,,
1720086393,31,0,4416.538574,4402.179688,4420.256348,4356.410156,4333.461426,4376.025879,4312.94873,4295.641113,4271.410156,4219.102539,4361.025879,4528.205078,4355.641113,4453.461426,,,,,,,,,,,,,,,,,,,,,,,,,,,,,,,,,,,,,,,,,,,,,,,,,,,,,,,,,,,,,,,,,,,,,,
1720086393,32,0,4407.563965,4393.205078,4410.512695,4348.205078,4334.615234,4377.692383,4311.538574,4294.487305,4275.641113,4229.230957,4351.538574,4526.922852,4351.282227,4445.128418,,,,,,,,,,,,,,,,,,,,,,,,,,,,,,,,,,,,,,,,,,,,,,,,,,,,,,,,,,,,,,,,,,,,,,
1720086393,33,0,4405.512695,4398.717773,4408.846191,4353.205078,4333.846191,4378.205078,4311.922852,4292.563965,4273.974121,4224.487305,4342.94873,4523.077148,4348.974121,4446.153809,,,,,,,,,,,,,,,,,,,,,,,,,,,,,,,,,,,,,,,,,,,,,,,,,,,,,,,,,,,,,,,,,,,,,,
1720086393,34,0,4404.102539,4401.794922,4405.897461,4357.179688,4326.410156,4368.846191,4308.077148,4284.230957,4266.922852,4206.025879,4330.384766,4516.794922,4341.025879,4443.846191,,,,,,,,,,,,,,,,,,,,,,,,,,,,,,,,,,,,,,,,,,,,,,,,,,,,,,,,,,,,,,,,,,,,,,
1720086393,35,0,4397.563965,4393.846191,4408.205078,4351.538574,4325.128418,4361.794922,4304.358887,4288.077148,4270.897461,4201.794922,4324.358887,4522.94873,4340.897461,4444.487305,4.164061,0.891955,0.269735,0.490502,0.206993,5.077549,1.76022,0.586166,0.497634,0.262037,1.392334,0.645724,0.193625,0.30943,0.166034,3.458728,1.270146,0.448396,0.419939,0.135442,2.041711,0.527809,0.284955,0.216929,0.0896,0.652949,1.404741,0.619548,0.076996,0.065658,1.463758,0.802746,0.691298,0.344942,0.076281,1.011459,0.826658,0.489175,0.266594,0.159596,0.779819,0.422844,0.229228,0.160776,0.169771,0.900488,0.90144,0.963405,0.359774,0.272058,5.323404,2.799056,1.215161,0.591859,0.369255,0.242531,0.17548,0.104816,0.111235,0.305743,4.754762,2.170744,1.128341,0.292108,0.29846,9.89769,0.918491,0.440904,0.292679,0.258911
1720086393,36,0,4395.128418,4388.717773,4414.358887,4348.205078,4331.153809,4364.230957,4305.512695,4294.358887,4275.128418,4208.974121,4333.205078,4528.077148,4355.384766,4448.077148,,,,,,,,,,,,,,,,,,,,,,,,,,,,,,,,,,,,,,,,,,,,,,,,,,,,,,,,,,,,,,,,,,,,,,
1720086393,37,0,4402.692383,4397.692383,4414.871582,4359.615234,4337.05127,4367.05127,4308.333496,4288.077148,4267.820313,4215.128418,4337.692383,4518.717773,4363.461426,4446.410156,,,,,,,,,,,,,,,,,,,,,,,,,,,,,,,,,,,,,,,,,,,,,,,,,,,,,,,,,,,,,,,,,,,,,,
1720086393,38,0,4408.333496,4406.794922,4418.717773,4369.615234,4339.487305,4369.487305,4307.179688,4286.410156,4276.282227,4238.589844,4333.717773,4530.897461,4357.94873,4448.205078,,,,,,,,,,,,,,,,,,,,,,,,,,,,,,,,,,,,,,,,,,,,,,,,,,,,,,,,,,,,,,,,,,,,,,
1720086393,39,0,4399.358887,4400.512695,4417.94873,4361.922852,4335.641113,4368.717773,4300.641113,4284.615234,4290.897461,4270.256348,4329.487305,4533.205078,4353.333496,4439.487305,,,,,,,,,,,,,,,,,,,,,,,,,,,,,,,,,,,,,,,,,,,,,,,,,,,,,,,,,,,,,,,,,,,,,,
1720086393,40,0,4383.461426,4387.820313,4404.358887,4349.743652,4326.794922,4365.128418,4291.922852,4270.384766,4285.641113,4270.384766,4313.974121,4511.410156,4345,4418.846191,,,,,,,,,,,,,,,,,,,,,,,,,,,,,,,,,,,,,,,,,,,,,,,,,,,,,,,,,,,,,,,,,,,,,,
1720086393,41,0,4383.974121,4383.077148,4405.128418,4351.538574,4325.128418,4372.05127,4297.179688,4271.538574,4281.410156,4254.487305,4299.615234,4519.358887,4335.512695,4422.563965,,,,,,,,,,,,,,,,,,,,,,,,,,,,,,,,,,,,,,,,,,,,,,,,,,,,,,,,,,,,,,,,,,,,,,
1720086393,42,0,4391.410156,4376.282227,4415.769043,4354.487305,4328.846191,4382.307617,4315.384766,4294.358887,4292.563965,4269.743652,4308.846191,4530,4345.256348,4436.538574,,,,,,,,,,,,,,,,,,,,,,,,,,,,,,,,,,,,,,,,,,,,,,,,,,,,,,,,,,,,,,,,,,,,,,
1720086393,43,0,4387.179688,4368.974121,4410.512695,4350.384766,4325.512695,4380,4317.94873,4301.538574,4303.589844,4288.974121,4316.282227,4522.307617,4359.102539,4432.94873,,,,,,,,,,,,,,,,,,,,,,,,,,,,,,,,,,,,,,,,,,,,,,,,,,,,,,,,,,,,,,,,,,,,,,
1720086393,44,0,4381.410156,4371.666504,4401.282227,4352.94873,4323.846191,4375.512695,4307.179688,4289.230957,4299.871582,4274.743652,4301.922852,4518.717773,4354.743652,4422.563965,,,,,,,,,,,,,,,,,,,,,,,,,,,,,,,,,,,,,,,,,,,,,,,,,,,,,,,,,,,,,,,,,,,,,,
1720086393,45,0,4380.512695,4376.282227,4402.563965,4357.436035,4328.077148,4378.846191,4307.436035,4284.230957,4291.922852,4259.358887,4296.794922,4516.794922,4351.922852,4419.102539,,,,,,,,,,,,,,,,,,,,,,,,,,,,,,,,,,,,,,,,,,,,,,,,,,,,,,,,,,,,,,,,,,,,,,
1720086393,46,0,4376.025879,4373.974121,4402.563965,4352.94873,4327.436035,4382.692383,4311.025879,4288.589844,4295.897461,4266.282227,4302.94873,4518.205078,4364.358887,4425.256348,,,,,,,,,,,,,,,,,,,,,,,,,,,,,,,,,,,,,,,,,,,,,,,,,,,,,,,,,,,,,,,,,,,,,,
1720086393,47,0,4378.461426,4374.615234,4405.897461,4354.615234,4330.769043,4384.102539,4308.846191,4294.358887,4303.974121,4277.179688,4297.05127,4528.077148,4372.692383,4432.307617,,,,,,,,,,,,,,,,,,,,,,,,,,,,,,,,,,,,,,,,,,,,,,,,,,,,,,,,,,,,,,,,,,,,,,
1720086393,48,0,4395.641113,4385.897461,4417.436035,4371.666504,4346.153809,4388.846191,4318.589844,4300.128418,4301.794922,4277.820313,4296.922852,4528.717773,4370.384766,4431.794922,,,,,,,,,,,,,,,,,,,,,,,,,,,,,,,,,,,,,,,,,,,,,,,,,,,,,,,,,,,,,,,,,,,,,,
1720086393,49,0,4404.743652,4394.615234,4425.384766,4382.820313,4351.794922,4398.205078,4333.974121,4308.461426,4302.692383,4285.512695,4307.179688,4528.589844,4372.307617,4432.05127,,,,,,,,,,,,,,,,,,,,,,,,,,,,,,,,,,,,,,,,,,,,,,,,,,,,,,,,,,,,,,,,,,,,,,
1720086393,50,0,4399.743652,4398.589844,4428.205078,4382.05127,4343.589844,4395.512695,4331.025879,4310.769043,4308.205078,4297.05127,4303.461426,4536.153809,4375.384766,4434.358887,,,,,,,,,,,,,,,,,,,,,,,,,,,,,,,,,,,,,,,,,,,,,,,,,,,,,,,,,,,,,,,,,,,,,,
1720086393,51,0,4396.794922,4400.897461,4429.743652,4384.102539,4341.922852,4382.820313,4324.743652,4308.077148,4295.769043,4294.102539,4300.897461,4529.615234,4370.769043,4427.307617,6.568703,1.300079,0.340403,0.439036,0.197727,5.713341,1.490933,0.446245,0.439989,0.246513,1.91626,0.835748,0.220844,0.270549,0.164367,3.502451,1.161028,0.395653,0.346753,0.127909,1.670001,0.416126,0.279076,0.209857,0.084935,0.632525,1.09294,0.499249,0.092173,0.065197,1.591341,0.858475,0.606264,0.307157,0.079872,0.954408,0.926441,0.453792,0.252923,0.161692,0.654168,0.427404,0.163778,0.184024,0.174004,0.871746,0.926755,0.819879,0.377886,0.278234,5.966292,3.116687,1.381708,0.554347,0.396738,0.28172,0.203865,0.102757,0.104847,0.293392,4.604442,2.248474,1.245566,0.314476,0.29882,11.938351,1.066403,0.53368,0.289602,0.267053
1720086393,52,0,4393.461426,4393.974121,4427.05127,4386.282227,4343.717773,4378.589844,4327.307617,4311.410156,4278.974121,4289.230957,4314.871582,4529.102539,4367.179688,4418.205078,,,,,,,,,,,,,,,,,,,,,,,,,,,,,,,,,,,,,,,,,,,,,,,,,,,,,,,,,,,,,,,,,,,,,,
1720086393,53,0,4382.820313,4381.410156,4417.436035,4379.487305,4340.128418,4378.717773,4327.05127,4312.307617,4274.230957,4288.974121,4318.205078,4532.179688,4368.974121,4412.436035,,,,,,,,,,,,,,,,,,,,,,,,,,,,,,,,,,,,,,,,,,,,,,,,,,,,,,,,,,,,,,,,,,,,,,
1720086393,54,0,4377.436035,4381.666504,4411.025879,4372.692383,4339.615234,4375.256348,4322.94873,4307.179688,4271.282227,4281.153809,4309.102539,4523.461426,4367.307617,4405.641113,,,,,,,,,,,,,,,,,,,,,,,,,,,,,,,,,,,,,,,,,,,,,,,,,,,,,,,,,,,,,,,,,,,,,,
1720086393,55,0,4377.179688,4384.358887,4413.333496,4371.922852,4341.666504,4374.871582,4325.641113,4308.846191,4270,4277.94873,4306.410156,4524.487305,4356.922852,4399.615234,,,,,,,,,,,,,,,,,,,,,,,,,,,,,,,,,,,,,,,,,,,,,,,,,,,,,,,,,,,,,,,,,,,,,,
1720086393,56,0,4374.230957,4374.358887,4416.025879,4375.384766,4342.563965,4377.692383,4331.538574,4316.922852,4275.512695,4291.282227,4309.102539,4532.179688,4353.205078,4397.563965,,,,,,,,,,,,,,,,,,,,,,,,,,,,,,,,,,,,,,,,,,,,,,,,,,,,,,,,,,,,,,,,,,,,,,
1720086393,57,0,4373.333496,4373.333496,4415.641113,4378.461426,4345.384766,4378.461426,4330.512695,4318.589844,4281.794922,4299.102539,4309.615234,4533.974121,4362.94873,4403.205078,,,,,,,,,,,,,,,,,,,,,,,,,,,,,,,,,,,,,,,,,,,,,,,,,,,,,,,,,,,,,,,,,,,,,,
1720086393,58,0,4371.410156,4381.538574,4411.025879,4376.666504,4343.846191,4378.077148,4324.743652,4312.94873,4279.230957,4289.743652,4303.974121,4527.436035,4361.538574,4403.333496,,,,,,,,,,,,,,,,,,,,,,,,,,,,,,,,,,,,,,,,,,,,,,,,,,,,,,,,,,,,,,,,,,,,,,
1720086393,59,0,4368.205078,4381.025879,4407.563965,4376.794922,4336.153809,4381.922852,4327.820313,4306.282227,4275.641113,4282.563965,4296.794922,4521.282227,4345.384766,4392.436035,,,,,,,,,,,,,,,,,,,,,,,,,,,,,,,,,,,,,,,,,,,,,,,,,,,,,,,,,,,,,,,,,,,,,,
1720086393,60,0,4366.666504,4373.974121,4406.794922,4377.179688,4332.94873,4385.384766,4336.666504,4303.589844,4276.410156,4280.384766,4293.333496,4521.794922,4333.077148,4385.128418,,,,,,,,,,,,,,,,,,,,,,,,,,,,,,,,,,,,,,,,,,,,,,,,,,,,,,,,,,,,,,,,,,,,,,
1720086393,61,0,4362.563965,4364.743652,4401.153809,4368.974121,4328.461426,4379.615234,4333.974121,4304.871582,4275.769043,4274.230957,4293.717773,4526.538574,4330.769043,4389.487305,,,,,,,,,,,,,,,,,,,,,,,,,,,,,,,,,,,,,,,,,,,,,,,,,,,,,,,,,,,,,,,,,,,,,,
1720086393,62,0,4355.769043,4355.641113,4393.717773,4363.974121,4317.563965,4371.153809,4324.230957,4301.538574,4274.358887,4275.769043,4294.487305,4517.179688,4330,4387.820313,,,,,,,,,,,,,,,,,,,,,,,,,,,,,,,,,,,,,,,,,,,,,,,,,,,,,,,,,,,,,,,,,,,,,,
1720086393,63,0,4355.256348,4353.205078,4395.641113,4364.615234,4309.871582,4374.615234,4321.538574,4295.256348,4277.94873,4282.307617,4295.128418,4513.333496,4331.153809,4379.615234,,,,,,,,,,,,,,,,,,,,,,,,,,,,,,,,,,,,,,,,,,,,,,,,,,,,,,,,,,,,,,,,,,,,,,
1720086393,64,0,4357.307617,4349.102539,4399.230957,4358.846191,4309.487305,4380.384766,4321.794922,4295.897461,4283.205078,4279.743652,4291.025879,4527.307617,4327.692383,4376.153809,,,,,,,,,,,,,,,,,,,,,,,,,,,,,,,,,,,,,,,,,,,,,,,,,,,,,,,,,,,,,,,,,,,,,,
1720086393,65,0,4354.230957,4340.641113,4391.666504,4357.94873,4311.666504,4375.897461,4320.769043,4299.102539,4276.410156,4276.666504,4283.461426,4513.846191,4314.358887,4362.05127,,,,,,,,,,,,,,,,,,,,,,,,,,,,,,,,,,,,,,,,,,,,,,,,,,,,,,,,,,,,,,,,,,,,,,
1720086393,66,0,4353.589844,4344.358887,4390.384766,4369.487305,4313.205078,4374.871582,4318.974121,4295.384766,4265.769043,4279.230957,4285,4505.512695,4311.922852,4347.436035,,,,,,,,,,,,,,,,,,,,,,,,,,,,,,,,,,,,,,,,,,,,,,,,,,,,,,,,,,,,,,,,,,,,,,
1720086393,67,0,4353.461426,4347.820313,4396.410156,4369.230957,4309.871582,4376.666504,4317.436035,4291.025879,4265.128418,4275.769043,4292.05127,4521.666504,4321.282227,4345.897461,9.51935,1.761649,0.455922,0.380973,0.182149,6.490831,1.172278,0.38206,0.381695,0.222775,2.488593,1.006141,0.270467,0.24723,0.156436,3.467782,1.048123,0.358852,0.271196,0.11865,1.248624,0.296831,0.259264,0.199592,0.086076,0.61932,0.789885,0.373272,0.112946,0.063938,1.613881,0.895637,0.488963,0.257265,0.085566,0.886379,0.954834,0.403549,0.234853,0.16438,0.53878,0.41907,0.130243,0.213932,0.181098,0.900918,0.896055,0.707604,0.420176,0.292203,5.970378,3.132491,1.468573,0.524065,0.415224,0.326757,0.225257,0.098764,0.108233,0.282805,4.75166,2.496279,1.373383,0.39978,0.298018,13.266549,1.190955,0.639185,0.30932,0.266717
1720086393,68,0,4348.461426,4339.358887,4390.256348,4356.794922,4307.820313,4372.05127,4318.461426,4295.128418,4270.128418,4271.666504,4295,4517.179688,4319.102539,4339.871582,,,,,,,,,,,,,,,,,,,,,,,,,,,,,,,,,,,,,,,,,,,,,,,,,,,,,,,,,,,,,,,,,,,,,,
1720086393,69,0,4347.436035,4338.589844,4383.589844,4356.282227,4310.256348,4368.461426,4317.179688,4296.922852,4274.871582,4276.538574,4289.487305,4510.769043,4305.128418,4331.794922,,,,,,,,,,,,,,,,,,,,,,,,,,,,,,,,,,,,,,,,,,,,,,,,,,,,,,,,,,,,,,,,,,,,,,
1720086393,70,0,4352.436035,4346.666504,4385.641113,4364.230957,4311.153809,4371.922852,4316.282227,4285.384766,4273.717773,4277.692383,4286.794922,4509.615234,4302.692383,4325.384766,,,,,,,,,,,,,,,,,,,,,,,,,,,,,,,,,,,,,,,,,,,,,,,,,,,,,,,,,,,,,,,,,,,,,,
1720086393,71,0,4354.102539,4346.025879,4388.077148,4365.512695,4316.922852,4377.307617,4322.820313,4280.641113,4276.025879,4276.922852,4292.820313,4507.436035,4311.794922,4323.077148,,,,,,,,,,,,,,,,,,,,,,,,,,,,,,,,,,,,,,,,,,,,,,,,,,,,,,,,,,,,,,,,,,,,,,
1720086393,72,0,4353.205078,4339.743652,4387.563965,4361.025879,4325,4378.974121,4328.589844,4288.717773,4281.153809,4277.05127,4297.05127,4511.538574,4315.512695,4330.897461,,,,,,,,,,,,,,,,,,,,,,,,,,,,,,,,,,,,,,,,,,,,,,,,,,,,,,,,,,,,,,,,,,,,,,
1720086393,73,0,4353.077148,4337.563965,4385.641113,4361.282227,4317.05127,4377.436035,4324.615234,4290.512695,4275.128418,4266.666504,4296.794922,4511.922852,4309.102539,4333.333496,,,,,,,,,,,,,,,,,,,,,,,,,,,,,,,,,,,,,,,,,,,,,,,,,,,,,,,,,,,,,,,,,,,,,,
1720086393,74,0,4351.025879,4338.717773,4386.025879,4365.897461,4310.128418,4374.615234,4315.128418,4287.820313,4272.692383,4260,4296.794922,4510.256348,4300.769043,4325.512695,,,,,,,,,,,,,,,,,,,,,,,,,,,,,,,,,,,,,,,,,,,,,,,,,,,,,,,,,,,,,,,,,,,,,,
1720086393,75,0,4346.666504,4339.743652,4386.025879,4365.897461,4319.615234,4370.641113,4309.230957,4285.384766,4280.384766,4273.205078,4290.512695,4508.461426,4291.922852,4318.589844,,,,,,,,,,,,,,,,,,,,,,,,,,,,,,,,,,,,,,,,,,,,,,,,,,,,,,,,,,,,,,,,,,,,,,
1720086393,76,0,4338.333496,4335.641113,4381.794922,4359.871582,4322.820313,4362.307617,4308.461426,4282.05127,4275.897461,4284.358887,4277.307617,4499.102539,4283.205078,4314.871582,,,,,,,,,,,,,,,,,,,,,,,,,,,,,,,,,,,,,,,,,,,,,,,,,,,,,,,,,,,,,,,,,,,,,,
1720086393,77,0,4335.769043,4330.128418,4380.256348,4358.077148,4317.05127,4353.717773,4309.102539,4284.358887,4265.897461,4278.974121,4281.538574,4502.563965,4289.102539,4317.94873,,,,,,,,,,,,,,,,,,,,,,,,,,,,,,,,,,,,,,,,,,,,,,,,,,,,,,,,,,,,,,,,,,,,,,
1720086393,78,0,4343.077148,4328.333496,4387.179688,4365.128418,4318.461426,4350,4310.641113,4286.282227,4271.282227,4277.820313,4297.05127,4520.128418,4300.769043,4327.820313,,,,,,,,,,,,,,,,,,,,,,,,,,,,,,,,,,,,,,,,,,,,,,,,,,,,,,,,,,,,,,,,,,,,,,
1720086393,79,0,4345.769043,4328.846191,4391.153809,4367.179688,4316.794922,4346.666504,4316.666504,4282.94873,4276.794922,4282.94873,4302.94873,4511.410156,4298.461426,4326.794922,,,,,,,,,,,,,,,,,,,,,,,,,,,,,,,,,,,,,,,,,,,,,,,,,,,,,,,,,,,,,,,,,,,,,,
1720086393,80,0,4339.871582,4325.512695,4389.102539,4361.410156,4309.230957,4344.230957,4319.743652,4286.153809,4274.743652,4276.153809,4305.641113,4502.563965,4289.615234,4322.820313,,,,,,,,,,,,,,,,,,,,,,,,,,,,,,,,,,,,,,,,,,,,,,,,,,,,,,,,,,,,,,,,,,,,,,
1720086393,81,0,4334.230957,4322.179688,4385,4357.563965,4308.974121,4344.743652,4313.974121,4287.692383,4275.384766,4261.922852,4308.589844,4510.897461,4284.487305,4321.410156,,,,,,,,,,,,,,,,,,,,,,,,,,,,,,,,,,,,,,,,,,,,,,,,,,,,,,,,,,,,,,,,,,,,,,
1720086393,82,0,4332.179688,4321.666504,4381.410156,4357.94873,4311.153809,4349.230957,4311.025879,4278.846191,4278.974121,4263.974121,4307.436035,4506.794922,4276.922852,4310.897461,,,,,,,,,,,,,,,,,,,,,,,,,,,,,,,,,,,,,,,,,,,,,,,,,,,,,,,,,,,,,,,,,,,,,,
1720086393,83,0,4331.794922,4317.307617,4379.871582,4358.205078,4310.897461,4353.077148,4313.205078,4280.128418,4286.410156,4276.282227,4308.717773,4505.897461,4270.769043,4306.922852,12.046135,2.162849,0.580883,0.32706,0.164786,7.087224,0.911956,0.381838,0.333236,0.198034,2.946365,1.151025,0.336656,0.244434,0.143665,3.356558,1.002356,0.339265,0.210055,0.111047,0.890867,0.207002,0.235007,0.194158,0.090132,0.662647,0.567666,0.292903,0.136084,0.062288,1.520346,0.89189,0.380606,0.216771,0.091427,0.846885,0.905417,0.354041,0.223334,0.168639,0.551185,0.401863,0.129189,0.241395,0.187689,1.114964,0.833142,0.700697,0.479299,0.31216,5.565737,2.856233,1.444216,0.518558,0.424804,0.351601,0.238792,0.095832,0.118815,0.275767,5.525341,2.798106,1.456915,0.549921,0.303624,13.518378,1.28031,0.72733,0.3499,0.261011
1720086393,84,0,4326.282227,4315.512695,4376.025879,4359.230957,4315.384766,4356.282227,4312.05127,4282.94873,4286.153809,4272.307617,4311.153809,4503.077148,4268.461426,4304.230957,,,,,,,,,,,,,,,,,,,,,,,,,,,,,,,,,,,,,,,,,,,,,,,,,,,,,,,,,,,,,,,,,,,,,,
1720086393,85,0,4318.846191,4319.358887,4371.282227,4361.282227,4318.205078,4358.717773,4308.461426,4278.077148,4276.794922,4258.846191,4303.974121,4497.05127,4257.94873,4296.153809,,,,,,,,,,,,,,,,,,,,,,,,,,,,,,,,,,,,,,,,,,,,,,,,,,,,,,,,,,,,,,,,,,,,,,
1720086393,86,0,4315.256348,4317.820313,4367.692383,4359.743652,4311.538574,4355.256348,4309.358887,4276.794922,4273.205078,4261.922852,4300,4500,4252.820313,4295.641113,,,,,,,,,,,,,,,,,,,,,,,,,,,,,,,,,,,,,,,,,,,,,,,,,,,,,,,,,,,,,,,,,,,,,,
1720086393,87,0,4313.717773,4311.922852,4363.974121,4353.589844,4301.025879,4353.205078,4313.077148,4280.641113,4274.230957,4272.05127,4307.692383,4498.717773,4258.205078,4298.846191,,,,,,,,,,,,,,,,,,,,,,,,,,,,,,,,,,,,,,,,,,,,,,,,,,,,,,,,,,,,,,,,,,,,,,
1720086393,88,0,4310.256348,4307.436035,4364.871582,4346.794922,4293.846191,4359.871582,4310.897461,4278.846191,4272.820313,4270.512695,4312.692383,4493.846191,4250.769043,4294.871582,,,,,,,,,,,,,,,,,,,,,,,,,,,,,,,,,,,,,,,,,,,,,,,,,,,,,,,,,,,,,,,,,,,,,,
1720086393,89,0,4303.717773,4300.384766,4361.538574,4341.666504,4291.025879,4361.282227,4306.025879,4272.179688,4270.641113,4262.820313,4308.077148,4497.05127,4235.128418,4289.230957,,,,,,,,,,,,,,,,,,,,,,,,,,,,,,,,,,,,,,,,,,,,,,,,,,,,,,,,,,,,,,,,,,,,,,
1720086393,90,0,4299.487305,4294.102539,4355,4340.256348,4291.666504,4351.666504,4305.256348,4268.717773,4268.846191,4264.743652,4304.871582,4492.05127,4235.512695,4288.974121,,,,,,,,,,,,,,,,,,,,,,,,,,,,,,,,,,,,,,,,,,,,,,,,,,,,,,,,,,,,,,,,,,,,,,
1720086393,91,0,4302.436035,4299.487305,4361.153809,4342.692383,4292.179688,4345.769043,4302.05127,4267.179688,4269.358887,4273.717773,4303.846191,4481.025879,4241.282227,4287.94873,,,,,,,,,,,,,,,,,,,,,,,,,,,,,,,,,,,,,,,,,,,,,,,,,,,,,,,,,,,,,,,,,,,,,,
1720086393,92,0,4302.05127,4299.743652,4341.538574,4340.128418,4290.641113,4348.205078,4294.102539,4264.871582,4272.820313,4273.333496,4295.641113,4493.461426,4232.436035,4286.025879,,,,,,,,,,,,,,,,,,,,,,,,,,,,,,,,,,,,,,,,,,,,,,,,,,,,,,,,,,,,,,,,,,,,,,
1720086393,93,0,4290.512695,4286.025879,4275.769043,4332.563965,4292.820313,4354.871582,4294.358887,4262.436035,4268.846191,4264.102539,4288.974121,4492.05127,4220.256348,4280.512695,,,,,,,,,,,,,,,,,,,,,,,,,,,,,,,,,,,,,,,,,,,,,,,,,,,,,,,,,,,,,,,,,,,,,,
1720086393,94,0,4290,4277.05127,4236.153809,4334.102539,4296.538574,4363.974121,4300,4262.563965,4267.05127,4260.769043,4291.538574,4480.641113,4222.692383,4284.615234,,,,,,,,,,,,,,,,,,,,,,,,,,,,,,,,,,,,,,,,,,,,,,,,,,,,,,,,,,,,,,,,,,,,,,
1720086393,95,0,4298.461426,4278.717773,4249.743652,4339.871582,4296.538574,4367.563965,4300.128418,4264.615234,4274.871582,4263.333496,4295.641113,4491.794922,4227.436035,4299.230957,,,,,,,,,,,,,,,,,,,,,,,,,,,,,,,,,,,,,,,,,,,,,,,,,,,,,,,,,,,,,,,,,,,,,,
1720086393,96,0,4292.94873,4278.077148,4255.512695,4334.615234,4294.487305,4365.897461,4296.153809,4263.077148,4275.769043,4272.692383,4293.717773,4488.717773,4220.512695,4295.384766,,,,,,,,,,,,,,,,,,,,,,,,,,,,,,,,,,,,,,,,,,,,,,,,,,,,,,,,,,,,,,,,,,,,,,
1720086393,97,0,4290.384766,4274.102539,4246.538574,4329.102539,4293.077148,4366.538574,4295.769043,4266.153809,4278.974121,4289.615234,4294.871582,4485.897461,4220,4292.692383,,,,,,,,,,,,,,,,,,,,,,,,,,,,,,,,,,,,,,,,,,,,,,,,,,,,,,,,,,,,,,,,,,,,,,
1720086394,98,0,4297.94873,4276.794922,4252.692383,4334.871582,4294.358887,4366.794922,4302.179688,4270.897461,4288.717773,4301.410156,4306.410156,4496.410156,4233.589844,4307.563965,,,,,,,,,,,,,,,,,,,,,,,,,,,,,,,,,,,,,,,,,,,,,,,,,,,,,,,,,,,,,,,,,,,,,,
1720086394,99,0,4297.307617,4278.974121,4257.179688,4339.230957,4296.410156,4366.282227,4307.94873,4268.974121,4292.179688,4305.641113,4316.025879,4491.794922,4240.128418,4310,13.347941,2.386195,0.673873,0.286791,0.149373,7.265847,0.77775,0.419466,0.297029,0.178879,3.167603,1.264231,0.405879,0.26035,0.129392,3.197667,1.042354,0.333799,0.171368,0.108627,0.730914,0.168597,0.227505,0.197454,0.094779,0.74983,0.441933,0.285516,0.157159,0.06127,1.343459,0.832343,0.314224,0.203384,0.096569,0.87249,0.79598,0.321429,0.229705,0.174795,0.683777,0.392961,0.153367,0.259963,0.191044,1.478641,0.780399,0.835325,0.543359,0.336251,4.519489,2.402475,1.316491,0.544253,0.425145,0.357492,0.243825,0.098663,0.132658,0.27331,6.49479,3.10672,1.476336,0.737004,0.320477,12.424557,1.33404,0.767847,0.402957,0.254087
1720086394,100,0,4290.641113,4275.769043,4250.256348,4336.538574,4297.179688,4367.692383,4306.794922,4264.487305,4293.974121,4311.410156,4312.563965,4484.487305,4234.102539,4295.641113,,,,,,,,,,,,,,,,,,,,,,,,,,,,,,,,,,,,,,,,,,,,,,,,,,,,,,,,,,,,,,,,,,,,,,
1720086394,101,0,4286.538574,4275,4243.717773,4332.05127,4296.666504,4367.307617,4301.794922,4262.179688,4294.230957,4304.871582,4302.563965,4484.102539,4226.794922,4280.128418,,,,,,,,,,,,,,,,,,,,,,,,,,,,,,,,,,,,,,,,,,,,,,,,,,,,,,,,,,,,,,,,,,,,,,
1720086394,102,0,4286.153809,4275.897461,4245.128418,4327.820313,4296.025879,4366.025879,4297.05127,4259.743652,4292.436035,4296.153809,4299.358887,4480.897461,4224.743652,4272.692383,,,,,,,,,,,,,,,,,,,,,,,,,,,,,,,,,,,,,,,,,,,,,,,,,,,,,,,,,,,,,,,,,,,,,,
1720086394,103,0,4291.153809,4278.077148,4248.846191,4326.153809,4296.153809,4364.615234,4295,4259.615234,4296.153809,4304.358887,4303.333496,4481.922852,4227.307617,4281.666504,,,,,,,,,,,,,,,,,,,,,,,,,,,,,,,,,,,,,,,,,,,,,,,,,,,,,,,,,,,,,,,,,,,,,,
1720086394,104,0,4290.769043,4277.05127,4244.230957,4327.563965,4296.794922,4362.307617,4297.436035,4261.666504,4300,4314.230957,4308.077148,4478.205078,4226.025879,4292.05127,,,,,,,,,,,,,,,,,,,,,,,,,,,,,,,,,,,,,,,,,,,,,,,,,,,,,,,,,,,,,,,,,,,,,,
1720086394,105,0,4280.256348,4272.692383,4237.94873,4326.410156,4296.025879,4359.102539,4296.922852,4260,4296.666504,4307.692383,4305,4469.102539,4215.384766,4284.743652,,,,,,,,,,,,,,,,,,,,,,,,,,,,,,,,,,,,,,,,,,,,,,,,,,,,,,,,,,,,,,,,,,,,,,
1720086394,106,0,4281.282227,4273.205078,4237.179688,4324.102539,4293.461426,4356.922852,4293.333496,4259.487305,4293.589844,4295.256348,4298.077148,4481.410156,4209.615234,4278.077148,,,,,,,,,,,,,,,,,,,,,,,,,,,,,,,,,,,,,,,,,,,,,,,,,,,,,,,,,,,,,,,,,,,,,,
1720086394,107,0,4287.820313,4279.230957,4241.025879,4327.05127,4293.846191,4355.897461,4297.820313,4260.641113,4291.922852,4296.282227,4303.974121,4482.436035,4210.897461,4279.102539,,,,,,,,,,,,,,,,,,,,,,,,,,,,,,,,,,,,,,,,,,,,,,,,,,,,,,,,,,,,,,,,,,,,,,
1720086394,108,0,4285.641113,4279.230957,4248.974121,4333.974121,4295.384766,4360.512695,4305.897461,4261.922852,4293.461426,4306.538574,4315.384766,4474.358887,4210.769043,4277.436035,,,,,,,,,,,,,,,,,,,,,,,,,,,,,,,,,,,,,,,,,,,,,,,,,,,,,,,,,,,,,,,,,,,,,,
1720086394,109,0,4281.153809,4273.846191,4254.102539,4335,4297.820313,4368.205078,4303.717773,4261.922852,4290,4293.461426,4317.94873,4485,4210,4270.384766,,,,,,,,,,,,,,,,,,,,,,,,,,,,,,,,,,,,,,,,,,,,,,,,,,,,,,,,,,,,,,,,,,,,,,
1720086394,110,0,4283.846191,4272.820313,4254.102539,4335.769043,4308.461426,4374.615234,4301.666504,4262.05127,4281.666504,4272.820313,4325.512695,4487.307617,4218.077148,4266.153809,,,,,,,,,,,,,,,,,,,,,,,,,,,,,,,,,,,,,,,,,,,,,,,,,,,,,,,,,,,,,,,,,,,,,,
1720086394,111,0,4295.897461,4278.717773,4264.358887,4346.666504,4322.179688,4383.717773,4314.487305,4273.077148,4294.102539,4299.871582,4344.358887,4491.922852,4233.974121,4279.230957,,,,,,,,,,,,,,,,,,,,,,,,,,,,,,,,,,,,,,,,,,,,,,,,,,,,,,,,,,,,,,,,,,,,,,
1720086394,112,0,4303.077148,4282.563965,4275.384766,4353.333496,4325.512695,4387.692383,4323.846191,4282.179688,4308.717773,4335.256348,4351.538574,4496.538574,4231.666504,4292.05127,,,,,,,,,,,,,,,,,,,,,,,,,,,,,,,,,,,,,,,,,,,,,,,,,,,,,,,,,,,,,,,,,,,,,,
1720086394,113,0,4303.589844,4280.769043,4272.820313,4351.025879,4322.307617,4385.128418,4318.589844,4283.205078,4307.563965,4329.615234,4351.153809,4490.384766,4215.256348,4290.256348,,,,,,,,,,,,,,,,,,,,,,,,,,,,,,,,,,,,,,,,,,,,,,,,,,,,,,,,,,,,,,,,,,,,,,
1720086394,114,0,4306.794922,4281.410156,4273.333496,4350.641113,4324.487305,4386.025879,4320.897461,4291.153809,4312.94873,4325.641113,4359.230957,4493.077148,4216.025879,4289.487305,,,,,,,,,,,,,,,,,,,,,,,,,,,,,,,,,,,,,,,,,,,,,,,,,,,,,,,,,,,,,,,,,,,,,,
1720086394,115,0,4302.05127,4278.974121,4273.589844,4347.307617,4325.641113,4386.025879,4326.410156,4296.922852,4312.820313,4338.205078,4359.487305,4496.410156,4219.487305,4285.256348,13.068772,2.362594,0.702462,0.263762,0.137911,6.990222,0.765036,0.473414,0.270276,0.169079,3.34415,1.35397,0.486125,0.289617,0.118791,3.036953,1.128397,0.337985,0.154627,0.113223,0.860142,0.189056,0.251255,0.20805,0.09855,0.876018,0.402173,0.338664,0.173407,0.061648,1.134099,0.721462,0.29875,0.223423,0.101132,0.966828,0.658023,0.310648,0.25824,0.182213,1.018929,0.409967,0.194246,0.267331,0.190995,2.037338,0.771013,1.089456,0.597887,0.361859,3.559669,1.921497,1.130458,0.591222,0.414973,0.36314,0.240487,0.111068,0.146062,0.275412,7.621308,3.332767,1.427902,0.913572,0.345882,10.275208,1.350636,0.745593,0.456605,0.248146
1720086394,116,0,4289.487305,4272.692383,4266.538574,4339.102539,4323.077148,4380,4325.128418,4291.666504,4300.512695,4329.743652,4350.256348,4491.794922,4210.512695,4277.179688,,,,,,,,,,,,,,,,,,,,,,,,,,,,,,,,,,,,,,,,,,,,,,,,,,,,,,,,,,,,,,,,,,,,,,
1720086394,117,0,4290,4281.794922,4270.256348,4342.563965,4323.846191,4376.025879,4329.743652,4293.589844,4305.512695,4317.692383,4355.897461,4495.128418,4211.922852,4283.077148,,,,,,,,,,,,,,,,,,,,,,,,,,,,,,,,,,,,,,,,,,,,,,,,,,,,,,,,,,,,,,,,,,,,,,
1720086394,118,0,4300.769043,4293.205078,4279.230957,4352.436035,4325.769043,4373.846191,4336.538574,4296.666504,4315.512695,4330.384766,4365.769043,4495.769043,4224.487305,4294.615234,,,,,,,,,,,,,,,,,,,,,,,,,,,,,,,,,,,,,,,,,,,,,,,,,,,,,,,,,,,,,,,,,,,,,,
1720086394,119,0,4300.512695,4285.128418,4275.128418,4349.102539,4325.384766,4369.615234,4329.102539,4283.974121,4308.589844,4335.897461,4363.846191,4482.307617,4226.410156,4298.717773,,,,,,,,,,,,,,,,,,,,,,,,,,,,,,,,,,,,,,,,,,,,,,,,,,,,,,,,,,,,,,,,,,,,,,
1720086394,120,0,4297.692383,4276.282227,4273.974121,4344.102539,4325.641113,4373.205078,4317.05127,4275.128418,4309.871582,4326.794922,4363.333496,4490.384766,4222.436035,4309.487305,,,,,,,,,,,,,,,,,,,,,,,,,,,,,,,,,,,,,,,,,,,,,,,,,,,,,,,,,,,,,,,,,,,,,,
1720086394,121,0,4298.205078,4279.615234,4280.256348,4348.205078,4326.922852,4374.487305,4313.205078,4277.820313,4317.05127,4324.102539,4365.128418,4494.102539,4226.922852,4317.436035,,,,,,,,,,,,,,,,,,,,,,,,,,,,,,,,,,,,,,,,,,,,,,,,,,,,,,,,,,,,,,,,,,,,,,
1720086394,122,0,4297.307617,4280.512695,4279.871582,4349.487305,4326.025879,4367.05127,4311.666504,4278.589844,4313.846191,4328.974121,4359.615234,4477.692383,4243.077148,4310.128418,,,,,,,,,,,,,,,,,,,,,,,,,,,,,,,,,,,,,,,,,,,,,,,,,,,,,,,,,,,,,,,,,,,,,,
1720086394,123,0,4296.025879,4277.692383,4279.743652,4344.102539,4323.974121,4365.641113,4312.05127,4276.922852,4310.512695,4326.794922,4358.974121,4483.205078,4262.307617,4308.974121,,,,,,,,,,,,,,,,,,,,,,,,,,,,,,,,,,,,,,,,,,,,,,,,,,,,,,,,,,,,,,,,,,,,,,
1720086394,124,0,4290.128418,4277.307617,4278.974121,4340.256348,4322.05127,4362.820313,4318.077148,4278.846191,4311.153809,4322.563965,4368.717773,4487.563965,4269.615234,4307.563965,,,,,,,,,,,,,,,,,,,,,,,,,,,,,,,,,,,,,,,,,,,,,,,,,,,,,,,,,,,,,,,,,,,,,,
1720086394,125,0,4287.05127,4276.666504,4277.94873,4340.897461,4321.410156,4351.666504,4320.256348,4283.846191,4319.230957,4328.461426,4370.641113,4480.769043,4265.512695,4299.871582,,,,,,,,,,,,,,,,,,,,,,,,,,,,,,,,,,,,,,,,,,,,,,,,,,,,,,,,,,,,,,,,,,,,,,
1720086394,126,0,4291.025879,4278.077148,4282.179688,4343.205078,4324.487305,4346.153809,4312.563965,4283.333496,4325.641113,4330.769043,4363.589844,4481.410156,4262.436035,4296.153809,,,,,,,,,,,,,,,,,,,,,,,,,,,,,,,,,,,,,,,,,,,,,,,,,,,,,,,,,,,,,,,,,,,,,,
1720086394,127,0,4292.94873,4280.641113,4280.769043,4342.179688,4324.487305,4348.333496,4308.205078,4280.512695,4321.153809,4326.794922,4364.230957,4478.717773,4265.897461,4292.563965,,,,,,,,,,,,,,,,,,,,,,,,,,,,,,,,,,,,,,,,,,,,,,,,,,,,,,,,,,,,,,,,,,,,,,
1720086394,0,0,4293.717773,4281.666504,4276.666504,4337.307617,4316.025879,4347.436035,4308.589844,4282.820313,4324.230957,4325.641113,4369.230957,4478.589844,4272.436035,4296.153809,,,,,,,,,,,,,,,,,,,,,,,,,,,,,,,,,,,,,,,,,,,,,,,,,,,,,,,,,,,,,,,,,,,,,,
1720086394,1,0,4292.179688,4280.512695,4276.025879,4331.922852,4311.538574,4345.128418,4298.077148,4276.410156,4329.743652,4320.641113,4362.05127,4478.333496,4269.743652,4297.94873,,,,,,,,,,,,,,,,,,,,,,,,,,,,,,,,,,,,,,,,,,,,,,,,,,,,,,,,,,,,,,,,,,,,,,
1720086394,2,0,4286.410156,4277.436035,4271.153809,4330.384766,4320.897461,4347.563965,4293.205078,4260.128418,4318.077148,4307.563965,4349.743652,4465.256348,4262.179688,4289.102539,,,,,,,,,,,,,,,,,,,,,,,,,,,,,,,,,,,,,,,,,,,,,,,,,,,,,,,,,,,,,,,,,,,,,,
1720086394,3,0,4289.358887,4282.563965,4273.205078,4335.384766,4329.230957,4353.333496,4306.410156,4262.820313,4317.307617,4312.179688,4357.307617,4467.05127,4269.487305,4293.333496,11.250212,2.106961,0.665957,0.256211,0.130686,6.216293,0.814764,0.529014,0.248787,0.167895,3.814682,1.4545,0.628945,0.337748,0.118952,2.848788,1.188422,0.34624,0.154004,0.123964,1.265354,0.261899,0.308465,0.220782,0.100566,1.002039,0.435424,0.415408,0.185827,0.063439,0.981743,0.586872,0.319991,0.268009,0.105509,1.169816,0.523621,0.312676,0.30103,0.188585,1.451895,0.459128,0.244665,0.265177,0.188828,2.666011,0.822025,1.38821,0.632471,0.386169,2.769173,1.530592,0.946147,0.634871,0.39306,0.384256,0.229671,0.132527,0.155309,0.280173,8.373555,3.379832,1.322474,1.028591,0.3707,7.777422,1.328013,0.676321,0.498031,0.242928
1720086394,4,0,4298.974121,4289.743652,4286.025879,4344.487305,4326.794922,4357.05127,4314.615234,4280,4336.538574,4330.769043,4375.256348,4482.692383,4279.871582,4307.563965,,,,,,,,,,,,,,,,,,,,,,,,,,,,,,,,,,,,,,,,,,,,,,,,,,,,,,,,,,,,,,,,,,,,,,
1720086394,5,0,4295,4284.102539,4282.436035,4341.794922,4325,4356.922852,4310.512695,4280.641113,4338.974121,4331.410156,4373.846191,4474.871582,4277.179688,4302.94873,,,,,,,,,,,,,,,,,,,,,,,,,,,,,,,,,,,,,,,,,,,,,,,,,,,,,,,,,,,,,,,,,,,,,,
1720086394,6,0,4285.512695,4276.025879,4268.333496,4328.077148,4325.256348,4360,4307.820313,4273.974121,4328.846191,4318.589844,4359.102539,4471.794922,4271.025879,4298.589844,,,,,,,,,,,,,,,,,,,,,,,,,,,,,,,,,,,,,,,,,,,,,,,,,,,,,,,,,,,,,,,,,,,,,,
1720086394,7,0,4283.461426,4276.666504,4267.692383,4323.974121,4321.794922,4359.615234,4310.384766,4282.179688,4330.512695,4319.743652,4357.307617,4477.179688,4271.666504,4306.282227,,,,,,,,,,,,,,,,,,,,,,,,,,,,,,,,,,,,,,,,,,,,,,,,,,,,,,,,,,,,,,,,,,,,,,
1720086394,8,0,4287.94873,4278.846191,4276.153809,4328.461426,4319.358887,4354.230957,4315.128418,4294.358887,4344.230957,4327.05127,4371.538574,4474.615234,4277.307617,4312.820313,,,,,,,,,,,,,,,,,,,,,,,,,,,,,,,,,,,,,,,,,,,,,,,,,,,,,,,,,,,,,,,,,,,,,,
1720086394,9,0,4290.897461,4276.794922,4281.794922,4328.974121,4315.128418,4352.692383,4316.794922,4293.333496,4347.94873,4319.102539,4378.846191,4478.205078,4282.179688,4317.94873,,,,,,,,,,,,,,,,,,,,,,,,,,,,,,,,,,,,,,,,,,,,,,,,,,,,,,,,,,,,,,,,,,,,,,
1720086394,10,0,4279.871582,4273.205078,4275.256348,4322.179688,4307.94873,4350.128418,4308.205078,4277.692383,4330.769043,4316.666504,4369.230957,4470.128418,4282.307617,4310.897461,,,,,,,,,,,,,,,,,,,,,,,,,,,,,,,,,,,,,,,,,,,,,,,,,,,,,,,,,,,,,,,,,,,,,,
1720086394,11,0,4272.436035,4271.538574,4267.05127,4317.307617,4308.077148,4345.384766,4295.897461,4264.743652,4323.974121,4326.153809,4361.794922,4461.538574,4286.282227,4304.487305,,,,,,,,,,,,,,,,,,,,,,,,,,,,,,,,,,,,,,,,,,,,,,,,,,,,,,,,,,,,,,,,,,,,,,
1720086394,12,0,4282.307617,4278.589844,4268.717773,4321.410156,4316.282227,4345,4294.615234,4264.358887,4332.179688,4328.333496,4367.563965,4463.846191,4296.153809,4320.897461,,,,,,,,,,,,,,,,,,,,,,,,,,,,,,,,,,,,,,,,,,,,,,,,,,,,,,,,,,,,,,,,,,,,,,
1720086394,13,0,4286.794922,4285.897461,4275.512695,4324.871582,4320.769043,4346.410156,4302.436035,4263.333496,4328.589844,4320.512695,4370.256348,4466.025879,4295.384766,4342.94873,,,,,,,,,,,,,,,,,,,,,,,,,,,,,,,,,,,,,,,,,,,,,,,,,,,,,,,,,,,,,,,,,,,,,,
1720086394,14,0,4285.512695,4283.846191,4279.743652,4322.563965,4321.794922,4348.589844,4307.563965,4261.410156,4322.05127,4316.666504,4362.307617,4470.256348,4293.461426,4352.307617,,,,,,,,,,,,,,,,,,,,,,,,,,,,,,,,,,,,,,,,,,,,,,,,,,,,,,,,,,,,,,,,,,,,,,
1720086394,15,0,4293.974121,4280.641113,4282.692383,4321.153809,4323.205078,4351.410156,4310.384766,4268.589844,4323.846191,4312.820313,4359.871582,4472.307617,4303.717773,4355.256348,,,,,,,,,,,,,,,,,,,,,,,,,,,,,,,,,,,,,,,,,,,,,,,,,,,,,,,,,,,,,,,,,,,,,,
1720086394,16,0,4297.179688,4280,4285.641113,4318.974121,4320.384766,4350.641113,4313.333496,4278.461426,4327.820313,4308.333496,4363.846191,4471.922852,4307.179688,4357.820313,,,,,,,,,,,,,,,,,,,,,,,,,,,,,,,,,,,,,,,,,,,,,,,,,,,,,,,,,,,,,,,,,,,,,,
1720086394,17,0,4288.589844,4278.205078,4286.538574,4312.436035,4311.794922,4347.563965,4312.05127,4280.384766,4332.179688,4312.692383,4360.769043,4475.769043,4297.692383,4353.846191,,,,,,,,,,,,,,,,,,,,,,,,,,,,,,,,,,,,,,,,,,,,,,,,,,,,,,,,,,,,,,,,,,,,,,
1720086394,18,0,4288.205078,4276.538574,4285.128418,4312.05127,4307.563965,4346.153809,4308.205078,4277.692383,4331.153809,4313.717773,4358.205078,4477.179688,4293.077148,4343.077148,,,,,,,,,,,,,,,,,,,,,,,,,,,,,,,,,,,,,,,,,,,,,,,,,,,,,,,,,,,,,,,,,,,,,,
1720086394,19,0,4292.820313,4280,4283.846191,4318.717773,4321.666504,4347.307617,4309.358887,4279.487305,4326.922852,4314.487305,4362.307617,4465.769043,4295.256348,4332.94873,8.583735,1.716285,0.593591,0.259088,0.127236,5.190365,0.865624,0.581017,0.231899,0.170717,4.842561,1.634739,0.896396,0.420089,0.136948,2.649138,1.176186,0.352894,0.16277,0.137728,1.837596,0.370453,0.389916,0.227855,0.10037,1.121143,0.539671,0.480611,0.195318,0.065841,0.942902,0.472013,0.350766,0.318022,0.109891,1.429191,0.421649,0.311907,0.34009,0.190649,1.934263,0.533505,0.296494,0.259074,0.185372,3.241386,0.945309,1.629577,0.650936,0.409572,2.403257,1.294324,0.812244,0.651435,0.361199,0.448962,0.220584,0.156604,0.157526,0.283723,8.471488,3.193234,1.186704,1.049874,0.385437,5.389943,1.278875,0.605646,0.522181,0.237525
1720086394,20,0,4296.153809,4287.692383,4290.256348,4322.179688,4338.589844,4352.94873,4311.410156,4282.563965,4332.692383,4324.871582,4369.487305,4474.102539,4299.871582,4338.205078,,,,,,,,,,,,,,,,,,,,,,,,,,,,,,,,,,,,,,,,,,,,,,,,,,,,,,,,,,,,,,,,,,,,,,
1720086394,21,0,4297.307617,4292.05127,4295,4324.615234,4337.94873,4354.102539,4310.512695,4281.922852,4335,4329.487305,4376.025879,4488.077148,4304.743652,4346.666504,,,,,,,,,,,,,,,,,,,,,,,,,,,,,,,,,,,,,,,,,,,,,,,,,,,,,,,,,,,,,,,,,,,,,,
1720086394,22,0,4292.692383,4292.436035,4288.846191,4327.820313,4333.205078,4348.333496,4314.358887,4278.974121,4330.384766,4316.282227,4375.641113,4475.384766,4301.666504,4338.846191,,,,,,,,,,,,,,,,,,,,,,,,,,,,,,,,,,,,,,,,,,,,,,,,,,,,,,,,,,,,,,,,,,,,,,
1720086394,23,0,4292.692383,4293.974121,4290,4327.563965,4339.230957,4345.512695,4321.666504,4282.563965,4339.487305,4309.871582,4369.871582,4476.538574,4294.230957,4337.436035,,,,,,,,,,,,,,,,,,,,,,,,,,,,,,,,,,,,,,,,,,,,,,,,,,,,,,,,,,,,,,,,,,,,,,
1720086394,24,0,4294.615234,4291.666504,4295.512695,4326.282227,4342.692383,4347.307617,4325.256348,4289.230957,4345.769043,4322.94873,4368.974121,4482.563965,4291.922852,4346.025879,,,,,,,,,,,,,,,,,,,,,,,,,,,,,,,,,,,,,,,,,,,,,,,,,,,,,,,,,,,,,,,,,,,,,,
1720086394,25,0,4291.153809,4288.589844,4292.692383,4327.179688,4339.743652,4350.384766,4326.282227,4292.307617,4338.205078,4328.205078,4373.589844,4479.358887,4290.641113,4348.589844,,,,,,,,,,,,,,,,,,,,,,,,,,,,,,,,,,,,,,,,,,,,,,,,,,,,,,,,,,,,,,,,,,,,,,
1720086394,26,0,4290.512695,4291.538574,4295.256348,4328.461426,4340.384766,4351.538574,4328.974121,4296.410156,4335.384766,4326.282227,4379.871582,4485.897461,4294.358887,4354.102539,,,,,,,,,,,,,,,,,,,,,,,,,,,,,,,,,,,,,,,,,,,,,,,,,,,,,,,,,,,,,,,,,,,,,,
1720086394,27,0,4289.871582,4287.692383,4300,4325.384766,4337.563965,4347.307617,4330.256348,4297.436035,4331.794922,4325.512695,4381.282227,4484.487305,4294.230957,4355.512695,,,,,,,,,,,,,,,,,,,,,,,,,,,,,,,,,,,,,,,,,,,,,,,,,,,,,,,,,,,,,,,,,,,,,,
1720086394,28,0,4285.256348,4283.077148,4295.769043,4322.307617,4338.717773,4347.307617,4326.922852,4294.871582,4324.871582,4317.05127,4378.333496,4478.205078,4282.179688,4350.256348,,,,,,,,,,,,,,,,,,,,,,,,,,,,,,,,,,,,,,,,,,,,,,,,,,,,,,,,,,,,,,,,,,,,,,
1720086394,29,0,4287.436035,4295,4300.769043,4326.153809,4348.846191,4350.512695,4326.666504,4294.615234,4325,4313.589844,4378.717773,4485.769043,4276.538574,4356.282227,,,,,,,,,,,,,,,,,,,,,,,,,,,,,,,,,,,,,,,,,,,,,,,,,,,,,,,,,,,,,,,,,,,,,,
1720086394,30,0,4287.820313,4296.410156,4310.769043,4330.384766,4351.922852,4346.410156,4332.179688,4296.025879,4324.230957,4322.94873,4375.897461,4485.769043,4278.589844,4359.230957,,,,,,,,,,,,,,,,,,,,,,,,,,,,,,,,,,,,,,,,,,,,,,,,,,,,,,,,,,,,,,,,,,,,,,
1720086394,31,0,4280.256348,4280.128418,4310.641113,4325.384766,4350.769043,4347.563965,4336.666504,4298.717773,4320,4322.692383,4373.717773,4482.692383,4279.871582,4352.436035,,,,,,,,,,,,,,,,,,,,,,,,,,,,,,,,,,,,,,,,,,,,,,,,,,,,,,,,,,,,,,,,,,,,,,
1720086394,32,0,4281.153809,4281.410156,4310.384766,4314.871582,4357.94873,4352.692383,4337.563965,4302.436035,4321.410156,4317.563965,4379.615234,4492.94873,4282.563965,4352.05127,,,,,,,,,,,,,,,,,,,,,,,,,,,,,,,,,,,,,,,,,,,,,,,,,,,,,,,,,,,,,,,,,,,,,,
1720086394,33,0,4288.077148,4295.256348,4311.666504,4312.05127,4357.563965,4345.512695,4336.666504,4299.102539,4320.128418,4320.641113,4380.512695,4483.461426,4288.205078,4347.563965,,,,,,,,,,,,,,,,,,,,,,,,,,,,,,,,,,,,,,,,,,,,,,,,,,,,,,,,,,,,,,,,,,,,,,
1720086394,34,0,4288.717773,4290.897461,4309.871582,4310.512695,4343.974121,4337.179688,4332.436035,4294.230957,4318.077148,4312.436035,4377.179688,4478.589844,4288.589844,4345.256348,,,,,,,,,,,,,,,,,,,,,,,,,,,,,,,,,,,,,,,,,,,,,,,,,,,,,,,,,,,,,,,,,,,,,,
1720086394,35,0,4285,4279.230957,4307.563965,4300.384766,4342.820313,4333.717773,4326.410156,4296.538574,4317.563965,4303.589844,4380.641113,4490.641113,4283.461426,4353.333496,5.917735,1.313619,0.517926,0.265996,0.12739,4.157167,0.876563,0.610859,0.219664,0.171908,6.713854,1.939207,1.294035,0.543327,0.17513,2.433421,1.088977,0.352244,0.17446,0.150336,2.442221,0.486941,0.473659,0.225576,0.097959,1.25408,0.708335,0.517463,0.201435,0.067453,1.073712,0.408914,0.377485,0.354954,0.114182,1.77742,0.36877,0.306387,0.355952,0.186526,2.320362,0.615324,0.338954,0.255817,0.181688,3.646127,1.135742,1.725696,0.663102,0.435052,2.503193,1.212478,0.736859,0.627869,0.324617,0.57945,0.22219,0.174305,0.151564,0.282696,7.92192,2.802837,1.04172,0.978676,0.38599,3.925806,1.226298,0.580262,0.535339,0.231825
1720086394,36,0,4283.846191,4278.717773,4307.179688,4295.897461,4351.282227,4330.641113,4325.512695,4297.307617,4317.179688,4316.282227,4382.05127,4485.897461,4281.922852,4355.128418,,,,,,,,,,,,,,,,,,,,,,,,,,,,,,,,,,,,,,,,,,,,,,,,,,,,,,,,,,,,,,,,,,,,,,
1720086394,37,0,4281.922852,4281.922852,4309.358887,4300.512695,4347.307617,4330.512695,4325.769043,4294.615234,4320.769043,4322.179688,4376.922852,4485,4283.589844,4352.692383,,,,,,,,,,,,,,,,,,,,,,,,,,,,,,,,,,,,,,,,,,,,,,,,,,,,,,,,,,,,,,,,,,,,,,
1720086394,38,0,4277.94873,4280.384766,4307.179688,4298.461426,4341.025879,4327.436035,4323.846191,4291.666504,4314.230957,4310.512695,4373.077148,4485.769043,4281.410156,4346.666504,,,,,,,,,,,,,,,,,,,,,,,,,,,,,,,,,,,,,,,,,,,,,,,,,,,,,,,,,,,,,,,,,,,,,,
1720086394,39,0,4277.94873,4276.282227,4301.410156,4288.974121,4345.384766,4321.282227,4322.820313,4291.410156,4302.820313,4304.487305,4368.077148,4484.102539,4273.846191,4343.205078,,,,,,,,,,,,,,,,,,,,,,,,,,,,,,,,,,,,,,,,,,,,,,,,,,,,,,,,,,,,,,,,,,,,,,
1720086394,40,0,4281.282227,4276.282227,4305,4291.922852,4352.05127,4323.077148,4324.230957,4294.615234,4306.794922,4308.589844,4367.436035,4489.487305,4272.563965,4352.94873,,,,,,,,,,,,,,,,,,,,,,,,,,,,,,,,,,,,,,,,,,,,,,,,,,,,,,,,,,,,,,,,,,,,,,
1720086394,41,0,4294.743652,4287.05127,4317.692383,4304.743652,4356.666504,4328.077148,4333.077148,4303.589844,4317.692383,4315.384766,4376.410156,4495,4282.692383,4362.563965,,,,,,,,,,,,,,,,,,,,,,,,,,,,,,,,,,,,,,,,,,,,,,,,,,,,,,,,,,,,,,,,,,,,,,
1720086394,42,0,4317.820313,4300,4327.692383,4311.794922,4364.487305,4327.179688,4345.256348,4314.743652,4321.410156,4317.179688,4388.333496,4503.974121,4291.922852,4370.384766,,,,,,,,,,,,,,,,,,,,,,,,,,,,,,,,,,,,,,,,,,,,,,,,,,,,,,,,,,,,,,,,,,,,,,
1720086394,43,0,4334.102539,4308.846191,4336.794922,4317.436035,4370,4325.384766,4351.025879,4322.820313,4321.922852,4317.94873,4398.717773,4512.94873,4296.282227,4385.769043,,,,,,,,,,,,,,,,,,,,,,,,,,,,,,,,,,,,,,,,,,,,,,,,,,,,,,,,,,,,,,,,,,,,,,
1720086394,44,0,4339.102539,4315.769043,4343.846191,4326.922852,4370.256348,4322.94873,4350.128418,4322.179688,4320.769043,4325,4403.077148,4508.461426,4298.717773,4395,,,,,,,,,,,,,,,,,,,,,,,,,,,,,,,,,,,,,,,,,,,,,,,,,,,,,,,,,,,,,,,,,,,,,,
1720086394,45,0,4340.897461,4321.025879,4346.153809,4330.256348,4374.743652,4319.743652,4347.563965,4314.102539,4318.846191,4328.717773,4395.897461,4501.538574,4297.436035,4391.922852,,,,,,,,,,,,,,,,,,,,,,,,,,,,,,,,,,,,,,,,,,,,,,,,,,,,,,,,,,,,,,,,,,,,,,
1720086394,46,0,4346.282227,4324.615234,4349.230957,4330.384766,4381.538574,4320.384766,4350.641113,4316.666504,4323.205078,4322.307617,4390.384766,4512.94873,4296.153809,4398.846191,,,,,,,,,,,,,,,,,,,,,,,,,,,,,,,,,,,,,,,,,,,,,,,,,,,,,,,,,,,,,,,,,,,,,,
1720086394,47,0,4350.641113,4326.666504,4347.94873,4335.641113,4381.666504,4323.974121,4357.94873,4325.641113,4323.077148,4320.256348,4397.94873,4512.05127,4303.461426,4406.538574,,,,,,,,,,,,,,,,,,,,,,,,,,,,,,,,,,,,,,,,,,,,,,,,,,,,,,,,,,,,,,,,,,,,,,
1720086394,48,0,4350,4325.512695,4347.820313,4337.692383,4380.256348,4327.179688,4359.487305,4329.615234,4315.384766,4322.436035,4405.256348,4508.974121,4307.692383,4404.871582,,,,,,,,,,,,,,,,,,,,,,,,,,,,,,,,,,,,,,,,,,,,,,,,,,,,,,,,,,,,,,,,,,,,,,
1720086394,49,0,4347.436035,4324.230957,4355.384766,4331.922852,4380.769043,4322.179688,4356.153809,4330.384766,4309.102539,4319.230957,4401.922852,4518.974121,4302.692383,4404.358887,,,,,,,,,,,,,,,,,,,,,,,,,,,,,,,,,,,,,,,,,,,,,,,,,,,,,,,,,,,,,,,,,,,,,,
1720086394,50,0,4348.077148,4327.05127,4356.538574,4328.717773,4378.589844,4314.871582,4359.358887,4331.282227,4306.666504,4318.461426,4396.025879,4512.05127,4308.333496,4398.974121,,,,,,,,,,,,,,,,,,,,,,,,,,,,,,,,,,,,,,,,,,,,,,,,,,,,,,,,,,,,,,,,,,,,,,
1720086394,51,0,4349.615234,4326.922852,4356.410156,4330.128418,4377.05127,4317.436035,4366.153809,4337.692383,4311.922852,4320.512695,4396.282227,4512.820313,4330.256348,4399.615234,3.822458,0.990178,0.459836,0.270319,0.131133,3.264734,0.832752,0.601868,0.211015,0.167926,8.726668,2.343403,1.749611,0.692606,0.227474,2.188645,0.959825,0.345951,0.18383,0.157919,2.835809,0.57923,0.546453,0.21779,0.094053,1.421641,0.915292,0.523483,0.203044,0.066926,1.273046,0.401432,0.410922,0.368705,0.118184,2.058311,0.376916,0.328104,0.338297,0.177668,2.527739,0.680201,0.362572,0.257602,0.180217,3.787102,1.355169,1.644991,0.680964,0.464541,2.747441,1.238506,0.698199,0.5689,0.291681,0.716694,0.236991,0.17942,0.138877,0.27551,6.818313,2.325284,0.908756,0.846676,0.374773,3.257455,1.193078,0.62368,0.548398,0.227535
1720086394,52,0,4346.794922,4325.897461,4363.974121,4332.179688,4380.512695,4320.641113,4370.128418,4338.333496,4317.820313,4320.897461,4398.589844,4524.743652,4344.871582,4407.179688,,,,,,,,,,,,,,,,,,,,,,,,,,,,,,,,,,,,,,,,,,,,,,,,,,,,,,,,,,,,,,,,,,,,,,
1720086394,53,0,4347.820313,4333.205078,4369.358887,4335,4382.820313,4313.205078,4370.384766,4332.179688,4316.794922,4318.589844,4395.128418,4520.512695,4343.205078,4403.589844,,,,,,,,,,,,,,,,,,,,,,,,,,,,,,,,,,,,,,,,,,,,,,,,,,,,,,,,,,,,,,,,,,,,,,
1720086394,54,0,4356.922852,4341.538574,4373.846191,4341.153809,4383.846191,4306.794922,4368.846191,4329.871582,4313.974121,4314.358887,4387.563965,4518.974121,4340.512695,4400.384766,,,,,,,,,,,,,,,,,,,,,,,,,,,,,,,,,,,,,,,,,,,,,,,,,,,,,,,,,,,,,,,,,,,,,,
1720086394,55,0,4361.794922,4340.641113,4379.615234,4343.461426,4387.820313,4307.307617,4369.871582,4333.589844,4308.974121,4310.769043,4382.820313,4524.358887,4340,4399.743652,,,,,,,,,,,,,,,,,,,,,,,,,,,,,,,,,,,,,,,,,,,,,,,,,,,,,,,,,,,,,,,,,,,,,,
1720086394,56,0,4362.05127,4342.563965,4382.307617,4341.922852,4390.256348,4308.205078,4373.333496,4336.282227,4304.871582,4307.307617,4388.077148,4525.641113,4338.717773,4396.282227,,,,,,,,,,,,,,,,,,,,,,,,,,,,,,,,,,,,,,,,,,,,,,,,,,,,,,,,,,,,,,,,,,,,,,
1720086394,57,0,4369.102539,4348.846191,4386.538574,4347.05127,4389.102539,4305.384766,4379.230957,4339.871582,4310.128418,4308.333496,4399.615234,4538.205078,4341.794922,4403.846191,,,,,,,,,,,,,,,,,,,,,,,,,,,,,,,,,,,,,,,,,,,,,,,,,,,,,,,,,,,,,,,,,,,,,,
1720086394,58,0,4377.94873,4347.05127,4389.358887,4353.077148,4388.846191,4301.025879,4380.641113,4341.538574,4311.538574,4312.94873,4403.717773,4541.666504,4346.410156,4412.05127,,,,,,,,,,,,,,,,,,,,,,,,,,,,,,,,,,,,,,,,,,,,,,,,,,,,,,,,,,,,,,,,,,,,,,
1720086394,59,0,4381.538574,4345.256348,4388.205078,4351.538574,4390.641113,4299.871582,4375.769043,4339.230957,4305.512695,4313.589844,4400.897461,4527.820313,4347.94873,4412.692383,,,,,,,,,,,,,,,,,,,,,,,,,,,,,,,,,,,,,,,,,,,,,,,,,,,,,,,,,,,,,,,,,,,,,,
1720086394,60,0,4386.794922,4348.846191,4395.641113,4353.846191,4392.307617,4300.128418,4375.897461,4340.128418,4308.846191,4307.563965,4402.94873,4540.769043,4348.077148,4422.436035,,,,,,,,,,,,,,,,,,,,,,,,,,,,,,,,,,,,,,,,,,,,,,,,,,,,,,,,,,,,,,,,,,,,,,
1720086394,61,0,4388.205078,4349.615234,4401.538574,4355.769043,4396.922852,4298.846191,4379.615234,4335.384766,4309.615234,4302.307617,4403.077148,4545.512695,4346.666504,4423.077148,,,,,,,,,,,,,,,,,,,,,,,,,,,,,,,,,,,,,,,,,,,,,,,,,,,,,,,,,,,,,,,,,,,,,,
1720086394,62,0,4388.717773,4352.179688,4401.666504,4351.794922,4406.922852,4300,4379.230957,4330.256348,4303.974121,4300.256348,4397.820313,4534.230957,4345.384766,4417.179688,,,,,,,,,,,,,,,,,,,,,,,,,,,,,,,,,,,,,,,,,,,,,,,,,,,,,,,,,,,,,,,,,,,,,,
1720086394,63,0,4394.743652,4357.94873,4407.307617,4354.615234,4414.871582,4302.94873,4383.846191,4338.974121,4305.512695,4298.461426,4392.94873,4545,4347.436035,4426.153809,,,,,,,,,,,,,,,,,,,,,,,,,,,,,,,,,,,,,,,,,,,,,,,,,,,,,,,,,,,,,,,,,,,,,,
1720086394,64,0,4393.077148,4357.307617,4412.94873,4359.102539,4415.512695,4304.615234,4391.666504,4343.974121,4306.282227,4296.794922,4389.230957,4552.563965,4350.256348,4432.94873,,,,,,,,,,,,,,,,,,,,,,,,,,,,,,,,,,,,,,,,,,,,,,,,,,,,,,,,,,,,,,,,,,,,,,
1720086394,65,0,4392.692383,4360.128418,4417.94873,4353.461426,4415.512695,4302.692383,4387.436035,4342.05127,4305.384766,4297.563965,4384.358887,4552.692383,4353.077148,4434.358887,,,,,,,,,,,,,,,,,,,,,,,,,,,,,,,,,,,,,,,,,,,,,,,,,,,,,,,,,,,,,,,,,,,,,,
1720086394,66,0,4405.641113,4373.589844,4420,4353.589844,4426.282227,4299.615234,4385.128418,4342.05127,4303.205078,4296.282227,4380.128418,4552.436035,4354.743652,4432.436035,,,,,,,,,,,,,,,,,,,,,,,,,,,,,,,,,,,,,,,,,,,,,,,,,,,,,,,,,,,,,,,,,,,,,,
1720086394,67,0,4408.717773,4378.974121,4418.589844,4361.666504,4428.974121,4302.179688,4388.846191,4341.922852,4303.205078,4291.794922,4378.717773,4551.025879,4352.692383,4425.384766,2.768802,0.781326,0.424528,0.26742,0.137915,2.751958,0.731681,0.544469,0.202983,0.159955,10.703922,2.730665,2.129601,0.831047,0.280248,2.091774,0.818127,0.336042,0.189181,0.158474,2.978957,0.620317,0.606551,0.212178,0.09029,1.618428,1.111932,0.505407,0.197869,0.06389,1.54704,0.431426,0.458002,0.358352,0.121305,2.302783,0.454362,0.411199,0.290856,0.167479,2.505675,0.710869,0.363609,0.260151,0.183594,3.653451,1.54231,1.413172,0.708025,0.494837,3.15945,1.29455,0.660512,0.492484,0.269418,0.882032,0.26071,0.171271,0.123347,0.263178,5.53548,1.881298,0.795612,0.699126,0.356567,3.448163,1.200374,0.729583,0.568264,0.226403
1720086394,68,0,4400.897461,4378.333496,4426.538574,4365.128418,4416.410156,4303.974121,4389.358887,4342.820313,4313.589844,4300.769043,4384.871582,4557.05127,4356.538574,4427.05127,,,,,,,,,,,,,,,,,,,,,,,,,,,,,,,,,,,,,,,,,,,,,,,,,,,,,,,,,,,,,,,,,,,,,,
1720086394,69,0,4410.384766,4383.846191,4441.025879,4370.256348,4417.05127,4295.256348,4391.922852,4345.128418,4318.846191,4311.538574,4394.102539,4563.077148,4365.256348,4431.538574,,,,,,,,,,,,,,,,,,,,,,,,,,,,,,,,,,,,,,,,,,,,,,,,,,,,,,,,,,,,,,,,,,,,,,
1720086394,70,0,4423.846191,4383.974121,4443.846191,4372.563965,4430.384766,4291.282227,4395.128418,4343.333496,4308.717773,4298.077148,4393.589844,4562.05127,4365.128418,4427.563965,,,,,,,,,,,,,,,,,,,,,,,,,,,,,,,,,,,,,,,,,,,,,,,,,,,,,,,,,,,,,,,,,,,,,,
1720086394,71,0,4416.538574,4376.410156,4439.871582,4364.102539,4430.897461,4296.794922,4394.871582,4341.410156,4302.436035,4286.410156,4387.692383,4566.410156,4361.410156,4427.179688,,,,,,,,,,,,,,,,,,,,,,,,,,,,,,,,,,,,,,,,,,,,,,,,,,,,,,,,,,,,,,,,,,,,,,
1720086394,72,0,4406.538574,4375.897461,4439.615234,4358.974121,4425.128418,4295.128418,4397.563965,4342.179688,4303.974121,4301.410156,4383.846191,4565.512695,4362.307617,4423.717773,,,,,,,,,,,,,,,,,,,,,,,,,,,,,,,,,,,,,,,,,,,,,,,,,,,,,,,,,,,,,,,,,,,,,,
1720086394,73,0,4406.922852,4378.974121,4437.179688,4363.589844,4426.538574,4287.05127,4399.743652,4342.307617,4299.487305,4304.358887,4383.333496,4555.641113,4362.820313,4406.666504,,,,,,,,,,,,,,,,,,,,,,,,,,,,,,,,,,,,,,,,,,,,,,,,,,,,,,,,,,,,,,,,,,,,,,
1720086394,74,0,4412.307617,4377.436035,4441.282227,4366.410156,4423.974121,4283.974121,4395.769043,4342.820313,4295.256348,4285.384766,4379.487305,4570.512695,4359.102539,4404.358887,,,,,,,,,,,,,,,,,,,,,,,,,,,,,,,,,,,,,,,,,,,,,,,,,,,,,,,,,,,,,,,,,,,,,,
1720086394,75,0,4415.512695,4379.358887,4450.384766,4366.922852,4417.307617,4283.205078,4394.358887,4341.410156,4294.102539,4284.230957,4365.769043,4574.102539,4352.94873,4412.307617,,,,,,,,,,,,,,,,,,,,,,,,,,,,,,,,,,,,,,,,,,,,,,,,,,,,,,,,,,,,,,,,,,,,,,
1720086394,76,0,4414.487305,4383.205078,4449.743652,4367.307617,4414.230957,4279.871582,4393.589844,4340.897461,4294.871582,4299.358887,4357.563965,4558.974121,4352.436035,4409.871582,,,,,,,,,,,,,,,,,,,,,,,,,,,,,,,,,,,,,,,,,,,,,,,,,,,,,,,,,,,,,,,,,,,,,,
1720086394,77,0,4411.666504,4381.025879,4444.358887,4367.179688,4411.538574,4278.461426,4393.974121,4345.769043,4299.743652,4296.538574,4363.974121,4569.102539,4360.128418,4410.512695,,,,,,,,,,,,,,,,,,,,,,,,,,,,,,,,,,,,,,,,,,,,,,,,,,,,,,,,,,,,,,,,,,,,,,
1720086394,78,0,4407.05127,4377.820313,4440.897461,4365.512695,4409.871582,4280.384766,4403.077148,4345.641113,4299.487305,4282.436035,4367.692383,4570.641113,4362.179688,4406.666504,,,,,,,,,,,,,,,,,,,,,,,,,,,,,,,,,,,,,,,,,,,,,,,,,,,,,,,,,,,,,,,,,,,,,,
1720086394,79,0,4407.94873,4380.384766,4443.589844,4361.794922,4410.512695,4277.820313,4401.282227,4340.641113,4299.102539,4280.384766,4358.461426,4563.077148,4356.538574,4395.256348,,,,,,,,,,,,,,,,,,,,,,,,,,,,,,,,,,,,,,,,,,,,,,,,,,,,,,,,,,,,,,,,,,,,,,
1720086394,80,0,4416.666504,4385.384766,4448.974121,4361.025879,4411.794922,4273.717773,4390,4336.794922,4301.282227,4282.179688,4357.692383,4571.025879,4360.897461,4393.461426,,,,,,,,,,,,,,,,,,,,,,,,,,,,,,,,,,,,,,,,,,,,,,,,,,,,,,,,,,,,,,,,,,,,,,
1720086394,81,0,4417.436035,4384.358887,4452.820313,4365.897461,4410.256348,4276.666504,4399.102539,4338.589844,4301.666504,4288.717773,4370,4574.487305,4374.230957,4395,,,,,,,,,,,,,,,,,,,,,,,,,,,,,,,,,,,,,,,,,,,,,,,,,,,,,,,,,,,,,,,,,,,,,,
1720086394,82,0,4413.717773,4386.025879,4456.025879,4373.461426,4416.153809,4280.384766,4416.538574,4347.307617,4306.282227,4295.769043,4375.256348,4576.794922,4377.94873,4391.922852,,,,,,,,,,,,,,,,,,,,,,,,,,,,,,,,,,,,,,,,,,,,,,,,,,,,,,,,,,,,,,,,,,,,,,
1720086394,83,0,4419.743652,4400.897461,4460.897461,4381.282227,4429.230957,4278.333496,4413.589844,4350,4312.05127,4288.333496,4373.333496,4582.94873,4376.666504,4387.307617,2.29944,0.692719,0.416116,0.256543,0.14624,2.366566,0.60772,0.458397,0.192659,0.153334,11.532366,2.972535,2.303194,0.91268,0.317171,2.073735,0.694248,0.324428,0.191316,0.153029,2.788354,0.612569,0.662213,0.214854,0.088531,1.804989,1.242184,0.472103,0.185328,0.059137,1.774089,0.468233,0.520633,0.33105,0.12278,2.431816,0.580122,0.568494,0.230772,0.159309,2.299502,0.703815,0.348588,0.258294,0.192723,3.323826,1.641381,1.10023,0.735092,0.517121,3.202518,1.325794,0.608337,0.423371,0.259602,0.977923,0.286489,0.15786,0.109585,0.247811,4.307116,1.568532,0.71566,0.574777,0.33409,4.002089,1.27085,0.867822,0.593593,0.227248
1720086394,84,0,4426.410156,4408.846191,4466.410156,4383.846191,4427.307617,4278.077148,4408.333496,4346.153809,4317.563965,4285.897461,4378.205078,4583.589844,4381.666504,4384.615234,,,,,,,,,,,,,,,,,,,,,,,,,,,,,,,,,,,,,,,,,,,,,,,,,,,,,,,,,,,,,,,,,,,,,,
1720086394,85,0,4423.205078,4398.333496,4467.05127,4380.897461,4411.025879,4279.487305,4413.205078,4347.307617,4323.077148,4301.794922,4385.384766,4584.615234,4384.102539,4385.512695,,,,,,,,,,,,,,,,,,,,,,,,,,,,,,,,,,,,,,,,,,,,,,,,,,,,,,,,,,,,,,,,,,,,,,
1720086394,86,0,4417.94873,4391.922852,4465.128418,4378.589844,4408.717773,4275.256348,4414.871582,4352.179688,4322.692383,4308.846191,4384.487305,4585.256348,4383.461426,4387.563965,,,,,,,,,,,,,,,,,,,,,,,,,,,,,,,,,,,,,,,,,,,,,,,,,,,,,,,,,,,,,,,,,,,,,,
1720086394,87,0,4417.05127,4396.153809,4469.615234,4378.717773,4415.769043,4272.94873,4418.589844,4355,4321.410156,4296.538574,4382.94873,4581.410156,4385.897461,4385.897461,,,,,,,,,,,,,,,,,,,,,,,,,,,,,,,,,,,,,,,,,,,,,,,,,,,,,,,,,,,,,,,,,,,,,,
1720086394,88,0,4418.846191,4398.461426,4481.666504,4383.717773,4409.871582,4274.230957,4426.153809,4353.717773,4325,4293.717773,4381.794922,4591.922852,4381.025879,4385.256348,,,,,,,,,,,,,,,,,,,,,,,,,,,,,,,,,,,,,,,,,,,,,,,,,,,,,,,,,,,,,,,,,,,,,,
1720086394,89,0,4422.94873,4405.641113,4486.794922,4395.256348,4411.794922,4277.692383,4427.563965,4346.794922,4320.641113,4294.871582,4376.794922,4591.538574,4378.205078,4383.717773,,,,,,,,,,,,,,,,,,,,,,,,,,,,,,,,,,,,,,,,,,,,,,,,,,,,,,,,,,,,,,,,,,,,,,
1720086394,90,0,4428.589844,4415.641113,4482.307617,4400.128418,4426.666504,4280.128418,4425,4338.205078,4313.717773,4282.820313,4375.769043,4578.717773,4380,4378.333496,,,,,,,,,,,,,,,,,,,,,,,,,,,,,,,,,,,,,,,,,,,,,,,,,,,,,,,,,,,,,,,,,,,,,,
1720086394,91,0,4429.230957,4415.512695,4481.922852,4401.282227,4428.589844,4273.589844,4421.538574,4333.974121,4321.282227,4277.05127,4379.102539,4586.410156,4364.615234,4377.307617,,,,,,,,,,,,,,,,,,,,,,,,,,,,,,,,,,,,,,,,,,,,,,,,,,,,,,,,,,,,,,,,,,,,,,
1720086394,92,0,4424.487305,4407.94873,4485.769043,4407.436035,4417.05127,4267.436035,4413.333496,4326.153809,4327.692383,4290.769043,4380.128418,4586.922852,4348.717773,4376.538574,,,,,,,,,,,,,,,,,,,,,,,,,,,,,,,,,,,,,,,,,,,,,,,,,,,,,,,,,,,,,,,,,,,,,,
1720086394,93,0,4422.307617,4398.461426,4488.846191,4408.205078,4412.94873,4273.205078,4414.487305,4322.692383,4332.692383,4307.179688,4381.922852,4586.538574,4357.179688,4381.282227,,,,,,,,,,,,,,,,,,,,,,,,,,,,,,,,,,,,,,,,,,,,,,,,,,,,,,,,,,,,,,,,,,,,,,
1720086394,94,0,4416.794922,4390.897461,4486.922852,4398.333496,4415.897461,4276.794922,4425.769043,4328.333496,4341.410156,4311.794922,4384.230957,4592.05127,4361.794922,4382.179688,,,,,,,,,,,,,,,,,,,,,,,,,,,,,,,,,,,,,,,,,,,,,,,,,,,,,,,,,,,,,,,,,,,,,,
1720086394,95,0,4407.307617,4388.077148,4482.436035,4396.282227,4416.538574,4273.846191,4429.102539,4327.563965,4344.487305,4306.410156,4381.153809,4584.743652,4353.205078,4369.615234,,,,,,,,,,,,,,,,,,,,,,,,,,,,,,,,,,,,,,,,,,,,,,,,,,,,,,,,,,,,,,,,,,,,,,
1720086394,96,0,4407.563965,4392.436035,4486.666504,4408.461426,4417.05127,4275.769043,4427.307617,4324.358887,4349.102539,4297.94873,4382.05127,4588.205078,4360.897461,4370.384766,,,,,,,,,,,,,,,,,,,,,,,,,,,,,,,,,,,,,,,,,,,,,,,,,,,,,,,,,,,,,,,,,,,,,,
1720086394,97,0,4409.358887,4396.410156,4487.94873,4415,4414.871582,4269.871582,4424.615234,4325.897461,4350.769043,4293.717773,4387.820313,4596.410156,4369.230957,4379.358887,,,,,,,,,,,,,,,,,,,,,,,,,,,,,,,,,,,,,,,,,,,,,,,,,,,,,,,,,,,,,,,,,,,,,,
1720086395,98,0,4403.717773,4394.487305,4487.179688,4411.538574,4410.641113,4259.102539,4420.641113,4327.307617,4346.794922,4293.461426,4387.820313,4591.282227,4362.820313,4374.102539,,,,,,,,,,,,,,,,,,,,,,,,,,,,,,,,,,,,,,,,,,,,,,,,,,,,,,,,,,,,,,,,,,,,,,
1720086395,99,0,4402.692383,4390,4495.769043,4411.922852,4410.384766,4262.436035,4416.153809,4327.436035,4357.05127,4294.487305,4387.820313,4593.846191,4363.589844,4368.846191,2.227312,0.71302,0.426427,0.24074,0.154013,2.110327,0.515144,0.376157,0.178621,0.152176,11.078936,2.966461,2.193347,0.904671,0.32562,2.229561,0.618055,0.309809,0.192502,0.144044,2.391979,0.574662,0.719756,0.2252,0.090243,1.929569,1.263986,0.4292,0.167019,0.054376,1.954734,0.487615,0.591639,0.297681,0.121879,2.475954,0.714761,0.773196,0.180291,0.154408,1.998085,0.667319,0.327059,0.249588,0.204937,2.895213,1.612236,0.788781,0.747438,0.521617,3.152326,1.314027,0.536369,0.380851,0.258335,1.00945,0.305069,0.146352,0.101646,0.232025,3.391867,1.383562,0.674057,0.493676,0.307572,4.635386,1.383417,0.985905,0.615124,0.226231
1720086395,100,0,4405,4387.307617,4501.538574,4414.871582,4411.282227,4269.871582,4410.641113,4323.846191,4368.974121,4300.769043,4388.974121,4603.333496,4372.179688,4372.563965,,,,,,,,,,,,,,,,,,,,,,,,,,,,,,,,,,,,,,,,,,,,,,,,,,,,,,,,,,,,,,,,,,,,,,
1720086395,101,0,4405.128418,4388.461426,4502.05127,4417.94873,4411.153809,4274.358887,4412.179688,4320.512695,4362.94873,4306.410156,4392.179688,4594.743652,4379.358887,4372.307617,,,,,,,,,,,,,,,,,,,,,,,,,,,,,,,,,,,,,,,,,,,,,,,,,,,,,,,,,,,,,,,,,,,,,,
1720086395,102,0,4404.358887,4388.461426,4506.025879,4424.102539,4415.256348,4290.128418,4424.743652,4323.717773,4364.871582,4301.794922,4402.436035,4599.615234,4383.974121,4374.615234,,,,,,,,,,,,,,,,,,,,,,,,,,,,,,,,,,,,,,,,,,,,,,,,,,,,,,,,,,,,,,,,,,,,,,
1720086395,103,0,4394.102539,4389.102539,4503.077148,4425.384766,4425.128418,4304.615234,4429.358887,4325.256348,4372.820313,4295.256348,4404.230957,4608.846191,4382.94873,4375.641113,,,,,,,,,,,,,,,,,,,,,,,,,,,,,,,,,,,,,,,,,,,,,,,,,,,,,,,,,,,,,,,,,,,,,,
1720086395,104,0,4383.717773,4393.846191,4497.820313,4423.717773,4429.743652,4304.230957,4423.974121,4322.179688,4368.589844,4298.717773,4399.743652,4596.922852,4382.692383,4366.410156,,,,,,,,,,,,,,,,,,,,,,,,,,,,,,,,,,,,,,,,,,,,,,,,,,,,,,,,,,,,,,,,,,,,,,
1720086395,105,0,4389.230957,4401.922852,4511.025879,4433.717773,4429.615234,4308.077148,4434.102539,4330,4373.589844,4304.487305,4411.282227,4605.897461,4398.717773,4371.410156,,,,,,,,,,,,,,,,,,,,,,,,,,,,,,,,,,,,,,,,,,,,,,,,,,,,,,,,,,,,,,,,,,,,,,
1720086395,106,0,4396.922852,4408.333496,4526.538574,4444.615234,4437.179688,4315.384766,4447.05127,4340.769043,4385.641113,4307.692383,4430.897461,4621.538574,4415.256348,4384.615234,,,,,,,,,,,,,,,,,,,,,,,,,,,,,,,,,,,,,,,,,,,,,,,,,,,,,,,,,,,,,,,,,,,,,,
1720086395,107,0,4398.846191,4415.128418,4532.563965,4446.025879,4443.205078,4314.230957,4445.641113,4342.692383,4388.974121,4310.641113,4438.205078,4621.153809,4409.615234,4386.282227,,,,,,,,,,,,,,,,,,,,,,,,,,,,,,,,,,,,,,,,,,,,,,,,,,,,,,,,,,,,,,,,,,,,,,
1720086395,108,0,4401.410156,4416.153809,4542.692383,4447.94873,4438.589844,4306.666504,4444.358887,4344.871582,4389.871582,4310.128418,4442.179688,4623.461426,4406.794922,4389.615234,,,,,,,,,,,,,,,,,,,,,,,,,,,,,,,,,,,,,,,,,,,,,,,,,,,,,,,,,,,,,,,,,,,,,,
1720086395,109,0,4401.282227,4402.05127,4544.102539,4449.615234,4432.563965,4300.128418,4446.282227,4345.769043,4389.871582,4307.307617,4447.436035,4624.487305,4424.743652,4396.538574,,,,,,,,,,,,,,,,,,,,,,,,,,,,,,,,,,,,,,,,,,,,,,,,,,,,,,,,,,,,,,,,,,,,,,
1720086395,110,0,4399.102539,4392.436035,4536.666504,4445.897461,4429.743652,4300.128418,4445.897461,4344.230957,4389.487305,4313.717773,4442.563965,4626.666504,4436.794922,4394.615234,,,,,,,,,,,,,,,,,,,,,,,,,,,,,,,,,,,,,,,,,,,,,,,,,,,,,,,,,,,,,,,,,,,,,,
1720086395,111,0,4397.307617,4394.487305,4535.256348,4445.128418,4430.641113,4299.743652,4442.307617,4339.743652,4388.333496,4316.410156,4435.256348,4626.666504,4430.897461,4387.94873,,,,,,,,,,,,,,,,,,,,,,,,,,,,,,,,,,,,,,,,,,,,,,,,,,,,,,,,,,,,,,,,,,,,,,
1720086395,112,0,4389.102539,4393.589844,4531.922852,4446.153809,4436.666504,4300.128418,4436.538574,4331.153809,4381.410156,4302.179688,4431.922852,4613.461426,4432.563965,4378.333496,,,,,,,,,,,,,,,,,,,,,,,,,,,,,,,,,,,,,,,,,,,,,,,,,,,,,,,,,,,,,,,,,,,,,,
1720086395,113,0,4381.282227,4387.179688,4524.230957,4443.333496,4443.333496,4307.820313,4432.436035,4330.769043,4374.487305,4291.538574,4420.897461,4613.974121,4445.384766,4366.922852,,,,,,,,,,,,,,,,,,,,,,,,,,,,,,,,,,,,,,,,,,,,,,,,,,,,,,,,,,,,,,,,,,,,,,
1720086395,114,0,4378.461426,4387.05127,4521.538574,4442.05127,4442.307617,4310.641113,4432.820313,4336.282227,4367.436035,4293.589844,4401.282227,4622.307617,4443.846191,4363.205078,,,,,,,,,,,,,,,,,,,,,,,,,,,,,,,,,,,,,,,,,,,,,,,,,,,,,,,,,,,,,,,,,,,,,,
1720086395,115,0,4374.743652,4393.333496,4520.128418,4444.743652,4433.589844,4298.077148,4431.922852,4329.102539,4353.589844,4294.743652,4388.077148,4606.282227,4432.179688,4357.307617,2.410354,0.848067,0.44666,0.225646,0.159403,1.925059,0.504175,0.323292,0.164905,0.156738,9.376169,2.697694,1.835001,0.80622,0.301902,2.438609,0.613834,0.291671,0.196468,0.13379,1.994196,0.524912,0.776067,0.235949,0.096442,1.930298,1.167097,0.380457,0.146759,0.051435,2.071208,0.478996,0.653027,0.267587,0.118919,2.462528,0.810367,0.961817,0.154641,0.150869,1.682513,0.6188,0.311279,0.235362,0.214003,2.449938,1.452812,0.545931,0.730016,0.503758,2.744687,1.280767,0.457213,0.364712,0.257794,0.977604,0.309855,0.13971,0.101843,0.218291,2.80036,1.260567,0.670884,0.450149,0.276302,5.081341,1.510086,1.041755,0.62073,0.218793
1720086395,116,0,4373.461426,4395.512695,4517.692383,4442.692383,4427.436035,4288.717773,4425,4322.179688,4350.512695,4289.102539,4387.820313,4612.05127,4435.256348,4351.153809,,,,,,,,,,,,,,,,,,,,,,,,,,,,,,,,,,,,,,,,,,,,,,,,,,,,,,,,,,,,,,,,,,,,,,
1720086395,117,0,4368.846191,4395.897461,4515.384766,4438.333496,4429.487305,4286.153809,4418.717773,4325.128418,4349.358887,4283.589844,4383.589844,4624.871582,4447.05127,4351.410156,,,,,,,,,,,,,,,,,,,,,,,,,,,,,,,,,,,,,,,,,,,,,,,,,,,,,,,,,,,,,,,,,,,,,,
1720086395,118,0,4360.128418,4400.769043,4512.179688,4441.282227,4433.077148,4281.282227,4413.461426,4318.333496,4334.230957,4277.94873,4372.563965,4605.641113,4444.743652,4351.025879,,,,,,,,,,,,,,,,,,,,,,,,,,,,,,,,,,,,,,,,,,,,,,,,,,,,,,,,,,,,,,,,,,,,,,
1720086395,119,0,4359.102539,4405.512695,4513.333496,4443.461426,4429.871582,4280.769043,4405.128418,4309.743652,4329.358887,4266.410156,4369.102539,4607.179688,4439.615234,4350.641113,,,,,,,,,,,,,,,,,,,,,,,,,,,,,,,,,,,,,,,,,,,,,,,,,,,,,,,,,,,,,,,,,,,,,,
1720086395,120,0,4356.282227,4401.410156,4513.846191,4438.333496,4422.820313,4279.358887,4398.205078,4311.538574,4338.974121,4262.563965,4373.205078,4615.769043,4442.94873,4346.922852,,,,,,,,,,,,,,,,,,,,,,,,,,,,,,,,,,,,,,,,,,,,,,,,,,,,,,,,,,,,,,,,,,,,,,
1720086395,121,0,4344.743652,4393.974121,4505.512695,4430.128418,4420,4277.94873,4395.256348,4312.307617,4346.794922,4265.256348,4371.794922,4608.205078,4443.461426,4344.358887,,,,,,,,,,,,,,,,,,,,,,,,,,,,,,,,,,,,,,,,,,,,,,,,,,,,,,,,,,,,,,,,,,,,,,
1720086395,122,0,4336.025879,4389.871582,4496.153809,4418.589844,4420.384766,4278.333496,4395.256348,4309.871582,4352.05127,4267.179688,4370,4610.641113,4446.922852,4345,,,,,,,,,,,,,,,,,,,,,,,,,,,,,,,,,,,,,,,,,,,,,,,,,,,,,,,,,,,,,,,,,,,,,,
1720086395,123,0,4329.358887,4384.743652,4494.871582,4403.077148,4415,4272.05127,4395.256348,4311.025879,4356.410156,4271.025879,4376.922852,4611.666504,4456.410156,4340.512695,,,,,,,,,,,,,,,,,,,,,,,,,,,,,,,,,,,,,,,,,,,,,,,,,,,,,,,,,,,,,,,,,,,,,,
1720086395,124,0,4323.205078,4379.615234,4499.871582,4393.717773,4404.743652,4267.179688,4395.897461,4308.974121,4360.897461,4274.358887,4379.871582,4608.974121,4461.025879,4337.05127,,,,,,,,,,,,,,,,,,,,,,,,,,,,,,,,,,,,,,,,,,,,,,,,,,,,,,,,,,,,,,,,,,,,,,
1720086395,125,0,4320.512695,4381.025879,4499.358887,4395.897461,4399.487305,4265.384766,4396.666504,4301.922852,4360.256348,4268.461426,4376.153809,4610,4460,4340.769043,,,,,,,,,,,,,,,,,,,,,,,,,,,,,,,,,,,,,,,,,,,,,,,,,,,,,,,,,,,,,,,,,,,,,,
1720086395,126,0,4313.589844,4385.769043,4487.05127,4399.358887,4400.897461,4260.384766,4396.282227,4299.743652,4351.025879,4262.436035,4378.974121,4606.538574,4462.436035,4344.743652,,,,,,,,,,,,,,,,,,,,,,,,,,,,,,,,,,,,,,,,,,,,,,,,,,,,,,,,,,,,,,,,,,,,,,
1720086395,127,0,4304.487305,4382.05127,4478.461426,4399.743652,4400.256348,4255.769043,4395.897461,4301.282227,4346.794922,4265.256348,4384.871582,4607.179688,4463.846191,4345.384766,,,,,,,,,,,,,,,,,,,,,,,,,,,,,,,,,,,,,,,,,,,,,,,,,,,,,,,,,,,,,,,,,,,,,,
1720086395,0,0,4301.794922,4377.307617,4482.179688,4399.358887,4400.512695,4252.563965,4390.128418,4297.05127,4350.384766,4258.974121,4387.05127,4613.717773,4461.666504,4349.615234,,,,,,,,,,,,,,,,,,,,,,,,,,,,,,,,,,,,,,,,,,,,,,,,,,,,,,,,,,,,,,,,,,,,,,
1720086395,1,0,4299.358887,4379.358887,4483.589844,4397.94873,4404.743652,4243.717773,4381.153809,4286.282227,4347.563965,4248.589844,4387.307617,4601.410156,4457.692383,4348.333496,,,,,,,,,,,,,,,,,,,,,,,,,,,,,,,,,,,,,,,,,,,,,,,,,,,,,,,,,,,,,,,,,,,,,,
1720086395,2,0,4285.897461,4378.333496,4478.077148,4392.820313,4399.615234,4234.230957,4375.769043,4279.871582,4346.794922,4248.846191,4383.717773,4596.410156,4447.692383,4338.589844,,,,,,,,,,,,,,,,,,,,,,,,,,,,,,,,,,,,,,,,,,,,,,,,,,,,,,,,,,,,,,,,,,,,,,
1720086395,3,0,4262.94873,4372.05127,4471.282227,4387.692383,4389.615234,4226.282227,4368.717773,4273.077148,4346.538574,4245.641113,4374.743652,4601.410156,4435.897461,4331.666504,2.814968,1.087317,0.474694,0.21477,0.161196,1.953461,0.582826,0.315307,0.16208,0.163192,6.956823,2.241203,1.348326,0.648253,0.253473,2.731313,0.678714,0.271264,0.207485,0.123653,1.703579,0.476252,0.820423,0.239455,0.107366,1.822733,0.978227,0.329558,0.130171,0.05165,2.058106,0.446824,0.683727,0.246552,0.11538,2.402138,0.827934,1.065768,0.154236,0.145009,1.432899,0.570966,0.310239,0.219768,0.213116,2.020982,1.196727,0.405819,0.679309,0.466886,2.386453,1.257036,0.39363,0.359467,0.250157,0.879301,0.300914,0.135749,0.108417,0.207721,2.620094,1.119006,0.694371,0.421945,0.241493,5.424072,1.606623,1.022513,0.599778,0.202262
1720086395,4,0,4235.512695,4369.615234,4460.256348,4387.05127,4392.436035,4219.358887,4359.230957,4262.179688,4335,4236.153809,4364.230957,4586.538574,4422.563965,4325.769043,,,,,,,,,,,,,,,,,,,,,,,,,,,,,,,,,,,,,,,,,,,,,,,,,,,,,,,,,,,,,,,,,,,,,,
1720086395,5,0,4206.410156,4367.05127,4451.538574,4382.94873,4396.538574,4217.436035,4356.922852,4261.666504,4331.666504,4228.717773,4360.128418,4585.384766,4415.384766,4321.282227,,,,,,,,,,,,,,,,,,,,,,,,,,,,,,,,,,,,,,,,,,,,,,,,,,,,,,,,,,,,,,,,,,,,,,
1720086395,6,0,4190.897461,4361.282227,4451.153809,4377.307617,4386.666504,4213.077148,4356.794922,4259.230957,4335.384766,4221.282227,4366.282227,4595.128418,4419.358887,4321.410156,,,,,,,,,,,,,,,,,,,,,,,,,,,,,,,,,,,,,,,,,,,,,,,,,,,,,,,,,,,,,,,,,,,,,,
1720086395,7,0,4190.897461,4361.153809,4453.205078,4383.974121,4382.436035,4208.333496,4351.410156,4249.102539,4331.666504,4213.461426,4374.871582,4590.897461,4420.512695,4328.205078,,,,,,,,,,,,,,,,,,,,,,,,,,,,,,,,,,,,,,,,,,,,,,,,,,,,,,,,,,,,,,,,,,,,,,
1720086395,8,0,4182.692383,4359.230957,4450.769043,4393.717773,4388.589844,4211.410156,4351.410156,4254.230957,4335.512695,4216.794922,4375.384766,4592.179688,4414.615234,4337.692383,,,,,,,,,,,,,,,,,,,,,,,,,,,,,,,,,,,,,,,,,,,,,,,,,,,,,,,,,,,,,,,,,,,,,,
1720086395,9,0,4155.512695,4348.974121,4445,4391.410156,4387.05127,4216.282227,4352.436035,4263.717773,4342.05127,4222.05127,4367.05127,4594.871582,4410,4334.102539,,,,,,,,,,,,,,,,,,,,,,,,,,,,,,,,,,,,,,,,,,,,,,,,,,,,,,,,,,,,,,,,,,,,,,
1720086395,10,0,4133.589844,4341.410156,4441.794922,4384.615234,4380.641113,4217.436035,4345.256348,4253.589844,4337.94873,4216.922852,4360.512695,4589.487305,4405.641113,4320.384766,,,,,,,,,,,,,,,,,,,,,,,,,,,,,,,,,,,,,,,,,,,,,,,,,,,,,,,,,,,,,,,,,,,,,,
1720086395,11,0,4130.256348,4339.487305,4438.333496,4380.641113,4374.871582,4211.282227,4339.487305,4244.871582,4342.179688,4210.769043,4355.384766,4588.589844,4394.487305,4315.897461,,,,,,,,,,,,,,,,,,,,,,,,,,,,,,,,,,,,,,,,,,,,,,,,,,,,,,,,,,,,,,,,,,,,,,
1720086395,12,0,4126.025879,4330.897461,4426.538574,4373.205078,4371.538574,4209.230957,4334.743652,4250.128418,4350.128418,4201.282227,4343.846191,4586.025879,4384.230957,4314.743652,,,,,,,,,,,,,,,,,,,,,,,,,,,,,,,,,,,,,,,,,,,,,,,,,,,,,,,,,,,,,,,,,,,,,,
1720086395,13,0,4117.307617,4319.743652,4417.563965,4368.205078,4375.769043,4218.974121,4328.205078,4250.128418,4343.205078,4187.563965,4338.717773,4583.974121,4380.384766,4309.487305,,,,,,,,,,,,,,,,,,,,,,,,,,,,,,,,,,,,,,,,,,,,,,,,,,,,,,,,,,,,,,,,,,,,,,
1720086395,14,0,4114.230957,4319.871582,4420.128418,4370.641113,4375.512695,4225.769043,4325.641113,4244.358887,4338.461426,4184.230957,4342.05127,4594.230957,4377.436035,4311.794922,,,,,,,,,,,,,,,,,,,,,,,,,,,,,,,,,,,,,,,,,,,,,,,,,,,,,,,,,,,,,,,,,,,,,,
1720086395,15,0,4111.794922,4326.025879,4418.717773,4373.589844,4369.487305,4221.282227,4325.384766,4241.025879,4340.897461,4194.743652,4336.153809,4583.717773,4372.307617,4313.077148,,,,,,,,,,,,,,,,,,,,,,,,,,,,,,,,,,,,,,,,,,,,,,,,,,,,,,,,,,,,,,,,,,,,,,
