Timestamp,EEG.Counter,EEG.Interpolated,EEG.AF3,EEG.F7,EEG.F3,EEG.FC5,EEG.T7,EEG.P7,EEG.O1,EEG.O2,EEG.P8,EEG.T8,EEG.FC6,EEG.F4,EEG.F8,EEG.AF4,POW.AF3.Theta,POW.AF3.Alpha,POW.AF3.BetaL,POW.AF3.BetaH,POW.AF3.Gamma,POW.F7.Theta,POW.F7.Alpha,POW.F7.BetaL,POW.F7.BetaH,POW.F7.Gamma,POW.F3.Theta,POW.F3.Alpha,POW.F3.BetaL,POW.F3.BetaH,POW.F3.Gamma,POW.FC5.Theta,POW.FC5.Alpha,POW.FC5.BetaL,POW.FC5.BetaH,POW.FC5.Gamma,POW.T7.Theta,POW.T7.Alpha,POW.T7.BetaL,POW.T7.BetaH,POW.T7.Gamma,POW.P7.Theta,POW.P7.Alpha,POW.P7.BetaL,POW.P7.BetaH,POW.P7.Gamma,POW.O1.Theta,POW.O1.Alpha,POW.O1.BetaL,POW.O1.BetaH,POW.O1.Gamma,POW.O2.Theta,POW.O2.Alpha,POW.O2.BetaL,POW.O2.BetaH,POW.O2.Gamma,POW.P8.Theta,POW.P8.Alpha,POW.P8.BetaL,POW.P8.BetaH,POW.P8.Gamma,POW.T8.Theta,POW.T8.Alpha,POW.T8.BetaL,POW.T8.BetaH,POW.T8.Gamma,POW.FC6.Theta,POW.FC6.Alpha,POW.FC6.BetaL,POW.FC6.BetaH,POW.FC6.Gamma,POW.F4.Theta,POW.F4.Alpha,POW.F4.BetaL,POW.F4.BetaH,POW.F4.Gamma,POW.F8.Theta,POW.F8.Alpha,POW.F8.BetaL,POW.F8.BetaH,POW.F8.Gamma,POW.AF4.Theta,POW.AF4.Alpha,POW.AF4.BetaL,POW.AF4.BetaH,POW.AF4.Gamma
1720416162,46,0,4231.410156,4302.05127,4326.794922,4338.461426,4305,4309.615234,4308.461426,4309.743652,4292.820313,4292.307617,4489.487305,4529.743652,4357.94873,4433.077148,,,,,,,,,,,,,,,,,,,,,,,,,,,,,,,,,,,,,,,,,,,,,,,,,,,,,,,,,,,,,,,,,,,,,,
1720416162,47,0,4240.512695,4313.333496,4335.256348,4347.05127,4309.615234,4314.230957,4313.974121,4312.05127,4294.871582,4296.025879,4493.077148,4537.436035,4368.846191,4477.692383,2.051916,2.959275,0.933724,0.616102,0.167694,2.263707,2.522134,0.918908,0.6787,0.130797,3.506912,3.198933,0.944255,0.94157,0.145776,2.709479,2.088005,0.868419,0.793085,0.246672,0.430134,0.594918,0.514951,0.235916,0.245229,0.489508,0.681054,0.201221,0.253646,0.08958,0.573645,0.909379,0.572281,0.299697,0.099324,0.856402,0.767602,1.163459,0.418206,0.137452,0.443382,0.762808,0.929945,0.383897,0.163623,0.652193,1.071871,0.614484,0.368225,0.17428,1.13528,2.391369,1.602145,0.934138,0.253724,3.071248,4.121088,2.279044,1.38873,0.292836,0.738639,1.732558,0.999702,0.632269,0.203855,45.874191,10.24801,2.549706,1.042472,0.323743
1720416162,48,0,4248.717773,4319.615234,4339.871582,4352.436035,4315.256348,4320,4315.769043,4312.307617,4294.358887,4285.512695,4491.153809,4540.897461,4370.128418,4510.384766,,,,,,,,,,,,,,,,,,,,,,,,,,,,,,,,,,,,,,,,,,,,,,,,,,,,,,,,,,,,,,,,,,,,,,
1720416162,49,0,4253.589844,4318.717773,4338.846191,4345.641113,4318.974121,4321.153809,4312.05127,4311.410156,4293.205078,4276.794922,4487.563965,4537.179688,4367.179688,4533.589844,,,,,,,,,,,,,,,,,,,,,,,,,,,,,,,,,,,,,,,,,,,,,,,,,,,,,,,,,,,,,,,,,,,,,,
1720416162,50,0,4251.410156,4312.307617,4335.897461,4337.179688,4322.563965,4322.307617,4312.05127,4310.769043,4298.717773,4278.461426,4489.358887,4534.230957,4364.358887,4539.230957,,,,,,,,,,,,,,,,,,,,,,,,,,,,,,,,,,,,,,,,,,,,,,,,,,,,,,,,,,,,,,,,,,,,,,
1720416162,51,0,4260.256348,4317.05127,4337.307617,4340.128418,4324.487305,4325.769043,4316.794922,4312.692383,4306.922852,4285.641113,4497.05127,4537.05127,4364.871582,4550.769043,,,,,,,,,,,,,,,,,,,,,,,,,,,,,,,,,,,,,,,,,,,,,,,,,,,,,,,,,,,,,,,,,,,,,,
1720416162,52,0,4287.692383,4342.179688,4352.05127,4358.077148,4325.897461,4329.615234,4322.307617,4321.666504,4316.794922,4296.025879,4512.820313,4554.615234,4386.410156,4579.358887,,,,,,,,,,,,,,,,,,,,,,,,,,,,,,,,,,,,,,,,,,,,,,,,,,,,,,,,,,,,,,,,,,,,,,
1720416162,53,0,4301.922852,4361.282227,4368.077148,4375.641113,4329.871582,4332.436035,4327.307617,4334.615234,4326.538574,4307.179688,4525.256348,4575.897461,4402.94873,4587.563965,,,,,,,,,,,,,,,,,,,,,,,,,,,,,,,,,,,,,,,,,,,,,,,,,,,,,,,,,,,,,,,,,,,,,,
1720416162,54,0,4305,4363.589844,4378.974121,4385.128418,4336.922852,4335.512695,4336.794922,4347.179688,4332.94873,4318.077148,4531.794922,4590,4398.846191,4594.487305,,,,,,,,,,,,,,,,,,,,,,,,,,,,,,,,,,,,,,,,,,,,,,,,,,,,,,,,,,,,,,,,,,,,,,
1720416162,55,0,4312.436035,4370,4385.384766,4394.615234,4343.077148,4342.94873,4345.512695,4356.025879,4332.563965,4322.692383,4539.871582,4599.230957,4399.358887,4607.179688,,,,,,,,,,,,,,,,,,,,,,,,,,,,,,,,,,,,,,,,,,,,,,,,,,,,,,,,,,,,,,,,,,,,,,
1720416162,56,0,4308.974121,4373.974121,4380.128418,4397.05127,4346.282227,4344.743652,4345.897461,4354.743652,4330.256348,4317.436035,4545.512695,4600.128418,4406.666504,4602.179688,,,,,,,,,,,,,,,,,,,,,,,,,,,,,,,,,,,,,,,,,,,,,,,,,,,,,,,,,,,,,,,,,,,,,,
1720416162,57,0,4285.256348,4357.94873,4361.666504,4380.897461,4341.153809,4330,4338.974121,4345,4325.512695,4309.743652,4534.615234,4585.897461,4397.94873,4588.333496,,,,,,,,,,,,,,,,,,,,,,,,,,,,,,,,,,,,,,,,,,,,,,,,,,,,,,,,,,,,,,,,,,,,,,
1720416162,58,0,4264.871582,4340.769043,4348.077148,4368.333496,4331.282227,4322.563965,4335,4339.871582,4318.461426,4309.230957,4514.615234,4571.666504,4382.692383,4572.05127,,,,,,,,,,,,,,,,,,,,,,,,,,,,,,,,,,,,,,,,,,,,,,,,,,,,,,,,,,,,,,,,,,,,,,
1720416162,59,0,4261.282227,4339.358887,4354.230957,4373.717773,4326.666504,4338.846191,4343.205078,4346.794922,4321.538574,4312.820313,4515.128418,4578.589844,4387.179688,4559.358887,,,,,,,,,,,,,,,,,,,,,,,,,,,,,,,,,,,,,,,,,,,,,,,,,,,,,,,,,,,,,,,,,,,,,,
1720416162,60,0,4259.102539,4341.538574,4360.384766,4374.871582,4325.256348,4343.333496,4345.384766,4352.94873,4326.282227,4312.436035,4525.769043,4586.666504,4395.128418,4561.153809,,,,,,,,,,,,,,,,,,,,,,,,,,,,,,,,,,,,,,,,,,,,,,,,,,,,,,,,,,,,,,,,,,,,,,
1720416162,61,0,4249.743652,4339.871582,4350.384766,4370.128418,4327.05127,4327.563965,4331.282227,4342.692383,4319.871582,4306.282227,4519.102539,4573.205078,4385.512695,4554.615234,,,,,,,,,,,,,,,,,,,,,,,,,,,,,,,,,,,,,,,,,,,,,,,,,,,,,,,,,,,,,,,,,,,,,,
1720416162,62,0,4240.256348,4336.538574,4338.974121,4369.487305,4335,4324.871582,4321.922852,4326.153809,4313.461426,4305.128418,4502.05127,4548.846191,4369.743652,4524.102539,,,,,,,,,,,,,,,,,,,,,,,,,,,,,,,,,,,,,,,,,,,,,,,,,,,,,,,,,,,,,,,,,,,,,,
1720416162,63,0,4237.692383,4330.128418,4339.487305,4366.666504,4332.692383,4332.05127,4324.487305,4322.94873,4319.871582,4305.641113,4495,4540.384766,4364.102539,4516.025879,2.571689,2.926039,1.04262,0.684476,0.170195,2.380186,2.409528,0.981643,0.734809,0.132765,3.766119,2.886136,1.097875,1.03931,0.156987,2.901742,1.946156,0.914843,0.89859,0.259001,0.506914,0.64987,0.587492,0.241241,0.240662,0.529666,0.724056,0.219656,0.232523,0.085117,0.596196,0.671208,0.624907,0.283908,0.096907,0.766359,0.541618,1.285974,0.420969,0.116025,0.415401,0.792872,0.964865,0.431913,0.137678,0.577766,1.022058,0.714929,0.444549,0.162095,1.188448,2.276345,1.795648,0.956809,0.219405,3.024474,3.388367,2.706785,1.527103,0.263075,0.714425,1.711396,1.101969,0.646443,0.184779,49.218086,10.529026,2.908283,1.109856,0.31698
1720416162,64,0,4234.871582,4323.717773,4343.461426,4367.436035,4323.333496,4331.922852,4325.769043,4329.871582,4325.256348,4299.743652,4495.769043,4548.974121,4361.025879,4525.384766,,,,,,,,,,,,,,,,,,,,,,,,,,,,,,,,,,,,,,,,,,,,,,,,,,,,,,,,,,,,,,,,,,,,,,
1720416162,65,0,4229.615234,4324.487305,4343.974121,4375.897461,4330.512695,4332.94873,4330,4333.846191,4322.94873,4297.436035,4499.743652,4551.282227,4362.94873,4520.384766,,,,,,,,,,,,,,,,,,,,,,,,,,,,,,,,,,,,,,,,,,,,,,,,,,,,,,,,,,,,,,,,,,,,,,
1720416162,66,0,4234.487305,4334.743652,4349.871582,4384.615234,4338.333496,4336.538574,4337.307617,4339.358887,4324.102539,4302.820313,4514.102539,4555,4378.846191,4522.307617,,,,,,,,,,,,,,,,,,,,,,,,,,,,,,,,,,,,,,,,,,,,,,,,,,,,,,,,,,,,,,,,,,,,,,
1720416162,67,0,4240.512695,4342.436035,4356.666504,4385.384766,4338.077148,4332.179688,4334.102539,4345,4326.666504,4308.205078,4526.666504,4564.358887,4383.846191,4526.538574,,,,,,,,,,,,,,,,,,,,,,,,,,,,,,,,,,,,,,,,,,,,,,,,,,,,,,,,,,,,,,,,,,,,,,
1720416162,68,0,4237.820313,4339.230957,4355.512695,4379.615234,4344.102539,4325.384766,4331.025879,4343.205078,4325.256348,4310.128418,4519.743652,4564.230957,4373.589844,4519.230957,,,,,,,,,,,,,,,,,,,,,,,,,,,,,,,,,,,,,,,,,,,,,,,,,,,,,,,,,,,,,,,,,,,,,,
1720416162,69,0,4237.94873,4337.94873,4356.666504,4379.358887,4337.307617,4325.641113,4333.333496,4336.666504,4322.436035,4309.102539,4504.871582,4553.589844,4371.794922,4507.94873,,,,,,,,,,,,,,,,,,,,,,,,,,,,,,,,,,,,,,,,,,,,,,,,,,,,,,,,,,,,,,,,,,,,,,
1720416162,70,0,4241.666504,4338.461426,4361.922852,4384.230957,4322.05127,4326.410156,4328.717773,4331.922852,4318.077148,4309.358887,4501.666504,4549.743652,4374.358887,4496.410156,,,,,,,,,,,,,,,,,,,,,,,,,,,,,,,,,,,,,,,,,,,,,,,,,,,,,,,,,,,,,,,,,,,,,,
1720416162,71,0,4240.641113,4330.512695,4363.461426,4383.205078,4329.230957,4325.384766,4325,4335,4317.179688,4307.692383,4508.077148,4556.153809,4367.94873,4486.282227,,,,,,,,,,,,,,,,,,,,,,,,,,,,,,,,,,,,,,,,,,,,,,,,,,,,,,,,,,,,,,,,,,,,,,
1720416162,72,0,4237.307617,4327.307617,4358.461426,4379.743652,4336.922852,4327.436035,4328.589844,4337.436035,4319.358887,4299.487305,4504.487305,4554.230957,4362.05127,4475.384766,,,,,,,,,,,,,,,,,,,,,,,,,,,,,,,,,,,,,,,,,,,,,,,,,,,,,,,,,,,,,,,,,,,,,,
1720416162,73,0,4236.922852,4330.128418,4350.769043,4381.282227,4317.820313,4327.307617,4328.333496,4330.641113,4315.512695,4293.461426,4495.641113,4544.743652,4362.692383,4462.05127,,,,,,,,,,,,,,,,,,,,,,,,,,,,,,,,,,,,,,,,,,,,,,,,,,,,,,,,,,,,,,,,,,,,,,
1720416162,74,0,4229.230957,4318.333496,4343.461426,4376.025879,4308.461426,4320.256348,4322.563965,4324.358887,4310.256348,4291.666504,4489.102539,4536.666504,4357.307617,4448.205078,,,,,,,,,,,,,,,,,,,,,,,,,,,,,,,,,,,,,,,,,,,,,,,,,,,,,,,,,,,,,,,,,,,,,,
1720416162,75,0,4222.05127,4305.641113,4340.641113,4365.384766,4319.743652,4320.641113,4322.436035,4326.794922,4315,4286.410156,4485.256348,4535.769043,4351.025879,4440.256348,,,,,,,,,,,,,,,,,,,,,,,,,,,,,,,,,,,,,,,,,,,,,,,,,,,,,,,,,,,,,,,,,,,,,,
1720416162,76,0,4227.563965,4313.717773,4344.358887,4368.846191,4318.589844,4328.589844,4325.897461,4329.487305,4318.846191,4285,4491.922852,4542.563965,4356.025879,4445.512695,,,,,,,,,,,,,,,,,,,,,,,,,,,,,,,,,,,,,,,,,,,,,,,,,,,,,,,,,,,,,,,,,,,,,,
1720416162,77,0,4233.461426,4322.179688,4345.641113,4375.641113,4308.077148,4324.487305,4322.179688,4327.436035,4312.692383,4289.230957,4499.871582,4545.769043,4361.282227,4457.179688,,,,,,,,,,,,,,,,,,,,,,,,,,,,,,,,,,,,,,,,,,,,,,,,,,,,,,,,,,,,,,,,,,,,,,
1720416162,78,0,4231.538574,4319.230957,4340.128418,4371.538574,4313.205078,4315.769043,4313.717773,4322.692383,4307.94873,4290.769043,4493.717773,4540.512695,4357.563965,4447.179688,,,,,,,,,,,,,,,,,,,,,,,,,,,,,,,,,,,,,,,,,,,,,,,,,,,,,,,,,,,,,,,,,,,,,,
1720416162,79,0,4229.615234,4319.615234,4337.820313,4368.205078,4322.436035,4320.256348,4315.128418,4320.897461,4311.282227,4293.461426,4490.769043,4536.410156,4359.743652,4442.179688,3.405066,2.953529,1.054289,0.741727,0.172848,2.405523,2.27584,0.963043,0.793024,0.143097,3.786456,2.513637,1.174418,1.11315,0.176806,2.940164,1.804478,0.880642,0.973075,0.278754,0.583095,0.666345,0.661805,0.252526,0.236899,0.577039,0.727658,0.256123,0.208076,0.081682,0.605618,0.45461,0.624802,0.266725,0.098721,0.690654,0.374863,1.288591,0.411162,0.102959,0.417458,0.796272,0.924977,0.461934,0.117739,0.532251,0.988726,0.780463,0.525846,0.161957,1.250313,2.177482,1.842788,0.927574,0.197827,2.935905,2.676789,2.864806,1.600187,0.238848,0.69904,1.720601,1.122274,0.642722,0.180054,53.204239,10.484436,3.090808,1.125554,0.310889
1720416162,80,0,4232.94873,4322.179688,4340.641113,4375,4307.820313,4322.05127,4322.179688,4324.871582,4318.205078,4297.05127,4501.538574,4539.871582,4367.820313,4457.94873,,,,,,,,,,,,,,,,,,,,,,,,,,,,,,,,,,,,,,,,,,,,,,,,,,,,,,,,,,,,,,,,,,,,,,
1720416162,81,0,4233.717773,4324.102539,4340.512695,4383.974121,4299.871582,4313.333496,4323.205078,4327.05127,4324.358887,4298.077148,4505.256348,4541.282227,4371.666504,4449.615234,,,,,,,,,,,,,,,,,,,,,,,,,,,,,,,,,,,,,,,,,,,,,,,,,,,,,,,,,,,,,,,,,,,,,,
1720416162,82,0,4232.179688,4323.717773,4341.666504,4382.820313,4316.666504,4308.717773,4322.436035,4326.666504,4319.615234,4299.615234,4500,4539.102539,4375.128418,4444.102539,,,,,,,,,,,,,,,,,,,,,,,,,,,,,,,,,,,,,,,,,,,,,,,,,,,,,,,,,,,,,,,,,,,,,,
1720416162,83,0,4232.692383,4315.641113,4343.717773,4375.384766,4319.487305,4310.128418,4323.077148,4327.179688,4309.743652,4295,4497.436035,4540.897461,4374.487305,4455.769043,,,,,,,,,,,,,,,,,,,,,,,,,,,,,,,,,,,,,,,,,,,,,,,,,,,,,,,,,,,,,,,,,,,,,,
1720416162,84,0,4232.436035,4309.230957,4336.666504,4370.512695,4307.820313,4311.794922,4321.538574,4324.615234,4308.846191,4285.769043,4495.769043,4539.615234,4364.487305,4444.230957,,,,,,,,,,,,,,,,,,,,,,,,,,,,,,,,,,,,,,,,,,,,,,,,,,,,,,,,,,,,,,,,,,,,,,
1720416162,85,0,4228.717773,4310.641113,4325.384766,4368.589844,4307.820313,4311.794922,4316.025879,4317.820313,4306.410156,4278.846191,4491.794922,4528.461426,4354.230957,4426.922852,,,,,,,,,,,,,,,,,,,,,,,,,,,,,,,,,,,,,,,,,,,,,,,,,,,,,,,,,,,,,,,,,,,,,,
1720416162,86,0,4215.769043,4304.743652,4316.794922,4362.05127,4302.563965,4309.487305,4308.974121,4313.974121,4300.384766,4271.025879,4478.333496,4508.974121,4346.922852,4416.794922,,,,,,,,,,,,,,,,,,,,,,,,,,,,,,,,,,,,,,,,,,,,,,,,,,,,,,,,,,,,,,,,,,,,,,
1720416162,87,0,4205.256348,4291.666504,4306.538574,4351.922852,4286.410156,4309.615234,4307.563965,4310.641113,4303.205078,4263.589844,4458.077148,4494.230957,4336.666504,4393.846191,,,,,,,,,,,,,,,,,,,,,,,,,,,,,,,,,,,,,,,,,,,,,,,,,,,,,,,,,,,,,,,,,,,,,,
1720416162,88,0,4209.102539,4288.846191,4305.769043,4350.897461,4294.358887,4313.333496,4312.820313,4307.820313,4311.025879,4261.410156,4456.922852,4496.666504,4335.769043,4386.666504,,,,,,,,,,,,,,,,,,,,,,,,,,,,,,,,,,,,,,,,,,,,,,,,,,,,,,,,,,,,,,,,,,,,,,
1720416162,89,0,4220.641113,4295.641113,4320.897461,4360,4313.974121,4313.589844,4316.282227,4314.230957,4310.128418,4262.05127,4476.282227,4510,4348.974121,4408.589844,,,,,,,,,,,,,,,,,,,,,,,,,,,,,,,,,,,,,,,,,,,,,,,,,,,,,,,,,,,,,,,,,,,,,,
1720416162,90,0,4226.794922,4303.846191,4330,4365.384766,4315,4312.05127,4313.589844,4319.102539,4303.077148,4263.974121,4482.563965,4520.897461,4353.717773,4407.179688,,,,,,,,,,,,,,,,,,,,,,,,,,,,,,,,,,,,,,,,,,,,,,,,,,,,,,,,,,,,,,,,,,,,,,
1720416162,91,0,4225.128418,4308.717773,4325,4363.717773,4308.461426,4312.179688,4312.179688,4315.128418,4296.666504,4262.436035,4471.410156,4520.128418,4345.256348,4393.846191,,,,,,,,,,,,,,,,,,,,,,,,,,,,,,,,,,,,,,,,,,,,,,,,,,,,,,,,,,,,,,,,,,,,,,
1720416162,92,0,4225,4307.05127,4321.794922,4362.820313,4308.461426,4311.153809,4312.692383,4310,4292.94873,4255,4468.461426,4510.384766,4343.205078,4393.205078,,,,,,,,,,,,,,,,,,,,,,,,,,,,,,,,,,,,,,,,,,,,,,,,,,,,,,,,,,,,,,,,,,,,,,
1720416162,93,0,4228.717773,4302.94873,4326.410156,4368.333496,4311.922852,4311.794922,4315.128418,4311.282227,4293.205078,4253.461426,4472.563965,4507.05127,4351.153809,4386.922852,,,,,,,,,,,,,,,,,,,,,,,,,,,,,,,,,,,,,,,,,,,,,,,,,,,,,,,,,,,,,,,,,,,,,,
1720416162,94,0,4227.820313,4299.102539,4326.666504,4367.692383,4309.230957,4311.410156,4316.153809,4312.692383,4291.666504,4261.410156,4467.692383,4508.974121,4350.897461,4376.282227,,,,,,,,,,,,,,,,,,,,,,,,,,,,,,,,,,,,,,,,,,,,,,,,,,,,,,,,,,,,,,,,,,,,,,
1720416162,95,0,4225.256348,4299.615234,4322.05127,4365.512695,4307.436035,4308.717773,4314.615234,4308.717773,4290.641113,4261.025879,4464.615234,4507.179688,4343.589844,4369.615234,4.987551,3.116743,0.973707,0.802177,0.177475,2.425865,2.172147,0.888583,0.864466,0.166073,3.616477,2.147714,1.148189,1.175624,0.201183,2.754216,1.695899,0.79957,1.026915,0.307412,0.631692,0.642061,0.708349,0.270665,0.232697,0.63077,0.696349,0.290016,0.18623,0.080733,0.600781,0.313186,0.560123,0.249149,0.105435,0.64382,0.328429,1.148221,0.402732,0.101948,0.429738,0.810546,0.812145,0.466802,0.107248,0.494795,0.972744,0.812203,0.591961,0.178349,1.325297,2.136216,1.712316,0.871418,0.194128,2.804578,2.141141,2.677817,1.630244,0.228027,0.760864,1.736092,1.049309,0.64663,0.199066,57.963909,9.697397,3.031788,1.101573,0.307403
1720416162,96,0,4233.333496,4309.871582,4330.512695,4376.922852,4311.025879,4308.846191,4320.641113,4312.94873,4292.563965,4249.743652,4476.922852,4515.897461,4348.717773,4374.615234,,,,,,,,,,,,,,,,,,,,,,,,,,,,,,,,,,,,,,,,,,,,,,,,,,,,,,,,,,,,,,,,,,,,,,
1720416162,97,0,4240,4314.615234,4339.871582,4383.846191,4308.333496,4312.436035,4326.410156,4322.436035,4291.538574,4245.897461,4486.538574,4532.05127,4357.307617,4378.974121,,,,,,,,,,,,,,,,,,,,,,,,,,,,,,,,,,,,,,,,,,,,,,,,,,,,,,,,,,,,,,,,,,,,,,
1720416162,98,0,4229.487305,4300.128418,4328.077148,4367.05127,4304.230957,4315.128418,4317.94873,4315.641113,4288.717773,4246.153809,4475.256348,4521.794922,4349.615234,4364.871582,,,,,,,,,,,,,,,,,,,,,,,,,,,,,,,,,,,,,,,,,,,,,,,,,,,,,,,,,,,,,,,,,,,,,,
1720416162,99,0,4219.230957,4285.641113,4309.743652,4346.666504,4307.692383,4313.333496,4307.563965,4299.102539,4290.769043,4239.487305,4457.179688,4494.230957,4333.846191,4343.333496,,,,,,,,,,,,,,,,,,,,,,,,,,,,,,,,,,,,,,,,,,,,,,,,,,,,,,,,,,,,,,,,,,,,,,
1720416162,100,0,4221.666504,4288.205078,4303.846191,4351.282227,4302.94873,4309.871582,4306.538574,4299.487305,4294.487305,4236.282227,4457.563965,4486.538574,4333.846191,4332.94873,,,,,,,,,,,,,,,,,,,,,,,,,,,,,,,,,,,,,,,,,,,,,,,,,,,,,,,,,,,,,,,,,,,,,,
1720416162,101,0,4228.589844,4297.179688,4307.820313,4367.94873,4291.153809,4310.384766,4310.256348,4309.230957,4293.846191,4243.333496,4473.333496,4499.358887,4349.615234,4336.153809,,,,,,,,,,,,,,,,,,,,,,,,,,,,,,,,,,,,,,,,,,,,,,,,,,,,,,,,,,,,,,,,,,,,,,
1720416162,102,0,4235.769043,4299.358887,4319.102539,4370.897461,4301.922852,4314.487305,4314.487305,4310.897461,4296.666504,4250.256348,4483.589844,4516.538574,4364.358887,4346.025879,,,,,,,,,,,,,,,,,,,,,,,,,,,,,,,,,,,,,,,,,,,,,,,,,,,,,,,,,,,,,,,,,,,,,,
1720416162,103,0,4240,4295.769043,4325.641113,4364.871582,4316.922852,4313.077148,4314.871582,4309.358887,4295.256348,4250.897461,4481.794922,4521.538574,4365.384766,4344.230957,,,,,,,,,,,,,,,,,,,,,,,,,,,,,,,,,,,,,,,,,,,,,,,,,,,,,,,,,,,,,,,,,,,,,,
1720416162,104,0,4236.538574,4293.333496,4318.974121,4357.820313,4304.743652,4303.333496,4307.307617,4304.102539,4282.820313,4247.563965,4470.256348,4508.333496,4352.307617,4326.025879,,,,,,,,,,,,,,,,,,,,,,,,,,,,,,,,,,,,,,,,,,,,,,,,,,,,,,,,,,,,,,,,,,,,,,
1720416162,105,0,4228.846191,4290.641113,4309.871582,4349.358887,4291.410156,4297.179688,4298.205078,4295.641113,4275.512695,4239.102539,4457.94873,4492.563965,4345.512695,4315.256348,,,,,,,,,,,,,,,,,,,,,,,,,,,,,,,,,,,,,,,,,,,,,,,,,,,,,,,,,,,,,,,,,,,,,,
1720416162,106,0,4230.641113,4292.307617,4307.179688,4351.666504,4296.153809,4296.410156,4298.717773,4293.461426,4280.512695,4236.025879,4460.128418,4492.820313,4353.461426,4316.538574,,,,,,,,,,,,,,,,,,,,,,,,,,,,,,,,,,,,,,,,,,,,,,,,,,,,,,,,,,,,,,,,,,,,,,
1720416162,107,0,4241.282227,4301.666504,4313.077148,4364.487305,4299.871582,4295.897461,4302.94873,4296.794922,4282.436035,4245,4469.358887,4504.358887,4359.487305,4312.94873,,,,,,,,,,,,,,,,,,,,,,,,,,,,,,,,,,,,,,,,,,,,,,,,,,,,,,,,,,,,,,,,,,,,,,
1720416162,108,0,4245.897461,4309.743652,4324.743652,4367.94873,4295.512695,4295.128418,4303.717773,4298.077148,4278.205078,4249.358887,4474.230957,4513.205078,4358.077148,4311.666504,,,,,,,,,,,,,,,,,,,,,,,,,,,,,,,,,,,,,,,,,,,,,,,,,,,,,,,,,,,,,,,,,,,,,,
1720416162,109,0,4247.692383,4308.717773,4326.538574,4364.102539,4297.179688,4298.974121,4306.025879,4297.307617,4275.384766,4239.871582,4478.974121,4513.974121,4358.846191,4312.05127,,,,,,,,,,,,,,,,,,,,,,,,,,,,,,,,,,,,,,,,,,,,,,,,,,,,,,,,,,,,,,,,,,,,,,
1720416162,110,0,4247.94873,4302.94873,4317.436035,4363.333496,4301.794922,4304.358887,4307.820313,4295.256348,4272.179688,4231.025879,4477.436035,4505,4357.820313,4300.641113,,,,,,,,,,,,,,,,,,,,,,,,,,,,,,,,,,,,,,,,,,,,,,,,,,,,,,,,,,,,,,,,,,,,,,
1720416162,111,0,4241.666504,4297.820313,4309.102539,4356.666504,4300.384766,4302.820313,4301.922852,4290.641113,4272.563965,4227.94873,4463.717773,4491.538574,4347.692383,4290.512695,7.290674,3.448166,0.841722,0.874539,0.183655,2.639765,2.157363,0.803259,0.950454,0.199982,3.527793,1.865133,1.039888,1.241133,0.222799,2.512245,1.656562,0.733009,1.071553,0.339353,0.640651,0.606607,0.70395,0.298572,0.228414,0.685165,0.642851,0.306402,0.171562,0.084526,0.622571,0.275286,0.454699,0.234885,0.116156,0.702688,0.444892,0.904841,0.412202,0.111096,0.488649,0.88342,0.659411,0.445919,0.105393,0.494111,0.994177,0.821101,0.622523,0.207619,1.511434,2.222021,1.439734,0.824622,0.208482,2.942882,1.906774,2.207921,1.656353,0.233196,0.984071,1.764932,0.904037,0.679108,0.23962,63.445717,8.125635,2.745298,1.062078,0.306659
1720416162,112,0,4231.282227,4288.205078,4298.461426,4345.641113,4293.333496,4297.307617,4291.922852,4282.692383,4276.282227,4221.794922,4448.717773,4477.05127,4335.256348,4277.307617,,,,,,,,,,,,,,,,,,,,,,,,,,,,,,,,,,,,,,,,,,,,,,,,,,,,,,,,,,,,,,,,,,,,,,
1720416162,113,0,4226.282227,4276.922852,4288.589844,4340.769043,4290.769043,4294.743652,4289.358887,4277.692383,4274.487305,4216.282227,4440.256348,4467.94873,4329.358887,4262.94873,,,,,,,,,,,,,,,,,,,,,,,,,,,,,,,,,,,,,,,,,,,,,,,,,,,,,,,,,,,,,,,,,,,,,,
1720416162,114,0,4230.769043,4277.05127,4292.05127,4339.487305,4299.487305,4296.922852,4293.461426,4284.487305,4270.384766,4213.333496,4443.974121,4471.025879,4330.512695,4265.641113,,,,,,,,,,,,,,,,,,,,,,,,,,,,,,,,,,,,,,,,,,,,,,,,,,,,,,,,,,,,,,,,,,,,,,
1720416162,115,0,4238.077148,4287.307617,4302.179688,4345,4302.820313,4301.153809,4297.563965,4295,4274.358887,4212.692383,4455.769043,4482.436035,4335.897461,4270.128418,,,,,,,,,,,,,,,,,,,,,,,,,,,,,,,,,,,,,,,,,,,,,,,,,,,,,,,,,,,,,,,,,,,,,,
1720416162,116,0,4245,4294.615234,4312.179688,4352.94873,4294.743652,4301.282227,4301.282227,4296.922852,4281.410156,4218.461426,4465,4495.384766,4342.94873,4273.846191,,,,,,,,,,,,,,,,,,,,,,,,,,,,,,,,,,,,,,,,,,,,,,,,,,,,,,,,,,,,,,,,,,,,,,
1720416162,117,0,4248.333496,4292.179688,4313.846191,4351.282227,4287.436035,4297.05127,4301.666504,4296.538574,4278.333496,4229.230957,4467.436035,4498.077148,4347.820313,4278.333496,,,,,,,,,,,,,,,,,,,,,,,,,,,,,,,,,,,,,,,,,,,,,,,,,,,,,,,,,,,,,,,,,,,,,,
1720416162,118,0,4244.743652,4284.102539,4300.897461,4342.307617,4288.077148,4291.410156,4297.436035,4293.717773,4273.717773,4228.461426,4461.666504,4483.589844,4343.077148,4267.307617,,,,,,,,,,,,,,,,,,,,,,,,,,,,,,,,,,,,,,,,,,,,,,,,,,,,,,,,,,,,,,,,,,,,,,
1720416162,119,0,4241.410156,4280.512695,4291.538574,4337.179688,4292.820313,4285.256348,4293.461426,4284.871582,4275.512695,4221.794922,4457.692383,4472.307617,4340.128418,4258.205078,,,,,,,,,,,,,,,,,,,,,,,,,,,,,,,,,,,,,,,,,,,,,,,,,,,,,,,,,,,,,,,,,,,,,,
1720416162,120,0,4245,4285.512695,4298.589844,4338.846191,4294.487305,4278.974121,4289.102539,4280.512695,4274.871582,4224.743652,4462.94873,4477.436035,4346.410156,4262.563965,,,,,,,,,,,,,,,,,,,,,,,,,,,,,,,,,,,,,,,,,,,,,,,,,,,,,,,,,,,,,,,,,,,,,,
1720416162,121,0,4251.410156,4292.692383,4302.307617,4341.282227,4291.538574,4284.102539,4287.436035,4288.461426,4274.230957,4229.871582,4467.05127,4482.94873,4350.769043,4268.461426,,,,,,,,,,,,,,,,,,,,,,,,,,,,,,,,,,,,,,,,,,,,,,,,,,,,,,,,,,,,,,,,,,,,,,
1720416162,122,0,4250.512695,4292.820313,4296.666504,4344.743652,4288.846191,4291.153809,4293.974121,4299.102539,4280.641113,4232.436035,4465.512695,4482.820313,4350.897461,4263.974121,,,,,,,,,,,,,,,,,,,,,,,,,,,,,,,,,,,,,,,,,,,,,,,,,,,,,,,,,,,,,,,,,,,,,,
1720416162,123,0,4248.077148,4285.256348,4295.128418,4339.102539,4293.589844,4287.820313,4296.538574,4295,4277.94873,4230.256348,4464.615234,4483.333496,4350.641113,4245.128418,,,,,,,,,,,,,,,,,,,,,,,,,,,,,,,,,,,,,,,,,,,,,,,,,,,,,,,,,,,,,,,,,,,,,,
1720416162,124,0,4246.666504,4279.487305,4293.717773,4328.846191,4293.205078,4286.410156,4286.922852,4285.512695,4264.487305,4220.512695,4461.282227,4478.333496,4344.615234,4250.769043,,,,,,,,,,,,,,,,,,,,,,,,,,,,,,,,,,,,,,,,,,,,,,,,,,,,,,,,,,,,,,,,,,,,,,
1720416162,125,0,4240.256348,4276.922852,4281.794922,4323.589844,4283.077148,4285,4275.769043,4277.692383,4258.589844,4210.512695,4446.922852,4463.717773,4328.333496,4227.179688,,,,,,,,,,,,,,,,,,,,,,,,,,,,,,,,,,,,,,,,,,,,,,,,,,,,,,,,,,,,,,,,,,,,,,
1720416162,126,0,4236.794922,4270.897461,4272.692383,4315.128418,4273.974121,4277.692383,4272.05127,4267.692383,4258.461426,4206.666504,4436.153809,4451.538574,4320.512695,4103.717773,,,,,,,,,,,,,,,,,,,,,,,,,,,,,,,,,,,,,,,,,,,,,,,,,,,,,,,,,,,,,,,,,,,,,,
1720416162,127,0,4243.461426,4272.94873,4282.820313,4314.743652,4275.769043,4275.512695,4277.820313,4271.794922,4260,4210.512695,4445,4457.820313,4330.512695,4004.615479,10.274194,3.905977,0.717547,0.953902,0.1892,3.080036,2.272456,0.745909,1.037689,0.237096,3.535439,1.734033,0.901058,1.31221,0.234094,2.208447,1.712281,0.725069,1.108663,0.364029,0.616145,0.597741,0.638812,0.338479,0.227058,0.726736,0.582395,0.295475,0.165313,0.09431,0.657409,0.332069,0.345245,0.226912,0.128123,0.839195,0.718864,0.632176,0.446527,0.124372,0.556091,1.035517,0.507419,0.403465,0.107957,0.514951,1.089783,0.821962,0.606108,0.238817,1.748081,2.486827,1.113704,0.819606,0.236097,3.244519,2.017493,1.619504,1.7146,0.249836,1.371495,1.844133,0.73139,0.742881,0.28878,68.652214,6.249366,2.33723,1.034495,0.308126
1720416162,0,0,4255.897461,4288.974121,4301.538574,4330.769043,4282.94873,4278.077148,4284.743652,4286.025879,4266.666504,4224.487305,4459.615234,4476.153809,4340.128418,4027.564209,,,,,,,,,,,,,,,,,,,,,,,,,,,,,,,,,,,,,,,,,,,,,,,,,,,,,,,,,,,,,,,,,,,,,,
1720416162,1,0,4265.769043,4296.410156,4309.358887,4338.846191,4284.743652,4276.922852,4284.487305,4286.922852,4266.922852,4232.692383,4464.102539,4487.820313,4340.641113,4063.974365,,,,,,,,,,,,,,,,,,,,,,,,,,,,,,,,,,,,,,,,,,,,,,,,,,,,,,,,,,,,,,,,,,,,,,
1720416162,2,0,4264.871582,4291.538574,4309.358887,4329.358887,4282.436035,4276.666504,4285.128418,4278.461426,4259.358887,4225.512695,4465.512695,4490.256348,4341.922852,4057.307617,,,,,,,,,,,,,,,,,,,,,,,,,,,,,,,,,,,,,,,,,,,,,,,,,,,,,,,,,,,,,,,,,,,,,,
1720416162,3,0,4258.589844,4287.692383,4306.666504,4323.077148,4278.717773,4280,4287.436035,4280.384766,4259.230957,4222.179688,4468.077148,4489.615234,4347.307617,4077.94873,,,,,,,,,,,,,,,,,,,,,,,,,,,,,,,,,,,,,,,,,,,,,,,,,,,,,,,,,,,,,,,,,,,,,,
1720416162,4,0,4256.538574,4280.384766,4301.410156,4321.794922,4273.333496,4277.820313,4282.563965,4281.666504,4262.436035,4223.846191,4464.487305,4484.487305,4345.384766,4117.179688,,,,,,,,,,,,,,,,,,,,,,,,,,,,,,,,,,,,,,,,,,,,,,,,,,,,,,,,,,,,,,,,,,,,,,
1720416162,5,0,4264.358887,4282.820313,4306.410156,4323.461426,4277.436035,4278.974121,4284.230957,4281.153809,4264.230957,4223.717773,4466.922852,4486.922852,4344.615234,4157.563965,,,,,,,,,,,,,,,,,,,,,,,,,,,,,,,,,,,,,,,,,,,,,,,,,,,,,,,,,,,,,,,,,,,,,,
1720416162,6,0,4274.871582,4300,4320.512695,4333.717773,4292.179688,4288.205078,4294.615234,4291.922852,4268.205078,4232.563965,4479.487305,4501.922852,4351.410156,4211.282227,,,,,,,,,,,,,,,,,,,,,,,,,,,,,,,,,,,,,,,,,,,,,,,,,,,,,,,,,,,,,,,,,,,,,,
1720416162,7,0,4274.871582,4302.307617,4319.230957,4332.307617,4298.077148,4289.615234,4295.769043,4297.05127,4268.974121,4235.128418,4477.307617,4498.717773,4350.384766,4246.410156,,,,,,,,,,,,,,,,,,,,,,,,,,,,,,,,,,,,,,,,,,,,,,,,,,,,,,,,,,,,,,,,,,,,,,
1720416162,8,0,4270,4290.769043,4315,4319.615234,4292.563965,4283.461426,4292.563965,4292.436035,4265.897461,4218.846191,4462.05127,4478.077148,4342.05127,4270.769043,,,,,,,,,,,,,,,,,,,,,,,,,,,,,,,,,,,,,,,,,,,,,,,,,,,,,,,,,,,,,,,,,,,,,,
1720416162,9,0,4273.077148,4293.205078,4322.820313,4320,4293.846191,4289.102539,4295,4290.128418,4266.153809,4211.410156,4455,4473.717773,4336.025879,4292.692383,,,,,,,,,,,,,,,,,,,,,,,,,,,,,,,,,,,,,,,,,,,,,,,,,,,,,,,,,,,,,,,,,,,,,,
1720416162,10,0,4279.743652,4301.666504,4321.282227,4326.410156,4298.589844,4298.974121,4293.717773,4288.846191,4267.05127,4218.589844,4453.974121,4476.282227,4334.230957,4313.589844,,,,,,,,,,,,,,,,,,,,,,,,,,,,,,,,,,,,,,,,,,,,,,,,,,,,,,,,,,,,,,,,,,,,,,
1720416162,11,0,4275.384766,4296.538574,4308.846191,4317.94873,4297.563965,4290.128418,4287.05127,4281.538574,4262.307617,4216.153809,4446.794922,4464.230957,4327.179688,4330.256348,,,,,,,,,,,,,,,,,,,,,,,,,,,,,,,,,,,,,,,,,,,,,,,,,,,,,,,,,,,,,,,,,,,,,,
1720416162,12,0,4267.692383,4293.974121,4307.436035,4312.692383,4297.307617,4280.512695,4285,4273.846191,4262.307617,4214.743652,4448.974121,4461.282227,4323.717773,4331.282227,,,,,,,,,,,,,,,,,,,,,,,,,,,,,,,,,,,,,,,,,,,,,,,,,,,,,,,,,,,,,,,,,,,,,,
1720416162,13,0,4275.128418,4303.077148,4313.589844,4324.358887,4297.692383,4283.589844,4286.538574,4280.769043,4266.153809,4225.128418,4464.358887,4476.794922,4336.794922,4344.615234,,,,,,,,,,,,,,,,,,,,,,,,,,,,,,,,,,,,,,,,,,,,,,,,,,,,,,,,,,,,,,,,,,,,,,
1720416162,14,0,4280.641113,4303.846191,4311.153809,4331.794922,4294.230957,4283.846191,4287.94873,4291.153809,4268.717773,4234.358887,4467.820313,4479.743652,4346.922852,4366.153809,,,,,,,,,,,,,,,,,,,,,,,,,,,,,,,,,,,,,,,,,,,,,,,,,,,,,,,,,,,,,,,,,,,,,,
1720416163,15,0,4278.589844,4297.563965,4311.025879,4325.256348,4296.153809,4282.692383,4291.025879,4288.205078,4273.589844,4235,4460,4475.384766,4341.666504,4369.230957,13.066028,4.369308,0.640674,1.022644,0.191137,3.651828,2.51873,0.730399,1.105643,0.267199,3.683978,1.786792,0.778013,1.381131,0.230967,2.009155,1.867018,0.776437,1.135107,0.372063,0.577588,0.637665,0.528751,0.38803,0.23325,0.739037,0.532272,0.259885,0.166901,0.108677,0.712341,0.449077,0.262741,0.230075,0.137528,1.038079,1.086821,0.399801,0.503727,0.135421,0.649219,1.240675,0.386722,0.351243,0.110407,0.576853,1.285645,0.820116,0.548431,0.258859,2.046671,2.915538,0.83246,0.877755,0.269372,3.74503,2.421113,1.088652,1.830017,0.269729,1.882536,2.009781,0.578866,0.824448,0.33033,72.76458,4.74052,1.994269,1.044281,0.31355
1720416163,16,0,4282.307617,4301.282227,4317.94873,4322.820313,4298.846191,4286.922852,4294.743652,4283.589844,4271.410156,4230.769043,4465.256348,4484.871582,4342.307617,4374.230957,,,,,,,,,,,,,,,,,,,,,,,,,,,,,,,,,,,,,,,,,,,,,,,,,,,,,,,,,,,,,,,,,,,,,,
1720416163,17,0,4289.230957,4309.871582,4322.05127,4331.025879,4293.589844,4292.179688,4297.820313,4292.307617,4264.871582,4234.487305,4478.077148,4494.102539,4354.230957,4390.897461,,,,,,,,,,,,,,,,,,,,,,,,,,,,,,,,,,,,,,,,,,,,,,,,,,,,,,,,,,,,,,,,,,,,,,
1720416163,18,0,4288.846191,4310.128418,4324.230957,4336.922852,4290.512695,4291.922852,4299.358887,4297.820313,4269.871582,4247.692383,4477.436035,4492.179688,4354.358887,4387.563965,,,,,,,,,,,,,,,,,,,,,,,,,,,,,,,,,,,,,,,,,,,,,,,,,,,,,,,,,,,,,,,,,,,,,,
1720416163,19,0,4288.333496,4304.230957,4323.333496,4335.512695,4296.153809,4291.153809,4299.358887,4293.333496,4275.769043,4250.512695,4475.897461,4493.077148,4348.333496,4380.256348,,,,,,,,,,,,,,,,,,,,,,,,,,,,,,,,,,,,,,,,,,,,,,,,,,,,,,,,,,,,,,,,,,,,,,
1720416163,20,0,4292.563965,4298.333496,4315.769043,4329.743652,4293.846191,4291.666504,4293.846191,4290.128418,4267.94873,4239.230957,4477.05127,4491.922852,4347.563965,4386.794922,,,,,,,,,,,,,,,,,,,,,,,,,,,,,,,,,,,,,,,,,,,,,,,,,,,,,,,,,,,,,,,,,,,,,,
1720416163,21,0,4288.717773,4292.94873,4307.692383,4320.256348,4283.461426,4287.436035,4286.025879,4283.974121,4264.358887,4231.922852,4467.563965,4480,4341.025879,4377.307617,,,,,,,,,,,,,,,,,,,,,,,,,,,,,,,,,,,,,,,,,,,,,,,,,,,,,,,,,,,,,,,,,,,,,,
1720416163,22,0,4279.230957,4290.256348,4307.436035,4315,4283.333496,4280.256348,4284.615234,4279.615234,4267.179688,4233.077148,4457.563965,4473.077148,4335.897461,4367.692383,,,,,,,,,,,,,,,,,,,,,,,,,,,,,,,,,,,,,,,,,,,,,,,,,,,,,,,,,,,,,,,,,,,,,,
1720416163,23,0,4280.128418,4290.897461,4310.256348,4319.615234,4292.94873,4279.615234,4285.384766,4284.230957,4267.436035,4233.333496,4459.358887,4476.282227,4340.512695,4373.846191,,,,,,,,,,,,,,,,,,,,,,,,,,,,,,,,,,,,,,,,,,,,,,,,,,,,,,,,,,,,,,,,,,,,,,
1720416163,24,0,4287.94873,4295.128418,4307.820313,4327.307617,4292.820313,4285.641113,4282.94873,4285.512695,4272.563965,4235.384766,4463.974121,4477.179688,4342.94873,4376.153809,,,,,,,,,,,,,,,,,,,,,,,,,,,,,,,,,,,,,,,,,,,,,,,,,,,,,,,,,,,,,,,,,,,,,,
1720416163,25,0,4286.282227,4296.666504,4301.922852,4326.410156,4279.615234,4282.94873,4282.05127,4280.512695,4271.538574,4235.128418,4461.538574,4472.94873,4336.282227,4371.282227,,,,,,,,,,,,,,,,,,,,,,,,,,,,,,,,,,,,,,,,,,,,,,,,,,,,,,,,,,,,,,,,,,,,,,
1720416163,26,0,4283.974121,4293.077148,4303.461426,4325,4279.102539,4278.589844,4282.307617,4278.846191,4262.179688,4230,4460.384766,4474.230957,4333.589844,4369.230957,,,,,,,,,,,,,,,,,,,,,,,,,,,,,,,,,,,,,,,,,,,,,,,,,,,,,,,,,,,,,,,,,,,,,,
1720416163,27,0,4294.358887,4295.512695,4311.922852,4330.384766,4293.717773,4282.563965,4281.025879,4279.615234,4261.282227,4227.436035,4461.282227,4475.384766,4334.358887,4371.410156,,,,,,,,,,,,,,,,,,,,,,,,,,,,,,,,,,,,,,,,,,,,,,,,,,,,,,,,,,,,,,,,,,,,,,
1720416163,28,0,4297.94873,4304.615234,4313.077148,4337.692383,4292.94873,4285.384766,4285.384766,4276.794922,4262.307617,4229.487305,4456.922852,4467.307617,4327.05127,4366.922852,,,,,,,,,,,,,,,,,,,,,,,,,,,,,,,,,,,,,,,,,,,,,,,,,,,,,,,,,,,,,,,,,,,,,,
1720416163,29,0,4294.743652,4306.538574,4312.820313,4339.487305,4280.256348,4282.179688,4294.102539,4277.307617,4259.487305,4230.897461,4457.05127,4470.256348,4327.436035,4365,,,,,,,,,,,,,,,,,,,,,,,,,,,,,,,,,,,,,,,,,,,,,,,,,,,,,,,,,,,,,,,,,,,,,,
1720416163,30,0,4298.333496,4299.358887,4320,4336.410156,4278.461426,4280.384766,4292.692383,4282.94873,4262.307617,4233.205078,4465.384766,4488.717773,4340.512695,4372.05127,,,,,,,,,,,,,,,,,,,,,,,,,,,,,,,,,,,,,,,,,,,,,,,,,,,,,,,,,,,,,,,,,,,,,,
1720416163,31,0,4298.461426,4292.94873,4315.641113,4334.102539,4280,4281.922852,4285.256348,4282.179688,4263.077148,4232.179688,4462.94873,4487.179688,4336.922852,4363.205078,14.916542,4.661478,0.611564,1.058643,0.187048,4.142314,2.82787,0.73673,1.135467,0.282069,3.808356,1.994458,0.688959,1.435835,0.215119,1.829739,2.076547,0.84435,1.144254,0.35943,0.543262,0.713411,0.401269,0.439611,0.250115,0.724343,0.500082,0.210255,0.175496,0.123447,0.765536,0.57848,0.217612,0.250879,0.140979,1.232275,1.438651,0.246104,0.577162,0.14071,0.755301,1.424918,0.308394,0.304224,0.110512,0.697435,1.563488,0.803539,0.471867,0.259926,2.300639,3.409405,0.655863,0.998621,0.29973,4.185003,2.98156,0.730072,2.00631,0.284189,2.371058,2.262253,0.475231,0.90069,0.351682,77.189537,4.422249,1.873318,1.149656,0.341363
1720416163,32,0,4292.692383,4291.922852,4298.077148,4334.871582,4276.922852,4281.410156,4283.974121,4274.358887,4257.692383,4222.820313,4455.128418,4463.333496,4320.641113,4331.153809,,,,,,,,,,,,,,,,,,,,,,,,,,,,,,,,,,,,,,,,,,,,,,,,,,,,,,,,,,,,,,,,,,,,,,
1720416163,33,0,4295.384766,4293.205078,4296.153809,4336.410156,4278.846191,4281.666504,4283.717773,4272.692383,4260.897461,4221.410156,4457.179688,4460.769043,4323.333496,4328.717773,,,,,,,,,,,,,,,,,,,,,,,,,,,,,,,,,,,,,,,,,,,,,,,,,,,,,,,,,,,,,,,,,,,,,,
1720416163,34,0,4294.102539,4287.563965,4296.922852,4330.384766,4276.153809,4276.282227,4276.153809,4272.436035,4266.410156,4226.922852,4451.922852,4466.025879,4330,4342.307617,,,,,,,,,,,,,,,,,,,,,,,,,,,,,,,,,,,,,,,,,,,,,,,,,,,,,,,,,,,,,,,,,,,,,,
1720416163,35,0,4278.846191,4276.538574,4278.717773,4317.179688,4270.512695,4267.307617,4265.384766,4264.102539,4259.230957,4221.794922,4436.666504,4445.769043,4322.94873,4313.846191,,,,,,,,,,,,,,,,,,,,,,,,,,,,,,,,,,,,,,,,,,,,,,,,,,,,,,,,,,,,,,,,,,,,,,
1720416163,36,0,4281.153809,4280.512695,4279.871582,4319.102539,4277.05127,4268.846191,4266.410156,4261.794922,4249.487305,4214.230957,4444.230957,4446.282227,4330.128418,4310.641113,,,,,,,,,,,,,,,,,,,,,,,,,,,,,,,,,,,,,,,,,,,,,,,,,,,,,,,,,,,,,,,,,,,,,,
1720416163,37,0,4300.769043,4293.589844,4310.384766,4334.743652,4278.589844,4274.487305,4272.563965,4267.692383,4249.743652,4217.436035,4464.230957,4479.487305,4343.461426,4343.846191,,,,,,,,,,,,,,,,,,,,,,,,,,,,,,,,,,,,,,,,,,,,,,,,,,,,,,,,,,,,,,,,,,,,,,
1720416163,38,0,4301.538574,4291.025879,4316.410156,4340.128418,4267.563965,4273.461426,4272.692383,4265.256348,4250.384766,4224.487305,4461.153809,4480.512695,4335.512695,4334.102539,,,,,,,,,,,,,,,,,,,,,,,,,,,,,,,,,,,,,,,,,,,,,,,,,,,,,,,,,,,,,,,,,,,,,,
1720416163,39,0,4289.358887,4278.589844,4295,4333.205078,4260.769043,4272.05127,4272.820313,4263.077148,4248.589844,4228.205078,4450.641113,4456.794922,4328.077148,4313.717773,,,,,,,,,,,,,,,,,,,,,,,,,,,,,,,,,,,,,,,,,,,,,,,,,,,,,,,,,,,,,,,,,,,,,,
1720416163,40,0,4291.025879,4277.05127,4295.128418,4332.179688,4265.256348,4277.820313,4276.282227,4273.205078,4255.512695,4230.897461,4455.128418,4464.358887,4334.102539,4323.205078,,,,,,,,,,,,,,,,,,,,,,,,,,,,,,,,,,,,,,,,,,,,,,,,,,,,,,,,,,,,,,,,,,,,,,
1720416163,41,0,4303.461426,4288.077148,4312.179688,4338.846191,4275.384766,4283.717773,4281.922852,4282.692383,4263.974121,4234.871582,4463.717773,4485.128418,4336.153809,4334.358887,,,,,,,,,,,,,,,,,,,,,,,,,,,,,,,,,,,,,,,,,,,,,,,,,,,,,,,,,,,,,,,,,,,,,,
1720416163,42,0,4304.358887,4292.692383,4315.641113,4338.333496,4280,4277.179688,4281.794922,4279.871582,4256.538574,4231.794922,4464.358887,4481.025879,4333.461426,4329.871582,,,,,,,,,,,,,,,,,,,,,,,,,,,,,,,,,,,,,,,,,,,,,,,,,,,,,,,,,,,,,,,,,,,,,,
1720416163,43,0,4298.846191,4284.743652,4308.205078,4332.820313,4271.666504,4266.922852,4276.025879,4272.94873,4242.820313,4218.205078,4462.94873,4471.410156,4336.410156,4323.077148,,,,,,,,,,,,,,,,,,,,,,,,,,,,,,,,,,,,,,,,,,,,,,,,,,,,,,,,,,,,,,,,,,,,,,
1720416163,44,0,4304.230957,4283.717773,4309.871582,4335.128418,4263.077148,4271.153809,4275.897461,4273.205078,4244.487305,4214.743652,4465.128418,4480,4338.461426,4328.846191,,,,,,,,,,,,,,,,,,,,,,,,,,,,,,,,,,,,,,,,,,,,,,,,,,,,,,,,,,,,,,,,,,,,,,
1720416163,45,0,4309.871582,4287.94873,4312.179688,4338.077148,4267.563965,4277.820313,4278.461426,4272.307617,4245.512695,4215.512695,4460.384766,4483.461426,4333.846191,4334.487305,,,,,,,,,,,,,,,,,,,,,,,,,,,,,,,,,,,,,,,,,,,,,,,,,,,,,,,,,,,,,,,,,,,,,,
1720416163,46,0,4299.102539,4281.282227,4298.974121,4330.256348,4272.94873,4269.487305,4274.358887,4265.641113,4235.897461,4206.794922,4448.461426,4460.769043,4327.692383,4311.538574,,,,,,,,,,,,,,,,,,,,,,,,,,,,,,,,,,,,,,,,,,,,,,,,,,,,,,,,,,,,,,,,,,,,,,
1720416163,47,0,4290.256348,4275.128418,4289.743652,4322.436035,4263.974121,4262.692383,4263.461426,4260,4235.512695,4207.692383,4436.666504,4441.538574,4323.846191,4289.102539,15.039847,4.633077,0.60058,1.045407,0.176638,4.234086,3.078774,0.725301,1.117758,0.279139,3.707073,2.264333,0.624813,1.464154,0.193471,1.623403,2.261838,0.865099,1.129595,0.330685,0.524064,0.788649,0.28644,0.483775,0.27579,0.680063,0.482634,0.158519,0.188678,0.133793,0.78199,0.676236,0.19809,0.290325,0.136871,1.33255,1.663079,0.167041,0.655385,0.140259,0.844193,1.504126,0.263149,0.273653,0.108456,0.818635,1.874897,0.752917,0.405795,0.242367,2.40219,3.83541,0.577419,1.155465,0.319488,4.316126,3.531756,0.550644,2.209123,0.288004,2.678948,2.5657,0.419692,0.94934,0.348806,84.048584,6.060298,2.13494,1.41366,0.426511
1720416163,48,0,4295.128418,4277.05127,4295.128418,4328.589844,4254.102539,4263.205078,4260.641113,4261.025879,4244.615234,4215.512695,4439.230957,4449.615234,4326.666504,4300,,,,,,,,,,,,,,,,,,,,,,,,,,,,,,,,,,,,,,,,,,,,,,,,,,,,,,,,,,,,,,,,,,,,,,
1720416163,49,0,4299.871582,4282.307617,4295.897461,4337.563965,4261.282227,4263.846191,4265,4266.153809,4248.717773,4221.153809,4457.179688,4461.922852,4335.641113,4307.563965,,,,,,,,,,,,,,,,,,,,,,,,,,,,,,,,,,,,,,,,,,,,,,,,,,,,,,,,,,,,,,,,,,,,,,
1720416163,50,0,4300.384766,4289.102539,4291.025879,4336.153809,4270.897461,4266.794922,4267.05127,4270.256348,4251.153809,4227.94873,4464.230957,4463.461426,4345,4306.282227,,,,,,,,,,,,,,,,,,,,,,,,,,,,,,,,,,,,,,,,,,,,,,,,,,,,,,,,,,,,,,,,,,,,,,
1720416163,51,0,4303.077148,4286.666504,4294.487305,4327.820313,4270.641113,4268.846191,4266.282227,4265.128418,4249.102539,4224.871582,4449.102539,4461.922852,4342.94873,4307.05127,,,,,,,,,,,,,,,,,,,,,,,,,,,,,,,,,,,,,,,,,,,,,,,,,,,,,,,,,,,,,,,,,,,,,,
1720416163,52,0,4303.717773,4275.641113,4293.333496,4318.461426,4267.179688,4266.794922,4264.615234,4254.230957,4237.179688,4214.871582,4435.512695,4455.641113,4330.512695,4296.153809,,,,,,,,,,,,,,,,,,,,,,,,,,,,,,,,,,,,,,,,,,,,,,,,,,,,,,,,,,,,,,,,,,,,,,
1720416163,53,0,4299.615234,4270.897461,4280.512695,4310.641113,4263.717773,4264.871582,4262.692383,4252.179688,4231.666504,4217.179688,4437.692383,4447.307617,4324.358887,4288.717773,,,,,,,,,,,,,,,,,,,,,,,,,,,,,,,,,,,,,,,,,,,,,,,,,,,,,,,,,,,,,,,,,,,,,,
1720416163,54,0,4300.256348,4275.256348,4281.153809,4313.205078,4261.922852,4264.871582,4262.94873,4256.922852,4236.410156,4221.282227,4443.717773,4450.897461,4333.077148,4289.358887,,,,,,,,,,,,,,,,,,,,,,,,,,,,,,,,,,,,,,,,,,,,,,,,,,,,,,,,,,,,,,,,,,,,,,
1720416163,55,0,4311.025879,4281.922852,4300.128418,4328.077148,4263.461426,4266.794922,4273.461426,4261.282227,4236.153809,4217.436035,4453.333496,4467.307617,4345.641113,4293.461426,,,,,,,,,,,,,,,,,,,,,,,,,,,,,,,,,,,,,,,,,,,,,,,,,,,,,,,,,,,,,,,,,,,,,,
1720416163,56,0,4318.333496,4285.256348,4310,4337.563965,4261.666504,4267.05127,4280.769043,4263.846191,4233.333496,4218.717773,4465.128418,4481.410156,4349.102539,4297.436035,,,,,,,,,,,,,,,,,,,,,,,,,,,,,,,,,,,,,,,,,,,,,,,,,,,,,,,,,,,,,,,,,,,,,,
1720416163,57,0,4309.230957,4279.102539,4296.794922,4327.05127,4256.025879,4262.692383,4269.615234,4262.820313,4231.666504,4213.717773,4457.94873,4475.384766,4340.384766,4288.717773,,,,,,,,,,,,,,,,,,,,,,,,,,,,,,,,,,,,,,,,,,,,,,,,,,,,,,,,,,,,,,,,,,,,,,
1720416163,58,0,4297.692383,4267.820313,4279.358887,4310.512695,4256.538574,4261.025879,4260.769043,4257.820313,4232.05127,4200.128418,4437.820313,4452.94873,4328.205078,4272.436035,,,,,,,,,,,,,,,,,,,,,,,,,,,,,,,,,,,,,,,,,,,,,,,,,,,,,,,,,,,,,,,,,,,,,,
1720416163,59,0,4299.615234,4261.794922,4273.974121,4306.538574,4261.794922,4262.692383,4258.589844,4250.641113,4233.461426,4195.897461,4427.307617,4437.94873,4322.307617,4261.538574,,,,,,,,,,,,,,,,,,,,,,,,,,,,,,,,,,,,,,,,,,,,,,,,,,,,,,,,,,,,,,,,,,,,,,
1720416163,60,0,4304.487305,4267.05127,4273.589844,4310.256348,4261.410156,4261.153809,4251.666504,4244.871582,4232.436035,4195.384766,4426.153809,4436.794922,4322.307617,4251.538574,,,,,,,,,,,,,,,,,,,,,,,,,,,,,,,,,,,,,,,,,,,,,,,,,,,,,,,,,,,,,,,,,,,,,,
1720416163,61,0,4308.974121,4276.282227,4277.563965,4312.436035,4257.436035,4259.743652,4251.794922,4245.641113,4231.282227,4197.94873,4436.410156,4446.153809,4329.230957,4256.922852,,,,,,,,,,,,,,,,,,,,,,,,,,,,,,,,,,,,,,,,,,,,,,,,,,,,,,,,,,,,,,,,,,,,,,
1720416163,62,0,4315.256348,4271.794922,4286.282227,4320.128418,4263.333496,4262.692383,4261.922852,4252.436035,4234.102539,4210.641113,4453.589844,4459.487305,4340.128418,4276.025879,,,,,,,,,,,,,,,,,,,,,,,,,,,,,,,,,,,,,,,,,,,,,,,,,,,,,,,,,,,,,,,,,,,,,,
1720416163,63,0,4313.077148,4254.871582,4284.871582,4327.05127,4263.461426,4265.128418,4261.666504,4251.538574,4234.615234,4218.077148,4452.436035,4456.794922,4338.333496,4258.589844,13.334995,4.232642,0.575633,0.981445,0.162844,3.866231,3.148117,0.669521,1.057418,0.262148,3.336571,2.478284,0.570209,1.458466,0.175212,1.346318,2.34374,0.798854,1.089741,0.295813,0.529641,0.819047,0.203642,0.51079,0.303997,0.613392,0.472927,0.11446,0.202432,0.136649,0.746569,0.728406,0.184345,0.342181,0.126099,1.295601,1.702462,0.132279,0.72367,0.136473,0.902167,1.433268,0.234118,0.263172,0.105981,0.940783,2.151606,0.657209,0.371561,0.213767,2.311555,4.077686,0.547107,1.304296,0.323801,4.060363,3.940917,0.478167,2.378615,0.283797,2.719821,2.848084,0.391368,0.958658,0.326761,95.326202,9.955653,2.811363,1.851135,0.595363
1720416163,64,0,4308.717773,4245.256348,4277.05127,4318.461426,4250.512695,4263.846191,4258.077148,4249.743652,4235.384766,4214.358887,4439.615234,4444.358887,4328.846191,4239.487305,,,,,,,,,,,,,,,,,,,,,,,,,,,,,,,,,,,,,,,,,,,,,,,,,,,,,,,,,,,,,,,,,,,,,,
1720416163,65,0,4315.641113,4248.333496,4281.153809,4312.436035,4254.871582,4266.282227,4267.05127,4253.333496,4238.461426,4214.615234,4442.307617,4446.794922,4332.94873,4258.333496,,,,,,,,,,,,,,,,,,,,,,,,,,,,,,,,,,,,,,,,,,,,,,,,,,,,,,,,,,,,,,,,,,,,,,
1720416163,66,0,4316.410156,4246.922852,4278.461426,4312.05127,4265,4270.897461,4269.743652,4248.461426,4236.282227,4212.94873,4447.563965,4447.820313,4337.05127,4256.025879,,,,,,,,,,,,,,,,,,,,,,,,,,,,,,,,,,,,,,,,,,,,,,,,,,,,,,,,,,,,,,,,,,,,,,
1720416163,67,0,4309.487305,4234.615234,4263.717773,4300.512695,4255.769043,4268.333496,4264.487305,4247.563965,4239.743652,4210.128418,4441.922852,4437.692383,4332.94873,4238.077148,,,,,,,,,,,,,,,,,,,,,,,,,,,,,,,,,,,,,,,,,,,,,,,,,,,,,,,,,,,,,,,,,,,,,,
1720416163,68,0,4312.94873,4231.666504,4262.692383,4295.641113,4248.333496,4263.205078,4267.94873,4258.077148,4245.256348,4213.461426,4444.102539,4440.769043,4337.436035,4243.205078,,,,,,,,,,,,,,,,,,,,,,,,,,,,,,,,,,,,,,,,,,,,,,,,,,,,,,,,,,,,,,,,,,,,,,
1720416163,69,0,4317.692383,4242.05127,4267.820313,4304.230957,4251.025879,4262.820313,4267.436035,4256.666504,4241.153809,4210.384766,4451.794922,4448.717773,4342.05127,4244.102539,,,,,,,,,,,,,,,,,,,,,,,,,,,,,,,,,,,,,,,,,,,,,,,,,,,,,,,,,,,,,,,,,,,,,,
1720416163,70,0,4314.358887,4243.717773,4265.641113,4303.846191,4250.128418,4258.333496,4255.384766,4246.794922,4236.922852,4201.922852,4448.077148,4443.461426,4335,4233.205078,,,,,,,,,,,,,,,,,,,,,,,,,,,,,,,,,,,,,,,,,,,,,,,,,,,,,,,,,,,,,,,,,,,,,,
1720416163,71,0,4313.077148,4235.256348,4260.384766,4291.794922,4249.487305,4249.615234,4244.743652,4245.128418,4237.179688,4201.922852,4436.025879,4435.256348,4329.487305,4230.897461,,,,,,,,,,,,,,,,,,,,,,,,,,,,,,,,,,,,,,,,,,,,,,,,,,,,,,,,,,,,,,,,,,,,,,
1720416163,72,0,4307.05127,4229.743652,4250.512695,4283.974121,4242.179688,4247.94873,4238.333496,4241.153809,4236.538574,4205.769043,4427.692383,4424.358887,4326.282227,4222.692383,,,,,,,,,,,,,,,,,,,,,,,,,,,,,,,,,,,,,,,,,,,,,,,,,,,,,,,,,,,,,,,,,,,,,,
1720416163,73,0,4297.05127,4221.153809,4241.922852,4279.871582,4230.256348,4247.563965,4235.128418,4232.563965,4229.743652,4197.820313,4425,4410.897461,4317.563965,4212.436035,,,,,,,,,,,,,,,,,,,,,,,,,,,,,,,,,,,,,,,,,,,,,,,,,,,,,,,,,,,,,,,,,,,,,,
1720416163,74,0,4298.589844,4213.205078,4242.563965,4274.487305,4236.153809,4243.205078,4236.794922,4230,4219.102539,4182.820313,4421.538574,4406.025879,4309.615234,4210.512695,,,,,,,,,,,,,,,,,,,,,,,,,,,,,,,,,,,,,,,,,,,,,,,,,,,,,,,,,,,,,,,,,,,,,,
1720416163,75,0,4314.743652,4226.794922,4256.538574,4281.794922,4253.846191,4249.615234,4247.179688,4236.794922,4219.358887,4189.102539,4428.461426,4422.436035,4319.230957,4217.436035,,,,,,,,,,,,,,,,,,,,,,,,,,,,,,,,,,,,,,,,,,,,,,,,,,,,,,,,,,,,,,,,,,,,,,
1720416163,76,0,4329.871582,4249.358887,4275.897461,4299.102539,4264.871582,4263.205078,4262.436035,4250,4235.128418,4212.05127,4444.871582,4446.153809,4342.436035,4238.717773,,,,,,,,,,,,,,,,,,,,,,,,,,,,,,,,,,,,,,,,,,,,,,,,,,,,,,,,,,,,,,,,,,,,,,
1720416163,77,0,4328.205078,4249.871582,4274.871582,4301.282227,4261.666504,4265.769043,4264.102539,4250.512695,4237.179688,4211.538574,4448.717773,4446.666504,4348.846191,4239.871582,,,,,,,,,,,,,,,,,,,,,,,,,,,,,,,,,,,,,,,,,,,,,,,,,,,,,,,,,,,,,,,,,,,,,,
1720416163,78,0,4323.589844,4243.333496,4259.743652,4294.102539,4250.897461,4262.820313,4256.153809,4241.025879,4224.358887,4195.512695,4443.846191,4431.922852,4336.794922,4221.410156,,,,,,,,,,,,,,,,,,,,,,,,,,,,,,,,,,,,,,,,,,,,,,,,,,,,,,,,,,,,,,,,,,,,,,
1720416163,79,0,4326.025879,4244.871582,4265,4293.717773,4250,4264.743652,4258.333496,4243.589844,4223.974121,4197.94873,4441.794922,4428.333496,4330,4218.717773,10.364876,3.543968,0.521552,0.881283,0.151779,3.085212,2.974433,0.572895,0.971831,0.239816,2.76126,2.559503,0.514923,1.41767,0.170367,1.002214,2.281179,0.65401,1.034089,0.265809,0.560989,0.777057,0.158669,0.51123,0.327116,0.540776,0.469327,0.082948,0.212023,0.132468,0.669932,0.757036,0.166156,0.392692,0.11223,1.143314,1.572227,0.116855,0.766906,0.132936,0.907614,1.226955,0.215098,0.267626,0.105613,1.016025,2.33388,0.53025,0.375271,0.18476,2.054677,4.080325,0.50981,1.405534,0.313897,3.489216,4.152233,0.423659,2.458728,0.285132,2.498956,3.024263,0.361831,0.931158,0.296362,109.93544,15.644332,3.758318,2.392794,0.84331
1720416163,80,0,4325,4245,4279.487305,4295.769043,4252.307617,4265.256348,4264.743652,4249.102539,4229.743652,4203.846191,4440.256348,4436.410156,4333.333496,4221.410156,,,,,,,,,,,,,,,,,,,,,,,,,,,,,,,,,,,,,,,,,,,,,,,,,,,,,,,,,,,,,,,,,,,,,,
1720416163,81,0,4325.641113,4246.666504,4282.05127,4301.666504,4249.743652,4263.717773,4265.256348,4251.025879,4232.179688,4200.256348,4446.666504,4445.769043,4341.025879,4222.179688,,,,,,,,,,,,,,,,,,,,,,,,,,,,,,,,,,,,,,,,,,,,,,,,,,,,,,,,,,,,,,,,,,,,,,
1720416163,82,0,4330.897461,4253.205078,4278.846191,4309.487305,4251.025879,4264.102539,4261.794922,4250.128418,4231.666504,4200.384766,4449.615234,4444.871582,4341.794922,4219.102539,,,,,,,,,,,,,,,,,,,,,,,,,,,,,,,,,,,,,,,,,,,,,,,,,,,,,,,,,,,,,,,,,,,,,,
1720416163,83,0,4327.179688,4250.384766,4269.743652,4299.871582,4253.846191,4263.717773,4254.230957,4240.128418,4230.641113,4198.589844,4434.743652,4426.538574,4328.333496,4203.974121,,,,,,,,,,,,,,,,,,,,,,,,,,,,,,,,,,,,,,,,,,,,,,,,,,,,,,,,,,,,,,,,,,,,,,
1720416163,84,0,4315.128418,4238.461426,4256.538574,4279.487305,4250.128418,4258.974121,4244.487305,4232.307617,4231.153809,4190.897461,4424.487305,4408.589844,4313.846191,4187.307617,,,,,,,,,,,,,,,,,,,,,,,,,,,,,,,,,,,,,,,,,,,,,,,,,,,,,,,,,,,,,,,,,,,,,,
1720416163,85,0,4309.615234,4231.282227,4246.666504,4266.153809,4245.897461,4251.025879,4237.05127,4230.128418,4224.615234,4185.641113,4423.205078,4400.512695,4309.615234,4176.922852,,,,,,,,,,,,,,,,,,,,,,,,,,,,,,,,,,,,,,,,,,,,,,,,,,,,,,,,,,,,,,,,,,,,,,
1720416163,86,0,4306.666504,4228.333496,4239.871582,4261.538574,4244.102539,4245.641113,4235.384766,4226.282227,4214.871582,4184.230957,4414.358887,4392.436035,4307.436035,4163.205078,,,,,,,,,,,,,,,,,,,,,,,,,,,,,,,,,,,,,,,,,,,,,,,,,,,,,,,,,,,,,,,,,,,,,,
1720416163,87,0,4308.077148,4229.615234,4242.436035,4268.077148,4242.563965,4247.820313,4242.692383,4226.922852,4213.717773,4182.94873,4409.358887,4391.794922,4310.256348,4156.153809,,,,,,,,,,,,,,,,,,,,,,,,,,,,,,,,,,,,,,,,,,,,,,,,,,,,,,,,,,,,,,,,,,,,,,
1720416163,88,0,4313.974121,4237.692383,4254.487305,4279.230957,4247.436035,4252.179688,4247.820313,4233.974121,4217.307617,4185.769043,4417.307617,4403.333496,4319.230957,4164.102539,,,,,,,,,,,,,,,,,,,,,,,,,,,,,,,,,,,,,,,,,,,,,,,,,,,,,,,,,,,,,,,,,,,,,,
1720416163,89,0,4318.333496,4247.563965,4263.717773,4283.333496,4246.922852,4252.179688,4247.563965,4237.05127,4218.077148,4190.256348,4427.307617,4414.871582,4323.589844,4171.922852,,,,,,,,,,,,,,,,,,,,,,,,,,,,,,,,,,,,,,,,,,,,,,,,,,,,,,,,,,,,,,,,,,,,,,
1720416163,90,0,4320.769043,4247.94873,4264.871582,4282.05127,4237.05127,4248.461426,4246.153809,4235.641113,4217.94873,4187.436035,4431.794922,4418.589844,4322.563965,4178.717773,,,,,,,,,,,,,,,,,,,,,,,,,,,,,,,,,,,,,,,,,,,,,,,,,,,,,,,,,,,,,,,,,,,,,,
1720416163,91,0,4317.436035,4242.563965,4263.205078,4279.358887,4239.871582,4247.820313,4244.871582,4232.05127,4216.794922,4190.897461,4429.230957,4415.769043,4322.820313,4185.769043,,,,,,,,,,,,,,,,,,,,,,,,,,,,,,,,,,,,,,,,,,,,,,,,,,,,,,,,,,,,,,,,,,,,,,
1720416163,92,0,4317.179688,4244.615234,4263.461426,4279.358887,4251.282227,4249.358887,4242.307617,4230.128418,4214.487305,4198.717773,4428.717773,4416.666504,4327.05127,4211.025879,,,,,,,,,,,,,,,,,,,,,,,,,,,,,,,,,,,,,,,,,,,,,,,,,,,,,,,,,,,,,,,,,,,,,,
1720416163,93,0,4321.794922,4245.641113,4267.05127,4276.153809,4251.410156,4248.846191,4240.897461,4232.820313,4215.128418,4194.743652,4435.769043,4420.256348,4326.538574,4257.692383,,,,,,,,,,,,,,,,,,,,,,,,,,,,,,,,,,,,,,,,,,,,,,,,,,,,,,,,,,,,,,,,,,,,,,
1720416163,94,0,4316.410156,4238.974121,4263.461426,4266.922852,4245.641113,4250.384766,4239.871582,4229.358887,4216.282227,4186.794922,4429.358887,4409.102539,4313.717773,4284.358887,,,,,,,,,,,,,,,,,,,,,,,,,,,,,,,,,,,,,,,,,,,,,,,,,,,,,,,,,,,,,,,,,,,,,,
1720416163,95,0,4310.256348,4231.922852,4251.025879,4261.538574,4248.461426,4250.769043,4239.871582,4225.897461,4218.333496,4187.179688,4413.077148,4392.692383,4304.102539,4308.846191,6.882831,2.741713,0.444455,0.769017,0.149884,2.168466,2.582869,0.466435,0.884278,0.222406,2.151963,2.497673,0.467576,1.351809,0.187343,0.667496,2.086527,0.483045,0.982541,0.247819,0.606391,0.665445,0.14831,0.479796,0.340073,0.472959,0.478345,0.065138,0.214018,0.124714,0.570724,0.807109,0.146419,0.426858,0.099833,0.931241,1.344822,0.116064,0.777874,0.132029,0.85608,0.948416,0.218999,0.27819,0.109053,1.038097,2.404272,0.404328,0.409777,0.163977,1.700447,3.873312,0.448622,1.453105,0.295109,2.776047,4.183225,0.348477,2.436613,0.307234,2.080297,3.037764,0.325291,0.887987,0.267679,123.751465,21.855396,4.735882,2.903333,1.125733
1720416163,96,0,4315.512695,4229.743652,4243.205078,4259.615234,4247.94873,4248.077148,4240.128418,4228.333496,4216.922852,4186.666504,4408.205078,4391.025879,4305.128418,4350.641113,,,,,,,,,,,,,,,,,,,,,,,,,,,,,,,,,,,,,,,,,,,,,,,,,,,,,,,,,,,,,,,,,,,,,,
1720416163,97,0,4320.512695,4237.692383,4249.102539,4259.743652,4245.769043,4253.846191,4244.487305,4229.743652,4216.922852,4182.563965,4417.05127,4398.077148,4309.230957,4381.922852,,,,,,,,,,,,,,,,,,,,,,,,,,,,,,,,,,,,,,,,,,,,,,,,,,,,,,,,,,,,,,,,,,,,,,
1720416163,98,0,4320.384766,4245.128418,4255,4262.820313,4256.922852,4265.384766,4250.512695,4231.025879,4224.615234,4190,4426.410156,4401.025879,4313.205078,4403.205078,,,,,,,,,,,,,,,,,,,,,,,,,,,,,,,,,,,,,,,,,,,,,,,,,,,,,,,,,,,,,,,,,,,,,,
1720416163,99,0,4322.179688,4236.666504,4252.563965,4258.717773,4263.717773,4264.743652,4248.974121,4233.077148,4224.230957,4199.102539,4425,4399.487305,4315.128418,4422.563965,,,,,,,,,,,,,,,,,,,,,,,,,,,,,,,,,,,,,,,,,,,,,,,,,,,,,,,,,,,,,,,,,,,,,,
1720416163,100,0,4323.717773,4234.743652,4255.256348,4255.897461,4258.846191,4260.769043,4246.538574,4233.205078,4217.307617,4200.384766,4422.692383,4403.205078,4315,4427.692383,,,,,,,,,,,,,,,,,,,,,,,,,,,,,,,,,,,,,,,,,,,,,,,,,,,,,,,,,,,,,,,,,,,,,,
1720416163,101,0,4325,4248.205078,4265.128418,4262.563965,4257.05127,4261.922852,4247.692383,4233.974121,4220.641113,4200.769043,4428.846191,4412.307617,4318.589844,4435.256348,,,,,,,,,,,,,,,,,,,,,,,,,,,,,,,,,,,,,,,,,,,,,,,,,,,,,,,,,,,,,,,,,,,,,,
1720416163,102,0,4327.692383,4251.794922,4272.05127,4268.077148,4260.512695,4253.974121,4245.256348,4234.230957,4226.282227,4204.871582,4433.717773,4421.538574,4323.974121,4455.256348,,,,,,,,,,,,,,,,,,,,,,,,,,,,,,,,,,,,,,,,,,,,,,,,,,,,,,,,,,,,,,,,,,,,,,
1720416163,103,0,4334.230957,4254.102539,4276.282227,4273.205078,4262.436035,4248.077148,4247.307617,4235.256348,4226.025879,4204.358887,4436.153809,4427.94873,4325.128418,4455.897461,,,,,,,,,,,,,,,,,,,,,,,,,,,,,,,,,,,,,,,,,,,,,,,,,,,,,,,,,,,,,,,,,,,,,,
1720416163,104,0,4337.307617,4262.307617,4278.717773,4274.230957,4264.487305,4257.307617,4256.282227,4243.846191,4227.179688,4201.922852,4439.615234,4432.179688,4324.487305,4448.717773,,,,,,,,,,,,,,,,,,,,,,,,,,,,,,,,,,,,,,,,,,,,,,,,,,,,,,,,,,,,,,,,,,,,,,
1720416163,105,0,4333.717773,4259.358887,4278.974121,4266.282227,4264.871582,4261.282227,4257.820313,4246.922852,4231.410156,4212.307617,4437.05127,4434.230957,4324.871582,4453.974121,,,,,,,,,,,,,,,,,,,,,,,,,,,,,,,,,,,,,,,,,,,,,,,,,,,,,,,,,,,,,,,,,,,,,,
1720416163,106,0,4338.077148,4253.717773,4279.743652,4270.128418,4260.641113,4257.05127,4252.307617,4238.461426,4228.974121,4214.102539,4431.025879,4436.410156,4324.230957,4452.563965,,,,,,,,,,,,,,,,,,,,,,,,,,,,,,,,,,,,,,,,,,,,,,,,,,,,,,,,,,,,,,,,,,,,,,
1720416163,107,0,4338.589844,4253.077148,4275.769043,4276.666504,4258.717773,4260.769043,4252.05127,4234.615234,4225.512695,4202.307617,4430,4429.871582,4317.179688,4437.307617,,,,,,,,,,,,,,,,,,,,,,,,,,,,,,,,,,,,,,,,,,,,,,,,,,,,,,,,,,,,,,,,,,,,,,
1720416163,108,0,4325.384766,4247.692383,4262.820313,4267.820313,4257.820313,4265.256348,4251.282227,4233.077148,4228.333496,4204.743652,4426.282227,4413.461426,4310.512695,4421.538574,,,,,,,,,,,,,,,,,,,,,,,,,,,,,,,,,,,,,,,,,,,,,,,,,,,,,,,,,,,,,,,,,,,,,,
1720416163,109,0,4324.358887,4246.282227,4258.846191,4266.794922,4253.205078,4260,4248.077148,4233.589844,4233.461426,4218.461426,4428.974121,4417.05127,4320,4422.692383,,,,,,,,,,,,,,,,,,,,,,,,,,,,,,,,,,,,,,,,,,,,,,,,,,,,,,,,,,,,,,,,,,,,,,
1720416163,110,0,4336.153809,4251.922852,4269.230957,4272.94873,4249.743652,4258.333496,4247.307617,4238.461426,4234.102539,4219.743652,4440.769043,4435.128418,4329.871582,4431.666504,,,,,,,,,,,,,,,,,,,,,,,,,,,,,,,,,,,,,,,,,,,,,,,,,,,,,,,,,,,,,,,,,,,,,,
1720416163,111,0,4334.615234,4247.307617,4273.589844,4267.179688,4250,4261.794922,4248.846191,4237.436035,4230.769043,4214.871582,4439.871582,4434.358887,4325.512695,4429.743652,3.850656,2.008398,0.364786,0.667447,0.159964,1.369907,2.071337,0.38668,0.813705,0.216389,1.665986,2.34664,0.451369,1.27455,0.227085,0.429306,1.823019,0.349256,0.954111,0.240941,0.65168,0.518272,0.163496,0.422508,0.342654,0.426769,0.513601,0.060756,0.207695,0.117271,0.477096,0.940237,0.134962,0.436828,0.092463,0.732104,1.121313,0.134661,0.756399,0.133734,0.753121,0.681027,0.257426,0.285361,0.11633,0.992381,2.393197,0.307308,0.458035,0.155965,1.339612,3.546308,0.3766,1.466911,0.274559,2.10479,4.108614,0.272366,2.342812,0.356197,1.596392,2.89534,0.295228,0.857995,0.246426,131.201508,26.582371,5.39596,3.233913,1.369955
1720416163,112,0,4329.743652,4244.871582,4268.846191,4267.179688,4249.871582,4260,4251.410156,4237.436035,4229.230957,4217.307617,4434.487305,4427.820313,4321.538574,4422.94873,,,,,,,,,,,,,,,,,,,,,,,,,,,,,,,,,,,,,,,,,,,,,,,,,,,,,,,,,,,,,,,,,,,,,,
1720416163,113,0,4334.102539,4255.897461,4269.487305,4277.179688,4250.128418,4258.205078,4251.153809,4242.692383,4230,4219.102539,4439.358887,4431.794922,4325.512695,4422.820313,,,,,,,,,,,,,,,,,,,,,,,,,,,,,,,,,,,,,,,,,,,,,,,,,,,,,,,,,,,,,,,,,,,,,,
1720416163,114,0,4336.538574,4258.589844,4273.846191,4280.384766,4252.05127,4262.179688,4251.666504,4239.743652,4231.025879,4217.307617,4442.436035,4431.410156,4326.153809,4422.692383,,,,,,,,,,,,,,,,,,,,,,,,,,,,,,,,,,,,,,,,,,,,,,,,,,,,,,,,,,,,,,,,,,,,,,
1720416163,115,0,4339.230957,4255.256348,4277.05127,4280.641113,4251.282227,4260.256348,4254.358887,4236.410156,4230.769043,4214.230957,4438.589844,4433.333496,4324.358887,4421.282227,,,,,,,,,,,,,,,,,,,,,,,,,,,,,,,,,,,,,,,,,,,,,,,,,,,,,,,,,,,,,,,,,,,,,,
1720416163,116,0,4344.102539,4260.769043,4280.384766,4285.769043,4250.128418,4252.05127,4252.436035,4242.307617,4229.358887,4216.794922,4441.922852,4447.692383,4328.717773,4426.794922,,,,,,,,,,,,,,,,,,,,,,,,,,,,,,,,,,,,,,,,,,,,,,,,,,,,,,,,,,,,,,,,,,,,,,
1720416163,117,0,4350.512695,4268.205078,4284.230957,4291.666504,4252.307617,4255.769043,4259.102539,4252.179688,4235.384766,4230.256348,4458.077148,4464.230957,4341.538574,4435.256348,,,,,,,,,,,,,,,,,,,,,,,,,,,,,,,,,,,,,,,,,,,,,,,,,,,,,,,,,,,,,,,,,,,,,,
1720416163,118,0,4353.333496,4267.692383,4286.025879,4291.922852,4251.538574,4266.025879,4269.230957,4260,4242.307617,4234.615234,4464.102539,4467.307617,4347.94873,4433.333496,,,,,,,,,,,,,,,,,,,,,,,,,,,,,,,,,,,,,,,,,,,,,,,,,,,,,,,,,,,,,,,,,,,,,,
1720416163,119,0,4344.102539,4260,4276.025879,4281.410156,4250.256348,4262.179688,4260,4253.717773,4239.230957,4223.077148,4446.794922,4447.307617,4333.077148,4412.563965,,,,,,,,,,,,,,,,,,,,,,,,,,,,,,,,,,,,,,,,,,,,,,,,,,,,,,,,,,,,,,,,,,,,,,
1720416163,120,0,4331.025879,4252.05127,4256.410156,4270,4242.692383,4252.05127,4244.487305,4236.282227,4233.461426,4213.846191,4425,4421.282227,4313.077148,4384.743652,,,,,,,,,,,,,,,,,,,,,,,,,,,,,,,,,,,,,,,,,,,,,,,,,,,,,,,,,,,,,,,,,,,,,,
1720416163,121,0,4324.743652,4242.436035,4244.615234,4264.102539,4231.794922,4248.333496,4240,4230.256348,4230.769043,4212.563965,4415.897461,4410,4307.692383,4369.487305,,,,,,,,,,,,,,,,,,,,,,,,,,,,,,,,,,,,,,,,,,,,,,,,,,,,,,,,,,,,,,,,,,,,,,
1720416163,122,0,4323.461426,4235.769043,4246.282227,4263.077148,4236.794922,4248.205078,4239.358887,4231.794922,4228.974121,4210.769043,4417.05127,4408.461426,4311.410156,4366.025879,,,,,,,,,,,,,,,,,,,,,,,,,,,,,,,,,,,,,,,,,,,,,,,,,,,,,,,,,,,,,,,,,,,,,,
1720416163,123,0,4328.077148,4239.102539,4254.230957,4269.102539,4251.922852,4250.256348,4243.077148,4230.384766,4229.230957,4213.205078,4428.846191,4415.128418,4318.077148,4368.717773,,,,,,,,,,,,,,,,,,,,,,,,,,,,,,,,,,,,,,,,,,,,,,,,,,,,,,,,,,,,,,,,,,,,,,
1720416163,124,0,4338.974121,4247.436035,4262.820313,4275.384766,4253.974121,4252.563965,4248.974121,4237.563965,4232.692383,4219.358887,4439.615234,4428.717773,4328.974121,4374.230957,,,,,,,,,,,,,,,,,,,,,,,,,,,,,,,,,,,,,,,,,,,,,,,,,,,,,,,,,,,,,,,,,,,,,,
1720416163,125,0,4341.025879,4250.512695,4265.256348,4277.179688,4242.94873,4249.871582,4248.461426,4243.461426,4231.666504,4216.153809,4433.077148,4432.563965,4328.846191,4371.794922,,,,,,,,,,,,,,,,,,,,,,,,,,,,,,,,,,,,,,,,,,,,,,,,,,,,,,,,,,,,,,,,,,,,,,
1720416163,126,0,4337.307617,4246.666504,4263.333496,4277.820313,4232.436035,4248.589844,4246.282227,4237.436035,4229.230957,4211.410156,4424.871582,4426.922852,4314.102539,4366.794922,,,,,,,,,,,,,,,,,,,,,,,,,,,,,,,,,,,,,,,,,,,,,,,,,,,,,,,,,,,,,,,,,,,,,,
1720416163,127,0,4339.743652,4246.922852,4265.897461,4277.94873,4231.922852,4250.128418,4250.128418,4236.410156,4229.871582,4213.333496,4431.538574,4429.230957,4308.974121,4365.641113,1.758374,1.481499,0.295249,0.590362,0.179138,0.929087,1.584203,0.349538,0.769934,0.221406,1.401394,2.220387,0.471592,1.195561,0.281162,0.342659,1.600381,0.293316,0.95859,0.237762,0.68827,0.383955,0.196372,0.357779,0.337182,0.417927,0.581933,0.068764,0.195296,0.112362,0.420953,1.199476,0.139751,0.425402,0.090779,0.586475,0.98306,0.170876,0.706367,0.135591,0.634917,0.490204,0.325944,0.283882,0.125647,0.917875,2.349051,0.252867,0.501808,0.160087,1.059339,3.220552,0.306605,1.468447,0.257689,1.621229,4.048359,0.219599,2.220997,0.422906,1.180355,2.666418,0.27694,0.861576,0.232489,130.323318,28.186256,5.472398,3.27111,1.504251
1720416163,0,0,4347.05127,4257.436035,4269.358887,4280.128418,4241.153809,4249.743652,4253.974121,4244.230957,4224.871582,4216.025879,4435.512695,4433.205078,4315.769043,4364.358887,,,,,,,,,,,,,,,,,,,,,,,,,,,,,,,,,,,,,,,,,,,,,,,,,,,,,,,,,,,,,,,,,,,,,,
1720416163,1,0,4349.487305,4264.102539,4267.820313,4283.205078,4243.333496,4248.974121,4253.717773,4246.282227,4217.05127,4213.205078,4429.487305,4430.769043,4316.282227,4364.487305,,,,,,,,,,,,,,,,,,,,,,,,,,,,,,,,,,,,,,,,,,,,,,,,,,,,,,,,,,,,,,,,,,,,,,
1720416163,2,0,4341.794922,4256.922852,4267.436035,4282.692383,4240.769043,4248.717773,4253.589844,4245.512695,4216.410156,4206.025879,4427.94873,4431.410156,4312.692383,4363.717773,,,,,,,,,,,,,,,,,,,,,,,,,,,,,,,,,,,,,,,,,,,,,,,,,,,,,,,,,,,,,,,,,,,,,,
1720416163,3,0,4334.230957,4247.179688,4261.025879,4275.641113,4246.666504,4248.333496,4252.436035,4245.897461,4223.974121,4200.897461,4425.256348,4426.922852,4310.128418,4355.769043,,,,,,,,,,,,,,,,,,,,,,,,,,,,,,,,,,,,,,,,,,,,,,,,,,,,,,,,,,,,,,,,,,,,,,
1720416163,4,0,4332.820313,4247.307617,4249.358887,4266.922852,4248.205078,4247.94873,4250,4239.871582,4232.05127,4200.897461,4415.641113,4410,4307.820313,4345.769043,,,,,,,,,,,,,,,,,,,,,,,,,,,,,,,,,,,,,,,,,,,,,,,,,,,,,,,,,,,,,,,,,,,,,,
1720416163,5,0,4330.384766,4247.820313,4244.487305,4264.487305,4237.05127,4247.05127,4243.333496,4231.666504,4234.102539,4202.179688,4410,4401.794922,4308.333496,4342.563965,,,,,,,,,,,,,,,,,,,,,,,,,,,,,,,,,,,,,,,,,,,,,,,,,,,,,,,,,,,,,,,,,,,,,,
1720416163,6,0,4326.025879,4243.974121,4248.205078,4268.205078,4224.230957,4248.461426,4238.717773,4232.820313,4232.563965,4200.769043,4413.333496,4410.641113,4308.461426,4344.871582,,,,,,,,,,,,,,,,,,,,,,,,,,,,,,,,,,,,,,,,,,,,,,,,,,,,,,,,,,,,,,,,,,,,,,
1720416163,7,0,4323.974121,4235.769043,4248.589844,4265.256348,4222.692383,4244.871582,4240.256348,4236.666504,4227.563965,4200,4416.153809,4412.94873,4303.589844,4344.230957,,,,,,,,,,,,,,,,,,,,,,,,,,,,,,,,,,,,,,,,,,,,,,,,,,,,,,,,,,,,,,,,,,,,,,
1720416163,8,0,4327.05127,4230.384766,4248.461426,4258.333496,4229.358887,4236.538574,4238.461426,4233.589844,4218.717773,4200.769043,4416.282227,4411.538574,4303.589844,4346.410156,,,,,,,,,,,,,,,,,,,,,,,,,,,,,,,,,,,,,,,,,,,,,,,,,,,,,,,,,,,,,,,,,,,,,,
1720416163,9,0,4333.461426,4242.05127,4256.282227,4260.384766,4236.153809,4239.487305,4237.307617,4233.077148,4214.615234,4202.05127,4424.230957,4424.230957,4311.282227,4354.230957,,,,,,,,,,,,,,,,,,,,,,,,,,,,,,,,,,,,,,,,,,,,,,,,,,,,,,,,,,,,,,,,,,,,,,
1720416163,10,0,4334.358887,4251.025879,4258.077148,4265.384766,4236.282227,4248.846191,4242.436035,4236.666504,4218.461426,4201.794922,4427.94873,4430.769043,4313.974121,4352.436035,,,,,,,,,,,,,,,,,,,,,,,,,,,,,,,,,,,,,,,,,,,,,,,,,,,,,,,,,,,,,,,,,,,,,,
1720416163,11,0,4331.153809,4247.05127,4254.743652,4270.256348,4235,4249.615234,4248.461426,4236.794922,4220.128418,4200.641113,4422.307617,4424.743652,4311.025879,4342.820313,,,,,,,,,,,,,,,,,,,,,,,,,,,,,,,,,,,,,,,,,,,,,,,,,,,,,,,,,,,,,,,,,,,,,,
1720416163,12,0,4338.333496,4254.487305,4264.230957,4279.871582,4236.025879,4249.743652,4250.128418,4239.102539,4217.307617,4201.666504,4421.794922,4429.615234,4310.128418,4341.410156,,,,,,,,,,,,,,,,,,,,,,,,,,,,,,,,,,,,,,,,,,,,,,,,,,,,,,,,,,,,,,,,,,,,,,
1720416163,13,0,4348.461426,4266.410156,4278.205078,4283.717773,4236.922852,4253.846191,4252.692383,4244.871582,4216.666504,4203.077148,4428.205078,4442.94873,4313.205078,4347.179688,,,,,,,,,,,,,,,,,,,,,,,,,,,,,,,,,,,,,,,,,,,,,,,,,,,,,,,,,,,,,,,,,,,,,,
1720416163,14,0,4348.974121,4265.641113,4280.256348,4280.641113,4235.256348,4252.563965,4255,4247.179688,4216.666504,4202.692383,4433.333496,4448.974121,4319.615234,4348.846191,,,,,,,,,,,,,,,,,,,,,,,,,,,,,,,,,,,,,,,,,,,,,,,,,,,,,,,,,,,,,,,,,,,,,,
1720416164,15,0,4346.538574,4261.282227,4279.102539,4281.153809,4227.94873,4248.717773,4254.230957,4247.563965,4219.871582,4203.589844,4441.794922,4450.512695,4324.871582,4346.153809,0.722868,1.201662,0.239981,0.539451,0.199548,0.883928,1.243895,0.347187,0.750175,0.231197,1.368688,2.234804,0.509414,1.118847,0.334288,0.426251,1.513595,0.314343,0.987858,0.229646,0.722923,0.297074,0.239791,0.307405,0.325952,0.469543,0.674873,0.088088,0.180814,0.109883,0.43649,1.564006,0.165321,0.403871,0.092743,0.527452,0.951056,0.211597,0.637073,0.134736,0.533919,0.394024,0.399909,0.273797,0.134298,0.825727,2.297491,0.235331,0.527348,0.171951,0.899254,2.984141,0.249026,1.468699,0.246748,1.407636,4.112087,0.201196,2.108948,0.486717,0.89697,2.440151,0.269906,0.900878,0.222329,120.767128,25.971945,4.852954,2.999017,1.487975
1720416164,16,0,4342.307617,4257.563965,4278.717773,4276.666504,4221.666504,4246.794922,4253.717773,4251.410156,4226.153809,4205.384766,4448.589844,4450.512695,4323.077148,4342.307617,,,,,,,,,,,,,,,,,,,,,,,,,,,,,,,,,,,,,,,,,,,,,,,,,,,,,,,,,,,,,,,,,,,,,,
1720416164,17,0,4330.641113,4244.358887,4267.563965,4261.538574,4217.307617,4246.025879,4247.436035,4248.974121,4224.615234,4202.692383,4434.743652,4441.282227,4311.025879,4323.077148,,,,,,,,,,,,,,,,,,,,,,,,,,,,,,,,,,,,,,,,,,,,,,,,,,,,,,,,,,,,,,,,,,,,,,
1720416164,18,0,4323.461426,4233.333496,4258.974121,4255.128418,4215.256348,4247.820313,4245.512695,4244.358887,4218.717773,4199.743652,4415.512695,4428.717773,4300.641113,4312.563965,,,,,,,,,,,,,,,,,,,,,,,,,,,,,,,,,,,,,,,,,,,,,,,,,,,,,,,,,,,,,,,,,,,,,,
1720416164,19,0,4325.512695,4231.410156,4261.922852,4258.333496,4224.102539,4247.820313,4251.282227,4247.307617,4218.974121,4199.358887,4416.538574,4425.897461,4301.025879,4318.717773,,,,,,,,,,,,,,,,,,,,,,,,,,,,,,,,,,,,,,,,,,,,,,,,,,,,,,,,,,,,,,,,,,,,,,
1720416164,20,0,4327.307617,4233.717773,4260.512695,4258.846191,4234.102539,4248.846191,4246.410156,4243.974121,4223.589844,4202.563965,4427.05127,4430.769043,4308.589844,4307.820313,,,,,,,,,,,,,,,,,,,,,,,,,,,,,,,,,,,,,,,,,,,,,,,,,,,,,,,,,,,,,,,,,,,,,,
1720416164,21,0,4329.102539,4241.666504,4256.153809,4260.128418,4227.436035,4246.410156,4238.589844,4236.538574,4218.205078,4201.666504,4424.487305,4430.641113,4312.563965,4299.615234,,,,,,,,,,,,,,,,,,,,,,,,,,,,,,,,,,,,,,,,,,,,,,,,,,,,,,,,,,,,,,,,,,,,,,
1720416164,22,0,4330.128418,4248.077148,4257.436035,4264.102539,4221.410156,4236.282227,4237.179688,4229.487305,4204.871582,4191.153809,4409.358887,4416.922852,4304.487305,4300,,,,,,,,,,,,,,,,,,,,,,,,,,,,,,,,,,,,,,,,,,,,,,,,,,,,,,,,,,,,,,,,,,,,,,
1720416164,23,0,4337.563965,4257.563965,4266.538574,4273.461426,4233.846191,4234.743652,4235.512695,4229.743652,4205.641113,4192.179688,4411.153809,4416.538574,4302.820313,4297.307617,,,,,,,,,,,,,,,,,,,,,,,,,,,,,,,,,,,,,,,,,,,,,,,,,,,,,,,,,,,,,,,,,,,,,,
1720416164,24,0,4350.256348,4270.256348,4279.615234,4284.871582,4240.897461,4242.692383,4236.794922,4236.922852,4216.666504,4207.436035,4429.743652,4437.820313,4315.256348,4305.641113,,,,,,,,,,,,,,,,,,,,,,,,,,,,,,,,,,,,,,,,,,,,,,,,,,,,,,,,,,,,,,,,,,,,,,
1720416164,25,0,4348.846191,4271.410156,4282.05127,4285.512695,4231.922852,4239.487305,4239.358887,4237.820313,4218.205078,4211.025879,4436.922852,4443.461426,4322.692383,4307.179688,,,,,,,,,,,,,,,,,,,,,,,,,,,,,,,,,,,,,,,,,,,,,,,,,,,,,,,,,,,,,,,,,,,,,,
1720416164,26,0,4340.512695,4265.256348,4276.282227,4278.974121,4228.589844,4231.666504,4237.563965,4233.333496,4212.692383,4202.94873,4431.153809,4431.794922,4320.512695,4294.615234,,,,,,,,,,,,,,,,,,,,,,,,,,,,,,,,,,,,,,,,,,,,,,,,,,,,,,,,,,,,,,,,,,,,,,
1720416164,27,0,4340.512695,4264.230957,4274.615234,4272.692383,4233.205078,4238.461426,4240.128418,4238.717773,4214.230957,4201.538574,4426.922852,4430.769043,4317.692383,4296.666504,,,,,,,,,,,,,,,,,,,,,,,,,,,,,,,,,,,,,,,,,,,,,,,,,,,,,,,,,,,,,,,,,,,,,,
1720416164,28,0,4339.743652,4262.436035,4274.615234,4268.589844,4237.436035,4250.897461,4247.820313,4248.205078,4220.128418,4206.922852,4431.922852,4438.846191,4317.436035,4303.717773,,,,,,,,,,,,,,,,,,,,,,,,,,,,,,,,,,,,,,,,,,,,,,,,,,,,,,,,,,,,,,,,,,,,,,
1720416164,29,0,4327.94873,4253.717773,4264.487305,4263.846191,4233.333496,4248.846191,4245,4242.94873,4221.922852,4205,4432.820313,4433.205078,4315.128418,4287.563965,,,,,,,,,,,,,,,,,,,,,,,,,,,,,,,,,,,,,,,,,,,,,,,,,,,,,,,,,,,,,,,,,,,,,,
1720416164,30,0,4315.512695,4240.128418,4248.077148,4251.922852,4220.256348,4235.897461,4232.692383,4234.102539,4214.615234,4191.410156,4416.538574,4412.436035,4307.179688,4272.436035,,,,,,,,,,,,,,,,,,,,,,,,,,,,,,,,,,,,,,,,,,,,,,,,,,,,,,,,,,,,,,,,,,,,,,
1720416164,31,0,4315.512695,4232.94873,4244.871582,4244.487305,4215.512695,4229.615234,4224.230957,4229.615234,4209.358887,4185,4405.512695,4401.666504,4303.077148,4268.205078,0.452188,1.144195,0.199028,0.510216,0.211977,1.177948,1.120341,0.359762,0.745633,0.238461,1.505783,2.459687,0.537942,1.047856,0.369756,0.648494,1.601125,0.382607,1.022671,0.212249,0.76051,0.266538,0.286439,0.288474,0.310182,0.568787,0.771467,0.118395,0.168622,0.108293,0.513874,1.952822,0.212715,0.385585,0.095105,0.519211,0.996018,0.245167,0.563773,0.129687,0.466717,0.368898,0.451342,0.259482,0.139621,0.735299,2.224361,0.242712,0.528892,0.186091,0.833708,2.862401,0.221004,1.464787,0.241217,1.409502,4.35637,0.229319,2.028477,0.524648,0.745386,2.286935,0.277025,0.964635,0.213403,105.607933,20.770523,3.713836,2.508603,1.329269
1720416164,32,0,4321.922852,4241.153809,4256.025879,4252.563965,4215.897461,4233.205078,4226.025879,4221.666504,4212.94873,4192.820313,4409.743652,4407.05127,4305.641113,4263.846191,,,,,,,,,,,,,,,,,,,,,,,,,,,,,,,,,,,,,,,,,,,,,,,,,,,,,,,,,,,,,,,,,,,,,,
1720416164,33,0,4321.666504,4245.769043,4254.743652,4253.846191,4218.461426,4234.743652,4229.358887,4215.897461,4207.820313,4193.205078,4405.769043,4407.179688,4300.512695,4259.871582,,,,,,,,,,,,,,,,,,,,,,,,,,,,,,,,,,,,,,,,,,,,,,,,,,,,,,,,,,,,,,,,,,,,,,
1720416164,34,0,4318.974121,4243.717773,4244.871582,4245.512695,4223.974121,4232.179688,4223.333496,4214.487305,4196.794922,4181.410156,4395.384766,4397.307617,4292.563965,4252.94873,,,,,,,,,,,,,,,,,,,,,,,,,,,,,,,,,,,,,,,,,,,,,,,,,,,,,,,,,,,,,,,,,,,,,,
1720416164,35,0,4327.307617,4254.102539,4254.487305,4255.769043,4220.641113,4230.641113,4222.05127,4215.641113,4198.589844,4180.256348,4399.102539,4398.974121,4298.333496,4255,,,,,,,,,,,,,,,,,,,,,,,,,,,,,,,,,,,,,,,,,,,,,,,,,,,,,,,,,,,,,,,,,,,,,,
1720416164,36,0,4339.102539,4268.589844,4269.871582,4271.794922,4216.538574,4228.846191,4226.538574,4217.820313,4205,4194.358887,4410.897461,4407.436035,4311.282227,4258.589844,,,,,,,,,,,,,,,,,,,,,,,,,,,,,,,,,,,,,,,,,,,,,,,,,,,,,,,,,,,,,,,,,,,,,,
1720416164,37,0,4344.102539,4268.974121,4271.794922,4268.589844,4226.922852,4228.846191,4225.769043,4218.974121,4203.077148,4200.384766,4418.205078,4413.077148,4321.025879,4258.461426,,,,,,,,,,,,,,,,,,,,,,,,,,,,,,,,,,,,,,,,,,,,,,,,,,,,,,,,,,,,,,,,,,,,,,
1720416164,38,0,4347.820313,4266.153809,4276.538574,4263.717773,4234.743652,4230.769043,4226.538574,4217.820313,4199.743652,4194.871582,4420.769043,4424.487305,4322.05127,4262.307617,,,,,,,,,,,,,,,,,,,,,,,,,,,,,,,,,,,,,,,,,,,,,,,,,,,,,,,,,,,,,,,,,,,,,,
1720416164,39,0,4347.05127,4269.102539,4277.94873,4265.128418,4228.589844,4228.589844,4224.358887,4216.538574,4198.205078,4190.512695,4417.820313,4426.666504,4311.025879,4258.205078,,,,,,,,,,,,,,,,,,,,,,,,,,,,,,,,,,,,,,,,,,,,,,,,,,,,,,,,,,,,,,,,,,,,,,
1720416164,40,0,4340,4264.230957,4267.05127,4262.436035,4229.743652,4226.538574,4218.717773,4216.282227,4198.717773,4190.897461,4412.179688,4414.871582,4301.538574,4249.487305,,,,,,,,,,,,,,,,,,,,,,,,,,,,,,,,,,,,,,,,,,,,,,,,,,,,,,,,,,,,,,,,,,,,,,
1720416164,41,0,4335.512695,4253.461426,4262.179688,4260.128418,4230.128418,4229.230957,4220.128418,4212.820313,4201.282227,4188.846191,4407.307617,4405.897461,4299.743652,4245.769043,,,,,,,,,,,,,,,,,,,,,,,,,,,,,,,,,,,,,,,,,,,,,,,,,,,,,,,,,,,,,,,,,,,,,,
1720416164,42,0,4335.384766,4248.717773,4265,4257.563965,4220.512695,4232.05127,4223.205078,4210,4202.436035,4187.692383,4402.563965,4401.922852,4295.897461,4237.307617,,,,,,,,,,,,,,,,,,,,,,,,,,,,,,,,,,,,,,,,,,,,,,,,,,,,,,,,,,,,,,,,,,,,,,
1720416164,43,0,4334.102539,4247.436035,4263.589844,4248.461426,4222.563965,4230.769043,4221.922852,4212.05127,4201.282227,4185.641113,4400.641113,4396.153809,4292.94873,4226.153809,,,,,,,,,,,,,,,,,,,,,,,,,,,,,,,,,,,,,,,,,,,,,,,,,,,,,,,,,,,,,,,,,,,,,,
1720416164,44,0,4334.743652,4244.358887,4266.153809,4243.461426,4230.384766,4228.974121,4222.436035,4215.256348,4199.615234,4182.820313,4406.153809,4397.820313,4300.128418,4229.615234,,,,,,,,,,,,,,,,,,,,,,,,,,,,,,,,,,,,,,,,,,,,,,,,,,,,,,,,,,,,,,,,,,,,,,
1720416164,45,0,4336.922852,4244.871582,4273.077148,4246.538574,4227.820313,4227.820313,4220.256348,4213.974121,4200.769043,4192.692383,4415,4409.230957,4309.358887,4230.897461,,,,,,,,,,,,,,,,,,,,,,,,,,,,,,,,,,,,,,,,,,,,,,,,,,,,,,,,,,,,,,,,,,,,,,
1720416164,46,0,4337.692383,4248.461426,4276.666504,4247.563965,4224.871582,4229.487305,4218.717773,4215.128418,4202.307617,4199.871582,4415.897461,4416.025879,4312.05127,4229.743652,,,,,,,,,,,,,,,,,,,,,,,,,,,,,,,,,,,,,,,,,,,,,,,,,,,,,,,,,,,,,,,,,,,,,,
1720416164,47,0,4337.307617,4247.692383,4275.384766,4247.05127,4225.384766,4228.717773,4221.282227,4214.615234,4199.615234,4187.94873,4412.94873,4410.512695,4308.461426,4233.589844,0.510022,1.252813,0.171369,0.497596,0.210697,1.528433,1.241479,0.367232,0.744738,0.238917,1.669951,2.895079,0.540524,0.986514,0.375891,0.888283,1.844163,0.459504,1.04195,0.187548,0.792056,0.279438,0.333041,0.306853,0.29052,0.687769,0.845134,0.159166,0.162011,0.106014,0.618442,2.264631,0.274591,0.377488,0.095344,0.520207,1.076944,0.263974,0.50239,0.121203,0.428518,0.37668,0.461648,0.247157,0.139965,0.623034,2.089596,0.260566,0.506362,0.19838,0.804019,2.835102,0.240456,1.44597,0.24032,1.519634,4.778395,0.309489,1.981294,0.523267,0.649727,2.227252,0.308776,1.034697,0.205529,88.789413,14.508177,2.421495,1.958182,1.08006
1720416164,48,0,4334.102539,4247.820313,4269.102539,4249.358887,4219.487305,4221.922852,4216.282227,4202.94873,4196.666504,4178.077148,4412.436035,4398.589844,4299.487305,4212.179688,,,,,,,,,,,,,,,,,,,,,,,,,,,,,,,,,,,,,,,,,,,,,,,,,,,,,,,,,,,,,,,,,,,,,,
1720416164,49,0,4337.179688,4255.384766,4267.563965,4249.230957,4217.436035,4215.641113,4212.179688,4200.769043,4198.461426,4185.769043,4408.717773,4399.102539,4296.538574,4199.358887,,,,,,,,,,,,,,,,,,,,,,,,,,,,,,,,,,,,,,,,,,,,,,,,,,,,,,,,,,,,,,,,,,,,,,
1720416164,50,0,4341.538574,4259.487305,4272.820313,4249.615234,4220.128418,4217.563965,4221.153809,4215,4201.922852,4199.102539,4412.436035,4414.743652,4307.563965,4221.282227,,,,,,,,,,,,,,,,,,,,,,,,,,,,,,,,,,,,,,,,,,,,,,,,,,,,,,,,,,,,,,,,,,,,,,
1720416164,51,0,4336.922852,4256.282227,4271.794922,4250.769043,4217.820313,4226.794922,4227.436035,4220.512695,4203.461426,4202.692383,4422.94873,4425,4314.871582,4238.333496,,,,,,,,,,,,,,,,,,,,,,,,,,,,,,,,,,,,,,,,,,,,,,,,,,,,,,,,,,,,,,,,,,,,,,
1720416164,52,0,4332.692383,4250.897461,4264.743652,4246.153809,4222.307617,4231.410156,4224.230957,4215.128418,4198.974121,4193.589844,4415.256348,4417.436035,4309.230957,4251.666504,,,,,,,,,,,,,,,,,,,,,,,,,,,,,,,,,,,,,,,,,,,,,,,,,,,,,,,,,,,,,,,,,,,,,,
1720416164,53,0,4333.205078,4250.769043,4261.794922,4243.589844,4232.563965,4234.615234,4226.025879,4214.230957,4196.666504,4185.128418,4403.205078,4403.589844,4305.384766,4276.794922,,,,,,,,,,,,,,,,,,,,,,,,,,,,,,,,,,,,,,,,,,,,,,,,,,,,,,,,,,,,,,,,,,,,,,
1720416164,54,0,4331.922852,4251.922852,4260.512695,4248.846191,4232.436035,4241.282227,4231.538574,4216.282227,4206.153809,4192.179688,4409.743652,4403.333496,4310,4310.384766,,,,,,,,,,,,,,,,,,,,,,,,,,,,,,,,,,,,,,,,,,,,,,,,,,,,,,,,,,,,,,,,,,,,,,
1720416164,55,0,4329.487305,4247.436035,4256.922852,4243.974121,4228.333496,4241.282227,4229.102539,4217.05127,4214.871582,4202.05127,4412.820313,4408.717773,4312.94873,4355.128418,,,,,,,,,,,,,,,,,,,,,,,,,,,,,,,,,,,,,,,,,,,,,,,,,,,,,,,,,,,,,,,,,,,,,,
1720416164,56,0,4328.077148,4244.871582,4257.179688,4232.820313,4232.307617,4236.282227,4228.717773,4217.436035,4215,4201.666504,4407.692383,4409.230957,4314.615234,4397.436035,,,,,,,,,,,,,,,,,,,,,,,,,,,,,,,,,,,,,,,,,,,,,,,,,,,,,,,,,,,,,,,,,,,,,,
1720416164,57,0,4329.871582,4246.025879,4263.077148,4236.153809,4236.666504,4232.820313,4229.358887,4215.769043,4215.769043,4202.179688,4411.153809,4408.205078,4318.846191,4416.794922,,,,,,,,,,,,,,,,,,,,,,,,,,,,,,,,,,,,,,,,,,,,,,,,,,,,,,,,,,,,,,,,,,,,,,
1720416164,58,0,4340.128418,4250.512695,4272.820313,4244.871582,4231.282227,4232.179688,4230,4222.563965,4216.153809,4210.256348,4414.743652,4410.769043,4323.077148,4440.512695,,,,,,,,,,,,,,,,,,,,,,,,,,,,,,,,,,,,,,,,,,,,,,,,,,,,,,,,,,,,,,,,,,,,,,
1720416164,59,0,4340.769043,4256.410156,4279.743652,4249.743652,4229.871582,4237.820313,4236.153809,4230.769043,4215.641113,4216.025879,4418.589844,4420.512695,4324.102539,4466.282227,,,,,,,,,,,,,,,,,,,,,,,,,,,,,,,,,,,,,,,,,,,,,,,,,,,,,,,,,,,,,,,,,,,,,,
1720416164,60,0,4334.358887,4263.205078,4281.025879,4253.974121,4240.512695,4250.641113,4241.794922,4226.922852,4216.666504,4215.384766,4425.512695,4428.333496,4326.922852,4470.128418,,,,,,,,,,,,,,,,,,,,,,,,,,,,,,,,,,,,,,,,,,,,,,,,,,,,,,,,,,,,,,,,,,,,,,
1720416164,61,0,4341.025879,4270.384766,4280.128418,4253.333496,4244.615234,4248.205078,4239.743652,4217.94873,4210,4207.307617,4418.333496,4419.871582,4326.282227,4471.922852,,,,,,,,,,,,,,,,,,,,,,,,,,,,,,,,,,,,,,,,,,,,,,,,,,,,,,,,,,,,,,,,,,,,,,
1720416164,62,0,4349.743652,4277.563965,4284.102539,4255.512695,4239.871582,4233.461426,4235,4215.128418,4204.230957,4199.871582,4406.282227,4410.641113,4320.256348,4476.282227,,,,,,,,,,,,,,,,,,,,,,,,,,,,,,,,,,,,,,,,,,,,,,,,,,,,,,,,,,,,,,,,,,,,,,
1720416164,63,0,4354.487305,4287.820313,4294.871582,4268.717773,4245.641113,4238.205078,4239.487305,4223.205078,4212.692383,4205.769043,4415.128418,4422.820313,4322.436035,4482.436035,0.594392,1.48446,0.161989,0.491995,0.196047,1.785324,1.635503,0.370786,0.73055,0.232028,1.813676,3.477799,0.526866,0.930438,0.351082,1.079636,2.21303,0.522399,1.020083,0.160971,0.825028,0.320088,0.37931,0.352432,0.268177,0.788086,0.870851,0.208088,0.162544,0.103552,0.713039,2.420927,0.336221,0.376583,0.092748,0.512358,1.169627,0.265411,0.461058,0.111319,0.399933,0.393717,0.430995,0.240259,0.135726,0.518918,1.866682,0.285316,0.465218,0.207586,0.798363,2.872596,0.322366,1.397312,0.244726,1.687101,5.324947,0.444445,1.943028,0.485014,0.601163,2.233541,0.377201,1.089212,0.199847,74.082443,9.150632,1.369656,1.497106,0.811682
1720416164,64,0,4360.897461,4293.846191,4300.769043,4275.384766,4253.461426,4251.922852,4246.922852,4233.205078,4220.256348,4216.153809,4432.436035,4438.077148,4333.077148,4491.153809,,,,,,,,,,,,,,,,,,,,,,,,,,,,,,,,,,,,,,,,,,,,,,,,,,,,,,,,,,,,,,,,,,,,,,
1720416164,65,0,4365.897461,4293.846191,4297.307617,4271.153809,4248.205078,4250.769043,4245.256348,4233.974121,4218.974121,4222.692383,4441.922852,4442.692383,4339.102539,4498.077148,,,,,,,,,,,,,,,,,,,,,,,,,,,,,,,,,,,,,,,,,,,,,,,,,,,,,,,,,,,,,,,,,,,,,,
1720416164,66,0,4367.05127,4294.230957,4294.102539,4271.794922,4243.077148,4245,4240.384766,4230.384766,4223.333496,4228.205078,4446.794922,4444.102539,4341.410156,4501.153809,,,,,,,,,,,,,,,,,,,,,,,,,,,,,,,,,,,,,,,,,,,,,,,,,,,,,,,,,,,,,,,,,,,,,,
1720416164,67,0,4365.512695,4296.538574,4291.794922,4268.974121,4247.820313,4248.077148,4237.820313,4227.94873,4229.615234,4230.128418,4440.512695,4435.256348,4340,4493.333496,,,,,,,,,,,,,,,,,,,,,,,,,,,,,,,,,,,,,,,,,,,,,,,,,,,,,,,,,,,,,,,,,,,,,,
1720416164,68,0,4362.179688,4294.102539,4289.743652,4262.436035,4251.025879,4250.512695,4238.589844,4224.871582,4225.641113,4221.538574,4425.769043,4423.846191,4331.410156,4485,,,,,,,,,,,,,,,,,,,,,,,,,,,,,,,,,,,,,,,,,,,,,,,,,,,,,,,,,,,,,,,,,,,,,,
1720416164,69,0,4365.897461,4289.102539,4291.922852,4267.179688,4248.717773,4247.05127,4238.077148,4220.641113,4216.794922,4216.410156,4421.794922,4428.461426,4327.307617,4488.974121,,,,,,,,,,,,,,,,,,,,,,,,,,,,,,,,,,,,,,,,,,,,,,,,,,,,,,,,,,,,,,,,,,,,,,
1720416164,70,0,4375,4296.025879,4295.769043,4277.563965,4247.563965,4248.205078,4238.589844,4219.487305,4214.230957,4224.615234,4430,4441.666504,4334.487305,4497.05127,,,,,,,,,,,,,,,,,,,,,,,,,,,,,,,,,,,,,,,,,,,,,,,,,,,,,,,,,,,,,,,,,,,,,,
1720416164,71,0,4372.692383,4303.846191,4294.615234,4281.025879,4250.128418,4251.922852,4243.717773,4226.153809,4223.333496,4234.102539,4433.077148,4448.205078,4336.538574,4494.358887,,,,,,,,,,,,,,,,,,,,,,,,,,,,,,,,,,,,,,,,,,,,,,,,,,,,,,,,,,,,,,,,,,,,,,
1720416164,72,0,4361.794922,4298.974121,4286.666504,4276.153809,4248.461426,4250.128418,4246.538574,4231.282227,4232.820313,4234.487305,4429.615234,4440.897461,4328.461426,4488.589844,,,,,,,,,,,,,,,,,,,,,,,,,,,,,,,,,,,,,,,,,,,,,,,,,,,,,,,,,,,,,,,,,,,,,,
1720416164,73,0,4354.358887,4291.922852,4274.615234,4275,4244.230957,4247.436035,4238.846191,4225.897461,4230.769043,4230.128418,4427.94873,4424.743652,4324.230957,4478.461426,,,,,,,,,,,,,,,,,,,,,,,,,,,,,,,,,,,,,,,,,,,,,,,,,,,,,,,,,,,,,,,,,,,,,,
1720416164,74,0,4352.692383,4293.589844,4268.461426,4278.077148,4243.461426,4244.871582,4230.769043,4213.846191,4221.282227,4228.589844,4425.128418,4416.794922,4327.94873,4465.384766,,,,,,,,,,,,,,,,,,,,,,,,,,,,,,,,,,,,,,,,,,,,,,,,,,,,,,,,,,,,,,,,,,,,,,
1720416164,75,0,4358.717773,4300.512695,4272.436035,4278.461426,4251.410156,4237.820313,4232.307617,4205.641113,4216.410156,4230.512695,4427.307617,4425.897461,4335.769043,4476.794922,,,,,,,,,,,,,,,,,,,,,,,,,,,,,,,,,,,,,,,,,,,,,,,,,,,,,,,,,,,,,,,,,,,,,,
1720416164,76,0,4364.102539,4307.94873,4274.102539,4285,4260.512695,4230.384766,4231.025879,4206.282227,4217.820313,4232.692383,4435.512695,4435.128418,4344.230957,4481.922852,,,,,,,,,,,,,,,,,,,,,,,,,,,,,,,,,,,,,,,,,,,,,,,,,,,,,,,,,,,,,,,,,,,,,,
1720416164,77,0,4361.410156,4312.692383,4273.205078,4296.153809,4253.974121,4229.358887,4228.077148,4212.307617,4216.153809,4226.538574,4436.025879,4432.820313,4344.102539,4464.871582,,,,,,,,,,,,,,,,,,,,,,,,,,,,,,,,,,,,,,,,,,,,,,,,,,,,,,,,,,,,,,,,,,,,,,
1720416164,78,0,4357.179688,4309.358887,4275.512695,4297.820313,4242.05127,4237.05127,4233.974121,4218.333496,4215.256348,4217.307617,4428.589844,4429.230957,4335.512695,4457.820313,,,,,,,,,,,,,,,,,,,,,,,,,,,,,,,,,,,,,,,,,,,,,,,,,,,,,,,,,,,,,,,,,,,,,,
1720416164,79,0,4348.589844,4300.769043,4267.179688,4287.94873,4245.256348,4248.846191,4236.538574,4213.717773,4218.077148,4215.256348,4417.820313,4420.384766,4323.077148,4441.922852,0.653677,1.849824,0.173702,0.477968,0.17378,1.758218,2.345469,0.374418,0.684263,0.220166,1.823806,4.119454,0.520004,0.864567,0.304437,1.10983,2.697073,0.558508,0.936475,0.138274,0.836599,0.387037,0.427915,0.40286,0.245921,0.804444,0.83926,0.26106,0.168969,0.103248,0.730274,2.398295,0.381196,0.372546,0.088505,0.450155,1.270431,0.259033,0.437617,0.102301,0.354502,0.416263,0.377013,0.238753,0.129436,0.388027,1.570669,0.314373,0.413112,0.214861,0.77732,2.955265,0.4593,1.303916,0.255768,1.78594,5.891864,0.617085,1.871165,0.427293,0.529849,2.251087,0.476789,1.107432,0.197887,63.164322,5.901707,0.773786,1.19331,0.584539
1720416164,80,0,4337.820313,4289.871582,4253.589844,4279.487305,4250,4251.282227,4229.615234,4204.743652,4215.256348,4212.563965,4402.436035,4406.153809,4310.384766,4415.512695,,,,,,,,,,,,,,,,,,,,,,,,,,,,,,,,,,,,,,,,,,,,,,,,,,,,,,,,,,,,,,,,,,,,,,
1720416164,81,0,4334.743652,4283.589844,4253.846191,4276.025879,4245.128418,4240.128418,4223.589844,4198.974121,4203.461426,4204.871582,4393.077148,4403.461426,4306.153809,4405.128418,,,,,,,,,,,,,,,,,,,,,,,,,,,,,,,,,,,,,,,,,,,,,,,,,,,,,,,,,,,,,,,,,,,,,,
1720416164,82,0,4339.743652,4288.974121,4267.436035,4279.487305,4243.846191,4232.307617,4226.794922,4201.410156,4198.461426,4199.743652,4401.282227,4420,4312.307617,4412.307617,,,,,,,,,,,,,,,,,,,,,,,,,,,,,,,,,,,,,,,,,,,,,,,,,,,,,,,,,,,,,,,,,,,,,,
1720416164,83,0,4348.461426,4297.179688,4281.153809,4292.94873,4242.820313,4238.077148,4233.846191,4211.410156,4207.820313,4204.487305,4413.846191,4440.256348,4320.641113,4422.179688,,,,,,,,,,,,,,,,,,,,,,,,,,,,,,,,,,,,,,,,,,,,,,,,,,,,,,,,,,,,,,,,,,,,,,
1720416164,84,0,4349.743652,4291.282227,4277.820313,4294.102539,4240.641113,4244.743652,4236.410156,4216.025879,4214.743652,4207.436035,4416.025879,4444.358887,4325.512695,4422.563965,,,,,,,,,,,,,,,,,,,,,,,,,,,,,,,,,,,,,,,,,,,,,,,,,,,,,,,,,,,,,,,,,,,,,,
1720416164,85,0,4344.871582,4281.025879,4265.384766,4281.153809,4245,4246.025879,4233.717773,4214.615234,4214.102539,4207.692383,4413.717773,4438.846191,4325.897461,4412.820313,,,,,,,,,,,,,,,,,,,,,,,,,,,,,,,,,,,,,,,,,,,,,,,,,,,,,,,,,,,,,,,,,,,,,,
1720416164,86,0,4347.05127,4283.846191,4269.102539,4278.461426,4248.717773,4243.589844,4232.05127,4215,4215.897461,4213.589844,4417.692383,4441.538574,4325.384766,4414.743652,,,,,,,,,,,,,,,,,,,,,,,,,,,,,,,,,,,,,,,,,,,,,,,,,,,,,,,,,,,,,,,,,,,,,,
1720416164,87,0,4350.641113,4285.384766,4273.846191,4285.769043,4247.563965,4241.410156,4232.307617,4216.282227,4219.230957,4219.230957,4423.077148,4446.153809,4326.794922,4423.077148,,,,,,,,,,,,,,,,,,,,,,,,,,,,,,,,,,,,,,,,,,,,,,,,,,,,,,,,,,,,,,,,,,,,,,
1720416164,88,0,4346.153809,4278.461426,4265.128418,4282.820313,4244.230957,4241.794922,4232.179688,4216.282227,4220.256348,4218.205078,4422.05127,4442.436035,4327.05127,4416.410156,,,,,,,,,,,,,,,,,,,,,,,,,,,,,,,,,,,,,,,,,,,,,,,,,,,,,,,,,,,,,,,,,,,,,,
1720416164,89,0,4347.436035,4280.641113,4267.94873,4278.077148,4244.102539,4241.922852,4239.871582,4222.94873,4220.384766,4216.282227,4422.436035,4444.871582,4328.589844,4419.358887,,,,,,,,,,,,,,,,,,,,,,,,,,,,,,,,,,,,,,,,,,,,,,,,,,,,,,,,,,,,,,,,,,,,,,
1720416164,90,0,4353.589844,4288.589844,4276.666504,4286.410156,4243.077148,4242.436035,4245.641113,4233.717773,4220.769043,4217.179688,4429.743652,4453.846191,4333.846191,4427.05127,,,,,,,,,,,,,,,,,,,,,,,,,,,,,,,,,,,,,,,,,,,,,,,,,,,,,,,,,,,,,,,,,,,,,,
1720416164,91,0,4351.666504,4289.615234,4270.256348,4292.307617,4239.358887,4246.025879,4241.538574,4232.692383,4220.256348,4219.358887,4431.538574,4454.230957,4336.794922,4421.282227,,,,,,,,,,,,,,,,,,,,,,,,,,,,,,,,,,,,,,,,,,,,,,,,,,,,,,,,,,,,,,,,,,,,,,
1720416164,92,0,4339.743652,4277.94873,4256.410156,4277.436035,4239.871582,4242.179688,4234.487305,4221.538574,4217.307617,4216.922852,4415.384766,4440.769043,4326.025879,4408.846191,,,,,,,,,,,,,,,,,,,,,,,,,,,,,,,,,,,,,,,,,,,,,,,,,,,,,,,,,,,,,,,,,,,,,,
1720416164,93,0,4323.333496,4261.282227,4245.897461,4258.461426,4240.384766,4233.205078,4228.077148,4212.436035,4210.256348,4204.615234,4399.743652,4424.230957,4312.563965,4394.615234,,,,,,,,,,,,,,,,,,,,,,,,,,,,,,,,,,,,,,,,,,,,,,,,,,,,,,,,,,,,,,,,,,,,,,
1720416164,94,0,4321.666504,4260.897461,4243.717773,4261.922852,4235.641113,4240.256348,4228.717773,4214.102539,4212.307617,4199.615234,4406.025879,4422.692383,4315.384766,4394.743652,,,,,,,,,,,,,,,,,,,,,,,,,,,,,,,,,,,,,,,,,,,,,,,,,,,,,,,,,,,,,,,,,,,,,,
1720416164,95,0,4335,4276.410156,4249.615234,4279.743652,4238.974121,4252.94873,4234.615234,4218.077148,4225.897461,4211.282227,4416.282227,4431.025879,4324.102539,4401.025879,0.688417,2.315716,0.203971,0.443595,0.151468,1.523631,3.312956,0.375778,0.5957,0.20636,1.785903,4.677466,0.529586,0.775156,0.251015,1.048246,3.238642,0.557674,0.789596,0.123725,0.848026,0.475534,0.477473,0.433547,0.22805,0.746561,0.759153,0.309126,0.177437,0.107512,0.690082,2.219636,0.396789,0.353631,0.084781,0.395003,1.36827,0.256181,0.422518,0.09614,0.30191,0.447614,0.322541,0.238225,0.124265,0.288049,1.247078,0.343533,0.359445,0.222786,0.796702,3.037511,0.619551,1.166823,0.273805,1.906079,6.317729,0.78609,1.736567,0.373138,0.46462,2.220808,0.586812,1.079327,0.199485,56.662193,4.635187,0.643172,1.022441,0.427426
1720416164,96,0,4342.436035,4280,4255,4281.410156,4247.563965,4248.077148,4237.692383,4218.717773,4228.846191,4218.974121,4412.820313,4435.384766,4319.871582,4401.153809,,,,,,,,,,,,,,,,,,,,,,,,,,,,,,,,,,,,,,,,,,,,,,,,,,,,,,,,,,,,,,,,,,,,,,
1720416164,97,0,4342.820313,4278.717773,4265.641113,4279.358887,4246.666504,4243.846191,4237.05127,4223.846191,4224.230957,4218.077148,4417.692383,4444.102539,4316.153809,4403.974121,,,,,,,,,,,,,,,,,,,,,,,,,,,,,,,,,,,,,,,,,,,,,,,,,,,,,,,,,,,,,,,,,,,,,,
1720416164,98,0,4342.05127,4287.179688,4277.05127,4289.615234,4248.205078,4250.512695,4237.307617,4227.94873,4227.820313,4218.205078,4430,4455.256348,4322.94873,4406.922852,,,,,,,,,,,,,,,,,,,,,,,,,,,,,,,,,,,,,,,,,,,,,,,,,,,,,,,,,,,,,,,,,,,,,,
1720416164,99,0,4338.205078,4287.179688,4275.128418,4290.897461,4252.05127,4250.256348,4240.384766,4226.153809,4233.077148,4224.102539,4427.94873,4454.230957,4323.589844,4399.358887,,,,,,,,,,,,,,,,,,,,,,,,,,,,,,,,,,,,,,,,,,,,,,,,,,,,,,,,,,,,,,,,,,,,,,
1720416164,100,0,4337.05127,4280.897461,4267.820313,4282.179688,4248.333496,4246.666504,4241.922852,4228.974121,4233.589844,4231.794922,4422.563965,4446.794922,4321.282227,4393.077148,,,,,,,,,,,,,,,,,,,,,,,,,,,,,,,,,,,,,,,,,,,,,,,,,,,,,,,,,,,,,,,,,,,,,,
1720416164,101,0,4336.538574,4282.307617,4264.358887,4280.128418,4250.256348,4247.94873,4240.384766,4231.538574,4233.461426,4227.436035,4426.666504,4442.563965,4323.589844,4386.538574,,,,,,,,,,,,,,,,,,,,,,,,,,,,,,,,,,,,,,,,,,,,,,,,,,,,,,,,,,,,,,,,,,,,,,
1720416164,102,0,4332.692383,4282.436035,4262.563965,4282.179688,4254.358887,4247.563965,4239.487305,4226.538574,4234.487305,4220.897461,4429.743652,4441.282227,4321.410156,4371.282227,,,,,,,,,,,,,,,,,,,,,,,,,,,,,,,,,,,,,,,,,,,,,,,,,,,,,,,,,,,,,,,,,,,,,,
1720416164,103,0,4331.410156,4277.94873,4263.077148,4279.102539,4250.128418,4246.922852,4239.871582,4225.384766,4234.102539,4223.717773,4424.615234,4444.487305,4323.205078,4376.538574,,,,,,,,,,,,,,,,,,,,,,,,,,,,,,,,,,,,,,,,,,,,,,,,,,,,,,,,,,,,,,,,,,,,,,
1720416164,104,0,4328.846191,4275.897461,4260,4271.282227,4245.897461,4245.384766,4238.589844,4226.666504,4232.436035,4222.307617,4417.820313,4440.384766,4324.871582,4377.563965,,,,,,,,,,,,,,,,,,,,,,,,,,,,,,,,,,,,,,,,,,,,,,,,,,,,,,,,,,,,,,,,,,,,,,
1720416164,105,0,4324.615234,4275.256348,4249.871582,4268.589844,4238.974121,4244.615234,4238.205078,4219.230957,4228.717773,4213.717773,4411.153809,4424.743652,4313.974121,4351.922852,,,,,,,,,,,,,,,,,,,,,,,,,,,,,,,,,,,,,,,,,,,,,,,,,,,,,,,,,,,,,,,,,,,,,,
1720416164,106,0,4322.820313,4271.282227,4243.974121,4270.512695,4233.077148,4252.05127,4240.897461,4216.922852,4228.077148,4216.282227,4410.256348,4426.153809,4310.384766,4348.846191,,,,,,,,,,,,,,,,,,,,,,,,,,,,,,,,,,,,,,,,,,,,,,,,,,,,,,,,,,,,,,,,,,,,,,
1720416164,107,0,4318.333496,4265,4247.05127,4269.487305,4238.589844,4256.410156,4239.871582,4224.358887,4232.436035,4225,4418.461426,4443.717773,4320.256348,4360,,,,,,,,,,,,,,,,,,,,,,,,,,,,,,,,,,,,,,,,,,,,,,,,,,,,,,,,,,,,,,,,,,,,,,
1720416164,108,0,4319.230957,4265.897461,4255.384766,4264.615234,4244.871582,4249.615234,4237.692383,4228.974121,4234.871582,4227.307617,4428.589844,4451.282227,4324.871582,4358.461426,,,,,,,,,,,,,,,,,,,,,,,,,,,,,,,,,,,,,,,,,,,,,,,,,,,,,,,,,,,,,,,,,,,,,,
1720416164,109,0,4323.974121,4273.077148,4264.743652,4265,4244.102539,4245.897461,4239.102539,4229.230957,4234.102539,4229.871582,4431.410156,4447.307617,4322.820313,4351.922852,,,,,,,,,,,,,,,,,,,,,,,,,,,,,,,,,,,,,,,,,,,,,,,,,,,,,,,,,,,,,,,,,,,,,,
1720416164,110,0,4319.871582,4271.282227,4262.820313,4265.512695,4245.128418,4250.128418,4243.589844,4230.641113,4236.282227,4232.436035,4427.563965,4444.487305,4320.769043,4344.487305,,,,,,,,,,,,,,,,,,,,,,,,,,,,,,,,,,,,,,,,,,,,,,,,,,,,,,,,,,,,,,,,,,,,,,
1720416164,111,0,4316.794922,4264.102539,4256.794922,4264.230957,4247.05127,4254.871582,4250,4235.256348,4243.974121,4232.307617,4429.615234,4451.025879,4319.743652,4342.820313,0.793578,2.782659,0.246155,0.391943,0.134735,1.187029,4.359668,0.376344,0.475825,0.192624,1.732534,4.980783,0.547148,0.667669,0.205372,0.878713,3.725105,0.520179,0.609115,0.119157,0.846603,0.573055,0.521699,0.429512,0.218024,0.603805,0.65461,0.346882,0.185989,0.117326,0.558795,1.934646,0.383171,0.316225,0.083393,0.292164,1.428469,0.260579,0.410264,0.093962,0.224756,0.484651,0.285674,0.237032,0.122535,0.196201,0.949346,0.372065,0.316196,0.233591,0.786586,3.038991,0.778792,1.013264,0.295958,1.872818,6.414413,0.901026,1.5583,0.339618,0.378522,2.100424,0.704207,1.012983,0.202637,52.873734,4.510839,0.816986,0.915648,0.335963
1720416164,112,0,4318.333496,4263.974121,4258.974121,4265.384766,4248.846191,4260.512695,4255.128418,4242.436035,4247.436035,4231.666504,4432.179688,4459.102539,4318.205078,4345,,,,,,,,,,,,,,,,,,,,,,,,,,,,,,,,,,,,,,,,,,,,,,,,,,,,,,,,,,,,,,,,,,,,,,
1720416164,113,0,4314.871582,4266.410156,4262.179688,4263.589844,4248.333496,4265.384766,4257.307617,4246.922852,4250,4235.641113,4430.384766,4461.794922,4316.666504,4340,,,,,,,,,,,,,,,,,,,,,,,,,,,,,,,,,,,,,,,,,,,,,,,,,,,,,,,,,,,,,,,,,,,,,,
1720416164,114,0,4314.230957,4264.102539,4261.282227,4261.538574,4238.077148,4262.05127,4258.589844,4247.692383,4255.256348,4240,4430.256348,4460.384766,4316.025879,4333.846191,,,,,,,,,,,,,,,,,,,,,,,,,,,,,,,,,,,,,,,,,,,,,,,,,,,,,,,,,,,,,,,,,,,,,,
1720416164,115,0,4314.871582,4261.153809,4262.436035,4261.794922,4233.461426,4257.94873,4258.333496,4248.717773,4254.358887,4234.743652,4432.94873,4456.666504,4315.384766,4335.384766,,,,,,,,,,,,,,,,,,,,,,,,,,,,,,,,,,,,,,,,,,,,,,,,,,,,,,,,,,,,,,,,,,,,,,
1720416164,116,0,4309.871582,4261.922852,4265.512695,4260.641113,4243.717773,4261.282227,4256.922852,4243.717773,4252.179688,4232.563965,4428.974121,4450.769043,4310.512695,4327.307617,,,,,,,,,,,,,,,,,,,,,,,,,,,,,,,,,,,,,,,,,,,,,,,,,,,,,,,,,,,,,,,,,,,,,,
1720416164,117,0,4306.538574,4261.538574,4260.384766,4259.871582,4248.846191,4265.512695,4255.641113,4233.077148,4246.538574,4231.282227,4413.974121,4439.487305,4304.230957,4314.230957,,,,,,,,,,,,,,,,,,,,,,,,,,,,,,,,,,,,,,,,,,,,,,,,,,,,,,,,,,,,,,,,,,,,,,
1720416164,118,0,4306.410156,4260.897461,4251.410156,4261.410156,4246.282227,4263.205078,4255.512695,4229.487305,4238.333496,4219.358887,4407.94873,4432.820313,4304.358887,4307.307617,,,,,,,,,,,,,,,,,,,,,,,,,,,,,,,,,,,,,,,,,,,,,,,,,,,,,,,,,,,,,,,,,,,,,,
1720416164,119,0,4306.410156,4263.077148,4254.358887,4262.179688,4247.563965,4260.128418,4255,4238.461426,4239.743652,4212.563965,4418.974121,4437.820313,4308.974121,4305.256348,,,,,,,,,,,,,,,,,,,,,,,,,,,,,,,,,,,,,,,,,,,,,,,,,,,,,,,,,,,,,,,,,,,,,,
1720416164,120,0,4308.589844,4265.256348,4262.692383,4263.589844,4248.974121,4260.897461,4251.025879,4241.025879,4241.794922,4221.922852,4424.487305,4444.358887,4312.05127,4308.589844,,,,,,,,,,,,,,,,,,,,,,,,,,,,,,,,,,,,,,,,,,,,,,,,,,,,,,,,,,,,,,,,,,,,,,
1720416164,121,0,4311.666504,4268.205078,4261.153809,4265.897461,4248.205078,4261.666504,4248.846191,4234.358887,4239.230957,4232.94873,4422.05127,4441.538574,4315.769043,4305.769043,,,,,,,,,,,,,,,,,,,,,,,,,,,,,,,,,,,,,,,,,,,,,,,,,,,,,,,,,,,,,,,,,,,,,,
1720416164,122,0,4313.461426,4273.717773,4260.256348,4265,4250.897461,4261.025879,4252.436035,4237.179688,4243.846191,4238.717773,4432.692383,4444.358887,4327.820313,4310.641113,,,,,,,,,,,,,,,,,,,,,,,,,,,,,,,,,,,,,,,,,,,,,,,,,,,,,,,,,,,,,,,,,,,,,,
1720416164,123,0,4315.769043,4282.563965,4266.153809,4270.128418,4251.410156,4261.153809,4253.717773,4243.717773,4250.256348,4244.743652,4448.333496,4454.615234,4338.717773,4320.897461,,,,,,,,,,,,,,,,,,,,,,,,,,,,,,,,,,,,,,,,,,,,,,,,,,,,,,,,,,,,,,,,,,,,,,
1720416164,124,0,4320.512695,4288.205078,4266.794922,4281.282227,4248.205078,4262.436035,4250.769043,4238.589844,4245.384766,4246.794922,4446.666504,4452.179688,4337.05127,4315,,,,,,,,,,,,,,,,,,,,,,,,,,,,,,,,,,,,,,,,,,,,,,,,,,,,,,,,,,,,,,,,,,,,,,
1720416164,125,0,4322.436035,4286.025879,4262.94873,4281.025879,4248.974121,4261.922852,4250,4231.153809,4241.922852,4244.871582,4441.666504,4445.512695,4335.384766,4305.641113,,,,,,,,,,,,,,,,,,,,,,,,,,,,,,,,,,,,,,,,,,,,,,,,,,,,,,,,,,,,,,,,,,,,,,
1720416164,126,0,4321.153809,4284.743652,4262.307617,4274.358887,4253.717773,4260.256348,4251.153809,4233.717773,4245.897461,4245.769043,4445.769043,4450.641113,4340.128418,4307.05127,,,,,,,,,,,,,,,,,,,,,,,,,,,,,,,,,,,,,,,,,,,,,,,,,,,,,,,,,,,,,,,,,,,,,,
1720416164,127,0,4321.410156,4288.461426,4268.333496,4277.307617,4258.974121,4262.307617,4253.589844,4241.410156,4250,4248.589844,4445.769043,4460.897461,4342.179688,4306.153809,1.013923,3.122879,0.291957,0.342395,0.124828,0.926174,5.232898,0.378054,0.357003,0.179764,1.818173,4.926153,0.56399,0.570364,0.175752,0.713721,4.030164,0.459374,0.447419,0.124122,0.8229,0.66221,0.548549,0.391292,0.214723,0.447699,0.555799,0.371056,0.197945,0.131567,0.422606,1.599327,0.347264,0.269663,0.084732,0.25163,1.417088,0.271462,0.406388,0.095534,0.169139,0.529755,0.27471,0.237046,0.124705,0.175449,0.738053,0.403232,0.293387,0.2471,0.814359,2.921494,0.926455,0.883405,0.314861,1.821111,6.084229,0.935316,1.396468,0.329592,0.320846,1.898851,0.831008,0.929086,0.203811,49.831299,4.780822,1.106079,0.821179,0.287854
1720416164,0,0,4323.205078,4287.692383,4277.436035,4282.05127,4260.256348,4266.153809,4258.461426,4247.820313,4252.820313,4244.358887,4443.461426,4462.307617,4340.897461,4299.615234,,,,,,,,,,,,,,,,,,,,,,,,,,,,,,,,,,,,,,,,,,,,,,,,,,,,,,,,,,,,,,,,,,,,,,
1720416164,1,0,4318.461426,4279.102539,4274.871582,4274.487305,4255.128418,4265.128418,4257.436035,4246.666504,4247.179688,4232.820313,4441.794922,4456.538574,4338.461426,4293.333496,,,,,,,,,,,,,,,,,,,,,,,,,,,,,,,,,,,,,,,,,,,,,,,,,,,,,,,,,,,,,,,,,,,,,,
1720416164,2,0,4310.384766,4275.384766,4262.307617,4265.512695,4247.179688,4260.128418,4251.538574,4239.230957,4242.179688,4227.563965,4437.436035,4455.897461,4332.692383,4284.230957,,,,,,,,,,,,,,,,,,,,,,,,,,,,,,,,,,,,,,,,,,,,,,,,,,,,,,,,,,,,,,,,,,,,,,
1720416164,3,0,4314.615234,4277.307617,4263.589844,4265.641113,4246.794922,4261.410156,4253.077148,4242.307617,4243.717773,4231.153809,4439.743652,4462.692383,4331.153809,4291.922852,,,,,,,,,,,,,,,,,,,,,,,,,,,,,,,,,,,,,,,,,,,,,,,,,,,,,,,,,,,,,,,,,,,,,,
1720416164,4,0,4319.102539,4276.153809,4273.589844,4263.974121,4249.230957,4261.666504,4251.666504,4244.615234,4237.692383,4231.538574,4443.205078,4463.205078,4335,4295.769043,,,,,,,,,,,,,,,,,,,,,,,,,,,,,,,,,,,,,,,,,,,,,,,,,,,,,,,,,,,,,,,,,,,,,,
1720416164,5,0,4315.384766,4275.641113,4277.436035,4265,4242.436035,4253.077148,4242.179688,4234.871582,4231.410156,4230.769043,4432.94873,4456.025879,4331.282227,4274.487305,,,,,,,,,,,,,,,,,,,,,,,,,,,,,,,,,,,,,,,,,,,,,,,,,,,,,,,,,,,,,,,,,,,,,,
1720416164,6,0,4316.282227,4276.538574,4279.871582,4272.820313,4240.384766,4250.897461,4237.820313,4234.230957,4239.871582,4234.743652,4428.717773,4454.487305,4323.461426,4268.077148,,,,,,,,,,,,,,,,,,,,,,,,,,,,,,,,,,,,,,,,,,,,,,,,,,,,,,,,,,,,,,,,,,,,,,
1720416164,7,0,4317.94873,4278.333496,4274.102539,4273.461426,4246.922852,4259.230957,4241.794922,4243.205078,4251.666504,4237.05127,4439.102539,4456.282227,4324.743652,4269.743652,,,,,,,,,,,,,,,,,,,,,,,,,,,,,,,,,,,,,,,,,,,,,,,,,,,,,,,,,,,,,,,,,,,,,,
1720416164,8,0,4318.717773,4278.846191,4267.692383,4270.512695,4248.846191,4261.153809,4247.05127,4245.769043,4253.589844,4237.563965,4444.102539,4461.794922,4329.487305,4268.077148,,,,,,,,,,,,,,,,,,,,,,,,,,,,,,,,,,,,,,,,,,,,,,,,,,,,,,,,,,,,,,,,,,,,,,
1720416164,9,0,4328.589844,4279.615234,4284.230957,4276.153809,4254.358887,4260.128418,4250.769043,4252.05127,4259.230957,4244.487305,4450.512695,4477.179688,4334.487305,4289.615234,,,,,,,,,,,,,,,,,,,,,,,,,,,,,,,,,,,,,,,,,,,,,,,,,,,,,,,,,,,,,,,,,,,,,,
1720416164,10,0,4338.077148,4284.743652,4297.563965,4281.025879,4261.153809,4264.743652,4251.922852,4259.615234,4264.230957,4247.820313,4459.871582,4482.05127,4343.077148,4315.641113,,,,,,,,,,,,,,,,,,,,,,,,,,,,,,,,,,,,,,,,,,,,,,,,,,,,,,,,,,,,,,,,,,,,,,
1720416164,11,0,4334.487305,4285.641113,4286.538574,4277.179688,4252.05127,4266.025879,4249.102539,4251.025879,4253.589844,4239.743652,4453.461426,4467.563965,4346.922852,4333.333496,,,,,,,,,,,,,,,,,,,,,,,,,,,,,,,,,,,,,,,,,,,,,,,,,,,,,,,,,,,,,,,,,,,,,,
1720416164,12,0,4328.717773,4278.589844,4275,4271.922852,4244.615234,4262.179688,4244.871582,4240.384766,4244.487305,4231.153809,4441.153809,4453.717773,4337.179688,4367.563965,,,,,,,,,,,,,,,,,,,,,,,,,,,,,,,,,,,,,,,,,,,,,,,,,,,,,,,,,,,,,,,,,,,,,,
1720416164,13,0,4326.282227,4275.256348,4271.538574,4263.333496,4258.205078,4262.05127,4244.230957,4243.077148,4246.666504,4230.641113,4440.128418,4450.512695,4327.563965,4403.333496,,,,,,,,,,,,,,,,,,,,,,,,,,,,,,,,,,,,,,,,,,,,,,,,,,,,,,,,,,,,,,,,,,,,,,
1720416164,14,0,4326.666504,4278.846191,4270.128418,4261.025879,4264.487305,4263.974121,4248.974121,4244.743652,4250,4237.820313,4448.077148,4452.820313,4333.717773,4434.358887,,,,,,,,,,,,,,,,,,,,,,,,,,,,,,,,,,,,,,,,,,,,,,,,,,,,,,,,,,,,,,,,,,,,,,
1720416165,15,0,4332.820313,4282.05127,4281.025879,4272.307617,4258.589844,4264.358887,4253.846191,4245.256348,4252.692383,4245.897461,4457.692383,4463.589844,4343.846191,4484.358887,1.374246,3.225991,0.328611,0.319459,0.119298,0.885186,5.682207,0.374323,0.277813,0.168363,2.059892,4.529228,0.574073,0.516899,0.16203,0.605906,4.051117,0.390155,0.350605,0.136649,0.784042,0.723457,0.547052,0.331925,0.21246,0.315949,0.48508,0.381236,0.217354,0.147046,0.315045,1.265478,0.30031,0.228971,0.087249,0.276282,1.328115,0.280996,0.420838,0.099213,0.147934,0.585615,0.282009,0.241237,0.12878,0.244083,0.659988,0.436144,0.294194,0.26025,0.863647,2.73251,1.045335,0.806136,0.322072,1.745933,5.407651,0.889364,1.310248,0.332842,0.308803,1.671687,0.948816,0.849204,0.200009,46.641396,5.191677,1.390477,0.746644,0.267261
1720416165,16,0,4336.025879,4291.153809,4296.410156,4281.410156,4265.769043,4267.692383,4253.461426,4250.128418,4260.256348,4250.512695,4466.153809,4476.282227,4347.563965,4520.512695,,,,,,,,,,,,,,,,,,,,,,,,,,,,,,,,,,,,,,,,,,,,,,,,,,,,,,,,,,,,,,,,,,,,,,
1720416165,17,0,4334.102539,4297.05127,4292.563965,4282.692383,4271.025879,4275.897461,4255.256348,4251.025879,4260.384766,4249.871582,4462.436035,4473.205078,4347.436035,4525.641113,,,,,,,,,,,,,,,,,,,,,,,,,,,,,,,,,,,,,,,,,,,,,,,,,,,,,,,,,,,,,,,,,,,,,,
1720416165,18,0,4327.94873,4286.410156,4283.077148,4274.871582,4268.077148,4281.282227,4258.333496,4248.846191,4254.487305,4248.205078,4451.282227,4462.563965,4343.717773,4530.256348,,,,,,,,,,,,,,,,,,,,,,,,,,,,,,,,,,,,,,,,,,,,,,,,,,,,,,,,,,,,,,,,,,,,,,
1720416165,19,0,4321.538574,4281.538574,4288.205078,4267.94873,4272.820313,4280.128418,4256.794922,4250.512695,4259.230957,4252.05127,4452.307617,4463.974121,4341.794922,4540.384766,,,,,,,,,,,,,,,,,,,,,,,,,,,,,,,,,,,,,,,,,,,,,,,,,,,,,,,,,,,,,,,,,,,,,,
1720416165,20,0,4323.974121,4289.743652,4293.205078,4271.538574,4277.563965,4277.692383,4259.615234,4255.128418,4265.256348,4257.307617,4464.743652,4471.538574,4348.077148,4550,,,,,,,,,,,,,,,,,,,,,,,,,,,,,,,,,,,,,,,,,,,,,,,,,,,,,,,,,,,,,,,,,,,,,,
1720416165,21,0,4332.820313,4297.820313,4299.871582,4281.922852,4275.128418,4279.102539,4270.897461,4263.589844,4268.717773,4267.692383,4474.743652,4482.94873,4358.846191,4559.230957,,,,,,,,,,,,,,,,,,,,,,,,,,,,,,,,,,,,,,,,,,,,,,,,,,,,,,,,,,,,,,,,,,,,,,
1720416165,22,0,4339.871582,4306.794922,4316.410156,4291.794922,4277.179688,4282.05127,4278.077148,4276.666504,4276.153809,4278.205078,4480.769043,4498.846191,4365,4569.743652,,,,,,,,,,,,,,,,,,,,,,,,,,,,,,,,,,,,,,,,,,,,,,,,,,,,,,,,,,,,,,,,,,,,,,
1720416165,23,0,4337.436035,4310,4323.205078,4294.871582,4281.282227,4282.05127,4275.384766,4281.153809,4282.94873,4276.410156,4485.641113,4502.307617,4366.153809,4570.897461,,,,,,,,,,,,,,,,,,,,,,,,,,,,,,,,,,,,,,,,,,,,,,,,,,,,,,,,,,,,,,,,,,,,,,
1720416165,24,0,4328.077148,4300.384766,4310.769043,4292.179688,4276.922852,4279.230957,4271.025879,4269.358887,4278.589844,4266.025879,4481.282227,4486.282227,4359.615234,4561.153809,,,,,,,,,,,,,,,,,,,,,,,,,,,,,,,,,,,,,,,,,,,,,,,,,,,,,,,,,,,,,,,,,,,,,,
1720416165,25,0,4319.743652,4293.589844,4302.05127,4285.769043,4275,4282.820313,4273.461426,4262.563965,4269.358887,4261.666504,4468.205078,4476.922852,4349.743652,4552.563965,,,,,,,,,,,,,,,,,,,,,,,,,,,,,,,,,,,,,,,,,,,,,,,,,,,,,,,,,,,,,,,,,,,,,,
1720416165,26,0,4315,4294.743652,4299.743652,4279.230957,4282.563965,4293.846191,4276.153809,4266.794922,4265.384766,4262.692383,4459.615234,4475.641113,4343.077148,4540.384766,,,,,,,,,,,,,,,,,,,,,,,,,,,,,,,,,,,,,,,,,,,,,,,,,,,,,,,,,,,,,,,,,,,,,,
1720416165,27,0,4313.205078,4293.333496,4293.717773,4278.333496,4281.538574,4296.794922,4270.256348,4263.974121,4265.256348,4261.922852,4455.897461,4464.615234,4338.333496,4526.025879,,,,,,,,,,,,,,,,,,,,,,,,,,,,,,,,,,,,,,,,,,,,,,,,,,,,,,,,,,,,,,,,,,,,,,
1720416165,28,0,4313.846191,4294.230957,4295.128418,4287.436035,4273.077148,4289.102539,4265.512695,4259.230957,4266.282227,4261.794922,4454.743652,4461.922852,4339.743652,4526.410156,,,,,,,,,,,,,,,,,,,,,,,,,,,,,,,,,,,,,,,,,,,,,,,,,,,,,,,,,,,,,,,,,,,,,,
1720416165,29,0,4312.692383,4295.512695,4303.077148,4294.102539,4274.615234,4287.307617,4266.666504,4263.846191,4264.615234,4262.820313,4462.05127,4471.666504,4349.102539,4535.769043,,,,,,,,,,,,,,,,,,,,,,,,,,,,,,,,,,,,,,,,,,,,,,,,,,,,,,,,,,,,,,,,,,,,,,
1720416165,30,0,4309.487305,4293.205078,4306.794922,4292.692383,4282.692383,4295,4266.410156,4265.256348,4264.615234,4263.205078,4470.897461,4477.179688,4355.128418,4528.333496,,,,,,,,,,,,,,,,,,,,,,,,,,,,,,,,,,,,,,,,,,,,,,,,,,,,,,,,,,,,,,,,,,,,,,
1720416165,31,0,4315.128418,4300.256348,4310.897461,4295.897461,4284.871582,4292.94873,4265.512695,4264.487305,4268.333496,4268.077148,4472.692383,4484.230957,4357.307617,4529.102539,1.808536,3.043984,0.348546,0.334564,0.114373,1.095408,5.56474,0.35366,0.257943,0.158484,2.416225,3.89793,0.567313,0.522138,0.158616,0.611056,3.755573,0.32029,0.333104,0.153517,0.726051,0.739505,0.517987,0.269715,0.205136,0.25535,0.448675,0.380469,0.244937,0.159668,0.295689,0.973437,0.255074,0.205667,0.088104,0.405747,1.186792,0.278756,0.45654,0.103349,0.168304,0.655403,0.290144,0.251285,0.131544,0.389603,0.731689,0.458,0.31399,0.268349,0.959201,2.555207,1.102831,0.783038,0.313457,1.738816,4.579365,0.775889,1.316151,0.335339,0.393215,1.477783,1.019244,0.783102,0.190446,44.084877,5.606671,1.636708,0.712243,0.265245
1720416165,32,0,4321.025879,4306.153809,4313.846191,4298.077148,4282.563965,4282.05127,4264.102539,4264.743652,4267.307617,4271.666504,4470.641113,4488.717773,4358.974121,4541.282227,,,,,,,,,,,,,,,,,,,,,,,,,,,,,,,,,,,,,,,,,,,,,,,,,,,,,,,,,,,,,,,,,,,,,,
1720416165,33,0,4314.743652,4298.077148,4311.153809,4291.538574,4281.282227,4282.94873,4264.230957,4264.358887,4263.846191,4266.794922,4470.256348,4480.384766,4355.128418,4527.05127,,,,,,,,,,,,,,,,,,,,,,,,,,,,,,,,,,,,,,,,,,,,,,,,,,,,,,,,,,,,,,,,,,,,,,
1720416165,34,0,4315.769043,4302.307617,4315.769043,4295.384766,4284.358887,4292.307617,4275.128418,4273.333496,4272.692383,4267.692383,4475.769043,4484.102539,4357.820313,4527.94873,,,,,,,,,,,,,,,,,,,,,,,,,,,,,,,,,,,,,,,,,,,,,,,,,,,,,,,,,,,,,,,,,,,,,,
1720416165,35,0,4324.102539,4314.230957,4326.153809,4306.666504,4287.692383,4294.487305,4282.692383,4283.846191,4283.461426,4277.563965,4480.897461,4497.94873,4362.820313,4547.307617,,,,,,,,,,,,,,,,,,,,,,,,,,,,,,,,,,,,,,,,,,,,,,,,,,,,,,,,,,,,,,,,,,,,,,
1720416165,36,0,4317.179688,4305.897461,4319.487305,4302.179688,4282.692383,4293.846191,4278.717773,4277.179688,4277.563965,4274.615234,4471.538574,4486.153809,4351.025879,4528.974121,,,,,,,,,,,,,,,,,,,,,,,,,,,,,,,,,,,,,,,,,,,,,,,,,,,,,,,,,,,,,,,,,,,,,,
1720416165,37,0,4306.922852,4293.077148,4305.769043,4292.563965,4276.794922,4292.307617,4278.077148,4273.333496,4271.794922,4264.487305,4461.922852,4477.05127,4343.974121,4504.358887,,,,,,,,,,,,,,,,,,,,,,,,,,,,,,,,,,,,,,,,,,,,,,,,,,,,,,,,,,,,,,,,,,,,,,
1720416165,38,0,4309.871582,4298.974121,4310.512695,4296.538574,4278.333496,4291.922852,4279.743652,4279.615234,4278.077148,4271.538574,4468.974121,4488.846191,4353.589844,4505.512695,,,,,,,,,,,,,,,,,,,,,,,,,,,,,,,,,,,,,,,,,,,,,,,,,,,,,,,,,,,,,,,,,,,,,,
1720416165,39,0,4309.230957,4303.846191,4315.384766,4300.897461,4276.922852,4291.794922,4272.563965,4273.333496,4282.820313,4278.846191,4469.743652,4485.512695,4352.820313,4492.692383,,,,,,,,,,,,,,,,,,,,,,,,,,,,,,,,,,,,,,,,,,,,,,,,,,,,,,,,,,,,,,,,,,,,,,
1720416165,40,0,4298.077148,4295.897461,4306.025879,4295.256348,4271.538574,4284.487305,4268.461426,4267.563965,4280.384766,4268.077148,4457.563965,4471.794922,4342.179688,4473.974121,,,,,,,,,,,,,,,,,,,,,,,,,,,,,,,,,,,,,,,,,,,,,,,,,,,,,,,,,,,,,,,,,,,,,,
1720416165,41,0,4297.179688,4294.358887,4304.615234,4292.692383,4274.230957,4281.282227,4273.589844,4279.743652,4280,4264.871582,4460,4473.461426,4346.922852,4476.538574,,,,,,,,,,,,,,,,,,,,,,,,,,,,,,,,,,,,,,,,,,,,,,,,,,,,,,,,,,,,,,,,,,,,,,
1720416165,42,0,4304.615234,4299.743652,4310.384766,4295.897461,4280.769043,4291.922852,4274.743652,4281.410156,4283.717773,4272.05127,4469.230957,4479.230957,4352.179688,4473.717773,,,,,,,,,,,,,,,,,,,,,,,,,,,,,,,,,,,,,,,,,,,,,,,,,,,,,,,,,,,,,,,,,,,,,,
1720416165,43,0,4302.94873,4298.974121,4310.256348,4295.769043,4280.769043,4293.846191,4270.769043,4267.05127,4279.871582,4268.717773,4464.358887,4474.102539,4346.666504,4467.307617,,,,,,,,,,,,,,,,,,,,,,,,,,,,,,,,,,,,,,,,,,,,,,,,,,,,,,,,,,,,,,,,,,,,,,
1720416165,44,0,4294.615234,4291.410156,4305.384766,4290,4275.897461,4279.871582,4264.358887,4259.230957,4267.179688,4259.487305,4455,4463.077148,4341.666504,4462.820313,,,,,,,,,,,,,,,,,,,,,,,,,,,,,,,,,,,,,,,,,,,,,,,,,,,,,,,,,,,,,,,,,,,,,,
1720416165,45,0,4295.769043,4293.205078,4306.282227,4292.94873,4273.461426,4275.769043,4261.794922,4261.794922,4265.641113,4259.743652,4456.922852,4462.820313,4345,4462.692383,,,,,,,,,,,,,,,,,,,,,,,,,,,,,,,,,,,,,,,,,,,,,,,,,,,,,,,,,,,,,,,,,,,,,,
1720416165,46,0,4303.974121,4303.461426,4313.461426,4304.102539,4278.205078,4282.692383,4265.384766,4264.102539,4275,4264.615234,4464.743652,4474.615234,4352.179688,4472.692383,,,,,,,,,,,,,,,,,,,,,,,,,,,,,,,,,,,,,,,,,,,,,,,,,,,,,,,,,,,,,,,,,,,,,,
1720416165,47,0,4303.077148,4304.230957,4312.436035,4302.94873,4280,4281.794922,4266.025879,4263.205078,4276.410156,4268.205078,4464.102539,4478.589844,4349.743652,4473.717773,2.170481,2.629462,0.35237,0.379355,0.10735,1.48017,4.917266,0.314312,0.288663,0.149887,2.717572,3.184454,0.54012,0.577971,0.159933,0.722393,3.208941,0.26033,0.375647,0.170309,0.674981,0.707083,0.47478,0.218672,0.190836,0.267099,0.429376,0.37362,0.274816,0.165711,0.358889,0.743141,0.220502,0.201719,0.084985,0.601789,1.036929,0.265099,0.504603,0.107064,0.220429,0.747894,0.288033,0.268823,0.130434,0.585635,0.94002,0.455448,0.341197,0.2654,1.072887,2.460003,1.079156,0.794645,0.290786,1.788368,3.807027,0.624692,1.385207,0.32678,0.612899,1.351274,1.016509,0.728346,0.176004,42.560608,5.844753,1.803343,0.715251,0.270925
1720416165,48,0,4298.205078,4302.179688,4308.974121,4297.436035,4270.256348,4278.461426,4269.487305,4267.94873,4275.641113,4274.871582,4465.769043,4480.128418,4348.205078,4470.641113,,,,,,,,,,,,,,,,,,,,,,,,,,,,,,,,,,,,,,,,,,,,,,,,,,,,,,,,,,,,,,,,,,,,,,
1720416165,49,0,4301.666504,4305.256348,4317.820313,4304.102539,4263.846191,4280,4279.743652,4278.846191,4279.358887,4278.846191,4475.256348,4491.282227,4355.512695,4476.666504,,,,,,,,,,,,,,,,,,,,,,,,,,,,,,,,,,,,,,,,,,,,,,,,,,,,,,,,,,,,,,,,,,,,,,
1720416165,50,0,4309.358887,4310.769043,4325.256348,4312.692383,4272.179688,4279.871582,4283.589844,4280.641113,4280.384766,4277.692383,4479.743652,4494.230957,4363.589844,4480.128418,,,,,,,,,,,,,,,,,,,,,,,,,,,,,,,,,,,,,,,,,,,,,,,,,,,,,,,,,,,,,,,,,,,,,,
1720416165,51,0,4307.05127,4310.641113,4317.436035,4311.153809,4281.538574,4281.410156,4282.307617,4275.897461,4278.846191,4275.384766,4477.563965,4487.820313,4361.153809,4471.282227,,,,,,,,,,,,,,,,,,,,,,,,,,,,,,,,,,,,,,,,,,,,,,,,,,,,,,,,,,,,,,,,,,,,,,
1720416165,52,0,4297.05127,4304.102539,4314.615234,4308.077148,4281.922852,4286.025879,4284.487305,4277.179688,4280,4268.205078,4472.05127,4488.205078,4349.871582,4462.436035,,,,,,,,,,,,,,,,,,,,,,,,,,,,,,,,,,,,,,,,,,,,,,,,,,,,,,,,,,,,,,,,,,,,,,
1720416165,53,0,4295.128418,4299.487305,4319.358887,4305.769043,4280.641113,4282.05127,4283.589844,4281.282227,4283.974121,4260.128418,4472.563965,4494.230957,4351.153809,4466.922852,,,,,,,,,,,,,,,,,,,,,,,,,,,,,,,,,,,,,,,,,,,,,,,,,,,,,,,,,,,,,,,,,,,,,,
1720416165,54,0,4303.846191,4304.871582,4317.307617,4303.974121,4280.512695,4280.128418,4281.922852,4281.153809,4292.563965,4269.487305,4486.410156,4501.538574,4366.794922,4477.436035,,,,,,,,,,,,,,,,,,,,,,,,,,,,,,,,,,,,,,,,,,,,,,,,,,,,,,,,,,,,,,,,,,,,,,
1720416165,55,0,4310.897461,4315.512695,4322.05127,4312.820313,4281.025879,4287.436035,4284.615234,4281.282227,4294.358887,4286.666504,4495.256348,4507.692383,4374.487305,4481.282227,,,,,,,,,,,,,,,,,,,,,,,,,,,,,,,,,,,,,,,,,,,,,,,,,,,,,,,,,,,,,,,,,,,,,,
1720416165,56,0,4310,4315.512695,4327.820313,4319.358887,4281.025879,4286.922852,4284.358887,4282.05127,4285.897461,4284.871582,4481.666504,4503.589844,4363.846191,4473.461426,,,,,,,,,,,,,,,,,,,,,,,,,,,,,,,,,,,,,,,,,,,,,,,,,,,,,,,,,,,,,,,,,,,,,,
1720416165,57,0,4308.205078,4310.384766,4318.974121,4316.153809,4275.256348,4278.974121,4280.128418,4278.974121,4280,4273.974121,4470.512695,4493.717773,4355.512695,4466.794922,,,,,,,,,,,,,,,,,,,,,,,,,,,,,,,,,,,,,,,,,,,,,,,,,,,,,,,,,,,,,,,,,,,,,,
1720416165,58,0,4303.589844,4308.589844,4310.769043,4310.897461,4272.692383,4273.974121,4274.230957,4271.410156,4278.333496,4272.179688,4473.333496,4488.077148,4356.538574,4457.436035,,,,,,,,,,,,,,,,,,,,,,,,,,,,,,,,,,,,,,,,,,,,,,,,,,,,,,,,,,,,,,,,,,,,,,
1720416165,59,0,4303.205078,4311.410156,4320.641113,4314.871582,4277.692383,4273.461426,4274.871582,4271.410156,4279.743652,4275.512695,4477.820313,4493.974121,4358.333496,4451.025879,,,,,,,,,,,,,,,,,,,,,,,,,,,,,,,,,,,,,,,,,,,,,,,,,,,,,,,,,,,,,,,,,,,,,,
1720416165,60,0,4312.563965,4318.333496,4336.025879,4326.666504,4279.615234,4276.922852,4281.922852,4281.666504,4284.102539,4280.512695,4487.05127,4508.974121,4363.205078,4463.717773,,,,,,,,,,,,,,,,,,,,,,,,,,,,,,,,,,,,,,,,,,,,,,,,,,,,,,,,,,,,,,,,,,,,,,
1720416165,61,0,4311.666504,4317.692383,4332.692383,4325.769043,4278.717773,4278.205078,4279.487305,4282.307617,4283.205078,4279.871582,4490.128418,4509.743652,4361.922852,4455.769043,,,,,,,,,,,,,,,,,,,,,,,,,,,,,,,,,,,,,,,,,,,,,,,,,,,,,,,,,,,,,,,,,,,,,,
1720416165,62,0,4301.794922,4307.94873,4322.307617,4317.179688,4285.512695,4274.743652,4273.461426,4274.615234,4276.794922,4267.307617,4478.461426,4495.384766,4355.897461,4435.128418,,,,,,,,,,,,,,,,,,,,,,,,,,,,,,,,,,,,,,,,,,,,,,,,,,,,,,,,,,,,,,,,,,,,,,
1720416165,63,0,4300.769043,4307.179688,4323.205078,4318.205078,4290,4276.538574,4279.230957,4279.230957,4276.153809,4261.794922,4472.94873,4490.769043,4355.512695,4435.512695,2.323431,2.109774,0.342227,0.433475,0.09824,1.888906,3.935544,0.264651,0.342524,0.14278,2.81521,2.55787,0.502339,0.662804,0.164471,0.885829,2.542712,0.220344,0.444287,0.182268,0.648238,0.636964,0.436926,0.184779,0.172797,0.323311,0.405241,0.364967,0.295144,0.163633,0.488075,0.587613,0.19697,0.210816,0.077667,0.812012,0.932622,0.251077,0.549536,0.110646,0.285483,0.869846,0.277991,0.29423,0.124963,0.788798,1.241461,0.427282,0.364833,0.247653,1.183167,2.470725,0.982256,0.819612,0.26109,1.871864,3.253284,0.478272,1.470936,0.307017,0.965161,1.28846,0.937943,0.678711,0.159294,42.736805,5.722793,1.886687,0.739784,0.277964
1720416165,64,0,4300.256348,4314.743652,4321.538574,4321.282227,4281.922852,4280.384766,4285.512695,4279.102539,4279.230957,4268.333496,4477.563965,4490.769043,4354.871582,4431.282227,,,,,,,,,,,,,,,,,,,,,,,,,,,,,,,,,,,,,,,,,,,,,,,,,,,,,,,,,,,,,,,,,,,,,,
1720416165,65,0,4291.666504,4306.922852,4310.769043,4312.05127,4274.743652,4277.307617,4280.769043,4266.794922,4277.307617,4266.794922,4472.179688,4479.871582,4350.384766,4416.282227,,,,,,,,,,,,,,,,,,,,,,,,,,,,,,,,,,,,,,,,,,,,,,,,,,,,,,,,,,,,,,,,,,,,,,
1720416165,66,0,4283.974121,4290.641113,4304.102539,4301.666504,4277.94873,4274.615234,4274.358887,4268.205078,4275.512695,4260,4462.179688,4471.153809,4345.512695,4408.333496,,,,,,,,,,,,,,,,,,,,,,,,,,,,,,,,,,,,,,,,,,,,,,,,,,,,,,,,,,,,,,,,,,,,,,
1720416165,67,0,4285.512695,4295.128418,4308.205078,4306.666504,4281.025879,4275.897461,4276.794922,4281.025879,4281.025879,4264.487305,4469.102539,4479.743652,4346.153809,4406.666504,,,,,,,,,,,,,,,,,,,,,,,,,,,,,,,,,,,,,,,,,,,,,,,,,,,,,,,,,,,,,,,,,,,,,,
1720416165,68,0,4292.820313,4309.102539,4315.641113,4317.179688,4278.077148,4279.358887,4284.102539,4284.487305,4290.641113,4275.384766,4484.102539,4493.205078,4352.179688,4410.128418,,,,,,,,,,,,,,,,,,,,,,,,,,,,,,,,,,,,,,,,,,,,,,,,,,,,,,,,,,,,,,,,,,,,,,
1720416165,69,0,4293.974121,4305,4318.077148,4317.05127,4273.846191,4280.128418,4285.128418,4281.025879,4295,4278.974121,4484.743652,4495.384766,4352.820313,4414.615234,,,,,,,,,,,,,,,,,,,,,,,,,,,,,,,,,,,,,,,,,,,,,,,,,,,,,,,,,,,,,,,,,,,,,,
1720416165,70,0,4286.666504,4294.102539,4311.282227,4309.102539,4276.282227,4278.461426,4276.922852,4278.846191,4291.538574,4278.077148,4476.153809,4490.641113,4347.436035,4403.846191,,,,,,,,,,,,,,,,,,,,,,,,,,,,,,,,,,,,,,,,,,,,,,,,,,,,,,,,,,,,,,,,,,,,,,
1720416165,71,0,4284.102539,4295.512695,4307.692383,4308.717773,4282.307617,4278.717773,4275.897461,4281.025879,4288.205078,4276.410156,4475.641113,4489.102539,4347.820313,4398.717773,,,,,,,,,,,,,,,,,,,,,,,,,,,,,,,,,,,,,,,,,,,,,,,,,,,,,,,,,,,,,,,,,,,,,,
1720416165,72,0,4285.512695,4298.589844,4309.487305,4311.794922,4275.897461,4273.589844,4276.153809,4278.205078,4278.717773,4269.615234,4477.692383,4485.256348,4348.077148,4401.025879,,,,,,,,,,,,,,,,,,,,,,,,,,,,,,,,,,,,,,,,,,,,,,,,,,,,,,,,,,,,,,,,,,,,,,
1720416165,73,0,4283.333496,4295.256348,4307.692383,4309.871582,4261.410156,4263.205078,4269.743652,4267.692383,4265.384766,4259.871582,4470.897461,4475.256348,4340,4389.743652,,,,,,,,,,,,,,,,,,,,,,,,,,,,,,,,,,,,,,,,,,,,,,,,,,,,,,,,,,,,,,,,,,,,,,
1720416165,74,0,4285.256348,4295.384766,4310.512695,4311.666504,4262.692383,4263.589844,4274.230957,4268.846191,4268.077148,4260.641113,4467.307617,4477.820313,4341.282227,4385.128418,,,,,,,,,,,,,,,,,,,,,,,,,,,,,,,,,,,,,,,,,,,,,,,,,,,,,,,,,,,,,,,,,,,,,,
1720416165,75,0,4288.717773,4300,4314.358887,4312.94873,4276.025879,4276.282227,4285.384766,4280.384766,4279.487305,4270.256348,4475.128418,4484.487305,4349.487305,4382.94873,,,,,,,,,,,,,,,,,,,,,,,,,,,,,,,,,,,,,,,,,,,,,,,,,,,,,,,,,,,,,,,,,,,,,,
1720416165,76,0,4286.282227,4301.153809,4308.846191,4312.436035,4277.94873,4283.717773,4287.563965,4282.563965,4280.641113,4273.461426,4477.692383,4477.692383,4351.025879,4375,,,,,,,,,,,,,,,,,,,,,,,,,,,,,,,,,,,,,,,,,,,,,,,,,,,,,,,,,,,,,,,,,,,,,,
1720416165,77,0,4278.461426,4296.153809,4299.102539,4311.025879,4268.974121,4279.102539,4278.846191,4272.563965,4276.410156,4263.974121,4464.615234,4464.615234,4343.717773,4367.05127,,,,,,,,,,,,,,,,,,,,,,,,,,,,,,,,,,,,,,,,,,,,,,,,,,,,,,,,,,,,,,,,,,,,,,
1720416165,78,0,4272.563965,4288.589844,4292.692383,4304.358887,4263.333496,4275.384766,4270.897461,4265.128418,4276.666504,4253.846191,4453.846191,4456.794922,4331.025879,4355.641113,,,,,,,,,,,,,,,,,,,,,,,,,,,,,,,,,,,,,,,,,,,,,,,,,,,,,,,,,,,,,,,,,,,,,,
