Timestamp,EEG.Counter,EEG.Interpolated,EEG.AF3,EEG.F7,EEG.F3,EEG.FC5,EEG.T7,EEG.P7,EEG.O1,EEG.O2,EEG.P8,EEG.T8,EEG.FC6,EEG.F4,EEG.F8,EEG.AF4,POW.AF3.Theta,POW.AF3.Alpha,POW.AF3.BetaL,POW.AF3.BetaH,POW.AF3.Gamma,POW.F7.Theta,POW.F7.Alpha,POW.F7.BetaL,POW.F7.BetaH,POW.F7.Gamma,POW.F3.Theta,POW.F3.Alpha,POW.F3.BetaL,POW.F3.BetaH,POW.F3.Gamma,POW.FC5.Theta,POW.FC5.Alpha,POW.FC5.BetaL,POW.FC5.BetaH,POW.FC5.Gamma,POW.T7.Theta,POW.T7.Alpha,POW.T7.BetaL,POW.T7.BetaH,POW.T7.Gamma,POW.P7.Theta,POW.P7.Alpha,POW.P7.BetaL,POW.P7.BetaH,POW.P7.Gamma,POW.O1.Theta,POW.O1.Alpha,POW.O1.BetaL,POW.O1.BetaH,POW.O1.Gamma,POW.O2.Theta,POW.O2.Alpha,POW.O2.BetaL,POW.O2.BetaH,POW.O2.Gamma,POW.P8.Theta,POW.P8.Alpha,POW.P8.BetaL,POW.P8.BetaH,POW.P8.Gamma,POW.T8.Theta,POW.T8.Alpha,POW.T8.BetaL,POW.T8.BetaH,POW.T8.Gamma,POW.FC6.Theta,POW.FC6.Alpha,POW.FC6.BetaL,POW.FC6.BetaH,POW.FC6.Gamma,POW.F4.Theta,POW.F4.Alpha,POW.F4.BetaL,POW.F4.BetaH,POW.F4.Gamma,POW.F8.Theta,POW.F8.Alpha,POW.F8.BetaL,POW.F8.BetaH,POW.F8.Gamma,POW.AF4.Theta,POW.AF4.Alpha,POW.AF4.BetaL,POW.AF4.BetaH,POW.AF4.Gamma
1720513380,84,0,4234.487305,4207.307617,4256.538574,4245.897461,4279.743652,4250.384766,4246.922852,4253.077148,4369.358887,4223.333496,4403.846191,4396.794922,4270.256348,4332.05127,,,,,,,,,,,,,,,,,,,,,,,,,,,,,,,,,,,,,,,,,,,,,,,,,,,,,,,,,,,,,,,,,,,,,,
1720513380,85,0,4247.05127,4229.358887,4231.794922,4249.358887,4277.692383,4244.102539,4230.769043,4232.563965,4352.436035,4212.05127,4389.358887,4376.666504,4262.05127,4325.128418,,,,,,,,,,,,,,,,,,,,,,,,,,,,,,,,,,,,,,,,,,,,,,,,,,,,,,,,,,,,,,,,,,,,,,
1720513380,86,0,4244.230957,4230.384766,4228.077148,4246.538574,4275,4234.102539,4227.307617,4227.436035,4346.794922,4207.307617,4374.871582,4366.794922,4243.846191,4316.922852,,,,,,,,,,,,,,,,,,,,,,,,,,,,,,,,,,,,,,,,,,,,,,,,,,,,,,,,,,,,,,,,,,,,,,
1720513380,87,0,4221.538574,4211.153809,4233.205078,4235.512695,4267.179688,4227.692383,4225.256348,4223.589844,4340.769043,4199.743652,4356.282227,4358.205078,4221.794922,4290.128418,7.387285,2.39542,0.960089,0.817332,1.102809,3.693848,0.850425,1.249745,0.783073,0.520723,0.839782,1.01901,0.480656,1.028007,0.665892,4.275841,0.363239,0.684248,0.666352,0.654985,4.255377,1.171501,0.460738,0.543,0.364245,3.213995,1.60762,0.519577,0.144384,0.1391,8.778054,0.924478,1.619168,0.443477,0.145581,1.961976,0.902709,2.049525,0.496045,0.180592,17.942163,1.894651,1.383776,0.396169,0.188891,1.573726,2.03047,1.457792,0.348383,0.250786,15.777419,4.164047,2.723747,1.196709,0.696706,7.296749,3.142749,2.230022,1.196483,0.965191,6.81336,2.979686,1.622113,0.959335,0.947848,5.75535,3.735191,1.654039,0.635552,1.209003
1720513380,88,0,4212.179688,4204.230957,4220.128418,4231.922852,4263.974121,4229.871582,4217.05127,4212.307617,4324.615234,4183.333496,4336.666504,4339.487305,4202.179688,4272.94873,,,,,,,,,,,,,,,,,,,,,,,,,,,,,,,,,,,,,,,,,,,,,,,,,,,,,,,,,,,,,,,,,,,,,,
1720513380,89,0,4236.538574,4217.436035,4220.769043,4247.820313,4274.358887,4240.384766,4223.077148,4220,4326.794922,4189.615234,4346.794922,4341.025879,4213.846191,4293.333496,,,,,,,,,,,,,,,,,,,,,,,,,,,,,,,,,,,,,,,,,,,,,,,,,,,,,,,,,,,,,,,,,,,,,,
1720513380,90,0,4265,4238.205078,4250.769043,4269.487305,4285.256348,4249.358887,4235.897461,4234.358887,4342.307617,4210.769043,4370.384766,4371.153809,4242.05127,4318.333496,,,,,,,,,,,,,,,,,,,,,,,,,,,,,,,,,,,,,,,,,,,,,,,,,,,,,,,,,,,,,,,,,,,,,,
1720513380,91,0,4267.05127,4254.230957,4273.077148,4280.512695,4289.230957,4249.615234,4235.384766,4231.794922,4345.256348,4211.025879,4378.205078,4390.769043,4252.307617,4323.974121,,,,,,,,,,,,,,,,,,,,,,,,,,,,,,,,,,,,,,,,,,,,,,,,,,,,,,,,,,,,,,,,,,,,,,
1720513380,92,0,4263.589844,4254.102539,4273.461426,4280,4292.436035,4246.794922,4228.846191,4228.461426,4339.230957,4205.128418,4374.871582,4385.897461,4249.102539,4325,,,,,,,,,,,,,,,,,,,,,,,,,,,,,,,,,,,,,,,,,,,,,,,,,,,,,,,,,,,,,,,,,,,,,,
1720513380,93,0,4275.128418,4250.128418,4264.102539,4280.512695,4290,4247.05127,4228.717773,4228.077148,4335.128418,4211.538574,4374.102539,4375.897461,4247.436035,4327.307617,,,,,,,,,,,,,,,,,,,,,,,,,,,,,,,,,,,,,,,,,,,,,,,,,,,,,,,,,,,,,,,,,,,,,,
1720513380,94,0,4283.077148,4252.307617,4269.743652,4281.538574,4282.05127,4247.820313,4233.077148,4228.077148,4337.05127,4208.589844,4376.794922,4377.94873,4247.307617,4329.871582,,,,,,,,,,,,,,,,,,,,,,,,,,,,,,,,,,,,,,,,,,,,,,,,,,,,,,,,,,,,,,,,,,,,,,
1720513380,95,0,4280.128418,4250.128418,4288.846191,4272.820313,4276.282227,4246.025879,4236.922852,4232.307617,4342.94873,4199.871582,4378.333496,4388.717773,4248.846191,4335.384766,,,,,,,,,,,,,,,,,,,,,,,,,,,,,,,,,,,,,,,,,,,,,,,,,,,,,,,,,,,,,,,,,,,,,,
1720513380,96,0,4272.05127,4239.871582,4278.205078,4262.05127,4272.692383,4244.102539,4233.333496,4233.077148,4343.333496,4204.358887,4377.94873,4388.461426,4250.512695,4332.94873,,,,,,,,,,,,,,,,,,,,,,,,,,,,,,,,,,,,,,,,,,,,,,,,,,,,,,,,,,,,,,,,,,,,,,
1720513380,97,0,4259.358887,4240.256348,4237.179688,4272.692383,4273.846191,4244.487305,4228.077148,4229.871582,4339.487305,4209.487305,4380.256348,4377.820313,4248.333496,4328.205078,,,,,,,,,,,,,,,,,,,,,,,,,,,,,,,,,,,,,,,,,,,,,,,,,,,,,,,,,,,,,,,,,,,,,,
1720513381,98,0,4257.692383,4246.410156,4233.333496,4282.820313,4277.307617,4247.563965,4228.717773,4228.974121,4341.666504,4204.230957,4383.333496,4380.384766,4251.025879,4337.05127,,,,,,,,,,,,,,,,,,,,,,,,,,,,,,,,,,,,,,,,,,,,,,,,,,,,,,,,,,,,,,,,,,,,,,
1720513381,99,0,4265,4237.179688,4260.256348,4266.922852,4275.641113,4249.487305,4232.692383,4230.256348,4341.922852,4199.615234,4381.282227,4387.692383,4261.666504,4345.128418,,,,,,,,,,,,,,,,,,,,,,,,,,,,,,,,,,,,,,,,,,,,,,,,,,,,,,,,,,,,,,,,,,,,,,
1720513381,100,0,4262.692383,4232.307617,4264.358887,4258.846191,4269.102539,4250.128418,4241.794922,4234.230957,4343.461426,4208.846191,4385.897461,4385.769043,4266.794922,4344.871582,,,,,,,,,,,,,,,,,,,,,,,,,,,,,,,,,,,,,,,,,,,,,,,,,,,,,,,,,,,,,,,,,,,,,,
1720513381,101,0,4247.692383,4236.025879,4246.794922,4265.641113,4264.743652,4248.205078,4246.666504,4236.794922,4342.820313,4214.102539,4381.025879,4377.820313,4253.077148,4333.205078,,,,,,,,,,,,,,,,,,,,,,,,,,,,,,,,,,,,,,,,,,,,,,,,,,,,,,,,,,,,,,,,,,,,,,
1720513381,102,0,4238.846191,4225.512695,4223.846191,4261.025879,4263.461426,4245.128418,4237.307617,4231.666504,4330.897461,4196.538574,4362.307617,4359.102539,4236.794922,4311.922852,,,,,,,,,,,,,,,,,,,,,,,,,,,,,,,,,,,,,,,,,,,,,,,,,,,,,,,,,,,,,,,,,,,,,,
1720513381,103,0,4246.025879,4218.205078,4223.717773,4256.538574,4264.871582,4246.025879,4232.436035,4230.641113,4327.436035,4189.871582,4368.333496,4353.846191,4243.846191,4312.94873,9.361217,2.405103,1.093012,0.870665,1.086199,3.850879,0.737471,1.328179,0.801985,0.49331,0.914276,1.143563,0.540763,1.006474,0.656716,5.42233,0.277887,0.716697,0.737295,0.646665,3.986266,1.253784,0.505984,0.499731,0.380606,4.147891,1.846037,0.64235,0.133281,0.139915,10.204777,0.936868,1.949059,0.454378,0.140026,1.573193,0.875401,2.340943,0.479959,0.188975,21.977764,2.116436,1.614866,0.401479,0.202661,1.887167,2.073123,1.543237,0.375897,0.298013,16.888653,3.594783,2.630208,1.354915,0.662224,8.369979,2.813965,2.367528,1.188952,0.937455,7.238965,2.615913,1.474172,1.072719,0.892649,7.093204,3.913003,1.800628,0.673996,1.149734
1720513381,104,0,4249.487305,4231.153809,4250,4267.94873,4265,4249.358887,4241.153809,4235.512695,4337.94873,4203.846191,4388.846191,4379.358887,4260.384766,4334.871582,,,,,,,,,,,,,,,,,,,,,,,,,,,,,,,,,,,,,,,,,,,,,,,,,,,,,,,,,,,,,,,,,,,,,,
1720513381,105,0,4242.820313,4236.538574,4257.179688,4277.05127,4262.307617,4248.589844,4241.410156,4233.461426,4338.589844,4204.487305,4389.487305,4392.179688,4262.179688,4342.820313,,,,,,,,,,,,,,,,,,,,,,,,,,,,,,,,,,,,,,,,,,,,,,,,,,,,,,,,,,,,,,,,,,,,,,
1720513381,106,0,4248.461426,4229.102539,4246.794922,4271.538574,4264.358887,4245.512695,4231.025879,4226.922852,4327.563965,4199.102539,4383.589844,4380.512695,4256.922852,4342.820313,,,,,,,,,,,,,,,,,,,,,,,,,,,,,,,,,,,,,,,,,,,,,,,,,,,,,,,,,,,,,,,,,,,,,,
1720513381,107,0,4258.589844,4232.820313,4253.846191,4267.05127,4262.820313,4244.871582,4230.384766,4225.512695,4324.358887,4204.230957,4390,4385,4260.128418,4350.384766,,,,,,,,,,,,,,,,,,,,,,,,,,,,,,,,,,,,,,,,,,,,,,,,,,,,,,,,,,,,,,,,,,,,,,
1720513381,108,0,4253.461426,4231.025879,4261.922852,4265.512695,4254.230957,4245.769043,4235.512695,4230.384766,4328.846191,4204.358887,4392.563965,4396.666504,4267.436035,4349.230957,,,,,,,,,,,,,,,,,,,,,,,,,,,,,,,,,,,,,,,,,,,,,,,,,,,,,,,,,,,,,,,,,,,,,,
1720513381,109,0,4246.922852,4213.974121,4251.153809,4262.179688,4248.333496,4248.077148,4235.384766,4234.102539,4328.205078,4199.230957,4384.871582,4388.846191,4260.384766,4333.589844,,,,,,,,,,,,,,,,,,,,,,,,,,,,,,,,,,,,,,,,,,,,,,,,,,,,,,,,,,,,,,,,,,,,,,
1720513381,110,0,4245.256348,4215.897461,4247.563965,4260.897461,4251.922852,4247.436035,4233.589844,4231.025879,4318.461426,4195.897461,4377.05127,4380.512695,4243.205078,4328.974121,,,,,,,,,,,,,,,,,,,,,,,,,,,,,,,,,,,,,,,,,,,,,,,,,,,,,,,,,,,,,,,,,,,,,,
1720513381,111,0,4247.692383,4234.743652,4248.974121,4264.615234,4250.641113,4237.563965,4230.641113,4228.461426,4311.282227,4192.307617,4379.743652,4385,4250.641113,4344.871582,,,,,,,,,,,,,,,,,,,,,,,,,,,,,,,,,,,,,,,,,,,,,,,,,,,,,,,,,,,,,,,,,,,,,,
1720513381,112,0,4265.512695,4237.94873,4244.102539,4266.282227,4239.358887,4229.102539,4228.077148,4232.307617,4314.358887,4190.641113,4387.820313,4394.615234,4267.820313,4359.102539,,,,,,,,,,,,,,,,,,,,,,,,,,,,,,,,,,,,,,,,,,,,,,,,,,,,,,,,,,,,,,,,,,,,,,
1720513381,113,0,4284.615234,4235.897461,4247.436035,4262.179688,4233.205078,4231.282227,4226.922852,4233.974121,4315.897461,4186.922852,4383.205078,4393.974121,4257.307617,4359.487305,,,,,,,,,,,,,,,,,,,,,,,,,,,,,,,,,,,,,,,,,,,,,,,,,,,,,,,,,,,,,,,,,,,,,,
1720513381,114,0,4284.743652,4244.487305,4253.077148,4265.128418,4234.358887,4234.871582,4227.820313,4230.769043,4312.563965,4184.871582,4376.410156,4387.820313,4245.128418,4359.358887,,,,,,,,,,,,,,,,,,,,,,,,,,,,,,,,,,,,,,,,,,,,,,,,,,,,,,,,,,,,,,,,,,,,,,
1720513381,115,0,4278.589844,4240.641113,4251.538574,4267.692383,4235.384766,4232.436035,4231.666504,4231.794922,4310.897461,4197.436035,4382.179688,4392.05127,4252.05127,4355.641113,,,,,,,,,,,,,,,,,,,,,,,,,,,,,,,,,,,,,,,,,,,,,,,,,,,,,,,,,,,,,,,,,,,,,,
1720513381,116,0,4275.256348,4227.692383,4248.589844,4261.153809,4234.487305,4231.922852,4232.307617,4235.512695,4310.897461,4204.615234,4382.179688,4392.179688,4252.307617,4342.563965,,,,,,,,,,,,,,,,,,,,,,,,,,,,,,,,,,,,,,,,,,,,,,,,,,,,,,,,,,,,,,,,,,,,,,
1720513381,117,0,4278.077148,4234.743652,4248.846191,4262.692383,4236.282227,4234.615234,4235.512695,4235.256348,4309.615234,4191.666504,4376.282227,4385.256348,4250.897461,4344.102539,,,,,,,,,,,,,,,,,,,,,,,,,,,,,,,,,,,,,,,,,,,,,,,,,,,,,,,,,,,,,,,,,,,,,,
1720513381,118,0,4291.282227,4242.692383,4260.256348,4267.820313,4240.641113,4236.025879,4246.282227,4234.230957,4311.666504,4191.025879,4385.512695,4392.94873,4264.871582,4363.717773,,,,,,,,,,,,,,,,,,,,,,,,,,,,,,,,,,,,,,,,,,,,,,,,,,,,,,,,,,,,,,,,,,,,,,
1720513381,119,0,4291.282227,4234.230957,4268.077148,4265.897461,4243.717773,4235.897461,4248.589844,4235,4310.897461,4202.05127,4393.846191,4402.179688,4269.102539,4370,10.81754,2.26286,1.168888,0.917573,1.024278,3.956625,0.672102,1.367674,0.801446,0.458655,1.180755,1.237993,0.609092,0.979306,0.635399,6.215391,0.262467,0.709147,0.787014,0.616026,3.471372,1.249838,0.54861,0.435743,0.373462,4.722905,2.036556,0.764778,0.127435,0.142516,10.614367,0.962136,2.204437,0.431265,0.136622,1.278645,0.866313,2.525544,0.42805,0.189497,24.221373,2.364648,1.772939,0.383222,0.207757,2.04114,2.0254,1.573883,0.378637,0.33616,17.405479,2.973364,2.605549,1.390706,0.599079,9.303633,2.594256,2.520905,1.094465,0.861982,7.581179,2.108885,1.356592,1.124142,0.788465,9.030343,3.865115,1.898002,0.688658,1.01115
1720513381,120,0,4275.128418,4235.384766,4257.307617,4267.820313,4245.769043,4233.461426,4237.307617,4235.641113,4301.538574,4192.820313,4383.974121,4397.179688,4254.871582,4359.615234,,,,,,,,,,,,,,,,,,,,,,,,,,,,,,,,,,,,,,,,,,,,,,,,,,,,,,,,,,,,,,,,,,,,,,
1720513381,121,0,4271.282227,4251.410156,4245.256348,4272.436035,4243.589844,4231.538574,4230.128418,4228.077148,4294.230957,4178.846191,4376.282227,4388.974121,4247.820313,4345.769043,,,,,,,,,,,,,,,,,,,,,,,,,,,,,,,,,,,,,,,,,,,,,,,,,,,,,,,,,,,,,,,,,,,,,,
1720513381,122,0,4279.358887,4249.102539,4248.461426,4268.589844,4239.230957,4231.794922,4230.128418,4216.153809,4293.589844,4183.974121,4376.282227,4382.179688,4247.307617,4330.128418,,,,,,,,,,,,,,,,,,,,,,,,,,,,,,,,,,,,,,,,,,,,,,,,,,,,,,,,,,,,,,,,,,,,,,
1720513381,123,0,4282.692383,4236.153809,4252.563965,4265,4240.897461,4233.077148,4227.05127,4212.563965,4291.794922,4189.743652,4371.282227,4379.615234,4245.256348,4328.846191,,,,,,,,,,,,,,,,,,,,,,,,,,,,,,,,,,,,,,,,,,,,,,,,,,,,,,,,,,,,,,,,,,,,,,
1720513381,124,0,4276.025879,4244.102539,4247.692383,4266.922852,4248.333496,4235.512695,4226.153809,4214.487305,4288.077148,4184.743652,4371.922852,4382.05127,4253.333496,4344.487305,,,,,,,,,,,,,,,,,,,,,,,,,,,,,,,,,,,,,,,,,,,,,,,,,,,,,,,,,,,,,,,,,,,,,,
1720513381,125,0,4277.05127,4255,4250.384766,4269.102539,4249.487305,4233.589844,4225.897461,4216.025879,4288.077148,4189.230957,4386.666504,4383.974121,4270.897461,4355.769043,,,,,,,,,,,,,,,,,,,,,,,,,,,,,,,,,,,,,,,,,,,,,,,,,,,,,,,,,,,,,,,,,,,,,,
1720513381,126,0,4295.256348,4249.871582,4270.897461,4273.974121,4251.282227,4231.153809,4229.102539,4227.692383,4295.641113,4200.769043,4398.077148,4399.743652,4277.05127,4360.384766,,,,,,,,,,,,,,,,,,,,,,,,,,,,,,,,,,,,,,,,,,,,,,,,,,,,,,,,,,,,,,,,,,,,,,
1720513381,127,0,4301.794922,4249.230957,4280.256348,4282.563965,4254.358887,4241.025879,4241.025879,4244.102539,4303.077148,4202.94873,4397.94873,4416.153809,4278.205078,4365.641113,,,,,,,,,,,,,,,,,,,,,,,,,,,,,,,,,,,,,,,,,,,,,,,,,,,,,,,,,,,,,,,,,,,,,,
1720513381,0,0,4286.153809,4254.871582,4258.461426,4282.436035,4253.974121,4252.692383,4248.974121,4244.358887,4300,4201.410156,4396.153809,4405.512695,4278.333496,4359.358887,,,,,,,,,,,,,,,,,,,,,,,,,,,,,,,,,,,,,,,,,,,,,,,,,,,,,,,,,,,,,,,,,,,,,,
1720513381,1,0,4273.846191,4245.512695,4244.230957,4270.641113,4255.128418,4249.230957,4248.589844,4243.974121,4295.641113,4203.205078,4389.230957,4394.358887,4258.333496,4337.563965,,,,,,,,,,,,,,,,,,,,,,,,,,,,,,,,,,,,,,,,,,,,,,,,,,,,,,,,,,,,,,,,,,,,,,
1720513381,2,0,4274.871582,4233.846191,4256.666504,4261.153809,4253.333496,4244.615234,4250.641113,4248.717773,4300.128418,4199.743652,4385.384766,4398.846191,4252.563965,4333.461426,,,,,,,,,,,,,,,,,,,,,,,,,,,,,,,,,,,,,,,,,,,,,,,,,,,,,,,,,,,,,,,,,,,,,,
1720513381,3,0,4281.025879,4240.128418,4262.692383,4266.666504,4251.025879,4243.717773,4249.230957,4241.410156,4296.025879,4194.102539,4392.563965,4397.94873,4281.538574,4352.05127,,,,,,,,,,,,,,,,,,,,,,,,,,,,,,,,,,,,,,,,,,,,,,,,,,,,,,,,,,,,,,,,,,,,,,
1720513381,4,0,4289.230957,4251.282227,4258.077148,4273.333496,4253.333496,4236.282227,4236.538574,4227.94873,4281.282227,4198.333496,4398.333496,4398.846191,4303.717773,4371.153809,,,,,,,,,,,,,,,,,,,,,,,,,,,,,,,,,,,,,,,,,,,,,,,,,,,,,,,,,,,,,,,,,,,,,,
1720513381,5,0,4296.282227,4252.179688,4261.410156,4276.410156,4256.794922,4230.769043,4228.205078,4222.692383,4276.025879,4203.717773,4403.846191,4408.077148,4308.717773,4384.743652,,,,,,,,,,,,,,,,,,,,,,,,,,,,,,,,,,,,,,,,,,,,,,,,,,,,,,,,,,,,,,,,,,,,,,
1720513381,6,0,4305.641113,4248.974121,4268.333496,4284.102539,4256.282227,4231.922852,4228.846191,4218.077148,4277.307617,4200,4407.820313,4411.922852,4311.410156,4389.102539,,,,,,,,,,,,,,,,,,,,,,,,,,,,,,,,,,,,,,,,,,,,,,,,,,,,,,,,,,,,,,,,,,,,,,
1720513381,7,0,4311.410156,4246.922852,4269.102539,4282.692383,4252.05127,4231.025879,4226.282227,4213.205078,4275.641113,4198.846191,4406.666504,4411.922852,4309.230957,4380.769043,11.413089,2.082557,1.136275,0.954534,0.9336,3.910125,0.694093,1.355086,0.799009,0.431534,1.697006,1.383875,0.670063,0.959632,0.616692,6.433741,0.379171,0.644276,0.817539,0.580638,2.894042,1.191049,0.583807,0.370652,0.340994,4.800253,2.136725,0.868225,0.130424,0.143163,9.844702,1.000111,2.313012,0.382128,0.134697,1.111134,0.902034,2.538602,0.358523,0.182948,23.355736,2.557644,1.782765,0.349351,0.205274,2.087406,1.916297,1.517912,0.363407,0.355819,17.224495,2.402343,2.55505,1.321885,0.526409,9.964901,2.518691,2.596956,0.958499,0.767656,8.087997,1.623895,1.261059,1.128512,0.666796,11.529142,3.620635,1.900052,0.697027,0.836131
1720513381,8,0,4295.128418,4247.179688,4259.615234,4276.025879,4248.717773,4230.641113,4230,4224.487305,4281.282227,4207.94873,4411.794922,4413.589844,4309.615234,4370.384766,,,,,,,,,,,,,,,,,,,,,,,,,,,,,,,,,,,,,,,,,,,,,,,,,,,,,,,,,,,,,,,,,,,,,,
1720513381,9,0,4277.436035,4246.025879,4251.282227,4278.077148,4248.717773,4234.615234,4243.077148,4244.102539,4289.230957,4216.794922,4420.897461,4420.128418,4314.615234,4371.153809,,,,,,,,,,,,,,,,,,,,,,,,,,,,,,,,,,,,,,,,,,,,,,,,,,,,,,,,,,,,,,,,,,,,,,
1720513381,10,0,4276.153809,4236.282227,4258.077148,4270.512695,4249.230957,4240,4252.692383,4253.974121,4284.102539,4215.641113,4416.282227,4424.871582,4303.717773,4371.538574,,,,,,,,,,,,,,,,,,,,,,,,,,,,,,,,,,,,,,,,,,,,,,,,,,,,,,,,,,,,,,,,,,,,,,
1720513381,11,0,4275,4225.641113,4265.512695,4256.410156,4244.358887,4245.769043,4253.717773,4250.384766,4264.743652,4205.641113,4404.102539,4418.077148,4290.512695,4360,,,,,,,,,,,,,,,,,,,,,,,,,,,,,,,,,,,,,,,,,,,,,,,,,,,,,,,,,,,,,,,,,,,,,,
1720513381,12,0,4276.538574,4227.94873,4263.589844,4263.333496,4245.641113,4246.794922,4251.410156,4245.641113,4246.282227,4201.666504,4404.615234,4412.692383,4291.282227,4352.436035,,,,,,,,,,,,,,,,,,,,,,,,,,,,,,,,,,,,,,,,,,,,,,,,,,,,,,,,,,,,,,,,,,,,,,
1720513381,13,0,4285.641113,4240.512695,4260.256348,4276.666504,4252.820313,4243.717773,4247.563965,4244.102539,4235.128418,4204.487305,4411.538574,4415.641113,4296.282227,4359.487305,,,,,,,,,,,,,,,,,,,,,,,,,,,,,,,,,,,,,,,,,,,,,,,,,,,,,,,,,,,,,,,,,,,,,,
1720513381,14,0,4294.358887,4248.333496,4264.615234,4283.205078,4255.384766,4244.102539,4245.512695,4238.205078,4219.871582,4197.563965,4409.871582,4415.128418,4298.717773,4367.820313,,,,,,,,,,,,,,,,,,,,,,,,,,,,,,,,,,,,,,,,,,,,,,,,,,,,,,,,,,,,,,,,,,,,,,
1720513381,15,0,4294.743652,4247.05127,4271.025879,4287.820313,4260.897461,4246.410156,4245,4231.794922,4203.717773,4192.563965,4398.717773,4412.820313,4295.641113,4365,,,,,,,,,,,,,,,,,,,,,,,,,,,,,,,,,,,,,,,,,,,,,,,,,,,,,,,,,,,,,,,,,,,,,,
1720513381,16,0,4287.179688,4247.94873,4266.666504,4287.692383,4262.820313,4248.589844,4239.102539,4230,4197.307617,4197.05127,4396.666504,4410,4294.871582,4365.128418,,,,,,,,,,,,,,,,,,,,,,,,,,,,,,,,,,,,,,,,,,,,,,,,,,,,,,,,,,,,,,,,,,,,,,
1720513381,17,0,4279.615234,4247.820313,4261.666504,4281.922852,4254.487305,4245.512695,4231.282227,4232.179688,4193.974121,4195,4396.922852,4404.743652,4298.461426,4368.846191,,,,,,,,,,,,,,,,,,,,,,,,,,,,,,,,,,,,,,,,,,,,,,,,,,,,,,,,,,,,,,,,,,,,,,
1720513381,18,0,4277.692383,4233.717773,4261.282227,4270,4246.153809,4236.538574,4230.897461,4228.717773,4183.333496,4183.974121,4387.563965,4400.256348,4292.820313,4356.538574,,,,,,,,,,,,,,,,,,,,,,,,,,,,,,,,,,,,,,,,,,,,,,,,,,,,,,,,,,,,,,,,,,,,,,
1720513381,19,0,4276.922852,4227.692383,4249.487305,4266.282227,4245.384766,4232.307617,4232.820313,4224.871582,4173.589844,4183.717773,4387.563965,4398.205078,4287.94873,4349.102539,,,,,,,,,,,,,,,,,,,,,,,,,,,,,,,,,,,,,,,,,,,,,,,,,,,,,,,,,,,,,,,,,,,,,,
1720513381,20,0,4280.641113,4244.358887,4244.358887,4274.102539,4248.461426,4234.487305,4232.692383,4228.846191,4175.512695,4194.871582,4397.307617,4404.230957,4300.512695,4367.563965,,,,,,,,,,,,,,,,,,,,,,,,,,,,,,,,,,,,,,,,,,,,,,,,,,,,,,,,,,,,,,,,,,,,,,
1720513381,21,0,4299.743652,4244.743652,4274.358887,4274.230957,4247.436035,4234.358887,4233.589844,4233.205078,4178.846191,4202.692383,4403.717773,4424.871582,4311.538574,4381.025879,,,,,,,,,,,,,,,,,,,,,,,,,,,,,,,,,,,,,,,,,,,,,,,,,,,,,,,,,,,,,,,,,,,,,,
1720513381,22,0,4311.666504,4233.846191,4286.282227,4270,4237.179688,4230,4232.05127,4232.94873,4173.077148,4202.307617,4404.102539,4429.358887,4312.692383,4374.358887,,,,,,,,,,,,,,,,,,,,,,,,,,,,,,,,,,,,,,,,,,,,,,,,,,,,,,,,,,,,,,,,,,,,,,
1720513381,23,0,4289.615234,4237.820313,4253.461426,4270.897461,4231.538574,4227.563965,4230,4232.179688,4167.94873,4201.538574,4401.282227,4410.512695,4307.820313,4368.461426,11.14559,1.996966,1.019304,0.985383,0.835611,3.731982,0.816359,1.292072,0.812664,0.422733,2.487183,1.688923,0.726105,0.96231,0.62079,6.030311,0.661398,0.546746,0.832746,0.551329,2.424832,1.1184,0.603091,0.318196,0.288291,4.312486,2.117636,0.938953,0.14188,0.138315,8.126876,1.045478,2.246046,0.323192,0.133987,1.056806,0.980371,2.355283,0.294177,0.171636,20.473867,2.645737,1.63043,0.315775,0.198605,1.973156,1.779756,1.377267,0.347195,0.355417,15.588233,1.987936,2.408683,1.208972,0.459054,9.904168,2.563081,2.530703,0.84884,0.681869,8.431349,1.327455,1.206792,1.126421,0.556377,13.465889,3.275633,1.823353,0.74591,0.6685
1720513381,24,0,4262.563965,4240.512695,4236.025879,4272.436035,4240.256348,4231.153809,4232.692383,4235,4169.230957,4204.102539,4401.666504,4404.615234,4296.025879,4363.846191,,,,,,,,,,,,,,,,,,,,,,,,,,,,,,,,,,,,,,,,,,,,,,,,,,,,,,,,,,,,,,,,,,,,,,
1720513381,25,0,4269.615234,4238.974121,4253.717773,4267.05127,4244.615234,4233.205078,4232.307617,4238.717773,4168.589844,4200.897461,4405.256348,4412.179688,4296.922852,4360.769043,,,,,,,,,,,,,,,,,,,,,,,,,,,,,,,,,,,,,,,,,,,,,,,,,,,,,,,,,,,,,,,,,,,,,,
1720513381,26,0,4295,4246.282227,4264.230957,4267.563965,4241.282227,4234.743652,4233.333496,4243.461426,4168.846191,4206.794922,4416.282227,4417.307617,4325.512695,4379.487305,,,,,,,,,,,,,,,,,,,,,,,,,,,,,,,,,,,,,,,,,,,,,,,,,,,,,,,,,,,,,,,,,,,,,,
1720513381,27,0,4294.358887,4248.717773,4251.794922,4273.077148,4244.358887,4238.589844,4242.179688,4245.897461,4171.538574,4218.205078,4428.717773,4421.153809,4346.794922,4398.846191,,,,,,,,,,,,,,,,,,,,,,,,,,,,,,,,,,,,,,,,,,,,,,,,,,,,,,,,,,,,,,,,,,,,,,
1720513381,28,0,4280,4237.94873,4243.846191,4271.794922,4241.922852,4239.102539,4248.077148,4244.871582,4170,4210.256348,4427.436035,4422.307617,4335.512695,4390.512695,,,,,,,,,,,,,,,,,,,,,,,,,,,,,,,,,,,,,,,,,,,,,,,,,,,,,,,,,,,,,,,,,,,,,,
1720513381,29,0,4281.922852,4232.05127,4256.282227,4261.922852,4232.307617,4234.102539,4248.846191,4246.794922,4172.820313,4206.025879,4421.025879,4421.282227,4326.538574,4382.94873,,,,,,,,,,,,,,,,,,,,,,,,,,,,,,,,,,,,,,,,,,,,,,,,,,,,,,,,,,,,,,,,,,,,,,
1720513381,30,0,4285.897461,4232.436035,4266.538574,4262.94873,4232.307617,4233.461426,4251.538574,4253.846191,4178.461426,4216.794922,4428.461426,4425.769043,4337.436035,4389.102539,,,,,,,,,,,,,,,,,,,,,,,,,,,,,,,,,,,,,,,,,,,,,,,,,,,,,,,,,,,,,,,,,,,,,,
1720513381,31,0,4280.384766,4231.410156,4255.128418,4276.666504,4235.769043,4235.384766,4249.615234,4251.153809,4173.461426,4212.94873,4431.538574,4429.230957,4341.282227,4392.307617,,,,,,,,,,,,,,,,,,,,,,,,,,,,,,,,,,,,,,,,,,,,,,,,,,,,,,,,,,,,,,,,,,,,,,
1720513381,32,0,4277.436035,4231.410156,4245.256348,4272.307617,4233.717773,4233.077148,4242.179688,4237.563965,4164.615234,4198.333496,4417.307617,4428.205078,4329.871582,4387.692383,,,,,,,,,,,,,,,,,,,,,,,,,,,,,,,,,,,,,,,,,,,,,,,,,,,,,,,,,,,,,,,,,,,,,,
1720513381,33,0,4276.922852,4231.025879,4256.538574,4260.897461,4233.461426,4231.794922,4241.666504,4238.333496,4170.384766,4202.94873,4409.102539,4431.410156,4321.794922,4382.307617,,,,,,,,,,,,,,,,,,,,,,,,,,,,,,,,,,,,,,,,,,,,,,,,,,,,,,,,,,,,,,,,,,,,,,
1720513381,34,0,4276.922852,4231.794922,4268.589844,4262.94873,4235,4235,4245.897461,4249.230957,4180,4214.102539,4413.205078,4432.179688,4325.384766,4386.282227,,,,,,,,,,,,,,,,,,,,,,,,,,,,,,,,,,,,,,,,,,,,,,,,,,,,,,,,,,,,,,,,,,,,,,
1720513381,35,0,4284.230957,4231.153809,4267.820313,4261.666504,4236.025879,4238.589844,4247.436035,4250.512695,4176.282227,4212.94873,4421.922852,4431.538574,4332.307617,4395.256348,,,,,,,,,,,,,,,,,,,,,,,,,,,,,,,,,,,,,,,,,,,,,,,,,,,,,,,,,,,,,,,,,,,,,,
1720513381,36,0,4284.743652,4230.512695,4258.717773,4259.615234,4235.641113,4236.794922,4246.410156,4243.974121,4168.589844,4206.025879,4426.410156,4427.94873,4334.615234,4393.846191,,,,,,,,,,,,,,,,,,,,,,,,,,,,,,,,,,,,,,,,,,,,,,,,,,,,,,,,,,,,,,,,,,,,,,
1720513381,37,0,4275.897461,4231.666504,4251.410156,4269.230957,4232.820313,4233.589844,4247.05127,4237.692383,4167.94873,4202.307617,4415.769043,4416.410156,4327.94873,4381.410156,,,,,,,,,,,,,,,,,,,,,,,,,,,,,,,,,,,,,,,,,,,,,,,,,,,,,,,,,,,,,,,,,,,,,,
1720513381,38,0,4275.512695,4233.974121,4250.769043,4274.743652,4233.461426,4239.102539,4244.102539,4237.05127,4168.333496,4202.94873,4403.461426,4411.153809,4319.615234,4373.589844,,,,,,,,,,,,,,,,,,,,,,,,,,,,,,,,,,,,,,,,,,,,,,,,,,,,,,,,,,,,,,,,,,,,,,
1720513381,39,0,4273.974121,4236.025879,4247.563965,4265.641113,4234.230957,4245,4234.871582,4241.666504,4170.128418,4199.743652,4403.333496,4412.179688,4318.589844,4370.512695,10.289323,2.067133,0.89163,1.021553,0.7495,3.445956,1.019725,1.190448,0.851028,0.434103,3.461803,2.188268,0.784068,0.992533,0.661679,5.233373,1.080365,0.458695,0.835358,0.527009,2.124968,1.059644,0.597214,0.281807,0.225905,3.492234,1.988296,0.965663,0.156572,0.12726,5.995996,1.108903,2.040117,0.268697,0.13465,1.048956,1.108438,2.040208,0.25034,0.158367,15.249175,2.604249,1.364466,0.29533,0.191578,1.775772,1.652482,1.19903,0.342922,0.341136,13.029289,1.781538,2.157654,1.114078,0.402864,9.237677,2.667771,2.306666,0.818992,0.619855,8.636458,1.263564,1.222652,1.160532,0.474229,14.512716,2.920172,1.721014,0.892904,0.535716
1720513381,40,0,4261.538574,4232.820313,4242.307617,4261.025879,4230.256348,4245.384766,4236.666504,4243.333496,4178.077148,4197.692383,4405.641113,4415.641113,4318.077148,4368.846191,,,,,,,,,,,,,,,,,,,,,,,,,,,,,,,,,,,,,,,,,,,,,,,,,,,,,,,,,,,,,,,,,,,,,,
1720513381,41,0,4254.615234,4230.897461,4249.743652,4262.820313,4228.974121,4246.666504,4250,4244.487305,4183.589844,4206.153809,4407.179688,4425.641113,4316.025879,4369.358887,,,,,,,,,,,,,,,,,,,,,,,,,,,,,,,,,,,,,,,,,,,,,,,,,,,,,,,,,,,,,,,,,,,,,,
1720513381,42,0,4269.743652,4238.846191,4266.282227,4264.102539,4230.769043,4246.538574,4254.358887,4250,4189.102539,4216.794922,4421.153809,4430.897461,4327.05127,4377.563965,,,,,,,,,,,,,,,,,,,,,,,,,,,,,,,,,,,,,,,,,,,,,,,,,,,,,,,,,,,,,,,,,,,,,,
1720513381,43,0,4292.05127,4247.563965,4270.769043,4271.794922,4230.128418,4243.077148,4251.025879,4250.256348,4197.436035,4217.94873,4431.282227,4428.717773,4342.05127,4394.615234,,,,,,,,,,,,,,,,,,,,,,,,,,,,,,,,,,,,,,,,,,,,,,,,,,,,,,,,,,,,,,,,,,,,,,
1720513381,44,0,4301.922852,4249.230957,4271.153809,4280.512695,4228.333496,4243.974121,4255.641113,4249.102539,4201.538574,4217.05127,4427.179688,4441.025879,4340.256348,4407.436035,,,,,,,,,,,,,,,,,,,,,,,,,,,,,,,,,,,,,,,,,,,,,,,,,,,,,,,,,,,,,,,,,,,,,,
1720513381,45,0,4320.128418,4249.487305,4290.641113,4276.282227,4227.94873,4246.153809,4263.333496,4251.666504,4203.077148,4222.307617,4435.897461,4466.538574,4346.666504,4427.05127,,,,,,,,,,,,,,,,,,,,,,,,,,,,,,,,,,,,,,,,,,,,,,,,,,,,,,,,,,,,,,,,,,,,,,
1720513381,46,0,4359.871582,4256.922852,4306.922852,4281.666504,4228.717773,4244.615234,4259.487305,4250.512695,4201.538574,4219.615234,4451.922852,4479.358887,4373.205078,4459.487305,,,,,,,,,,,,,,,,,,,,,,,,,,,,,,,,,,,,,,,,,,,,,,,,,,,,,,,,,,,,,,,,,,,,,,
1720513381,47,0,4387.692383,4270.897461,4303.589844,4297.692383,4232.05127,4245.512695,4248.717773,4246.282227,4197.94873,4212.563965,4452.436035,4478.974121,4386.538574,4486.282227,,,,,,,,,,,,,,,,,,,,,,,,,,,,,,,,,,,,,,,,,,,,,,,,,,,,,,,,,,,,,,,,,,,,,,
1720513381,48,0,4398.589844,4283.333496,4304.102539,4297.179688,4233.205078,4250.512695,4246.666504,4248.846191,4203.974121,4222.436035,4455.641113,4483.205078,4392.563965,4509.871582,,,,,,,,,,,,,,,,,,,,,,,,,,,,,,,,,,,,,,,,,,,,,,,,,,,,,,,,,,,,,,,,,,,,,,
1720513381,49,0,4425.897461,4291.153809,4318.333496,4295.128418,4230.256348,4245.769043,4252.05127,4259.230957,4215.128418,4235.641113,4477.692383,4498.461426,4420.384766,4543.333496,,,,,,,,,,,,,,,,,,,,,,,,,,,,,,,,,,,,,,,,,,,,,,,,,,,,,,,,,,,,,,,,,,,,,,
1720513381,50,0,4457.307617,4291.794922,4331.410156,4306.153809,4226.922852,4235.512695,4251.922852,4265,4220.641113,4234.615234,4495.128418,4518.333496,4446.538574,4575.256348,,,,,,,,,,,,,,,,,,,,,,,,,,,,,,,,,,,,,,,,,,,,,,,,,,,,,,,,,,,,,,,,,,,,,,
1720513381,51,0,4461.794922,4288.717773,4333.589844,4308.846191,4225.384766,4237.05127,4249.487305,4263.589844,4223.077148,4231.538574,4495.384766,4530.769043,4449.358887,4589.615234,,,,,,,,,,,,,,,,,,,,,,,,,,,,,,,,,,,,,,,,,,,,,,,,,,,,,,,,,,,,,,,,,,,,,,
1720513381,52,0,4459.615234,4290.512695,4336.025879,4303.205078,4226.794922,4245.128418,4248.717773,4262.820313,4222.436035,4232.179688,4493.589844,4530.897461,4446.538574,4593.333496,,,,,,,,,,,,,,,,,,,,,,,,,,,,,,,,,,,,,,,,,,,,,,,,,,,,,,,,,,,,,,,,,,,,,,
1720513381,53,0,4472.05127,4294.871582,4339.615234,4306.282227,4230.384766,4247.692383,4251.410156,4264.358887,4222.307617,4227.179688,4495.256348,4522.94873,4446.153809,4591.282227,,,,,,,,,,,,,,,,,,,,,,,,,,,,,,,,,,,,,,,,,,,,,,,,,,,,,,,,,,,,,,,,,,,,,,
1720513381,54,0,4475.384766,4294.230957,4333.846191,4311.666504,4230.897461,4246.538574,4257.05127,4263.461426,4229.615234,4226.922852,4490,4516.410156,4447.436035,4589.871582,,,,,,,,,,,,,,,,,,,,,,,,,,,,,,,,,,,,,,,,,,,,,,,,,,,,,,,,,,,,,,,,,,,,,,
1720513381,55,0,4460.641113,4292.307617,4326.538574,4305,4229.487305,4246.282227,4260.769043,4263.589844,4233.589844,4232.820313,4481.025879,4509.871582,4443.077148,4585.512695,9.227151,2.254787,0.838669,1.082336,0.686673,3.110665,1.264351,1.07875,0.904579,0.456791,4.376245,2.792762,0.837027,1.044403,0.740565,4.292459,1.54252,0.41233,0.825746,0.49759,1.949687,1.016652,0.567356,0.258673,0.166615,2.593429,1.781099,0.94459,0.168284,0.112919,4.064073,1.198119,1.782363,0.227122,0.136452,1.060381,1.304652,1.712052,0.231228,0.145641,10.114569,2.436747,1.082928,0.291702,0.186833,1.566476,1.538517,1.024552,0.351843,0.322538,10.112522,1.722558,1.820334,1.068071,0.356293,8.134864,2.745475,1.94174,0.877239,0.580448,8.494314,1.345428,1.313269,1.251746,0.425074,14.301514,2.592664,1.633363,1.167212,0.445684
1720513381,56,0,4460.512695,4305.128418,4327.563965,4304.871582,4232.94873,4245.256348,4256.410156,4261.153809,4226.794922,4227.436035,4480.897461,4505.256348,4433.333496,4583.333496,,,,,,,,,,,,,,,,,,,,,,,,,,,,,,,,,,,,,,,,,,,,,,,,,,,,,,,,,,,,,,,,,,,,,,
1720513381,57,0,4484.230957,4322.179688,4333.333496,4319.743652,4234.102539,4245.897461,4250.128418,4253.589844,4221.538574,4216.794922,4488.717773,4512.05127,4437.563965,4594.487305,,,,,,,,,,,,,,,,,,,,,,,,,,,,,,,,,,,,,,,,,,,,,,,,,,,,,,,,,,,,,,,,,,,,,,
1720513381,58,0,4502.820313,4328.974121,4347.05127,4327.179688,4234.102539,4247.563965,4252.179688,4250,4223.589844,4216.153809,4491.922852,4523.589844,4443.461426,4599.871582,,,,,,,,,,,,,,,,,,,,,,,,,,,,,,,,,,,,,,,,,,,,,,,,,,,,,,,,,,,,,,,,,,,,,,
1720513381,59,0,4505,4340.512695,4358.333496,4326.794922,4242.179688,4248.205078,4255.512695,4250.897461,4229.487305,4218.461426,4483.974121,4521.025879,4428.461426,4586.922852,,,,,,,,,,,,,,,,,,,,,,,,,,,,,,,,,,,,,,,,,,,,,,,,,,,,,,,,,,,,,,,,,,,,,,
1720513381,60,0,4505.384766,4359.102539,4349.102539,4336.538574,4248.974121,4249.487305,4250.384766,4246.922852,4219.102539,4213.333496,4465.641113,4501.666504,4403.846191,4567.436035,,,,,,,,,,,,,,,,,,,,,,,,,,,,,,,,,,,,,,,,,,,,,,,,,,,,,,,,,,,,,,,,,,,,,,
1720513381,61,0,4509.358887,4371.282227,4342.05127,4351.025879,4247.307617,4250.769043,4247.563965,4243.974121,4170.256348,4213.461426,4452.94873,4492.563965,4391.410156,4557.179688,,,,,,,,,,,,,,,,,,,,,,,,,,,,,,,,,,,,,,,,,,,,,,,,,,,,,,,,,,,,,,,,,,,,,,
1720513381,62,0,4515,4377.307617,4358.717773,4352.563965,4246.538574,4252.179688,4253.461426,4253.461426,4101.153809,4216.922852,4457.692383,4505.256348,4388.333496,4556.025879,,,,,,,,,,,,,,,,,,,,,,,,,,,,,,,,,,,,,,,,,,,,,,,,,,,,,,,,,,,,,,,,,,,,,,
1720513381,63,0,4516.282227,4388.461426,4373.205078,4352.179688,4251.153809,4252.563965,4254.871582,4263.589844,4038.333252,4206.922852,4458.333496,4513.717773,4379.102539,4551.025879,,,,,,,,,,,,,,,,,,,,,,,,,,,,,,,,,,,,,,,,,,,,,,,,,,,,,,,,,,,,,,,,,,,,,,
1720513381,64,0,4523.333496,4404.230957,4368.846191,4361.282227,4251.794922,4250.769043,4249.743652,4260.769043,3979.487061,4197.05127,4446.794922,4508.589844,4363.974121,4539.230957,,,,,,,,,,,,,,,,,,,,,,,,,,,,,,,,,,,,,,,,,,,,,,,,,,,,,,,,,,,,,,,,,,,,,,
1720513381,65,0,4537.94873,4410.512695,4370.128418,4364.230957,4248.974121,4247.563965,4250,4258.205078,3927.820557,4198.205078,4445,4507.563965,4353.974121,4530.256348,,,,,,,,,,,,,,,,,,,,,,,,,,,,,,,,,,,,,,,,,,,,,,,,,,,,,,,,,,,,,,,,,,,,,,
1720513381,66,0,4539.230957,4411.153809,4379.102539,4359.871582,4247.94873,4245.769043,4251.282227,4261.410156,3893.718018,4193.589844,4445.384766,4507.179688,4353.974121,4527.820313,,,,,,,,,,,,,,,,,,,,,,,,,,,,,,,,,,,,,,,,,,,,,,,,,,,,,,,,,,,,,,,,,,,,,,
1720513381,67,0,4526.410156,4420.512695,4374.487305,4361.666504,4249.743652,4245.641113,4247.563965,4255,3865.256348,4183.333496,4430,4493.717773,4346.025879,4513.589844,,,,,,,,,,,,,,,,,,,,,,,,,,,,,,,,,,,,,,,,,,,,,,,,,,,,,,,,,,,,,,,,,,,,,,
1720513381,68,0,4512.307617,4421.282227,4359.487305,4357.94873,4249.487305,4243.974121,4243.333496,4247.436035,3840.384521,4179.871582,4409.615234,4477.692383,4321.153809,4487.692383,,,,,,,,,,,,,,,,,,,,,,,,,,,,,,,,,,,,,,,,,,,,,,,,,,,,,,,,,,,,,,,,,,,,,,
1720513381,69,0,4504.230957,4403.461426,4351.794922,4344.615234,4243.333496,4243.589844,4244.358887,4244.230957,3825.769287,4175.897461,4399.358887,4462.94873,4304.102539,4469.743652,,,,,,,,,,,,,,,,,,,,,,,,,,,,,,,,,,,,,,,,,,,,,,,,,,,,,,,,,,,,,,,,,,,,,,
1720513381,70,0,4505,4411.666504,4350.897461,4353.461426,4245.128418,4247.307617,4246.794922,4233.974121,3814.358887,4171.025879,4397.692383,4452.05127,4307.692383,4465,,,,,,,,,,,,,,,,,,,,,,,,,,,,,,,,,,,,,,,,,,,,,,,,,,,,,,,,,,,,,,,,,,,,,,
1720513381,71,0,4508.205078,4441.922852,4354.615234,4370.256348,4258.846191,4250.641113,4247.436035,4235.256348,3809.743652,4172.692383,4406.153809,4456.282227,4315.384766,4463.846191,8.648056,2.449735,0.915709,1.178804,0.647116,2.900731,1.467222,0.983037,0.946594,0.473664,4.986467,3.310897,0.874826,1.102883,0.843687,3.505089,1.910708,0.421613,0.805038,0.452294,1.846734,0.975948,0.519449,0.24276,0.120543,1.885987,1.546759,0.875461,0.172254,0.099728,2.717438,1.309605,1.562895,0.198372,0.138393,1.069251,1.568361,1.4842,0.231209,0.135734,6.23232,2.208522,0.883848,0.300414,0.18508,1.402034,1.424587,0.884284,0.366505,0.308005,7.606313,1.714971,1.468495,1.064354,0.31788,6.936402,2.722457,1.524911,0.987491,0.550433,8.172059,1.459027,1.472643,1.387787,0.406699,13.224644,2.290033,1.606124,1.540708,0.391742
1720513381,72,0,4508.717773,4446.538574,4362.307617,4367.179688,4265.769043,4251.282227,4250.384766,4246.153809,3814.230713,4173.717773,4413.717773,4464.871582,4310.769043,4460.641113,,,,,,,,,,,,,,,,,,,,,,,,,,,,,,,,,,,,,,,,,,,,,,,,,,,,,,,,,,,,,,,,,,,,,,
1720513381,73,0,4507.692383,4445.512695,4353.846191,4374.743652,4264.230957,4252.307617,4251.922852,4240,3813.718018,4170.128418,4401.538574,4459.871582,4301.666504,4455.384766,,,,,,,,,,,,,,,,,,,,,,,,,,,,,,,,,,,,,,,,,,,,,,,,,,,,,,,,,,,,,,,,,,,,,,
1720513381,74,0,4501.410156,4458.846191,4343.461426,4386.282227,4264.615234,4251.410156,4247.179688,4228.974121,3812.179443,4169.358887,4387.820313,4450.897461,4295.897461,4445.384766,,,,,,,,,,,,,,,,,,,,,,,,,,,,,,,,,,,,,,,,,,,,,,,,,,,,,,,,,,,,,,,,,,,,,,
1720513381,75,0,4492.820313,4461.538574,4354.487305,4369.230957,4262.563965,4245.512695,4243.846191,4232.179688,3823.333252,4177.05127,4392.05127,4448.333496,4294.487305,4435.384766,,,,,,,,,,,,,,,,,,,,,,,,,,,,,,,,,,,,,,,,,,,,,,,,,,,,,,,,,,,,,,,,,,,,,,
1720513381,76,0,4495.384766,4453.846191,4361.922852,4355.897461,4256.538574,4243.846191,4246.025879,4235,3836.281982,4184.102539,4401.922852,4449.871582,4301.025879,4435.641113,,,,,,,,,,,,,,,,,,,,,,,,,,,,,,,,,,,,,,,,,,,,,,,,,,,,,,,,,,,,,,,,,,,,,,
1720513381,77,0,4497.436035,4455.769043,4352.820313,4372.179688,4258.589844,4246.025879,4245.769043,4230.256348,3840.897461,4179.358887,4402.436035,4455.128418,4304.358887,4434.358887,,,,,,,,,,,,,,,,,,,,,,,,,,,,,,,,,,,,,,,,,,,,,,,,,,,,,,,,,,,,,,,,,,,,,,
1720513381,78,0,4492.692383,4467.436035,4347.692383,4381.538574,4262.179688,4243.333496,4242.94873,4224.230957,3846.794922,4170.769043,4394.230957,4455,4295.256348,4423.846191,,,,,,,,,,,,,,,,,,,,,,,,,,,,,,,,,,,,,,,,,,,,,,,,,,,,,,,,,,,,,,,,,,,,,,
1720513381,79,0,4491.666504,4474.871582,4361.025879,4374.358887,4259.230957,4241.538574,4243.974121,4218.461426,3859.487061,4168.333496,4389.102539,4447.307617,4286.922852,4419.871582,,,,,,,,,,,,,,,,,,,,,,,,,,,,,,,,,,,,,,,,,,,,,,,,,,,,,,,,,,,,,,,,,,,,,,
1720513381,80,0,4493.077148,4474.615234,4372.179688,4374.358887,4260.897461,4245.641113,4245.769043,4220.128418,3871.025635,4168.589844,4392.94873,4447.307617,4292.692383,4425.512695,,,,,,,,,,,,,,,,,,,,,,,,,,,,,,,,,,,,,,,,,,,,,,,,,,,,,,,,,,,,,,,,,,,,,,
1720513381,81,0,4492.179688,4474.230957,4362.307617,4382.692383,4267.563965,4248.077148,4246.153809,4217.05127,3876.923096,4170.256348,4391.153809,4446.666504,4295.641113,4420.641113,,,,,,,,,,,,,,,,,,,,,,,,,,,,,,,,,,,,,,,,,,,,,,,,,,,,,,,,,,,,,,,,,,,,,,
1720513381,82,0,4486.794922,4477.05127,4353.589844,4385.641113,4267.692383,4247.692383,4241.538574,4205.897461,3885.128174,4168.717773,4377.820313,4431.153809,4284.102539,4403.717773,,,,,,,,,,,,,,,,,,,,,,,,,,,,,,,,,,,,,,,,,,,,,,,,,,,,,,,,,,,,,,,,,,,,,,
1720513381,83,0,4477.563965,4476.410156,4359.487305,4380.897461,4268.205078,4249.487305,4238.461426,4202.05127,3902.05127,4158.846191,4367.692383,4419.230957,4275.769043,4395.256348,,,,,,,,,,,,,,,,,,,,,,,,,,,,,,,,,,,,,,,,,,,,,,,,,,,,,,,,,,,,,,,,,,,,,,
1720513381,84,0,4474.358887,4474.230957,4356.282227,4376.538574,4276.666504,4248.333496,4240.256348,4201.666504,3918.846191,4156.282227,4364.743652,4417.307617,4275.256348,4393.846191,,,,,,,,,,,,,,,,,,,,,,,,,,,,,,,,,,,,,,,,,,,,,,,,,,,,,,,,,,,,,,,,,,,,,,
1720513381,85,0,4478.077148,4477.179688,4341.922852,4379.743652,4278.589844,4246.410156,4237.692383,4200.897461,3932.820557,4166.922852,4364.358887,4416.538574,4276.922852,4392.05127,,,,,,,,,,,,,,,,,,,,,,,,,,,,,,,,,,,,,,,,,,,,,,,,,,,,,,,,,,,,,,,,,,,,,,
1720513381,86,0,4477.436035,4479.743652,4343.846191,4387.307617,4273.461426,4245.384766,4236.922852,4201.794922,3951.410156,4173.717773,4373.717773,4418.077148,4279.615234,4393.205078,,,,,,,,,,,,,,,,,,,,,,,,,,,,,,,,,,,,,,,,,,,,,,,,,,,,,,,,,,,,,,,,,,,,,,
1720513381,87,0,4471.794922,4477.179688,4360.256348,4386.538574,4273.846191,4237.820313,4243.589844,4202.307617,3971.794922,4169.615234,4382.05127,4427.563965,4279.230957,4394.358887,8.931323,2.652326,1.085517,1.299131,0.624552,2.746768,1.570766,0.909587,0.946973,0.469213,5.1337,3.570129,0.879075,1.141728,0.943123,2.896542,2.080791,0.476977,0.773759,0.3901,1.765768,0.918537,0.464521,0.228421,0.091817,1.45802,1.334001,0.763558,0.166621,0.090438,1.998562,1.435245,1.429563,0.177128,0.13915,1.082433,1.871711,1.408572,0.237804,0.129655,4.546777,2.040838,0.860913,0.31216,0.184599,1.331707,1.299669,0.787227,0.374973,0.299939,6.088702,1.688042,1.166169,1.070869,0.28853,6.095479,2.609467,1.146981,1.092445,0.515955,8.259722,1.524364,1.654949,1.525655,0.413382,12.939929,2.10193,1.623673,1.92679,0.362223
1720513381,88,0,4470.256348,4478.974121,4367.692383,4384.102539,4274.230957,4232.436035,4244.102539,4202.94873,3987.05127,4169.615234,4379.102539,4438.461426,4276.282227,4394.743652,,,,,,,,,,,,,,,,,,,,,,,,,,,,,,,,,,,,,,,,,,,,,,,,,,,,,,,,,,,,,,,,,,,,,,
1720513381,89,0,4482.179688,4491.666504,4369.230957,4394.230957,4268.077148,4234.487305,4234.615234,4205.128418,4001.281982,4181.922852,4385.897461,4444.743652,4285.897461,4399.871582,,,,,,,,,,,,,,,,,,,,,,,,,,,,,,,,,,,,,,,,,,,,,,,,,,,,,,,,,,,,,,,,,,,,,,
1720513381,90,0,4488.846191,4497.436035,4377.94873,4402.436035,4265.128418,4228.333496,4231.025879,4205.512695,4022.179443,4183.974121,4400.128418,4449.487305,4295.384766,4405.897461,,,,,,,,,,,,,,,,,,,,,,,,,,,,,,,,,,,,,,,,,,,,,,,,,,,,,,,,,,,,,,,,,,,,,,
1720513381,91,0,4479.743652,4490.128418,4379.358887,4398.461426,4265.641113,4217.179688,4234.230957,4202.307617,4040.256348,4172.94873,4394.358887,4452.692383,4285.384766,4399.743652,,,,,,,,,,,,,,,,,,,,,,,,,,,,,,,,,,,,,,,,,,,,,,,,,,,,,,,,,,,,,,,,,,,,,,
1720513381,92,0,4471.666504,4491.153809,4364.871582,4394.102539,4267.307617,4216.410156,4229.615234,4200.512695,4050.128174,4175.641113,4382.820313,4446.794922,4276.410156,4386.922852,,,,,,,,,,,,,,,,,,,,,,,,,,,,,,,,,,,,,,,,,,,,,,,,,,,,,,,,,,,,,,,,,,,,,,
1720513381,93,0,4465.641113,4495.256348,4353.461426,4392.820313,4272.179688,4218.589844,4220.384766,4195.384766,4061.923096,4187.307617,4385.641113,4433.717773,4282.692383,4384.230957,,,,,,,,,,,,,,,,,,,,,,,,,,,,,,,,,,,,,,,,,,,,,,,,,,,,,,,,,,,,,,,,,,,,,,
1720513381,94,0,4448.333496,4484.102539,4352.820313,4385.256348,4269.358887,4221.410156,4222.179688,4194.615234,4079.487061,4184.615234,4383.077148,4430.512695,4279.487305,4382.692383,,,,,,,,,,,,,,,,,,,,,,,,,,,,,,,,,,,,,,,,,,,,,,,,,,,,,,,,,,,,,,,,,,,,,,
1720513381,95,0,4435.128418,4468.461426,4344.487305,4372.436035,4265.897461,4231.666504,4236.153809,4206.666504,4100.897461,4182.179688,4372.692383,4429.358887,4264.487305,4368.333496,,,,,,,,,,,,,,,,,,,,,,,,,,,,,,,,,,,,,,,,,,,,,,,,,,,,,,,,,,,,,,,,,,,,,,
1720513381,96,0,4438.846191,4468.589844,4328.461426,4365.897461,4273.461426,4238.077148,4239.102539,4210.384766,4117.563965,4184.871582,4372.307617,4416.410156,4263.589844,4357.179688,,,,,,,,,,,,,,,,,,,,,,,,,,,,,,,,,,,,,,,,,,,,,,,,,,,,,,,,,,,,,,,,,,,,,,
1720513381,97,0,4429.871582,4468.461426,4322.179688,4358.846191,4272.307617,4233.205078,4232.179688,4203.333496,4125.641113,4177.307617,4368.077148,4405.769043,4263.974121,4354.102539,,,,,,,,,,,,,,,,,,,,,,,,,,,,,,,,,,,,,,,,,,,,,,,,,,,,,,,,,,,,,,,,,,,,,,
1720513382,98,0,4407.563965,4452.94873,4322.05127,4349.743652,4261.410156,4231.153809,4232.179688,4205.769043,4139.102539,4173.461426,4358.717773,4406.666504,4255.641113,4346.922852,,,,,,,,,,,,,,,,,,,,,,,,,,,,,,,,,,,,,,,,,,,,,,,,,,,,,,,,,,,,,,,,,,,,,,
1720513382,99,0,4411.538574,4448.589844,4321.666504,4350.769043,4264.615234,4232.436035,4236.666504,4218.589844,4166.282227,4187.179688,4368.974121,4418.846191,4262.94873,4351.025879,,,,,,,,,,,,,,,,,,,,,,,,,,,,,,,,,,,,,,,,,,,,,,,,,,,,,,,,,,,,,,,,,,,,,,
1720513382,100,0,4433.205078,4460.256348,4321.282227,4358.717773,4269.615234,4226.410156,4238.589844,4228.333496,4192.307617,4206.025879,4388.974121,4431.794922,4281.153809,4367.05127,,,,,,,,,,,,,,,,,,,,,,,,,,,,,,,,,,,,,,,,,,,,,,,,,,,,,,,,,,,,,,,,,,,,,,
1720513382,101,0,4432.563965,4463.333496,4324.230957,4362.179688,4262.05127,4216.153809,4235.769043,4231.410156,4204.230957,4203.205078,4387.307617,4431.922852,4287.05127,4368.974121,,,,,,,,,,,,,,,,,,,,,,,,,,,,,,,,,,,,,,,,,,,,,,,,,,,,,,,,,,,,,,,,,,,,,,
1720513382,102,0,4419.358887,4462.94873,4323.333496,4366.922852,4261.282227,4213.717773,4230,4230.512695,4213.717773,4187.436035,4373.846191,4432.820313,4272.94873,4358.077148,,,,,,,,,,,,,,,,,,,,,,,,,,,,,,,,,,,,,,,,,,,,,,,,,,,,,,,,,,,,,,,,,,,,,,
1720513382,103,0,4413.974121,4464.230957,4319.871582,4365.641113,4267.179688,4225,4232.692383,4230.641113,4225.512695,4191.666504,4375.641113,4439.615234,4262.307617,4354.743652,10.039461,2.978245,1.267951,1.416214,0.609947,2.57342,1.590095,0.858176,0.891798,0.439091,4.823166,3.509389,0.833174,1.137382,1.007175,2.392714,2.026826,0.557529,0.73284,0.322317,1.619273,0.839805,0.41219,0.212374,0.078339,1.236535,1.167164,0.624382,0.153347,0.085065,1.667135,1.550927,1.372382,0.157399,0.137737,1.10335,2.156466,1.455309,0.23923,0.12736,7.804119,2.228472,1.054035,0.3269,0.183422,1.394759,1.158885,0.71397,0.37007,0.295178,5.704257,1.577441,0.927827,1.059305,0.270782,5.744124,2.474204,0.862713,1.150389,0.470298,9.388325,1.507737,1.77075,1.612806,0.437213,14.732204,2.138091,1.633128,2.215251,0.346263
1720513382,104,0,4409.487305,4457.436035,4321.922852,4352.307617,4266.282227,4234.615234,4241.538574,4232.94873,4233.205078,4206.538574,4388.589844,4434.358887,4277.820313,4362.820313,,,,,,,,,,,,,,,,,,,,,,,,,,,,,,,,,,,,,,,,,,,,,,,,,,,,,,,,,,,,,,,,,,,,,,
1720513382,105,0,4406.922852,4449.102539,4316.922852,4347.820313,4263.205078,4233.974121,4246.153809,4231.282227,4242.820313,4204.487305,4387.563965,4420.512695,4290.128418,4364.487305,,,,,,,,,,,,,,,,,,,,,,,,,,,,,,,,,,,,,,,,,,,,,,,,,,,,,,,,,,,,,,,,,,,,,,
1720513382,106,0,4400.769043,4445,4310.897461,4347.820313,4263.077148,4233.974121,4246.666504,4230.641113,4260.256348,4198.589844,4372.94873,4416.666504,4272.436035,4350.128418,,,,,,,,,,,,,,,,,,,,,,,,,,,,,,,,,,,,,,,,,,,,,,,,,,,,,,,,,,,,,,,,,,,,,,
1720513382,107,0,4395.128418,4444.615234,4315.512695,4342.179688,4265.384766,4236.538574,4247.05127,4232.820313,4277.436035,4204.230957,4367.692383,4417.563965,4260.769043,4338.974121,,,,,,,,,,,,,,,,,,,,,,,,,,,,,,,,,,,,,,,,,,,,,,,,,,,,,,,,,,,,,,,,,,,,,,
1720513382,108,0,4402.820313,4445.769043,4310.897461,4342.94873,4269.615234,4235.512695,4247.05127,4232.94873,4286.922852,4203.077148,4369.358887,4415.384766,4265.641113,4339.487305,,,,,,,,,,,,,,,,,,,,,,,,,,,,,,,,,,,,,,,,,,,,,,,,,,,,,,,,,,,,,,,,,,,,,,
1720513382,109,0,4392.179688,4432.820313,4295.128418,4336.410156,4262.05127,4233.333496,4249.230957,4234.230957,4298.333496,4200.641113,4366.794922,4417.692383,4262.436035,4337.307617,,,,,,,,,,,,,,,,,,,,,,,,,,,,,,,,,,,,,,,,,,,,,,,,,,,,,,,,,,,,,,,,,,,,,,
1720513382,110,0,4364.358887,4426.025879,4287.179688,4325.256348,4249.743652,4228.077148,4244.743652,4235.256348,4308.717773,4207.820313,4370.384766,4418.589844,4270.641113,4338.846191,,,,,,,,,,,,,,,,,,,,,,,,,,,,,,,,,,,,,,,,,,,,,,,,,,,,,,,,,,,,,,,,,,,,,,
1720513382,111,0,4372.179688,4448.461426,4289.230957,4335.769043,4256.282227,4216.922852,4234.487305,4231.410156,4311.794922,4211.666504,4382.692383,4420.384766,4292.436035,4353.974121,,,,,,,,,,,,,,,,,,,,,,,,,,,,,,,,,,,,,,,,,,,,,,,,,,,,,,,,,,,,,,,,,,,,,,
1720513382,112,0,4401.153809,4463.077148,4304.871582,4351.282227,4262.179688,4215.769043,4232.563965,4223.846191,4317.436035,4215.641113,4392.563965,4429.743652,4300.128418,4367.436035,,,,,,,,,,,,,,,,,,,,,,,,,,,,,,,,,,,,,,,,,,,,,,,,,,,,,,,,,,,,,,,,,,,,,,
1720513382,113,0,4407.692383,4455.769043,4323.589844,4347.820313,4251.538574,4220.256348,4232.94873,4216.025879,4323.205078,4213.846191,4383.589844,4436.410156,4292.820313,4367.563965,,,,,,,,,,,,,,,,,,,,,,,,,,,,,,,,,,,,,,,,,,,,,,,,,,,,,,,,,,,,,,,,,,,,,,
1720513382,114,0,4391.922852,4444.487305,4321.282227,4337.307617,4253.974121,4220.641113,4233.846191,4217.436035,4333.205078,4205.769043,4368.589844,4430.641113,4286.153809,4356.025879,,,,,,,,,,,,,,,,,,,,,,,,,,,,,,,,,,,,,,,,,,,,,,,,,,,,,,,,,,,,,,,,,,,,,,
1720513382,115,0,4382.05127,4430.897461,4305.769043,4329.102539,4261.922852,4223.333496,4237.563965,4227.436035,4350.769043,4208.846191,4381.666504,4426.025879,4298.846191,4360.641113,,,,,,,,,,,,,,,,,,,,,,,,,,,,,,,,,,,,,,,,,,,,,,,,,,,,,,,,,,,,,,,,,,,,,,
1720513382,116,0,4385.256348,4426.794922,4299.358887,4327.692383,4254.487305,4230.641113,4238.461426,4232.436035,4361.794922,4217.563965,4398.589844,4430.384766,4315,4379.743652,,,,,,,,,,,,,,,,,,,,,,,,,,,,,,,,,,,,,,,,,,,,,,,,,,,,,,,,,,,,,,,,,,,,,,
1720513382,117,0,4374.615234,4427.94873,4295.256348,4326.666504,4251.282227,4233.461426,4241.794922,4230,4366.153809,4215,4388.205078,4428.589844,4308.846191,4375.641113,,,,,,,,,,,,,,,,,,,,,,,,,,,,,,,,,,,,,,,,,,,,,,,,,,,,,,,,,,,,,,,,,,,,,,
1720513382,118,0,4353.846191,4409.230957,4291.538574,4312.94873,4255.256348,4231.666504,4243.205078,4230.512695,4379.358887,4224.871582,4395.769043,4431.410156,4316.153809,4371.922852,,,,,,,,,,,,,,,,,,,,,,,,,,,,,,,,,,,,,,,,,,,,,,,,,,,,,,,,,,,,,,,,,,,,,,
1720513382,119,0,4355.512695,4396.410156,4292.563965,4306.025879,4249.743652,4230.897461,4235.641113,4240.897461,4397.820313,4244.230957,4427.692383,4447.820313,4354.102539,4396.922852,12.237987,3.525555,1.393217,1.501123,0.593548,2.439805,1.597546,0.834613,0.79086,0.390208,4.268952,3.216,0.73758,1.085848,1.014526,1.925834,1.816026,0.646428,0.684695,0.265726,1.378665,0.751896,0.364271,0.193461,0.073932,1.082324,1.055704,0.484008,0.137988,0.08152,1.450622,1.631674,1.341226,0.138091,0.134007,1.118456,2.34765,1.529049,0.231248,0.128612,17.939573,3.157753,1.456143,0.351402,0.180738,1.57225,1.011196,0.640532,0.352095,0.28865,6.24253,1.384634,0.731361,1.023868,0.266312,5.848604,2.420662,0.667763,1.155059,0.414768,11.985142,1.423662,1.754421,1.612544,0.466965,19.466415,2.445148,1.590191,2.321288,0.334737
1720513382,120,0,4369.102539,4410,4292.436035,4310.512695,4246.153809,4226.794922,4235.256348,4248.846191,4407.692383,4240.641113,4422.692383,4451.794922,4357.94873,4401.410156,,,,,,,,,,,,,,,,,,,,,,,,,,,,,,,,,,,,,,,,,,,,,,,,,,,,,,,,,,,,,,,,,,,,,,
1720513382,121,0,4360.769043,4414.358887,4291.794922,4310.256348,4252.563965,4220.384766,4246.538574,4247.307617,4412.94873,4236.282227,4403.717773,4443.077148,4323.974121,4369.615234,,,,,,,,,,,,,,,,,,,,,,,,,,,,,,,,,,,,,,,,,,,,,,,,,,,,,,,,,,,,,,,,,,,,,,
1720513382,122,0,4346.153809,4404.487305,4298.589844,4316.794922,4255.256348,4217.05127,4248.589844,4249.230957,4421.025879,4248.205078,4420.897461,4447.436035,4330.256348,4368.333496,,,,,,,,,,,,,,,,,,,,,,,,,,,,,,,,,,,,,,,,,,,,,,,,,,,,,,,,,,,,,,,,,,,,,,
1720513382,123,0,4351.794922,4403.846191,4304.871582,4331.025879,4254.230957,4215.512695,4242.436035,4250.256348,4429.871582,4249.615234,4440.897461,4461.538574,4367.179688,4403.333496,,,,,,,,,,,,,,,,,,,,,,,,,,,,,,,,,,,,,,,,,,,,,,,,,,,,,,,,,,,,,,,,,,,,,,
1720513382,124,0,4360,4406.410156,4301.538574,4326.153809,4252.05127,4216.666504,4243.077148,4240.128418,4427.820313,4236.794922,4431.794922,4465.384766,4365.769043,4413.205078,,,,,,,,,,,,,,,,,,,,,,,,,,,,,,,,,,,,,,,,,,,,,,,,,,,,,,,,,,,,,,,,,,,,,,
1720513382,125,0,4347.94873,4400.897461,4299.743652,4314.230957,4251.666504,4222.692383,4244.358887,4230.128418,4419.871582,4228.589844,4416.666504,4458.333496,4345.641113,4398.974121,,,,,,,,,,,,,,,,,,,,,,,,,,,,,,,,,,,,,,,,,,,,,,,,,,,,,,,,,,,,,,,,,,,,,,
1720513382,126,0,4330.512695,4387.307617,4301.538574,4312.692383,4255,4229.358887,4245,4235.128418,4428.589844,4229.230957,4418.974121,4447.436035,4355.384766,4398.077148,,,,,,,,,,,,,,,,,,,,,,,,,,,,,,,,,,,,,,,,,,,,,,,,,,,,,,,,,,,,,,,,,,,,,,
1720513382,127,0,4327.820313,4368.717773,4284.358887,4300.897461,4249.102539,4231.282227,4248.077148,4244.358887,4444.487305,4229.743652,4428.333496,4441.153809,4369.743652,4402.94873,,,,,,,,,,,,,,,,,,,,,,,,,,,,,,,,,,,,,,,,,,,,,,,,,,,,,,,,,,,,,,,,,,,,,,
1720513382,0,0,4314.615234,4354.615234,4259.102539,4280,4235.641113,4231.538574,4246.666504,4246.153809,4448.461426,4227.94873,4425.128418,4439.743652,4367.436035,4401.282227,,,,,,,,,,,,,,,,,,,,,,,,,,,,,,,,,,,,,,,,,,,,,,,,,,,,,,,,,,,,,,,,,,,,,,
1720513382,1,0,4294.743652,4342.307617,4262.563965,4273.205078,4231.025879,4229.743652,4240.512695,4245.256348,4453.077148,4236.153809,4430,4437.820313,4378.846191,4405.769043,,,,,,,,,,,,,,,,,,,,,,,,,,,,,,,,,,,,,,,,,,,,,,,,,,,,,,,,,,,,,,,,,,,,,,
1720513382,2,0,4297.820313,4330.128418,4277.179688,4276.410156,4235.256348,4221.922852,4241.025879,4249.615234,4467.820313,4248.333496,4453.717773,4444.615234,4401.922852,4419.871582,,,,,,,,,,,,,,,,,,,,,,,,,,,,,,,,,,,,,,,,,,,,,,,,,,,,,,,,,,,,,,,,,,,,,,
1720513382,3,0,4311.153809,4337.692383,4276.666504,4280,4233.205078,4214.743652,4246.282227,4252.05127,4478.333496,4252.179688,4463.077148,4456.410156,4405.641113,4429.487305,,,,,,,,,,,,,,,,,,,,,,,,,,,,,,,,,,,,,,,,,,,,,,,,,,,,,,,,,,,,,,,,,,,,,,
1720513382,4,0,4316.794922,4350.384766,4283.974121,4288.333496,4229.743652,4212.307617,4245.641113,4251.794922,4479.230957,4255.641113,4456.153809,4468.846191,4395.897461,4428.333496,,,,,,,,,,,,,,,,,,,,,,,,,,,,,,,,,,,,,,,,,,,,,,,,,,,,,,,,,,,,,,,,,,,,,,
1720513382,5,0,4319.615234,4347.436035,4295.641113,4298.333496,4232.05127,4215.128418,4251.025879,4254.358887,4477.436035,4255.256348,4460.512695,4485.512695,4401.282227,4429.358887,,,,,,,,,,,,,,,,,,,,,,,,,,,,,,,,,,,,,,,,,,,,,,,,,,,,,,,,,,,,,,,,,,,,,,
1720513382,6,0,4316.922852,4339.487305,4289.871582,4300.128418,4236.410156,4224.743652,4260.769043,4254.615234,4475.512695,4248.846191,4469.230957,4486.538574,4416.538574,4440.256348,,,,,,,,,,,,,,,,,,,,,,,,,,,,,,,,,,,,,,,,,,,,,,,,,,,,,,,,,,,,,,,,,,,,,,
1720513382,7,0,4302.436035,4335.384766,4277.94873,4293.461426,4239.487305,4233.589844,4256.153809,4256.282227,4481.410156,4248.974121,4470,4469.102539,4419.615234,4444.358887,14.745518,4.27661,1.419913,1.524873,0.570062,2.221561,1.684569,0.845757,0.670774,0.337932,3.730626,2.868882,0.612023,0.995995,0.962175,1.493652,1.590933,0.74016,0.628541,0.233957,1.057466,0.675095,0.317743,0.172679,0.073378,0.907475,0.993331,0.371972,0.125913,0.077906,1.204535,1.634515,1.282932,0.121959,0.129129,1.12437,2.38055,1.530566,0.217572,0.132641,35.501076,4.95709,1.991823,0.393541,0.176568,1.795251,0.884378,0.549368,0.327728,0.278381,7.31701,1.209803,0.549,0.975864,0.275973,6.197535,2.566787,0.529059,1.124558,0.356489,15.819796,1.317622,1.584926,1.514004,0.493223,26.287355,2.961792,1.472233,2.217938,0.32273
1720513382,8,0,4286.922852,4325.641113,4267.94873,4283.846191,4237.436035,4236.922852,4247.436035,4258.717773,4489.871582,4253.333496,4468.589844,4458.974121,4415.512695,4429.487305,,,,,,,,,,,,,,,,,,,,,,,,,,,,,,,,,,,,,,,,,,,,,,,,,,,,,,,,,,,,,,,,,,,,,,
1720513382,9,0,4275.128418,4311.794922,4252.436035,4275.769043,4233.077148,4235,4247.307617,4252.179688,4490.384766,4248.974121,4460.641113,4452.563965,4409.102539,4412.820313,,,,,,,,,,,,,,,,,,,,,,,,,,,,,,,,,,,,,,,,,,,,,,,,,,,,,,,,,,,,,,,,,,,,,,
1720513382,10,0,4266.922852,4299.358887,4253.205078,4264.487305,4227.820313,4235.897461,4253.589844,4252.692383,4493.846191,4245.128418,4452.436035,4441.794922,4407.692383,4408.846191,,,,,,,,,,,,,,,,,,,,,,,,,,,,,,,,,,,,,,,,,,,,,,,,,,,,,,,,,,,,,,,,,,,,,,
1720513382,11,0,4258.589844,4285.384766,4260.128418,4256.666504,4223.717773,4244.230957,4263.974121,4271.794922,4508.077148,4246.538574,4460.641113,4446.025879,4418.205078,4415.641113,,,,,,,,,,,,,,,,,,,,,,,,,,,,,,,,,,,,,,,,,,,,,,,,,,,,,,,,,,,,,,,,,,,,,,
1720513382,12,0,4248.205078,4281.794922,4251.666504,4261.153809,4225.769043,4246.282227,4269.487305,4280.769043,4514.230957,4249.102539,4462.307617,4450.256348,4415,4413.974121,,,,,,,,,,,,,,,,,,,,,,,,,,,,,,,,,,,,,,,,,,,,,,,,,,,,,,,,,,,,,,,,,,,,,,
1720513382,13,0,4245.641113,4290.128418,4252.307617,4263.333496,4230.384766,4237.563965,4266.538574,4273.461426,4506.666504,4257.05127,4451.153809,4445.256348,4408.205078,4407.692383,,,,,,,,,,,,,,,,,,,,,,,,,,,,,,,,,,,,,,,,,,,,,,,,,,,,,,,,,,,,,,,,,,,,,,
1720513382,14,0,4251.282227,4296.666504,4266.153809,4261.153809,4230.128418,4230.897461,4266.794922,4275,4506.538574,4265,4465.384766,4457.692383,4432.692383,4419.102539,,,,,,,,,,,,,,,,,,,,,,,,,,,,,,,,,,,,,,,,,,,,,,,,,,,,,,,,,,,,,,,,,,,,,,
1720513382,15,0,4257.436035,4295.512695,4276.282227,4271.794922,4228.717773,4232.692383,4269.230957,4279.358887,4514.230957,4268.717773,4493.333496,4483.461426,4452.94873,4435.128418,,,,,,,,,,,,,,,,,,,,,,,,,,,,,,,,,,,,,,,,,,,,,,,,,,,,,,,,,,,,,,,,,,,,,,
1720513382,16,0,4256.282227,4290.897461,4278.717773,4276.794922,4229.230957,4230.897461,4264.358887,4274.871582,4513.333496,4267.820313,4496.666504,4496.410156,4444.358887,4435.897461,,,,,,,,,,,,,,,,,,,,,,,,,,,,,,,,,,,,,,,,,,,,,,,,,,,,,,,,,,,,,,,,,,,,,,
1720513382,17,0,4254.487305,4288.846191,4276.666504,4264.487305,4227.692383,4228.333496,4260.641113,4267.179688,4507.820313,4265.128418,4487.436035,4488.846191,4442.307617,4431.666504,,,,,,,,,,,,,,,,,,,,,,,,,,,,,,,,,,,,,,,,,,,,,,,,,,,,,,,,,,,,,,,,,,,,,,
1720513382,18,0,4255.641113,4293.846191,4276.666504,4266.410156,4230.512695,4233.589844,4259.743652,4262.692383,4510.384766,4263.846191,4488.589844,4480.512695,4446.282227,4434.230957,,,,,,,,,,,,,,,,,,,,,,,,,,,,,,,,,,,,,,,,,,,,,,,,,,,,,,,,,,,,,,,,,,,,,,
1720513382,19,0,4259.358887,4297.05127,4288.333496,4274.102539,4234.230957,4237.563965,4253.974121,4267.94873,4520.384766,4264.487305,4498.846191,4490.897461,4446.922852,4441.025879,,,,,,,,,,,,,,,,,,,,,,,,,,,,,,,,,,,,,,,,,,,,,,,,,,,,,,,,,,,,,,,,,,,,,,
1720513382,20,0,4267.05127,4285.897461,4296.282227,4266.794922,4229.230957,4234.358887,4248.974121,4281.922852,4533.077148,4271.025879,4511.025879,4511.025879,4459.487305,4452.563965,,,,,,,,,,,,,,,,,,,,,,,,,,,,,,,,,,,,,,,,,,,,,,,,,,,,,,,,,,,,,,,,,,,,,,
1720513382,21,0,4258.205078,4278.205078,4281.410156,4257.563965,4218.333496,4230.384766,4244.871582,4290,4542.563965,4274.743652,4501.538574,4500.256348,4451.922852,4441.922852,,,,,,,,,,,,,,,,,,,,,,,,,,,,,,,,,,,,,,,,,,,,,,,,,,,,,,,,,,,,,,,,,,,,,,
1720513382,22,0,4229.871582,4279.871582,4260.769043,4251.282227,4215.128418,4230.641113,4244.358887,4286.538574,4538.589844,4267.563965,4471.282227,4464.871582,4412.692383,4406.282227,,,,,,,,,,,,,,,,,,,,,,,,,,,,,,,,,,,,,,,,,,,,,,,,,,,,,,,,,,,,,,,,,,,,,,
1720513382,23,0,4224.102539,4280.128418,4252.692383,4247.94873,4223.974121,4236.025879,4249.487305,4284.743652,4527.307617,4260.384766,4465,4449.615234,4406.922852,4400.384766,17.061228,5.103096,1.376303,1.477648,0.542361,2.072402,1.902883,0.914312,0.558053,0.298573,3.424534,2.657105,0.51775,0.891889,0.865058,1.214188,1.493114,0.860257,0.56332,0.230073,0.761365,0.619994,0.275566,0.152516,0.076007,0.765289,0.96433,0.329349,0.118389,0.074034,0.96729,1.511418,1.17038,0.110529,0.125298,1.150757,2.237306,1.397095,0.203722,0.138552,57.534153,7.318484,2.532394,0.453882,0.172051,1.966248,0.812253,0.439653,0.306602,0.267792,8.36639,1.176383,0.392756,0.932276,0.301776,6.573462,2.952934,0.42946,1.080146,0.306019,19.745771,1.249587,1.313855,1.340904,0.516815,33.089565,3.541897,1.29798,1.948765,0.313004
1720513382,24,0,4253.846191,4291.538574,4259.743652,4262.179688,4232.05127,4240.128418,4249.615234,4278.717773,4518.846191,4260.256348,4476.794922,4454.358887,4433.077148,4427.94873,,,,,,,,,,,,,,,,,,,,,,,,,,,,,,,,,,,,,,,,,,,,,,,,,,,,,,,,,,,,,,,,,,,,,,
1720513382,25,0,4274.358887,4304.102539,4276.153809,4279.487305,4232.692383,4237.563965,4249.615234,4267.05127,4510.384766,4261.794922,4479.615234,4472.05127,4440,4444.230957,,,,,,,,,,,,,,,,,,,,,,,,,,,,,,,,,,,,,,,,,,,,,,,,,,,,,,,,,,,,,,,,,,,,,,
1720513382,26,0,4277.563965,4302.307617,4292.179688,4282.179688,4232.563965,4232.692383,4254.487305,4262.05127,4504.102539,4260.512695,4488.333496,4492.820313,4443.205078,4451.410156,,,,,,,,,,,,,,,,,,,,,,,,,,,,,,,,,,,,,,,,,,,,,,,,,,,,,,,,,,,,,,,,,,,,,,
1720513382,27,0,4288.717773,4309.358887,4303.846191,4282.94873,4234.358887,4229.743652,4255.128418,4263.333496,4509.102539,4263.717773,4504.358887,4501.794922,4460.128418,4471.538574,,,,,,,,,,,,,,,,,,,,,,,,,,,,,,,,,,,,,,,,,,,,,,,,,,,,,,,,,,,,,,,,,,,,,,
1720513382,28,0,4302.05127,4323.205078,4313.333496,4284.615234,4230.384766,4221.922852,4254.871582,4272.05127,4524.358887,4274.871582,4509.871582,4509.487305,4460.512695,4480.256348,,,,,,,,,,,,,,,,,,,,,,,,,,,,,,,,,,,,,,,,,,,,,,,,,,,,,,,,,,,,,,,,,,,,,,
1720513382,29,0,4303.205078,4317.179688,4314.102539,4286.153809,4220.512695,4216.025879,4263.077148,4290,4539.358887,4284.615234,4513.077148,4524.615234,4445.769043,4472.179688,,,,,,,,,,,,,,,,,,,,,,,,,,,,,,,,,,,,,,,,,,,,,,,,,,,,,,,,,,,,,,,,,,,,,,
1720513382,30,0,4290,4308.461426,4303.333496,4280,4214.615234,4223.077148,4263.846191,4296.922852,4546.153809,4279.230957,4509.871582,4515.384766,4443.974121,4460.897461,,,,,,,,,,,,,,,,,,,,,,,,,,,,,,,,,,,,,,,,,,,,,,,,,,,,,,,,,,,,,,,,,,,,,,
1720513382,31,0,4275.384766,4310.897461,4290.384766,4265.384766,4217.307617,4232.94873,4252.05127,4284.102539,4539.230957,4270,4491.282227,4482.05127,4442.692383,4446.025879,,,,,,,,,,,,,,,,,,,,,,,,,,,,,,,,,,,,,,,,,,,,,,,,,,,,,,,,,,,,,,,,,,,,,,
1720513382,32,0,4277.94873,4310.256348,4281.922852,4266.922852,4226.794922,4233.846191,4245.256348,4276.282227,4525.512695,4264.871582,4475.897461,4471.025879,4428.205078,4437.05127,,,,,,,,,,,,,,,,,,,,,,,,,,,,,,,,,,,,,,,,,,,,,,,,,,,,,,,,,,,,,,,,,,,,,,
1720513382,33,0,4279.230957,4305,4275.769043,4274.743652,4227.563965,4234.102539,4245.769043,4281.666504,4521.538574,4253.333496,4465.384766,4472.307617,4404.230957,4423.846191,,,,,,,,,,,,,,,,,,,,,,,,,,,,,,,,,,,,,,,,,,,,,,,,,,,,,,,,,,,,,,,,,,,,,,
1720513382,34,0,4262.692383,4300,4268.846191,4266.025879,4219.487305,4238.205078,4246.922852,4279.615234,4523.846191,4245.641113,4456.410156,4463.846191,4391.025879,4410.769043,,,,,,,,,,,,,,,,,,,,,,,,,,,,,,,,,,,,,,,,,,,,,,,,,,,,,,,,,,,,,,,,,,,,,,
1720513382,35,0,4250.384766,4293.077148,4266.538574,4259.358887,4220.769043,4244.230957,4252.94873,4277.692383,4518.333496,4250.512695,4461.410156,4458.974121,4406.410156,4419.102539,,,,,,,,,,,,,,,,,,,,,,,,,,,,,,,,,,,,,,,,,,,,,,,,,,,,,,,,,,,,,,,,,,,,,,
1720513382,36,0,4256.282227,4289.871582,4272.05127,4261.410156,4228.846191,4247.436035,4260.769043,4275.384766,4503.461426,4250.769043,4463.717773,4453.077148,4416.410156,4426.282227,,,,,,,,,,,,,,,,,,,,,,,,,,,,,,,,,,,,,,,,,,,,,,,,,,,,,,,,,,,,,,,,,,,,,,
1720513382,37,0,4267.692383,4297.05127,4279.230957,4262.05127,4228.461426,4246.922852,4262.692383,4267.820313,4494.615234,4245.128418,4455.128418,4454.871582,4401.025879,4416.282227,,,,,,,,,,,,,,,,,,,,,,,,,,,,,,,,,,,,,,,,,,,,,,,,,,,,,,,,,,,,,,,,,,,,,,
1720513382,38,0,4279.871582,4306.922852,4291.794922,4268.461426,4226.282227,4241.153809,4263.333496,4268.589844,4500.897461,4252.820313,4469.871582,4480.384766,4404.871582,4426.025879,,,,,,,,,,,,,,,,,,,,,,,,,,,,,,,,,,,,,,,,,,,,,,,,,,,,,,,,,,,,,,,,,,,,,,
1720513382,39,0,4283.717773,4308.846191,4308.846191,4275.769043,4230.384766,4233.846191,4260.769043,4278.333496,4507.94873,4263.461426,4494.358887,4500.897461,4428.717773,4450.769043,18.051821,5.773624,1.353266,1.368435,0.518351,1.956734,2.242547,1.089911,0.470049,0.282681,3.40755,2.698251,0.55773,0.795908,0.746878,1.144822,1.600793,1.065863,0.489922,0.245748,0.540477,0.588665,0.253824,0.133611,0.082971,0.690285,0.976408,0.391967,0.11512,0.070996,0.812307,1.280455,1.009901,0.10353,0.124198,1.220059,1.973881,1.154478,0.192434,0.145332,78.138031,9.570136,2.939921,0.519609,0.1688,1.99792,0.82858,0.346199,0.295404,0.262417,8.863804,1.394077,0.313012,0.897789,0.347629,6.699986,3.611376,0.42101,1.027405,0.272385,22.326946,1.294795,1.045909,1.140039,0.551318,37.354477,4.064255,1.13455,1.603062,0.316102
1720513382,40,0,4279.615234,4310.384766,4312.94873,4278.846191,4230.512695,4230.769043,4255.128418,4278.974121,4505.769043,4265.384766,4493.333496,4493.846191,4432.436035,4451.666504,,,,,,,,,,,,,,,,,,,,,,,,,,,,,,,,,,,,,,,,,,,,,,,,,,,,,,,,,,,,,,,,,,,,,,
1720513382,41,0,4278.846191,4315.384766,4305.769043,4286.922852,4230.256348,4234.871582,4254.743652,4275.128418,4511.538574,4271.666504,4493.461426,4490.128418,4429.615234,4445.641113,,,,,,,,,,,,,,,,,,,,,,,,,,,,,,,,,,,,,,,,,,,,,,,,,,,,,,,,,,,,,,,,,,,,,,
1720513382,42,0,4277.94873,4312.179688,4303.717773,4285.256348,4234.230957,4242.05127,4256.282227,4278.077148,4524.102539,4276.282227,4494.615234,4494.102539,4429.871582,4443.461426,,,,,,,,,,,,,,,,,,,,,,,,,,,,,,,,,,,,,,,,,,,,,,,,,,,,,,,,,,,,,,,,,,,,,,
1720513382,43,0,4265.769043,4301.153809,4295,4266.282227,4234.743652,4246.410156,4256.538574,4279.230957,4524.358887,4271.025879,4479.615234,4478.333496,4422.436035,4435.256348,,,,,,,,,,,,,,,,,,,,,,,,,,,,,,,,,,,,,,,,,,,,,,,,,,,,,,,,,,,,,,,,,,,,,,
1720513382,44,0,4250.769043,4296.282227,4279.743652,4261.666504,4233.589844,4249.102539,4263.846191,4279.743652,4522.563965,4265.384766,4465.384766,4461.025879,4409.487305,4421.794922,,,,,,,,,,,,,,,,,,,,,,,,,,,,,,,,,,,,,,,,,,,,,,,,,,,,,,,,,,,,,,,,,,,,,,
1720513382,45,0,4246.666504,4296.025879,4277.436035,4275,4234.487305,4251.922852,4269.743652,4281.025879,4521.666504,4262.820313,4460,4455.641113,4399.743652,4407.05127,,,,,,,,,,,,,,,,,,,,,,,,,,,,,,,,,,,,,,,,,,,,,,,,,,,,,,,,,,,,,,,,,,,,,,
1720513382,46,0,4246.922852,4295.512695,4281.025879,4279.487305,4235.384766,4249.487305,4265.897461,4277.436035,4510.128418,4258.333496,4460.769043,4452.436035,4407.692383,4407.307617,,,,,,,,,,,,,,,,,,,,,,,,,,,,,,,,,,,,,,,,,,,,,,,,,,,,,,,,,,,,,,,,,,,,,,
1720513382,47,0,4243.205078,4298.974121,4284.615234,4274.743652,4233.717773,4240.769043,4265.641113,4282.436035,4505.128418,4258.589844,4475.256348,4467.563965,4420.769043,4424.743652,,,,,,,,,,,,,,,,,,,,,,,,,,,,,,,,,,,,,,,,,,,,,,,,,,,,,,,,,,,,,,,,,,,,,,
1720513382,48,0,4252.563965,4307.179688,4304.743652,4276.922852,4233.974121,4236.153809,4269.358887,4294.230957,4512.05127,4267.94873,4490.512695,4497.692383,4420.769043,4441.922852,,,,,,,,,,,,,,,,,,,,,,,,,,,,,,,,,,,,,,,,,,,,,,,,,,,,,,,,,,,,,,,,,,,,,,
1720513382,49,0,4273.461426,4318.461426,4324.358887,4289.230957,4241.282227,4234.487305,4266.794922,4297.692383,4511.025879,4269.358887,4495.128418,4510.897461,4423.589844,4450.641113,,,,,,,,,,,,,,,,,,,,,,,,,,,,,,,,,,,,,,,,,,,,,,,,,,,,,,,,,,,,,,,,,,,,,,
1720513382,50,0,4284.487305,4321.410156,4320.256348,4296.153809,4248.589844,4228.077148,4258.205078,4294.743652,4507.307617,4266.666504,4507.179688,4508.846191,4446.153809,4461.666504,,,,,,,,,,,,,,,,,,,,,,,,,,,,,,,,,,,,,,,,,,,,,,,,,,,,,,,,,,,,,,,,,,,,,,
1720513382,51,0,4284.102539,4314.487305,4316.410156,4293.846191,4243.077148,4226.153809,4249.871582,4297.820313,4511.025879,4271.666504,4514.230957,4514.871582,4451.922852,4469.871582,,,,,,,,,,,,,,,,,,,,,,,,,,,,,,,,,,,,,,,,,,,,,,,,,,,,,,,,,,,,,,,,,,,,,,
1720513382,52,0,4278.333496,4314.102539,4319.743652,4291.153809,4233.717773,4227.05127,4248.461426,4297.05127,4513.205078,4275,4501.410156,4512.563965,4432.563965,4461.282227,,,,,,,,,,,,,,,,,,,,,,,,,,,,,,,,,,,,,,,,,,,,,,,,,,,,,,,,,,,,,,,,,,,,,,
1720513382,53,0,4266.282227,4310,4304.487305,4284.358887,4232.563965,4220.256348,4247.94873,4289.230957,4506.282227,4268.205078,4488.974121,4494.358887,4423.846191,4448.461426,,,,,,,,,,,,,,,,,,,,,,,,,,,,,,,,,,,,,,,,,,,,,,,,,,,,,,,,,,,,,,,,,,,,,,
1720513382,54,0,4249.743652,4284.743652,4277.307617,4265.512695,4229.871582,4215.256348,4243.461426,4279.358887,4488.205078,4254.230957,4472.563965,4474.102539,4410.384766,4430.512695,,,,,,,,,,,,,,,,,,,,,,,,,,,,,,,,,,,,,,,,,,,,,,,,,,,,,,,,,,,,,,,,,,,,,,
1720513382,55,0,4227.436035,4265.256348,4260.128418,4252.179688,4223.333496,4224.102539,4241.794922,4270.256348,4475.384766,4246.666504,4453.461426,4452.692383,4391.025879,4409.743652,17.348368,6.130859,1.454474,1.227482,0.506107,1.932516,2.665058,1.41566,0.411407,0.290819,3.570665,3.033701,0.820544,0.724761,0.629505,1.255059,1.925768,1.418804,0.417186,0.2672,0.396893,0.56654,0.269364,0.117311,0.094795,0.696433,1.050735,0.559692,0.115594,0.070208,0.762528,1.003034,0.827524,0.101655,0.12551,1.318733,1.672127,0.903398,0.188273,0.15213,90.883797,10.940931,3.132612,0.566949,0.168062,1.874405,0.959132,0.300053,0.293616,0.263827,8.573111,1.92477,0.325468,0.861796,0.415105,6.451684,4.592202,0.546074,0.963001,0.261209,22.653904,1.512566,0.866988,0.963472,0.612619,37.445957,4.462126,1.046277,1.27972,0.344509
1720513382,56,0,4214.358887,4272.692383,4264.230957,4260.256348,4230,4234.743652,4247.692383,4273.077148,4479.871582,4246.282227,4451.153809,4443.333496,4383.717773,4399.743652,,,,,,,,,,,,,,,,,,,,,,,,,,,,,,,,,,,,,,,,,,,,,,,,,,,,,,,,,,,,,,,,,,,,,,
1720513382,57,0,4225.641113,4282.820313,4280.769043,4264.230957,4242.307617,4235.384766,4247.436035,4276.794922,4481.538574,4248.589844,4454.743652,4446.410156,4386.794922,4402.94873,,,,,,,,,,,,,,,,,,,,,,,,,,,,,,,,,,,,,,,,,,,,,,,,,,,,,,,,,,,,,,,,,,,,,,
1720513382,58,0,4239.230957,4284.615234,4281.410156,4263.205078,4242.05127,4233.205078,4236.666504,4265.256348,4472.94873,4253.589844,4457.436035,4446.538574,4399.102539,4415.512695,,,,,,,,,,,,,,,,,,,,,,,,,,,,,,,,,,,,,,,,,,,,,,,,,,,,,,,,,,,,,,,,,,,,,,
1720513382,59,0,4248.205078,4298.205078,4280.256348,4281.794922,4240.512695,4231.538574,4233.461426,4258.333496,4468.974121,4260.128418,4468.974121,4458.077148,4412.179688,4427.94873,,,,,,,,,,,,,,,,,,,,,,,,,,,,,,,,,,,,,,,,,,,,,,,,,,,,,,,,,,,,,,,,,,,,,,
1720513382,60,0,4267.05127,4318.589844,4299.358887,4304.743652,4247.94873,4223.846191,4235.897461,4265.897461,4466.922852,4265.256348,4475.897461,4483.205078,4417.820313,4438.846191,,,,,,,,,,,,,,,,,,,,,,,,,,,,,,,,,,,,,,,,,,,,,,,,,,,,,,,,,,,,,,,,,,,,,,
1720513382,61,0,4285.897461,4331.025879,4318.205078,4313.077148,4253.461426,4216.410156,4234.871582,4266.794922,4459.487305,4263.461426,4481.410156,4495,4428.077148,4451.282227,,,,,,,,,,,,,,,,,,,,,,,,,,,,,,,,,,,,,,,,,,,,,,,,,,,,,,,,,,,,,,,,,,,,,,
1720513382,62,0,4293.461426,4329.487305,4328.717773,4316.282227,4251.794922,4223.717773,4236.666504,4261.922852,4457.436035,4264.487305,4503.717773,4502.692383,4451.282227,4467.692383,,,,,,,,,,,,,,,,,,,,,,,,,,,,,,,,,,,,,,,,,,,,,,,,,,,,,,,,,,,,,,,,,,,,,,
1720513382,63,0,4283.077148,4319.230957,4324.871582,4310.641113,4248.717773,4231.794922,4239.230957,4263.846191,4457.436035,4265.256348,4505,4511.794922,4446.666504,4466.922852,,,,,,,,,,,,,,,,,,,,,,,,,,,,,,,,,,,,,,,,,,,,,,,,,,,,,,,,,,,,,,,,,,,,,,
1720513382,64,0,4263.333496,4310.897461,4305.384766,4300.256348,4248.589844,4227.436035,4232.692383,4262.179688,4453.846191,4260.512695,4478.205078,4497.94873,4413.461426,4445.256348,,,,,,,,,,,,,,,,,,,,,,,,,,,,,,,,,,,,,,,,,,,,,,,,,,,,,,,,,,,,,,,,,,,,,,
1720513382,65,0,4252.436035,4301.153809,4295.512695,4289.358887,4242.692383,4224.487305,4228.333496,4262.820313,4460.897461,4262.820313,4468.333496,4475.769043,4401.025879,4430,,,,,,,,,,,,,,,,,,,,,,,,,,,,,,,,,,,,,,,,,,,,,,,,,,,,,,,,,,,,,,,,,,,,,,
1720513382,66,0,4233.077148,4282.563965,4283.717773,4265.897461,4233.461426,4231.794922,4234.871582,4272.563965,4474.871582,4270.641113,4467.05127,4463.461426,4407.692383,4421.153809,,,,,,,,,,,,,,,,,,,,,,,,,,,,,,,,,,,,,,,,,,,,,,,,,,,,,,,,,,,,,,,,,,,,,,
1720513382,67,0,4200.128418,4261.922852,4247.05127,4248.205078,4236.410156,4246.922852,4246.666504,4279.358887,4478.974121,4269.487305,4448.333496,4442.820313,4394.871582,4400.384766,,,,,,,,,,,,,,,,,,,,,,,,,,,,,,,,,,,,,,,,,,,,,,,,,,,,,,,,,,,,,,,,,,,,,,
1720513382,68,0,4187.94873,4258.974121,4226.025879,4257.563965,4248.077148,4261.025879,4258.589844,4280.384766,4472.436035,4257.94873,4427.820313,4415.641113,4360.769043,4371.538574,,,,,,,,,,,,,,,,,,,,,,,,,,,,,,,,,,,,,,,,,,,,,,,,,,,,,,,,,,,,,,,,,,,,,,
1720513382,69,0,4198.333496,4267.05127,4238.461426,4265.769043,4250.641113,4263.461426,4264.615234,4287.05127,4470.512695,4261.794922,4425.769043,4410,4364.102539,4370.384766,,,,,,,,,,,,,,,,,,,,,,,,,,,,,,,,,,,,,,,,,,,,,,,,,,,,,,,,,,,,,,,,,,,,,,
1720513382,70,0,4199.743652,4264.871582,4243.205078,4261.794922,4246.666504,4261.153809,4266.922852,4296.282227,4477.563965,4278.589844,4441.666504,4421.922852,4398.461426,4392.692383,,,,,,,,,,,,,,,,,,,,,,,,,,,,,,,,,,,,,,,,,,,,,,,,,,,,,,,,,,,,,,,,,,,,,,
1720513382,71,0,4204.743652,4260.769043,4249.871582,4265,4246.410156,4264.102539,4269.487305,4298.461426,4475.641113,4282.307617,4456.922852,4437.563965,4395.897461,4398.846191,14.943771,6.23792,1.748163,1.092618,0.509112,1.901453,3.131685,1.887315,0.374979,0.313479,3.684646,3.705627,1.355222,0.685642,0.525848,1.438758,2.426476,1.930951,0.361054,0.283238,0.317959,0.536282,0.329717,0.106148,0.110227,0.767945,1.201547,0.792513,0.120549,0.072105,0.836921,0.759583,0.664288,0.106888,0.126924,1.419287,1.388254,0.758307,0.199502,0.158212,90.836235,10.925093,3.117159,0.581617,0.169751,1.631277,1.200951,0.311416,0.296408,0.267707,7.439708,2.799674,0.436034,0.812203,0.498921,5.733269,5.999641,0.845797,0.893451,0.276111,20.244053,1.981506,0.816534,0.845168,0.707376,33.073833,4.867926,1.096059,1.048872,0.404617
1720513382,72,0,4217.94873,4266.538574,4270.897461,4265.384766,4250.256348,4264.102539,4267.307617,4294.487305,4462.307617,4278.205078,4455.769043,4450.256348,4376.666504,4395.256348,,,,,,,,,,,,,,,,,,,,,,,,,,,,,,,,,,,,,,,,,,,,,,,,,,,,,,,,,,,,,,,,,,,,,,
1720513382,73,0,4220.128418,4274.615234,4275.128418,4264.487305,4249.615234,4260.512695,4264.358887,4289.871582,4456.538574,4279.230957,4458.461426,4459.615234,4395.384766,4408.846191,,,,,,,,,,,,,,,,,,,,,,,,,,,,,,,,,,,,,,,,,,,,,,,,,,,,,,,,,,,,,,,,,,,,,,
1720513382,74,0,4226.538574,4274.230957,4272.436035,4275.769043,4240.128418,4261.794922,4265,4290.641113,4460.384766,4279.743652,4472.820313,4468.846191,4411.666504,4427.307617,,,,,,,,,,,,,,,,,,,,,,,,,,,,,,,,,,,,,,,,,,,,,,,,,,,,,,,,,,,,,,,,,,,,,,
1720513382,75,0,4235.769043,4267.179688,4276.922852,4272.692383,4230.384766,4262.820313,4265.512695,4294.102539,4459.487305,4275.128418,4476.153809,4471.282227,4402.307617,4429.358887,,,,,,,,,,,,,,,,,,,,,,,,,,,,,,,,,,,,,,,,,,,,,,,,,,,,,,,,,,,,,,,,,,,,,,
1720513382,76,0,4222.692383,4256.025879,4269.102539,4249.615234,4229.487305,4261.025879,4263.077148,4297.94873,4456.922852,4271.538574,4466.153809,4465,4406.410156,4424.487305,,,,,,,,,,,,,,,,,,,,,,,,,,,,,,,,,,,,,,,,,,,,,,,,,,,,,,,,,,,,,,,,,,,,,,
1720513382,77,0,4205,4251.922852,4254.102539,4246.538574,4236.153809,4260.641113,4263.461426,4302.307617,4460.769043,4265.512695,4446.538574,4456.666504,4397.563965,4411.922852,,,,,,,,,,,,,,,,,,,,,,,,,,,,,,,,,,,,,,,,,,,,,,,,,,,,,,,,,,,,,,,,,,,,,,
1720513382,78,0,4209.487305,4258.846191,4258.846191,4264.230957,4238.205078,4261.922852,4265.384766,4301.025879,4458.077148,4258.589844,4427.692383,4446.794922,4359.230957,4389.102539,,,,,,,,,,,,,,,,,,,,,,,,,,,,,,,,,,,,,,,,,,,,,,,,,,,,,,,,,,,,,,,,,,,,,,
1720513382,79,0,4218.333496,4260.769043,4264.487305,4264.230957,4234.871582,4263.461426,4264.487305,4295.512695,4445.384766,4261.922852,4431.666504,4442.563965,4353.717773,4380.641113,,,,,,,,,,,,,,,,,,,,,,,,,,,,,,,,,,,,,,,,,,,,,,,,,,,,,,,,,,,,,,,,,,,,,,
1720513382,80,0,4215,4258.077148,4259.358887,4259.102539,4237.436035,4264.358887,4264.358887,4293.974121,4435.769043,4267.94873,4449.358887,4447.820313,4380.641113,4394.358887,,,,,,,,,,,,,,,,,,,,,,,,,,,,,,,,,,,,,,,,,,,,,,,,,,,,,,,,,,,,,,,,,,,,,,
1720513382,81,0,4214.615234,4262.179688,4265.897461,4272.436035,4243.077148,4264.487305,4270.384766,4292.307617,4426.153809,4262.94873,4449.487305,4449.102539,4379.230957,4401.282227,,,,,,,,,,,,,,,,,,,,,,,,,,,,,,,,,,,,,,,,,,,,,,,,,,,,,,,,,,,,,,,,,,,,,,
1720513382,82,0,4223.077148,4264.358887,4275.641113,4280,4244.615234,4267.436035,4278.974121,4289.615234,4417.179688,4256.794922,4437.692383,4449.487305,4361.153809,4393.205078,,,,,,,,,,,,,,,,,,,,,,,,,,,,,,,,,,,,,,,,,,,,,,,,,,,,,,,,,,,,,,,,,,,,,,
1720513382,83,0,4232.436035,4261.282227,4273.717773,4274.743652,4247.05127,4267.692383,4274.871582,4289.358887,4417.820313,4259.230957,4443.333496,4456.282227,4367.307617,4395.769043,,,,,,,,,,,,,,,,,,,,,,,,,,,,,,,,,,,,,,,,,,,,,,,,,,,,,,,,,,,,,,,,,,,,,,
1720513382,84,0,4235.384766,4263.077148,4277.563965,4276.025879,4248.589844,4263.846191,4267.820313,4291.025879,4424.487305,4264.743652,4462.94873,4465.384766,4390.384766,4412.05127,,,,,,,,,,,,,,,,,,,,,,,,,,,,,,,,,,,,,,,,,,,,,,,,,,,,,,,,,,,,,,,,,,,,,,
1720513382,85,0,4232.820313,4262.820313,4293.333496,4281.025879,4246.025879,4264.615234,4273.461426,4300.769043,4434.102539,4272.436035,4478.205078,4482.94873,4406.025879,4423.077148,,,,,,,,,,,,,,,,,,,,,,,,,,,,,,,,,,,,,,,,,,,,,,,,,,,,,,,,,,,,,,,,,,,,,,
1720513382,86,0,4228.974121,4262.436035,4291.922852,4280,4245.128418,4261.410156,4275.256348,4308.461426,4443.205078,4282.179688,4478.589844,4494.871582,4397.692383,4416.025879,,,,,,,,,,,,,,,,,,,,,,,,,,,,,,,,,,,,,,,,,,,,,,,,,,,,,,,,,,,,,,,,,,,,,,
1720513382,87,0,4230.641113,4264.743652,4277.179688,4274.102539,4240.641113,4251.922852,4260.512695,4299.743652,4442.436035,4276.282227,4471.025879,4485,4383.461426,4407.94873,11.764607,6.403204,2.218152,0.990092,0.523464,1.967686,3.681989,2.435057,0.346577,0.337412,3.689409,4.820027,2.118178,0.676189,0.44134,1.639793,3.085449,2.535124,0.330255,0.288913,0.301493,0.495154,0.429499,0.102905,0.12629,0.910701,1.41066,1.009396,0.131996,0.075892,1.020944,0.602455,0.555302,0.122298,0.125694,1.507814,1.139464,0.793172,0.23115,0.163744,78.215286,9.47985,2.977806,0.565465,0.17387,1.366124,1.518265,0.3842,0.3001,0.266778,5.83485,4.056193,0.662575,0.747124,0.584135,4.770126,8.008217,1.334988,0.833202,0.317147,15.980885,2.808104,0.897156,0.792395,0.82464,25.645842,5.597511,1.316285,0.929078,0.488251
1720513382,88,0,4236.025879,4260.897461,4278.846191,4270.641113,4230,4245.512695,4247.307617,4292.179688,4434.102539,4267.94873,4473.717773,4474.487305,4388.717773,4414.871582,,,,,,,,,,,,,,,,,,,,,,,,,,,,,,,,,,,,,,,,,,,,,,,,,,,,,,,,,,,,,,,,,,,,,,
1720513382,89,0,4228.205078,4267.179688,4283.461426,4277.179688,4230.769043,4239.102539,4244.358887,4293.461426,4432.563965,4273.333496,4474.743652,4477.94873,4387.179688,4412.436035,,,,,,,,,,,,,,,,,,,,,,,,,,,,,,,,,,,,,,,,,,,,,,,,,,,,,,,,,,,,,,,,,,,,,,
1720513382,90,0,4215.128418,4281.538574,4272.94873,4283.077148,4240.641113,4231.666504,4238.974121,4288.077148,4428.461426,4272.563965,4465.256348,4476.666504,4372.563965,4395.512695,,,,,,,,,,,,,,,,,,,,,,,,,,,,,,,,,,,,,,,,,,,,,,,,,,,,,,,,,,,,,,,,,,,,,,
1720513382,91,0,4217.179688,4273.077148,4272.179688,4279.615234,4246.025879,4232.307617,4235.897461,4281.025879,4416.410156,4264.615234,4463.846191,4466.794922,4382.436035,4397.307617,,,,,,,,,,,,,,,,,,,,,,,,,,,,,,,,,,,,,,,,,,,,,,,,,,,,,,,,,,,,,,,,,,,,,,
1720513382,92,0,4221.025879,4260.256348,4286.794922,4282.820313,4245.512695,4235.384766,4239.102539,4275,4404.871582,4262.05127,4465.256348,4460,4387.94873,4401.282227,,,,,,,,,,,,,,,,,,,,,,,,,,,,,,,,,,,,,,,,,,,,,,,,,,,,,,,,,,,,,,,,,,,,,,
1720513382,93,0,4220.641113,4275.512695,4290.897461,4296.153809,4245.897461,4233.333496,4236.025879,4262.563965,4389.358887,4256.922852,4461.153809,4461.025879,4373.846191,4391.794922,,,,,,,,,,,,,,,,,,,,,,,,,,,,,,,,,,,,,,,,,,,,,,,,,,,,,,,,,,,,,,,,,,,,,,
1720513382,94,0,4229.230957,4286.666504,4283.461426,4300.128418,4248.974121,4233.846191,4232.94873,4256.410156,4378.461426,4246.794922,4464.487305,4460.512695,4384.102539,4393.333496,,,,,,,,,,,,,,,,,,,,,,,,,,,,,,,,,,,,,,,,,,,,,,,,,,,,,,,,,,,,,,,,,,,,,,
1720513382,95,0,4225.512695,4264.615234,4273.333496,4283.461426,4248.205078,4235.897461,4241.153809,4260.897461,4382.179688,4245.384766,4471.538574,4454.487305,4400.256348,4398.461426,,,,,,,,,,,,,,,,,,,,,,,,,,,,,,,,,,,,,,,,,,,,,,,,,,,,,,,,,,,,,,,,,,,,,,
1720513382,96,0,4192.436035,4241.410156,4257.94873,4263.589844,4239.615234,4236.153809,4249.230957,4265,4391.410156,4254.487305,4472.94873,4456.794922,4393.846191,4389.871582,,,,,,,,,,,,,,,,,,,,,,,,,,,,,,,,,,,,,,,,,,,,,,,,,,,,,,,,,,,,,,,,,,,,,,
1720513382,97,0,4165.384766,4239.743652,4245.512695,4260.641113,4233.333496,4236.282227,4244.871582,4268.717773,4399.615234,4260.897461,4474.743652,4459.615234,4386.410156,4378.846191,,,,,,,,,,,,,,,,,,,,,,,,,,,,,,,,,,,,,,,,,,,,,,,,,,,,,,,,,,,,,,,,,,,,,,
1720513383,98,0,4166.666504,4242.94873,4248.717773,4263.461426,4239.615234,4235.769043,4242.179688,4280.256348,4411.666504,4264.871582,4475.641113,4457.307617,4380,4373.974121,,,,,,,,,,,,,,,,,,,,,,,,,,,,,,,,,,,,,,,,,,,,,,,,,,,,,,,,,,,,,,,,,,,,,,
1720513383,99,0,4173.077148,4247.307617,4251.922852,4266.666504,4247.179688,4235.897461,4246.666504,4294.743652,4422.436035,4270,4471.282227,4460.641113,4369.230957,4371.794922,,,,,,,,,,,,,,,,,,,,,,,,,,,,,,,,,,,,,,,,,,,,,,,,,,,,,,,,,,,,,,,,,,,,,,
1720513383,100,0,4168.333496,4256.666504,4244.358887,4277.307617,4245.512695,4234.487305,4249.358887,4300.769043,4418.974121,4278.205078,4475.128418,4456.538574,4373.077148,4369.487305,,,,,,,,,,,,,,,,,,,,,,,,,,,,,,,,,,,,,,,,,,,,,,,,,,,,,,,,,,,,,,,,,,,,,,
1720513383,101,0,4171.282227,4263.717773,4244.743652,4286.538574,4243.333496,4233.077148,4249.358887,4297.820313,4410.769043,4278.974121,4480.512695,4447.05127,4384.230957,4368.589844,,,,,,,,,,,,,,,,,,,,,,,,,,,,,,,,,,,,,,,,,,,,,,,,,,,,,,,,,,,,,,,,,,,,,,
1720513383,102,0,4183.077148,4264.615234,4260.641113,4281.794922,4238.205078,4234.871582,4248.333496,4296.282227,4405.641113,4272.94873,4487.436035,4456.025879,4386.538574,4377.179688,,,,,,,,,,,,,,,,,,,,,,,,,,,,,,,,,,,,,,,,,,,,,,,,,,,,,,,,,,,,,,,,,,,,,,
1720513383,103,0,4178.974121,4260.769043,4266.153809,4278.589844,4233.589844,4233.846191,4247.179688,4292.307617,4393.461426,4263.589844,4503.077148,4460,4380.128418,4380.641113,8.843002,7.192094,2.79546,0.922396,0.540448,2.114474,4.432599,2.957282,0.315774,0.351307,3.605601,6.597577,2.978265,0.68989,0.380486,1.844126,3.938012,3.111084,0.323482,0.286726,0.326009,0.466163,0.551841,0.109871,0.139432,1.134048,1.653889,1.137244,0.152696,0.079835,1.32757,0.558518,0.51348,0.149052,0.120329,1.679035,0.923519,1.004643,0.279852,0.169458,56.850224,7.178342,2.817279,0.53265,0.180902,1.159252,1.859267,0.510499,0.304517,0.255574,4.183532,5.785252,1.014346,0.675722,0.652501,3.838924,10.849399,1.958932,0.79706,0.378259,10.847057,4.160002,1.082309,0.784435,0.944939,17.275896,7.119275,1.678771,0.892105,0.575259
1720513383,104,0,4169.102539,4254.102539,4252.563965,4277.820313,4238.205078,4232.179688,4247.179688,4277.563965,4371.922852,4248.846191,4504.871582,4439.230957,4367.692383,4363.333496,,,,,,,,,,,,,,,,,,,,,,,,,,,,,,,,,,,,,,,,,,,,,,,,,,,,,,,,,,,,,,,,,,,,,,
1720513383,105,0,4167.692383,4246.922852,4245.897461,4269.102539,4240,4241.282227,4248.077148,4266.410156,4362.692383,4243.077148,4488.974121,4426.666504,4366.153809,4354.358887,,,,,,,,,,,,,,,,,,,,,,,,,,,,,,,,,,,,,,,,,,,,,,,,,,,,,,,,,,,,,,,,,,,,,,
1720513383,106,0,4160.769043,4243.717773,4248.846191,4262.307617,4232.179688,4249.230957,4248.077148,4271.282227,4374.230957,4247.692383,4478.589844,4429.871582,4368.717773,4358.077148,,,,,,,,,,,,,,,,,,,,,,,,,,,,,,,,,,,,,,,,,,,,,,,,,,,,,,,,,,,,,,,,,,,,,,
1720513383,107,0,4150.384766,4232.563965,4246.794922,4257.94873,4231.153809,4250.641113,4251.794922,4284.358887,4382.307617,4248.589844,4475.256348,4430.384766,4362.820313,4353.717773,,,,,,,,,,,,,,,,,,,,,,,,,,,,,,,,,,,,,,,,,,,,,,,,,,,,,,,,,,,,,,,,,,,,,,
1720513383,108,0,4146.666504,4215.512695,4236.153809,4249.871582,4236.282227,4259.102539,4261.410156,4294.615234,4377.05127,4245.641113,4459.743652,4424.615234,4357.05127,4343.461426,,,,,,,,,,,,,,,,,,,,,,,,,,,,,,,,,,,,,,,,,,,,,,,,,,,,,,,,,,,,,,,,,,,,,,
1720513383,109,0,4139.102539,4214.358887,4223.077148,4244.615234,4233.846191,4262.307617,4265,4297.05127,4372.307617,4246.282227,4441.153809,4413.461426,4343.461426,4329.615234,,,,,,,,,,,,,,,,,,,,,,,,,,,,,,,,,,,,,,,,,,,,,,,,,,,,,,,,,,,,,,,,,,,,,,
1720513383,110,0,4131.153809,4218.589844,4218.333496,4248.461426,4227.692383,4251.538574,4262.563965,4295.897461,4373.974121,4252.563965,4440.512695,4410.641113,4334.230957,4320.512695,,,,,,,,,,,,,,,,,,,,,,,,,,,,,,,,,,,,,,,,,,,,,,,,,,,,,,,,,,,,,,,,,,,,,,
1720513383,111,0,4134.102539,4218.846191,4228.846191,4247.563965,4228.717773,4247.692383,4259.615234,4298.461426,4376.282227,4262.179688,4447.820313,4418.974121,4346.666504,4327.563965,,,,,,,,,,,,,,,,,,,,,,,,,,,,,,,,,,,,,,,,,,,,,,,,,,,,,,,,,,,,,,,,,,,,,,
1720513383,112,0,4136.153809,4220.769043,4234.230957,4244.615234,4232.179688,4251.153809,4253.974121,4300.384766,4373.461426,4262.05127,4446.153809,4419.230957,4347.179688,4331.538574,,,,,,,,,,,,,,,,,,,,,,,,,,,,,,,,,,,,,,,,,,,,,,,,,,,,,,,,,,,,,,,,,,,,,,
1720513383,113,0,4134.358887,4221.794922,4221.025879,4248.974121,4230.512695,4250.384766,4246.922852,4292.563965,4365,4250.897461,4439.102539,4413.717773,4337.179688,4325.384766,,,,,,,,,,,,,,,,,,,,,,,,,,,,,,,,,,,,,,,,,,,,,,,,,,,,,,,,,,,,,,,,,,,,,,
1720513383,114,0,4137.692383,4222.05127,4212.563965,4247.820313,4228.461426,4255.384766,4244.615234,4276.410156,4348.589844,4243.974121,4428.077148,4409.102539,4339.743652,4324.743652,,,,,,,,,,,,,,,,,,,,,,,,,,,,,,,,,,,,,,,,,,,,,,,,,,,,,,,,,,,,,,,,,,,,,,
1720513383,115,0,4140,4231.922852,4216.666504,4252.05127,4233.974121,4266.410156,4250.512695,4260,4327.05127,4236.410156,4408.974121,4403.461426,4329.358887,4324.102539,,,,,,,,,,,,,,,,,,,,,,,,,,,,,,,,,,,,,,,,,,,,,,,,,,,,,,,,,,,,,,,,,,,,,,
1720513383,116,0,4136.922852,4239.358887,4219.230957,4262.820313,4237.563965,4273.589844,4257.692383,4258.077148,4319.487305,4228.461426,4403.205078,4402.94873,4313.077148,4317.563965,,,,,,,,,,,,,,,,,,,,,,,,,,,,,,,,,,,,,,,,,,,,,,,,,,,,,,,,,,,,,,,,,,,,,,
1720513383,117,0,4133.846191,4231.282227,4219.743652,4257.436035,4233.717773,4280.769043,4266.410156,4276.153809,4336.666504,4236.282227,4412.307617,4410.384766,4319.487305,4314.615234,,,,,,,,,,,,,,,,,,,,,,,,,,,,,,,,,,,,,,,,,,,,,,,,,,,,,,,,,,,,,,,,,,,,,,
1720513383,118,0,4134.615234,4227.94873,4218.589844,4242.179688,4229.871582,4280.641113,4274.358887,4297.563965,4355.641113,4249.871582,4413.077148,4411.282227,4322.563965,4310.128418,,,,,,,,,,,,,,,,,,,,,,,,,,,,,,,,,,,,,,,,,,,,,,,,,,,,,,,,,,,,,,,,,,,,,,
1720513383,119,0,4136.538574,4232.563965,4214.743652,4241.794922,4228.974121,4273.205078,4271.922852,4306.666504,4358.461426,4248.974121,4407.820313,4407.94873,4308.461426,4303.846191,6.948263,9.009653,3.444511,0.865187,0.548957,2.446183,5.454902,3.396037,0.277716,0.350179,3.599666,9.150673,3.803722,0.711186,0.348507,2.112563,4.990427,3.573306,0.330645,0.284187,0.370669,0.483617,0.669276,0.126765,0.147136,1.439008,1.903927,1.146279,0.182961,0.082497,1.737409,0.622243,0.526902,0.183204,0.111871,2.000173,0.744931,1.299759,0.333058,0.175187,34.482784,4.848624,2.699126,0.499837,0.190365,1.107474,2.168308,0.666944,0.308733,0.233823,3.048141,8.030529,1.491931,0.610475,0.691308,3.397889,14.59227,2.632933,0.786097,0.446757,6.696935,6.140094,1.354777,0.785282,1.053183,10.746848,9.758918,2.155874,0.884208,0.643485
1720513383,120,0,4142.820313,4230.769043,4220.897461,4249.230957,4233.461426,4271.794922,4269.102539,4309.230957,4360.384766,4243.717773,4410.256348,4417.820313,4310.897461,4312.94873,,,,,,,,,,,,,,,,,,,,,,,,,,,,,,,,,,,,,,,,,,,,,,,,,,,,,,,,,,,,,,,,,,,,,,
1720513383,121,0,4149.743652,4227.94873,4231.666504,4245.897461,4233.717773,4273.717773,4272.179688,4307.05127,4362.179688,4248.077148,4416.410156,4427.563965,4326.410156,4330.897461,,,,,,,,,,,,,,,,,,,,,,,,,,,,,,,,,,,,,,,,,,,,,,,,,,,,,,,,,,,,,,,,,,,,,,
1720513383,122,0,4155,4231.666504,4230.769043,4245.641113,4230.897461,4273.333496,4270.512695,4294.102539,4346.794922,4250.512695,4417.05127,4420,4325.641113,4332.820313,,,,,,,,,,,,,,,,,,,,,,,,,,,,,,,,,,,,,,,,,,,,,,,,,,,,,,,,,,,,,,,,,,,,,,
1720513383,123,0,4163.205078,4235.256348,4230.897461,4258.589844,4241.538574,4274.487305,4263.461426,4279.871582,4325.512695,4244.871582,4405.384766,4413.846191,4309.358887,4318.333496,,,,,,,,,,,,,,,,,,,,,,,,,,,,,,,,,,,,,,,,,,,,,,,,,,,,,,,,,,,,,,,,,,,,,,
1720513383,124,0,4163.589844,4236.410156,4232.05127,4262.563965,4252.179688,4276.153809,4260.512695,4269.230957,4315.256348,4241.538574,4394.487305,4410.128418,4305.128418,4316.282227,,,,,,,,,,,,,,,,,,,,,,,,,,,,,,,,,,,,,,,,,,,,,,,,,,,,,,,,,,,,,,,,,,,,,,
1720513383,125,0,4161.410156,4239.615234,4233.717773,4252.692383,4252.94873,4281.282227,4264.487305,4261.538574,4311.538574,4240,4399.230957,4402.179688,4311.666504,4323.589844,,,,,,,,,,,,,,,,,,,,,,,,,,,,,,,,,,,,,,,,,,,,,,,,,,,,,,,,,,,,,,,,,,,,,,
1720513383,126,0,4166.282227,4238.461426,4244.358887,4254.102539,4258.717773,4289.615234,4272.94873,4266.025879,4307.94873,4235.256348,4402.692383,4404.487305,4307.05127,4317.820313,,,,,,,,,,,,,,,,,,,,,,,,,,,,,,,,,,,,,,,,,,,,,,,,,,,,,,,,,,,,,,,,,,,,,,
1720513383,127,0,4165.256348,4236.025879,4242.692383,4262.692383,4266.282227,4293.333496,4279.487305,4276.922852,4308.974121,4232.179688,4399.230957,4410.512695,4306.922852,4315.384766,,,,,,,,,,,,,,,,,,,,,,,,,,,,,,,,,,,,,,,,,,,,,,,,,,,,,,,,,,,,,,,,,,,,,,
1720513383,0,0,4146.538574,4231.282227,4225.641113,4253.077148,4263.846191,4294.615234,4278.461426,4280.256348,4315.897461,4232.436035,4393.589844,4399.102539,4309.615234,4315.897461,,,,,,,,,,,,,,,,,,,,,,,,,,,,,,,,,,,,,,,,,,,,,,,,,,,,,,,,,,,,,,,,,,,,,,
1720513383,1,0,4135.384766,4220.512695,4222.94873,4242.05127,4260.641113,4292.307617,4279.358887,4280.512695,4322.307617,4231.410156,4381.282227,4391.025879,4296.666504,4302.94873,,,,,,,,,,,,,,,,,,,,,,,,,,,,,,,,,,,,,,,,,,,,,,,,,,,,,,,,,,,,,,,,,,,,,,
1720513383,2,0,4146.153809,4219.871582,4231.538574,4245.512695,4260.512695,4283.589844,4276.794922,4283.333496,4321.794922,4229.487305,4381.922852,4400.128418,4288.333496,4297.179688,,,,,,,,,,,,,,,,,,,,,,,,,,,,,,,,,,,,,,,,,,,,,,,,,,,,,,,,,,,,,,,,,,,,,,
1720513383,3,0,4153.846191,4230.641113,4231.666504,4249.743652,4258.717773,4277.307617,4266.410156,4282.436035,4313.974121,4233.846191,4393.974121,4407.307617,4294.615234,4308.974121,,,,,,,,,,,,,,,,,,,,,,,,,,,,,,,,,,,,,,,,,,,,,,,,,,,,,,,,,,,,,,,,,,,,,,
1720513383,4,0,4158.717773,4235.641113,4237.94873,4254.743652,4260.897461,4272.307617,4261.922852,4280.769043,4311.794922,4244.230957,4395.641113,4414.230957,4302.436035,4317.563965,,,,,,,,,,,,,,,,,,,,,,,,,,,,,,,,,,,,,,,,,,,,,,,,,,,,,,,,,,,,,,,,,,,,,,
1720513383,5,0,4167.307617,4240.512695,4253.974121,4266.922852,4263.717773,4266.153809,4264.871582,4284.487305,4318.205078,4250.641113,4402.436035,4427.563965,4312.307617,4324.358887,,,,,,,,,,,,,,,,,,,,,,,,,,,,,,,,,,,,,,,,,,,,,,,,,,,,,,,,,,,,,,,,,,,,,,
1720513383,6,0,4174.102539,4249.871582,4264.358887,4271.025879,4264.871582,4262.692383,4262.563965,4285.128418,4319.615234,4248.205078,4416.666504,4434.102539,4325,4333.333496,,,,,,,,,,,,,,,,,,,,,,,,,,,,,,,,,,,,,,,,,,,,,,,,,,,,,,,,,,,,,,,,,,,,,,
1720513383,7,0,4180.897461,4249.615234,4275.384766,4265.641113,4263.333496,4254.102539,4252.692383,4279.743652,4311.410156,4249.230957,4417.05127,4432.307617,4333.589844,4338.461426,6.559896,11.719343,4.169937,0.793033,0.540279,2.93708,6.6633,3.73817,0.239053,0.337731,3.705334,12.216331,4.520278,0.718011,0.344257,2.459473,6.12345,3.912097,0.342431,0.288298,0.420749,0.567747,0.760048,0.150161,0.149085,1.777206,2.123396,1.050155,0.216874,0.083269,2.252138,0.773469,0.561991,0.217265,0.103229,2.611335,0.656342,1.575663,0.373457,0.179287,16.843161,3.271685,2.651135,0.475624,0.200184,1.170825,2.416819,0.826641,0.310355,0.206407,2.327913,10.598145,2.084301,0.561161,0.696278,3.295189,18.84243,3.260432,0.782318,0.50352,3.829316,8.570348,1.735873,0.763324,1.139598,6.813891,13.292418,2.735234,0.857574,0.675791
1720513383,8,0,4188.589844,4249.102539,4283.333496,4268.461426,4266.922852,4244.871582,4245.897461,4276.538574,4302.179688,4253.077148,4414.871582,4440.512695,4340,4346.666504,,,,,,,,,,,,,,,,,,,,,,,,,,,,,,,,,,,,,,,,,,,,,,,,,,,,,,,,,,,,,,,,,,,,,,
1720513383,9,0,4193.461426,4250.256348,4285.512695,4271.794922,4273.846191,4251.922852,4246.153809,4271.153809,4296.153809,4243.589844,4416.922852,4453.461426,4335.512695,4351.922852,,,,,,,,,,,,,,,,,,,,,,,,,,,,,,,,,,,,,,,,,,,,,,,,,,,,,,,,,,,,,,,,,,,,,,
1720513383,10,0,4192.436035,4242.436035,4281.538574,4262.307617,4270.769043,4264.102539,4248.974121,4260.897461,4291.410156,4231.538574,4404.871582,4437.05127,4322.05127,4341.538574,,,,,,,,,,,,,,,,,,,,,,,,,,,,,,,,,,,,,,,,,,,,,,,,,,,,,,,,,,,,,,,,,,,,,,
1720513383,11,0,4183.077148,4240.769043,4264.358887,4258.717773,4269.102539,4269.487305,4258.589844,4261.666504,4289.230957,4232.820313,4393.077148,4410,4315.384766,4327.94873,,,,,,,,,,,,,,,,,,,,,,,,,,,,,,,,,,,,,,,,,,,,,,,,,,,,,,,,,,,,,,,,,,,,,,
1720513383,12,0,4167.563965,4247.05127,4244.358887,4270.897461,4278.333496,4279.230957,4277.307617,4275.256348,4289.230957,4233.205078,4396.025879,4408.077148,4300.128418,4321.666504,,,,,,,,,,,,,,,,,,,,,,,,,,,,,,,,,,,,,,,,,,,,,,,,,,,,,,,,,,,,,,,,,,,,,,
1720513383,13,0,4166.410156,4248.717773,4242.692383,4277.05127,4282.94873,4284.487305,4283.717773,4287.94873,4293.077148,4231.538574,4401.538574,4415.384766,4280.128418,4321.410156,,,,,,,,,,,,,,,,,,,,,,,,,,,,,,,,,,,,,,,,,,,,,,,,,,,,,,,,,,,,,,,,,,,,,,
1720513383,14,0,4171.410156,4241.153809,4249.743652,4268.717773,4276.282227,4272.94873,4272.307617,4292.307617,4300.256348,4240.384766,4399.102539,4412.179688,4281.922852,4320.256348,,,,,,,,,,,,,,,,,,,,,,,,,,,,,,,,,,,,,,,,,,,,,,,,,,,,,,,,,,,,,,,,,,,,,,
1720513383,15,0,4163.333496,4233.333496,4240.384766,4262.307617,4271.794922,4262.05127,4260.256348,4286.794922,4304.871582,4251.410156,4399.102539,4410.897461,4296.153809,4318.717773,,,,,,,,,,,,,,,,,,,,,,,,,,,,,,,,,,,,,,,,,,,,,,,,,,,,,,,,,,,,,,,,,,,,,,
1720513383,16,0,4170,4238.846191,4240.641113,4262.436035,4273.589844,4259.358887,4252.563965,4277.820313,4305.128418,4256.025879,4413.717773,4422.179688,4304.358887,4331.538574,,,,,,,,,,,,,,,,,,,,,,,,,,,,,,,,,,,,,,,,,,,,,,,,,,,,,,,,,,,,,,,,,,,,,,
1720513383,17,0,4195.256348,4249.102539,4269.358887,4266.794922,4270.641113,4251.794922,4248.077148,4275,4301.666504,4261.794922,4432.820313,4441.538574,4314.102539,4352.820313,,,,,,,,,,,,,,,,,,,,,,,,,,,,,,,,,,,,,,,,,,,,,,,,,,,,,,,,,,,,,,,,,,,,,,
1720513383,18,0,4201.794922,4254.230957,4285.256348,4277.307617,4266.538574,4241.666504,4242.692383,4274.358887,4296.410156,4268.589844,4442.436035,4454.615234,4323.974121,4360.256348,,,,,,,,,,,,,,,,,,,,,,,,,,,,,,,,,,,,,,,,,,,,,,,,,,,,,,,,,,,,,,,,,,,,,,
1720513383,19,0,4191.025879,4250.769043,4274.615234,4281.282227,4269.615234,4250.769043,4242.179688,4271.666504,4292.307617,4264.871582,4437.179688,4451.025879,4318.333496,4353.589844,,,,,,,,,,,,,,,,,,,,,,,,,,,,,,,,,,,,,,,,,,,,,,,,,,,,,,,,,,,,,,,,,,,,,,
1720513383,20,0,4174.230957,4234.743652,4264.358887,4262.179688,4274.615234,4274.615234,4259.871582,4279.871582,4291.922852,4248.717773,4417.307617,4440.128418,4298.974121,4335.256348,,,,,,,,,,,,,,,,,,,,,,,,,,,,,,,,,,,,,,,,,,,,,,,,,,,,,,,,,,,,,,,,,,,,,,
1720513383,21,0,4154.743652,4217.307617,4253.205078,4243.205078,4274.615234,4288.461426,4280,4292.436035,4291.025879,4232.307617,4402.179688,4423.461426,4276.538574,4312.820313,,,,,,,,,,,,,,,,,,,,,,,,,,,,,,,,,,,,,,,,,,,,,,,,,,,,,,,,,,,,,,,,,,,,,,
1720513383,22,0,4149.230957,4216.282227,4237.179688,4246.794922,4277.820313,4291.922852,4283.717773,4293.717773,4286.794922,4231.025879,4402.179688,4406.410156,4261.922852,4303.461426,,,,,,,,,,,,,,,,,,,,,,,,,,,,,,,,,,,,,,,,,,,,,,,,,,,,,,,,,,,,,,,,,,,,,,
1720513383,23,0,4155,4218.589844,4235,4253.333496,4280.128418,4293.846191,4285.897461,4290.256348,4288.461426,4234.487305,4401.922852,4400.256348,4261.282227,4300,6.853557,14.612519,4.980214,0.704577,0.51165,3.48546,7.812485,3.99652,0.212743,0.322119,3.832113,15.111993,5.104793,0.694021,0.360375,2.819074,7.093208,4.162841,0.35574,0.300517,0.46662,0.712891,0.810864,0.17403,0.14691,2.008403,2.277441,0.904006,0.245831,0.082365,2.748548,0.986372,0.598263,0.244206,0.097137,3.385105,0.743917,1.826187,0.391323,0.179748,7.148757,2.815109,2.700734,0.465432,0.206903,1.322388,2.607694,0.973173,0.309471,0.18014,2.040128,12.973997,2.733122,0.533557,0.671102,3.380266,22.675249,3.747054,0.758102,0.530391,2.42934,10.939029,2.22106,0.714546,1.195755,5.013691,16.870617,3.372664,0.793393,0.667133
1720513383,24,0,4149.615234,4216.922852,4235.128418,4247.692383,4274.358887,4290.256348,4291.025879,4289.615234,4292.179688,4227.307617,4391.410156,4396.282227,4260.897461,4293.077148,,,,,,,,,,,,,,,,,,,,,,,,,,,,,,,,,,,,,,,,,,,,,,,,,,,,,,,,,,,,,,,,,,,,,,
1720513383,25,0,4152.179688,4222.179688,4235.256348,4247.563965,4272.05127,4279.871582,4283.205078,4291.025879,4290.256348,4232.436035,4392.05127,4396.794922,4265.769043,4302.179688,,,,,,,,,,,,,,,,,,,,,,,,,,,,,,,,,,,,,,,,,,,,,,,,,,,,,,,,,,,,,,,,,,,,,,
1720513383,26,0,4172.307617,4229.615234,4251.922852,4258.717773,4277.307617,4267.563965,4267.820313,4288.974121,4284.743652,4248.077148,4406.153809,4406.538574,4285,4319.871582,,,,,,,,,,,,,,,,,,,,,,,,,,,,,,,,,,,,,,,,,,,,,,,,,,,,,,,,,,,,,,,,,,,,,,
1720513383,27,0,4181.282227,4237.307617,4265.128418,4267.692383,4277.692383,4252.692383,4251.538574,4282.05127,4280.769043,4250.897461,4412.307617,4410.256348,4298.077148,4322.05127,,,,,,,,,,,,,,,,,,,,,,,,,,,,,,,,,,,,,,,,,,,,,,,,,,,,,,,,,,,,,,,,,,,,,,
1720513383,28,0,4189.230957,4245.384766,4267.820313,4273.589844,4271.922852,4242.94873,4242.820313,4275.897461,4278.974121,4248.846191,4415.897461,4417.307617,4303.205078,4330,,,,,,,,,,,,,,,,,,,,,,,,,,,,,,,,,,,,,,,,,,,,,,,,,,,,,,,,,,,,,,,,,,,,,,
1720513383,29,0,4204.358887,4251.794922,4278.077148,4282.692383,4272.563965,4246.153809,4252.05127,4276.538574,4278.077148,4248.205078,4427.692383,4440.512695,4312.436035,4351.666504,,,,,,,,,,,,,,,,,,,,,,,,,,,,,,,,,,,,,,,,,,,,,,,,,,,,,,,,,,,,,,,,,,,,,,
1720513383,30,0,4203.333496,4248.077148,4290,4280.512695,4275.256348,4257.94873,4261.922852,4282.820313,4277.179688,4247.436035,4432.05127,4449.230957,4313.846191,4353.333496,,,,,,,,,,,,,,,,,,,,,,,,,,,,,,,,,,,,,,,,,,,,,,,,,,,,,,,,,,,,,,,,,,,,,,
1720513383,31,0,4182.820313,4224.615234,4276.666504,4257.820313,4268.717773,4271.282227,4261.538574,4291.025879,4280.641113,4242.436035,4413.589844,4434.358887,4296.538574,4332.307617,,,,,,,,,,,,,,,,,,,,,,,,,,,,,,,,,,,,,,,,,,,,,,,,,,,,,,,,,,,,,,,,,,,,,,
1720513383,32,0,4158.589844,4198.589844,4240,4237.436035,4262.94873,4280,4266.922852,4295.769043,4290.641113,4235.128418,4392.05127,4416.538574,4272.820313,4311.794922,,,,,,,,,,,,,,,,,,,,,,,,,,,,,,,,,,,,,,,,,,,,,,,,,,,,,,,,,,,,,,,,,,,,,,
1720513383,33,0,4153.974121,4196.922852,4222.436035,4237.94873,4264.487305,4281.153809,4278.974121,4297.820313,4292.563965,4237.436035,4389.615234,4404.743652,4263.461426,4305.512695,,,,,,,,,,,,,,,,,,,,,,,,,,,,,,,,,,,,,,,,,,,,,,,,,,,,,,,,,,,,,,,,,,,,,,
1720513383,34,0,4164.871582,4210.512695,4236.538574,4248.589844,4267.94873,4280.769043,4281.794922,4296.794922,4286.153809,4242.692383,4392.563965,4403.461426,4272.692383,4314.743652,,,,,,,,,,,,,,,,,,,,,,,,,,,,,,,,,,,,,,,,,,,,,,,,,,,,,,,,,,,,,,,,,,,,,,
1720513383,35,0,4167.820313,4216.666504,4249.487305,4255.256348,4273.846191,4280.641113,4273.333496,4286.794922,4280,4235.256348,4393.846191,4409.871582,4282.05127,4325.256348,,,,,,,,,,,,,,,,,,,,,,,,,,,,,,,,,,,,,,,,,,,,,,,,,,,,,,,,,,,,,,,,,,,,,,
1720513383,36,0,4172.436035,4226.538574,4255.641113,4265.128418,4278.846191,4272.692383,4266.538574,4277.307617,4270.128418,4233.077148,4401.025879,4417.436035,4281.666504,4326.282227,,,,,,,,,,,,,,,,,,,,,,,,,,,,,,,,,,,,,,,,,,,,,,,,,,,,,,,,,,,,,,,,,,,,,,
1720513383,37,0,4190.512695,4243.205078,4269.743652,4279.102539,4280.128418,4263.589844,4264.615234,4271.410156,4258.846191,4247.307617,4411.666504,4425.641113,4290.512695,4329.102539,,,,,,,,,,,,,,,,,,,,,,,,,,,,,,,,,,,,,,,,,,,,,,,,,,,,,,,,,,,,,,,,,,,,,,
1720513383,38,0,4204.871582,4251.794922,4285.769043,4287.94873,4282.05127,4261.153809,4257.436035,4255.641113,4249.487305,4247.05127,4417.820313,4434.487305,4306.922852,4345.256348,,,,,,,,,,,,,,,,,,,,,,,,,,,,,,,,,,,,,,,,,,,,,,,,,,,,,,,,,,,,,,,,,,,,,,
1720513383,39,0,4220.769043,4255,4303.077148,4293.333496,4284.102539,4258.717773,4244.871582,4240.256348,4236.282227,4233.333496,4424.102539,4444.615234,4312.436035,4366.794922,7.450563,16.732815,5.838128,0.62024,0.467722,3.925003,8.59631,4.192567,0.211574,0.31003,3.893524,17.042025,5.593464,0.634996,0.38735,3.096203,7.628524,4.360727,0.373615,0.31639,0.503125,0.882952,0.812695,0.192193,0.143053,2.084148,2.376858,0.799257,0.262266,0.080398,3.1329,1.231822,0.646064,0.264288,0.094731,4.196954,1.094716,2.139495,0.394833,0.175585,3.935809,3.363157,2.864567,0.472212,0.208042,1.441388,2.779887,1.095386,0.307415,0.16079,2.001502,14.516597,3.369959,0.526834,0.625085,3.390097,25.009117,4.061808,0.691314,0.52015,1.835939,12.613653,2.805961,0.656668,1.212472,4.261534,19.384344,4.019382,0.697443,0.625688
1720513383,40,0,4232.307617,4252.563965,4315.641113,4287.94873,4279.487305,4251.922852,4237.307617,4244.487305,4229.358887,4232.307617,4429.358887,4452.94873,4312.563965,4368.974121,,,,,,,,,,,,,,,,,,,,,,,,,,,,,,,,,,,,,,,,,,,,,,,,,,,,,,,,,,,,,,,,,,,,,,
1720513383,41,0,4207.307617,4233.717773,4293.205078,4270.128418,4266.922852,4243.589844,4229.615234,4253.077148,4238.333496,4232.436035,4421.922852,4442.05127,4308.077148,4350.512695,,,,,,,,,,,,,,,,,,,,,,,,,,,,,,,,,,,,,,,,,,,,,,,,,,,,,,,,,,,,,,,,,,,,,,
1720513383,42,0,4167.05127,4213.846191,4256.282227,4257.692383,4258.846191,4245,4227.563965,4257.307617,4250.128418,4228.717773,4411.410156,4423.205078,4294.102539,4337.05127,,,,,,,,,,,,,,,,,,,,,,,,,,,,,,,,,,,,,,,,,,,,,,,,,,,,,,,,,,,,,,,,,,,,,,
1720513383,43,0,4147.179688,4217.179688,4251.025879,4259.743652,4265.641113,4259.102539,4244.743652,4273.974121,4261.282227,4232.436035,4408.461426,4425,4278.846191,4331.153809,,,,,,,,,,,,,,,,,,,,,,,,,,,,,,,,,,,,,,,,,,,,,,,,,,,,,,,,,,,,,,,,,,,,,,
1720513383,44,0,4142.692383,4228.974121,4262.307617,4267.307617,4272.820313,4269.230957,4262.820313,4292.94873,4275.769043,4243.077148,4416.282227,4431.282227,4284.871582,4329.743652,,,,,,,,,,,,,,,,,,,,,,,,,,,,,,,,,,,,,,,,,,,,,,,,,,,,,,,,,,,,,,,,,,,,,,
1720513383,45,0,4147.179688,4229.743652,4260.512695,4269.871582,4271.153809,4266.153809,4264.743652,4291.922852,4276.794922,4246.538574,4425.384766,4424.615234,4308.461426,4338.717773,,,,,,,,,,,,,,,,,,,,,,,,,,,,,,,,,,,,,,,,,,,,,,,,,,,,,,,,,,,,,,,,,,,,,,
1720513383,46,0,4161.666504,4227.307617,4261.025879,4267.820313,4273.846191,4264.615234,4264.102539,4281.538574,4266.410156,4246.538574,4432.179688,4425,4324.615234,4355.384766,,,,,,,,,,,,,,,,,,,,,,,,,,,,,,,,,,,,,,,,,,,,,,,,,,,,,,,,,,,,,,,,,,,,,,
1720513383,47,0,4175.256348,4235.512695,4275.897461,4272.179688,4279.743652,4267.307617,4265.512695,4277.94873,4259.743652,4251.666504,4442.692383,4442.563965,4329.615234,4366.922852,,,,,,,,,,,,,,,,,,,,,,,,,,,,,,,,,,,,,,,,,,,,,,,,,,,,,,,,,,,,,,,,,,,,,,
1720513383,48,0,4189.615234,4250.256348,4286.282227,4283.974121,4281.410156,4264.743652,4261.282227,4270.128418,4254.102539,4246.922852,4446.282227,4453.205078,4333.589844,4372.692383,,,,,,,,,,,,,,,,,,,,,,,,,,,,,,,,,,,,,,,,,,,,,,,,,,,,,,,,,,,,,,,,,,,,,,
1720513383,49,0,4197.692383,4255.512695,4295,4287.820313,4279.871582,4262.692383,4259.230957,4261.410156,4244.102539,4239.743652,4448.077148,4449.487305,4344.358887,4378.974121,,,,,,,,,,,,,,,,,,,,,,,,,,,,,,,,,,,,,,,,,,,,,,,,,,,,,,,,,,,,,,,,,,,,,,
1720513383,50,0,4194.230957,4245.512695,4301.410156,4278.205078,4277.307617,4266.282227,4261.410156,4267.436035,4244.102539,4242.820313,4455.256348,4448.717773,4347.94873,4383.205078,,,,,,,,,,,,,,,,,,,,,,,,,,,,,,,,,,,,,,,,,,,,,,,,,,,,,,,,,,,,,,,,,,,,,,
1720513383,51,0,4186.922852,4231.922852,4279.102539,4268.974121,4281.025879,4273.717773,4262.94873,4279.358887,4259.871582,4248.589844,4447.179688,4447.563965,4332.563965,4377.436035,,,,,,,,,,,,,,,,,,,,,,,,,,,,,,,,,,,,,,,,,,,,,,,,,,,,,,,,,,,,,,,,,,,,,,
1720513383,52,0,4173.974121,4223.974121,4255.641113,4265,4278.589844,4286.282227,4270.384766,4288.589844,4269.358887,4245.128418,4424.871582,4436.794922,4309.615234,4357.05127,,,,,,,,,,,,,,,,,,,,,,,,,,,,,,,,,,,,,,,,,,,,,,,,,,,,,,,,,,,,,,,,,,,,,,
1720513383,53,0,4167.563965,4213.077148,4264.102539,4259.743652,4266.282227,4292.563965,4283.077148,4297.179688,4267.05127,4241.666504,4421.922852,4433.717773,4305.256348,4351.153809,,,,,,,,,,,,,,,,,,,,,,,,,,,,,,,,,,,,,,,,,,,,,,,,,,,,,,,,,,,,,,,,,,,,,,
1720513383,54,0,4167.820313,4200.897461,4272.436035,4246.538574,4265.384766,4287.436035,4285.897461,4297.436035,4265.384766,4245.512695,4430.897461,4446.410156,4316.025879,4363.077148,,,,,,,,,,,,,,,,,,,,,,,,,,,,,,,,,,,,,,,,,,,,,,,,,,,,,,,,,,,,,,,,,,,,,,
1720513383,55,0,4164.871582,4201.538574,4254.487305,4241.794922,4269.358887,4279.487305,4273.461426,4282.692383,4259.102539,4240.128418,4424.743652,4442.94873,4317.05127,4363.205078,7.514415,17.36228,6.73029,0.560542,0.418398,4.083836,8.782687,4.373179,0.243421,0.302568,3.776294,17.480776,6.095754,0.548744,0.416731,3.153909,7.562913,4.546977,0.404993,0.329587,0.539711,1.031254,0.771357,0.199675,0.139128,1.94575,2.50208,0.835124,0.263361,0.078477,3.259519,1.527148,0.760237,0.281348,0.096089,4.701653,1.707275,2.635989,0.401661,0.166835,3.912324,4.459217,3.157878,0.493318,0.202444,1.45685,3.002559,1.188768,0.30437,0.150718,2.071439,14.779804,3.913042,0.53593,0.570231,3.216934,25.127502,4.220892,0.584914,0.481359,1.48297,13.143153,3.517678,0.60955,1.181908,3.544304,20.009781,4.671356,0.5901,0.5681
1720513383,56,0,4172.563965,4212.94873,4251.666504,4254.358887,4264.871582,4274.487305,4262.563965,4265.769043,4241.538574,4233.717773,4421.153809,4418.974121,4319.102539,4356.666504,,,,,,,,,,,,,,,,,,,,,,,,,,,,,,,,,,,,,,,,,,,,,,,,,,,,,,,,,,,,,,,,,,,,,,
1720513383,57,0,4192.692383,4224.358887,4273.205078,4265.256348,4268.205078,4271.794922,4262.436035,4260.384766,4229.487305,4233.461426,4427.94873,4419.487305,4332.179688,4367.820313,,,,,,,,,,,,,,,,,,,,,,,,,,,,,,,,,,,,,,,,,,,,,,,,,,,,,,,,,,,,,,,,,,,,,,
1720513383,58,0,4201.025879,4235.769043,4280.897461,4271.666504,4280.769043,4271.794922,4265.256348,4262.436035,4225.769043,4230.641113,4435.641113,4443.974121,4341.410156,4386.538574,,,,,,,,,,,,,,,,,,,,,,,,,,,,,,,,,,,,,,,,,,,,,,,,,,,,,,,,,,,,,,,,,,,,,,
1720513383,59,0,4196.666504,4240.256348,4285,4278.077148,4283.077148,4273.077148,4265.384766,4262.307617,4217.307617,4232.820313,4443.077148,4449.487305,4340.512695,4385.512695,,,,,,,,,,,,,,,,,,,,,,,,,,,,,,,,,,,,,,,,,,,,,,,,,,,,,,,,,,,,,,,,,,,,,,
1720513383,60,0,4202.179688,4234.871582,4293.974121,4281.666504,4279.358887,4272.820313,4264.102539,4262.436035,4220,4241.794922,4450.897461,4442.307617,4344.871582,4379.358887,,,,,,,,,,,,,,,,,,,,,,,,,,,,,,,,,,,,,,,,,,,,,,,,,,,,,,,,,,,,,,,,,,,,,,
1720513383,61,0,4204.102539,4234.871582,4290,4281.025879,4282.05127,4270.128418,4263.717773,4275.384766,4239.615234,4245,4453.974121,4449.487305,4348.717773,4384.230957,,,,,,,,,,,,,,,,,,,,,,,,,,,,,,,,,,,,,,,,,,,,,,,,,,,,,,,,,,,,,,,,,,,,,,
1720513383,62,0,4192.94873,4234.102539,4274.487305,4275.512695,4282.307617,4267.436035,4261.538574,4290.256348,4257.05127,4243.589844,4445.512695,4454.487305,4334.230957,4376.666504,,,,,,,,,,,,,,,,,,,,,,,,,,,,,,,,,,,,,,,,,,,,,,,,,,,,,,,,,,,,,,,,,,,,,,
1720513383,63,0,4170,4214.615234,4254.615234,4260.769043,4271.025879,4266.538574,4258.974121,4289.102539,4260.384766,4242.307617,4426.538574,4432.179688,4312.436035,4349.487305,,,,,,,,,,,,,,,,,,,,,,,,,,,,,,,,,,,,,,,,,,,,,,,,,,,,,,,,,,,,,,,,,,,,,,
1720513383,64,0,4149.615234,4195.641113,4241.538574,4241.538574,4259.230957,4272.436035,4260.512695,4280.384766,4254.743652,4233.077148,4409.230957,4409.743652,4299.358887,4332.436035,,,,,,,,,,,,,,,,,,,,,,,,,,,,,,,,,,,,,,,,,,,,,,,,,,,,,,,,,,,,,,,,,,,,,,
1720513383,65,0,4150.769043,4194.487305,4241.025879,4238.974121,4261.666504,4280.384766,4265.641113,4281.794922,4248.974121,4230,4406.538574,4409.230957,4297.692383,4334.487305,,,,,,,,,,,,,,,,,,,,,,,,,,,,,,,,,,,,,,,,,,,,,,,,,,,,,,,,,,,,,,,,,,,,,,
1720513383,66,0,4158.333496,4201.794922,4242.307617,4245.769043,4264.743652,4277.179688,4265.512695,4282.05127,4242.436035,4232.05127,4413.205078,4416.153809,4302.94873,4336.922852,,,,,,,,,,,,,,,,,,,,,,,,,,,,,,,,,,,,,,,,,,,,,,,,,,,,,,,,,,,,,,,,,,,,,,
1720513383,67,0,4176.794922,4207.436035,4250.256348,4246.922852,4259.871582,4266.025879,4258.205078,4271.025879,4230.512695,4226.666504,4421.410156,4426.153809,4315,4347.820313,,,,,,,,,,,,,,,,,,,,,,,,,,,,,,,,,,,,,,,,,,,,,,,,,,,,,,,,,,,,,,,,,,,,,,
1720513383,68,0,4197.179688,4215.641113,4268.589844,4252.05127,4260.384766,4257.820313,4250.769043,4258.717773,4216.153809,4226.410156,4427.436035,4433.205078,4325.256348,4364.358887,,,,,,,,,,,,,,,,,,,,,,,,,,,,,,,,,,,,,,,,,,,,,,,,,,,,,,,,,,,,,,,,,,,,,,
1720513383,69,0,4195.769043,4228.077148,4277.692383,4265.512695,4264.615234,4253.205078,4246.282227,4254.230957,4208.461426,4230.512695,4434.615234,4435.769043,4326.794922,4368.333496,,,,,,,,,,,,,,,,,,,,,,,,,,,,,,,,,,,,,,,,,,,,,,,,,,,,,,,,,,,,,,,,,,,,,,
1720513383,70,0,4192.179688,4231.282227,4280.128418,4270.256348,4264.358887,4253.717773,4248.461426,4263.717773,4212.820313,4232.436035,4455,4443.589844,4334.358887,4370.512695,,,,,,,,,,,,,,,,,,,,,,,,,,,,,,,,,,,,,,,,,,,,,,,,,,,,,,,,,,,,,,,,,,,,,,
1720513383,71,0,4202.436035,4223.974121,4288.077148,4267.179688,4264.358887,4256.538574,4255.384766,4285,4230.384766,4236.153809,4464.487305,4455.512695,4341.794922,4374.230957,7.238194,16.399574,7.614473,0.538359,0.373094,3.938922,8.327115,4.577822,0.306455,0.295827,3.475991,16.407804,6.739463,0.457004,0.443666,2.951565,6.917746,4.725746,0.452716,0.335497,0.551851,1.126122,0.710206,0.19538,0.135231,1.710347,2.787534,1.083308,0.25382,0.077862,3.119045,1.962616,1.031509,0.30578,0.100901,4.724998,2.46729,3.39664,0.434517,0.154715,4.02685,5.576366,3.588392,0.526472,0.190416,1.340319,3.316675,1.266461,0.298575,0.148414,2.199468,13.713859,4.302643,0.559326,0.51584,2.894408,23.015568,4.250086,0.467081,0.433021,1.262718,12.464719,4.401666,0.588824,1.099388,2.891809,18.597082,5.303472,0.503871,0.510918
1720513383,72,0,4200,4218.589844,4282.436035,4265.128418,4264.871582,4257.563965,4259.358887,4295.256348,4243.974121,4236.794922,4447.692383,4457.436035,4325,4362.436035,,,,,,,,,,,,,,,,,,,,,,,,,,,,,,,,,,,,,,,,,,,,,,,,,,,,,,,,,,,,,,,,,,,,,,
1720513383,73,0,4177.820313,4212.820313,4262.94873,4254.358887,4264.358887,4266.410156,4261.538574,4287.05127,4238.846191,4232.179688,4437.94873,4443.333496,4301.153809,4341.025879,,,,,,,,,,,,,,,,,,,,,,,,,,,,,,,,,,,,,,,,,,,,,,,,,,,,,,,,,,,,,,,,,,,,,,
1720513383,74,0,4169.615234,4208.717773,4253.974121,4244.615234,4265.512695,4277.179688,4260.897461,4281.282227,4226.794922,4225.641113,4444.102539,4422.692383,4297.307617,4331.410156,,,,,,,,,,,,,,,,,,,,,,,,,,,,,,,,,,,,,,,,,,,,,,,,,,,,,,,,,,,,,,,,,,,,,,
1720513383,75,0,4168.461426,4212.94873,4247.94873,4247.820313,4265.641113,4270.512695,4253.846191,4277.307617,4221.794922,4217.307617,4433.974121,4406.025879,4292.179688,4323.846191,,,,,,,,,,,,,,,,,,,,,,,,,,,,,,,,,,,,,,,,,,,,,,,,,,,,,,,,,,,,,,,,,,,,,,
1720513383,76,0,4158.717773,4214.871582,4236.153809,4249.487305,4263.589844,4260.128418,4247.94873,4261.410156,4214.615234,4216.922852,4416.666504,4406.794922,4281.538574,4313.461426,,,,,,,,,,,,,,,,,,,,,,,,,,,,,,,,,,,,,,,,,,,,,,,,,,,,,,,,,,,,,,,,,,,,,,
1720513383,77,0,4154.743652,4212.820313,4233.077148,4247.563965,4265.256348,4262.563965,4247.05127,4250.512695,4204.102539,4229.487305,4421.025879,4411.794922,4290.897461,4315.256348,,,,,,,,,,,,,,,,,,,,,,,,,,,,,,,,,,,,,,,,,,,,,,,,,,,,,,,,,,,,,,,,,,,,,,
1720513383,78,0,4165.128418,4216.922852,4243.974121,4253.846191,4267.307617,4263.974121,4246.922852,4254.615234,4200.769043,4235.384766,4433.717773,4409.743652,4309.743652,4324.871582,,,,,,,,,,,,,,,,,,,,,,,,,,,,,,,,,,,,,,,,,,,,,,,,,,,,,,,,,,,,,,,,,,,,,,
1720513383,79,0,4179.615234,4220.256348,4255,4262.179688,4266.025879,4262.692383,4246.666504,4259.230957,4199.487305,4231.153809,4435.641113,4417.563965,4314.743652,4334.743652,,,,,,,,,,,,,,,,,,,,,,,,,,,,,,,,,,,,,,,,,,,,,,,,,,,,,,,,,,,,,,,,,,,,,,
1720513383,80,0,4183.333496,4223.974121,4261.794922,4262.05127,4265.641113,4262.94873,4248.077148,4260.128418,4204.230957,4230.769043,4433.846191,4430.256348,4313.717773,4342.179688,,,,,,,,,,,,,,,,,,,,,,,,,,,,,,,,,,,,,,,,,,,,,,,,,,,,,,,,,,,,,,,,,,,,,,
1720513383,81,0,4185.512695,4229.743652,4268.077148,4260.769043,4266.282227,4261.922852,4248.846191,4267.307617,4216.282227,4237.563965,4433.333496,4430.384766,4315.256348,4338.205078,,,,,,,,,,,,,,,,,,,,,,,,,,,,,,,,,,,,,,,,,,,,,,,,,,,,,,,,,,,,,,,,,,,,,,
1720513383,82,0,4181.538574,4225.128418,4263.846191,4264.615234,4265,4266.666504,4247.94873,4276.410156,4222.179688,4240.128418,4431.922852,4421.794922,4308.846191,4326.922852,,,,,,,,,,,,,,,,,,,,,,,,,,,,,,,,,,,,,,,,,,,,,,,,,,,,,,,,,,,,,,,,,,,,,,
1720513383,83,0,4165.641113,4216.666504,4246.025879,4261.025879,4265.769043,4277.179688,4248.205078,4281.282227,4221.025879,4236.794922,4427.179688,4420.769043,4297.436035,4321.794922,,,,,,,,,,,,,,,,,,,,,,,,,,,,,,,,,,,,,,,,,,,,,,,,,,,,,,,,,,,,,,,,,,,,,,
1720513383,84,0,4155.769043,4213.589844,4230.769043,4247.94873,4266.666504,4280.128418,4253.461426,4280.128418,4215.641113,4231.282227,4418.974121,4416.922852,4290.897461,4317.179688,,,,,,,,,,,,,,,,,,,,,,,,,,,,,,,,,,,,,,,,,,,,,,,,,,,,,,,,,,,,,,,,,,,,,,
1720513383,85,0,4158.333496,4211.410156,4236.153809,4240.769043,4264.230957,4278.589844,4261.794922,4279.358887,4205.641113,4225.384766,4410.641113,4407.563965,4292.307617,4316.410156,,,,,,,,,,,,,,,,,,,,,,,,,,,,,,,,,,,,,,,,,,,,,,,,,,,,,,,,,,,,,,,,,,,,,,
1720513383,86,0,4169.743652,4213.205078,4248.974121,4244.615234,4263.205078,4280.897461,4265.128418,4279.102539,4201.538574,4226.153809,4419.358887,4416.025879,4303.974121,4331.794922,,,,,,,,,,,,,,,,,,,,,,,,,,,,,,,,,,,,,,,,,,,,,,,,,,,,,,,,,,,,,,,,,,,,,,
1720513383,87,0,4181.410156,4224.358887,4247.94873,4253.333496,4263.589844,4274.871582,4264.102539,4271.282227,4199.358887,4231.538574,4440.256348,4436.410156,4316.794922,4343.589844,6.055314,14.369499,8.614113,0.564721,0.336193,3.322824,7.446579,4.906112,0.390899,0.285871,2.955038,14.333488,7.705327,0.389183,0.471351,2.450607,5.939123,4.928075,0.515457,0.333219,0.537943,1.1693,0.652465,0.183562,0.130848,1.512234,3.328924,1.57553,0.243714,0.079427,2.801129,2.607805,1.526098,0.344607,0.10865,4.230507,3.176725,4.393527,0.501349,0.142265,3.47271,6.394073,4.211786,0.560978,0.17398,1.112944,3.693401,1.350478,0.286384,0.150179,2.33138,11.728362,4.581655,0.591254,0.465589,2.401369,19.387962,4.274898,0.378627,0.396242,1.173202,10.930415,5.578468,0.595691,0.968535,2.18608,15.698896,6.020351,0.464463,0.464664
1720513383,88,0,4190.384766,4232.563965,4251.410156,4259.871582,4262.436035,4264.743652,4261.025879,4260.384766,4184.615234,4235,4445.769043,4442.436035,4324.871582,4344.102539,,,,,,,,,,,,,,,,,,,,,,,,,,,,,,,,,,,,,,,,,,,,,,,,,,,,,,,,,,,,,,,,,,,,,,
1720513383,89,0,4202.563965,4229.871582,4267.94873,4263.846191,4262.563965,4258.974121,4254.743652,4260.256348,4182.307617,4240.769043,4442.563965,4440.128418,4331.794922,4349.871582,,,,,,,,,,,,,,,,,,,,,,,,,,,,,,,,,,,,,,,,,,,,,,,,,,,,,,,,,,,,,,,,,,,,,,
1720513383,90,0,4211.025879,4229.230957,4268.077148,4265.897461,4263.333496,4250.769043,4247.307617,4270.512695,4198.077148,4249.487305,4449.102539,4446.538574,4335.641113,4355.384766,,,,,,,,,,,,,,,,,,,,,,,,,,,,,,,,,,,,,,,,,,,,,,,,,,,,,,,,,,,,,,,,,,,,,,
1720513383,91,0,4193.077148,4230.897461,4253.461426,4259.871582,4264.230957,4250,4248.974121,4279.102539,4206.666504,4250.641113,4442.820313,4445,4325.769043,4346.282227,,,,,,,,,,,,,,,,,,,,,,,,,,,,,,,,,,,,,,,,,,,,,,,,,,,,,,,,,,,,,,,,,,,,,,
1720513383,92,0,4167.692383,4219.871582,4245.641113,4249.230957,4266.153809,4265.769043,4258.846191,4287.179688,4209.871582,4250.384766,4425,4430,4313.333496,4334.102539,,,,,,,,,,,,,,,,,,,,,,,,,,,,,,,,,,,,,,,,,,,,,,,,,,,,,,,,,,,,,,,,,,,,,,
1720513383,93,0,4166.538574,4203.333496,4238.077148,4245.641113,4266.282227,4278.974121,4264.743652,4291.410156,4217.05127,4249.743652,4418.333496,4423.461426,4308.846191,4328.589844,,,,,,,,,,,,,,,,,,,,,,,,,,,,,,,,,,,,,,,,,,,,,,,,,,,,,,,,,,,,,,,,,,,,,,
1720513383,94,0,4167.307617,4200.256348,4235.641113,4247.692383,4263.717773,4280.769043,4265,4287.692383,4217.307617,4239.487305,4411.410156,4428.589844,4301.922852,4321.410156,,,,,,,,,,,,,,,,,,,,,,,,,,,,,,,,,,,,,,,,,,,,,,,,,,,,,,,,,,,,,,,,,,,,,,
1720513383,95,0,4162.05127,4202.563965,4245.641113,4246.794922,4263.461426,4282.436035,4264.487305,4279.871582,4209.358887,4234.743652,4402.820313,4430.256348,4292.05127,4315.128418,,,,,,,,,,,,,,,,,,,,,,,,,,,,,,,,,,,,,,,,,,,,,,,,,,,,,,,,,,,,,,,,,,,,,,
1720513383,96,0,4174.358887,4197.820313,4248.589844,4243.205078,4264.615234,4284.358887,4263.333496,4268.589844,4200.128418,4241.282227,4407.94873,4422.692383,4290.256348,4319.102539,,,,,,,,,,,,,,,,,,,,,,,,,,,,,,,,,,,,,,,,,,,,,,,,,,,,,,,,,,,,,,,,,,,,,,
1720513383,97,0,4188.589844,4196.794922,4247.436035,4245.769043,4266.282227,4284.358887,4270.769043,4262.436035,4191.666504,4245.384766,4419.743652,4420.897461,4303.974121,4330.128418,,,,,,,,,,,,,,,,,,,,,,,,,,,,,,,,,,,,,,,,,,,,,,,,,,,,,,,,,,,,,,,,,,,,,,
1720513384,98,0,4183.846191,4206.538574,4258.717773,4254.487305,4268.077148,4280.897461,4279.743652,4262.436035,4186.282227,4244.871582,4427.307617,4432.436035,4316.666504,4336.794922,,,,,,,,,,,,,,,,,,,,,,,,,,,,,,,,,,,,,,,,,,,,,,,,,,,,,,,,,,,,,,,,,,,,,,
1720513384,99,0,4185,4221.922852,4271.153809,4262.820313,4270.384766,4276.282227,4273.461426,4259.743652,4181.794922,4244.743652,4430.769043,4445,4315.769043,4341.282227,,,,,,,,,,,,,,,,,,,,,,,,,,,,,,,,,,,,,,,,,,,,,,,,,,,,,,,,,,,,,,,,,,,,,,
1720513384,100,0,4206.153809,4232.563965,4276.794922,4273.205078,4274.487305,4276.282227,4265,4255,4181.025879,4242.05127,4429.358887,4450.128418,4316.922852,4349.871582,,,,,,,,,,,,,,,,,,,,,,,,,,,,,,,,,,,,,,,,,,,,,,,,,,,,,,,,,,,,,,,,,,,,,,
1720513384,101,0,4222.94873,4237.179688,4278.461426,4283.205078,4275.897461,4270.384766,4263.077148,4260.641113,4190.128418,4248.717773,4431.282227,4446.922852,4326.025879,4356.282227,,,,,,,,,,,,,,,,,,,,,,,,,,,,,,,,,,,,,,,,,,,,,,,,,,,,,,,,,,,,,,,,,,,,,,
1720513384,102,0,4219.102539,4240.128418,4273.205078,4285,4274.871582,4265.256348,4260,4276.282227,4201.538574,4263.205078,4435.384766,4443.846191,4326.410156,4355.769043,,,,,,,,,,,,,,,,,,,,,,,,,,,,,,,,,,,,,,,,,,,,,,,,,,,,,,,,,,,,,,,,,,,,,,
1720513384,103,0,4211.025879,4230.256348,4267.307617,4276.666504,4273.205078,4277.307617,4266.538574,4287.436035,4206.794922,4260.128418,4419.871582,4442.436035,4309.358887,4344.230957,4.960814,12.102027,9.92657,0.631198,0.308136,2.731495,6.49654,5.463399,0.478361,0.271077,2.476375,12.063285,9.141399,0.360808,0.505799,1.9084,4.987023,5.201321,0.579211,0.32455,0.49422,1.191749,0.61093,0.169983,0.125809,1.526878,4.089062,2.277649,0.245989,0.083546,2.49432,3.417636,2.232885,0.400129,0.118232,3.483308,3.617654,5.501911,0.584502,0.133239,2.758051,6.650235,4.979618,0.579704,0.157058,0.859109,4.034102,1.459801,0.264204,0.15245,2.418694,9.515771,4.877507,0.619183,0.419243,1.921807,15.342484,4.485921,0.344233,0.384016,1.214157,9.15084,7.146111,0.614023,0.80448,1.657639,12.310786,6.974373,0.473315,0.43167
1720513384,104,0,4198.589844,4215.641113,4256.282227,4266.025879,4272.563965,4289.871582,4277.94873,4287.179688,4200.897461,4245.256348,4401.410156,4429.487305,4292.436035,4326.538574,,,,,,,,,,,,,,,,,,,,,,,,,,,,,,,,,,,,,,,,,,,,,,,,,,,,,,,,,,,,,,,,,,,,,,
1720513384,105,0,4185.769043,4215,4243.974121,4258.589844,4272.179688,4292.820313,4278.846191,4278.717773,4189.871582,4239.743652,4405.769043,4416.922852,4288.205078,4318.974121,,,,,,,,,,,,,,,,,,,,,,,,,,,,,,,,,,,,,,,,,,,,,,,,,,,,,,,,,,,,,,,,,,,,,,
1720513384,106,0,4189.743652,4215.769043,4243.077148,4254.358887,4272.692383,4293.974121,4280.256348,4273.077148,4186.538574,4245,4412.307617,4421.666504,4295.384766,4323.205078,,,,,,,,,,,,,,,,,,,,,,,,,,,,,,,,,,,,,,,,,,,,,,,,,,,,,,,,,,,,,,,,,,,,,,
1720513384,107,0,4197.179688,4211.922852,4241.538574,4256.666504,4272.05127,4286.153809,4276.794922,4261.410156,4181.922852,4248.077148,4405.128418,4423.333496,4305.256348,4327.820313,,,,,,,,,,,,,,,,,,,,,,,,,,,,,,,,,,,,,,,,,,,,,,,,,,,,,,,,,,,,,,,,,,,,,,
1720513384,108,0,4201.666504,4218.974121,4253.974121,4265.641113,4272.179688,4276.153809,4267.05127,4247.05127,4169.615234,4248.461426,4410.769043,4425.384766,4315.769043,4339.871582,,,,,,,,,,,,,,,,,,,,,,,,,,,,,,,,,,,,,,,,,,,,,,,,,,,,,,,,,,,,,,,,,,,,,,
1720513384,109,0,4222.436035,4230.512695,4286.282227,4277.307617,4276.025879,4278.461426,4270.128418,4251.410156,4170.641113,4248.589844,4437.563965,4448.717773,4327.436035,4359.871582,,,,,,,,,,,,,,,,,,,,,,,,,,,,,,,,,,,,,,,,,,,,,,,,,,,,,,,,,,,,,,,,,,,,,,
1720513384,110,0,4239.102539,4231.538574,4290.512695,4281.410156,4271.410156,4275.128418,4277.94873,4264.615234,4184.358887,4250.769043,4446.282227,4465.769043,4330.384766,4364.230957,,,,,,,,,,,,,,,,,,,,,,,,,,,,,,,,,,,,,,,,,,,,,,,,,,,,,,,,,,,,,,,,,,,,,,
1720513384,111,0,4233.205078,4232.692383,4272.436035,4280.897461,4266.922852,4263.461426,4273.077148,4267.563965,4188.974121,4258.077148,4434.102539,4463.589844,4326.538574,4362.563965,,,,,,,,,,,,,,,,,,,,,,,,,,,,,,,,,,,,,,,,,,,,,,,,,,,,,,,,,,,,,,,,,,,,,,
1720513384,112,0,4230.897461,4236.153809,4278.589844,4282.05127,4269.102539,4259.871582,4264.358887,4268.461426,4191.538574,4257.563965,4432.563965,4462.94873,4324.871582,4365.641113,,,,,,,,,,,,,,,,,,,,,,,,,,,,,,,,,,,,,,,,,,,,,,,,,,,,,,,,,,,,,,,,,,,,,,
1720513384,113,0,4233.077148,4234.615234,4286.538574,4280.512695,4267.436035,4263.717773,4262.820313,4277.307617,4200.512695,4247.05127,4436.410156,4461.922852,4325.256348,4361.922852,,,,,,,,,,,,,,,,,,,,,,,,,,,,,,,,,,,,,,,,,,,,,,,,,,,,,,,,,,,,,,,,,,,,,,
1720513384,114,0,4230.128418,4234.487305,4277.94873,4283.205078,4268.974121,4271.794922,4262.692383,4281.794922,4202.436035,4245.641113,4432.307617,4461.538574,4325.128418,4361.025879,,,,,,,,,,,,,,,,,,,,,,,,,,,,,,,,,,,,,,,,,,,,,,,,,,,,,,,,,,,,,,,,,,,,,,
1720513384,115,0,4230.897461,4232.94873,4276.794922,4282.563965,4273.589844,4280.384766,4263.589844,4274.230957,4194.615234,4252.05127,4426.922852,4459.230957,4318.205078,4363.717773,,,,,,,,,,,,,,,,,,,,,,,,,,,,,,,,,,,,,,,,,,,,,,,,,,,,,,,,,,,,,,,,,,,,,,
