Timestamp,EEG.Counter,EEG.Interpolated,EEG.AF3,EEG.F7,EEG.F3,EEG.FC5,EEG.T7,EEG.P7,EEG.O1,EEG.O2,EEG.P8,EEG.T8,EEG.FC6,EEG.F4,EEG.F8,EEG.AF4,POW.AF3.Theta,POW.AF3.Alpha,POW.AF3.BetaL,POW.AF3.BetaH,POW.AF3.Gamma,POW.F7.Theta,POW.F7.Alpha,POW.F7.BetaL,POW.F7.BetaH,POW.F7.Gamma,POW.F3.Theta,POW.F3.Alpha,POW.F3.BetaL,POW.F3.BetaH,POW.F3.Gamma,POW.FC5.Theta,POW.FC5.Alpha,POW.FC5.BetaL,POW.FC5.BetaH,POW.FC5.Gamma,POW.T7.Theta,POW.T7.Alpha,POW.T7.BetaL,POW.T7.BetaH,POW.T7.Gamma,POW.P7.Theta,POW.P7.Alpha,POW.P7.BetaL,POW.P7.BetaH,POW.P7.Gamma,POW.O1.Theta,POW.O1.Alpha,POW.O1.BetaL,POW.O1.BetaH,POW.O1.Gamma,POW.O2.Theta,POW.O2.Alpha,POW.O2.BetaL,POW.O2.BetaH,POW.O2.Gamma,POW.P8.Theta,POW.P8.Alpha,POW.P8.BetaL,POW.P8.BetaH,POW.P8.Gamma,POW.T8.Theta,POW.T8.Alpha,POW.T8.BetaL,POW.T8.BetaH,POW.T8.Gamma,POW.FC6.Theta,POW.FC6.Alpha,POW.FC6.BetaL,POW.FC6.BetaH,POW.FC6.Gamma,POW.F4.Theta,POW.F4.Alpha,POW.F4.BetaL,POW.F4.BetaH,POW.F4.Gamma,POW.F8.Theta,POW.F8.Alpha,POW.F8.BetaL,POW.F8.BetaH,POW.F8.Gamma,POW.AF4.Theta,POW.AF4.Alpha,POW.AF4.BetaL,POW.AF4.BetaH,POW.AF4.Gamma
1720079815,30,0,4431.410156,4404.358887,4296.025879,4341.153809,4457.307617,4397.436035,4445,4428.589844,4407.563965,4396.922852,4246.025879,4425.641113,4286.153809,4215.897461,,,,,,,,,,,,,,,,,,,,,,,,,,,,,,,,,,,,,,,,,,,,,,,,,,,,,,,,,,,,,,,,,,,,,,
1720079815,31,0,4436.922852,4408.717773,4302.307617,4342.820313,4452.820313,4393.717773,4433.846191,4421.538574,4398.589844,4396.282227,4244.230957,4427.179688,4289.487305,4216.666504,,,,,,,,,,,,,,,,,,,,,,,,,,,,,,,,,,,,,,,,,,,,,,,,,,,,,,,,,,,,,,,,,,,,,,
1720079815,32,0,4443.717773,4410.641113,4312.05127,4341.922852,4442.94873,4388.461426,4429.230957,4426.922852,4407.307617,4406.153809,4258.333496,4436.922852,4299.102539,4223.846191,11.512326,0.997832,1.71906,0.593549,0.175464,1.621593,0.468969,1.093286,0.416823,0.276581,8.694338,3.935987,2.652321,1.028359,0.181871,1.854217,0.664111,1.548203,0.599901,0.375931,0.840554,0.194484,0.477483,2.21701,0.879262,5.294803,1.837308,1.089778,0.24769,0.141038,0.725533,1.519493,1.959919,0.336651,0.236281,0.451875,1.058275,2.201896,0.314894,0.168926,0.798709,0.728944,1.125026,0.494492,0.20722,0.985699,0.5045,0.8045,0.269656,0.189259,2.229102,0.437291,1.750024,0.728002,0.359588,3.2426,1.489049,1.750963,0.525973,0.198958,2.501223,0.673545,1.112394,0.516607,0.270939,4.617594,0.892419,1.430135,0.46702,0.261604
1720079815,33,0,4442.820313,4412.179688,4313.077148,4343.974121,4423.589844,4378.846191,4427.563965,4438.461426,4412.692383,4402.820313,4266.538574,4445,4303.974121,4231.153809,,,,,,,,,,,,,,,,,,,,,,,,,,,,,,,,,,,,,,,,,,,,,,,,,,,,,,,,,,,,,,,,,,,,,,
1720079815,34,0,4436.794922,4411.153809,4305.769043,4343.461426,4427.563965,4368.589844,4424.615234,4435,4406.025879,4395.384766,4260.128418,4444.743652,4304.487305,4230.897461,,,,,,,,,,,,,,,,,,,,,,,,,,,,,,,,,,,,,,,,,,,,,,,,,,,,,,,,,,,,,,,,,,,,,,
1720079815,35,0,4433.717773,4406.153809,4304.615234,4332.820313,4454.230957,4369.871582,4425.769043,4431.538574,4410.641113,4403.974121,4259.743652,4442.436035,4308.974121,4231.538574,,,,,,,,,,,,,,,,,,,,,,,,,,,,,,,,,,,,,,,,,,,,,,,,,,,,,,,,,,,,,,,,,,,,,,
1720079815,36,0,4430.512695,4402.05127,4304.358887,4322.820313,4456.922852,4370.256348,4424.743652,4432.436035,4416.153809,4407.820313,4256.666504,4435.769043,4308.205078,4231.025879,,,,,,,,,,,,,,,,,,,,,,,,,,,,,,,,,,,,,,,,,,,,,,,,,,,,,,,,,,,,,,,,,,,,,,
1720079815,37,0,4428.846191,4395.769043,4304.871582,4326.153809,4435.128418,4363.333496,4418.333496,4431.666504,4416.153809,4398.461426,4250,4430.641113,4302.179688,4226.410156,,,,,,,,,,,,,,,,,,,,,,,,,,,,,,,,,,,,,,,,,,,,,,,,,,,,,,,,,,,,,,,,,,,,,,
1720079815,38,0,4423.589844,4380.769043,4308.205078,4327.820313,4431.922852,4365.512695,4412.05127,4431.922852,4420.256348,4395,4249.871582,4427.563965,4297.820313,4219.743652,,,,,,,,,,,,,,,,,,,,,,,,,,,,,,,,,,,,,,,,,,,,,,,,,,,,,,,,,,,,,,,,,,,,,,
1720079815,39,0,4412.05127,4370.256348,4303.589844,4321.666504,4436.922852,4378.461426,4416.282227,4421.410156,4411.794922,4392.436035,4235.897461,4413.461426,4287.820313,4205.641113,,,,,,,,,,,,,,,,,,,,,,,,,,,,,,,,,,,,,,,,,,,,,,,,,,,,,,,,,,,,,,,,,,,,,,
1720079815,40,0,4412.692383,4378.205078,4302.820313,4327.94873,4425.384766,4387.820313,4428.333496,4401.922852,4390,4381.794922,4212.307617,4399.487305,4276.666504,4197.436035,,,,,,,,,,,,,,,,,,,,,,,,,,,,,,,,,,,,,,,,,,,,,,,,,,,,,,,,,,,,,,,,,,,,,,
1720079815,41,0,4428.846191,4391.666504,4311.922852,4343.846191,4418.846191,4383.205078,4428.846191,4400,4385.128418,4376.666504,4216.666504,4406.538574,4276.153809,4210.769043,,,,,,,,,,,,,,,,,,,,,,,,,,,,,,,,,,,,,,,,,,,,,,,,,,,,,,,,,,,,,,,,,,,,,,
1720079815,42,0,4440.256348,4398.589844,4312.94873,4352.05127,4430.256348,4373.077148,4414.487305,4410,4393.333496,4381.282227,4226.410156,4414.102539,4278.333496,4220.769043,,,,,,,,,,,,,,,,,,,,,,,,,,,,,,,,,,,,,,,,,,,,,,,,,,,,,,,,,,,,,,,,,,,,,,
1720079815,43,0,4442.307617,4400,4307.307617,4355.897461,4436.410156,4369.487305,4408.461426,4408.205078,4391.666504,4380,4220.769043,4409.358887,4277.307617,4216.922852,,,,,,,,,,,,,,,,,,,,,,,,,,,,,,,,,,,,,,,,,,,,,,,,,,,,,,,,,,,,,,,,,,,,,,
1720079815,44,0,4449.743652,4403.846191,4313.333496,4362.179688,4424.230957,4366.922852,4414.743652,4410.512695,4388.974121,4378.717773,4227.05127,4416.922852,4280.128418,4223.974121,,,,,,,,,,,,,,,,,,,,,,,,,,,,,,,,,,,,,,,,,,,,,,,,,,,,,,,,,,,,,,,,,,,,,,
1720079815,45,0,4456.153809,4411.025879,4316.153809,4371.025879,4423.461426,4363.717773,4414.102539,4418.974121,4395.641113,4383.461426,4238.461426,4423.717773,4283.205078,4233.461426,,,,,,,,,,,,,,,,,,,,,,,,,,,,,,,,,,,,,,,,,,,,,,,,,,,,,,,,,,,,,,,,,,,,,,
1720079815,46,0,4457.436035,4414.615234,4311.922852,4378.077148,4437.94873,4366.025879,4408.717773,4413.974121,4396.282227,4383.974121,4234.743652,4419.102539,4281.025879,4235.384766,,,,,,,,,,,,,,,,,,,,,,,,,,,,,,,,,,,,,,,,,,,,,,,,,,,,,,,,,,,,,,,,,,,,,,
1720079815,47,0,4462.307617,4413.077148,4323.589844,4382.436035,4431.794922,4367.05127,4408.846191,4406.794922,4391.538574,4382.94873,4230.256348,4424.871582,4279.615234,4238.974121,,,,,,,,,,,,,,,,,,,,,,,,,,,,,,,,,,,,,,,,,,,,,,,,,,,,,,,,,,,,,,,,,,,,,,
1720079815,48,0,4464.358887,4412.179688,4337.820313,4388.077148,4415.769043,4363.589844,4407.436035,4410,4391.794922,4384.615234,4231.410156,4433.077148,4278.461426,4239.102539,7.368723,0.780845,1.583383,0.676234,0.180533,1.5884,0.542502,1.07983,0.500849,0.28308,8.664888,4.033334,2.842311,1.087248,0.170169,2.276012,0.541289,1.472507,0.655385,0.376168,0.862834,0.157752,0.717696,2.420928,0.863956,6.356935,2.188593,1.505587,0.282927,0.144609,0.696463,1.812507,3.160088,0.31379,0.218707,0.43331,1.353831,3.814029,0.41526,0.177367,0.708784,0.816237,1.630174,0.499139,0.205349,0.844008,0.437585,0.954236,0.250863,0.177101,1.490786,0.498538,1.996227,0.610367,0.350543,2.434975,1.507098,1.807539,0.475379,0.216043,1.423727,0.664805,1.288667,0.525321,0.287507,2.901062,0.972854,1.59827,0.477426,0.274046
1720079815,49,0,4460.641113,4411.666504,4339.230957,4395.384766,4420.641113,4368.205078,4403.589844,4417.436035,4400.256348,4386.922852,4231.282227,4429.487305,4277.307617,4239.102539,,,,,,,,,,,,,,,,,,,,,,,,,,,,,,,,,,,,,,,,,,,,,,,,,,,,,,,,,,,,,,,,,,,,,,
1720079815,50,0,4460.512695,4412.94873,4341.922852,4398.717773,4439.871582,4382.692383,4406.794922,4418.461426,4412.692383,4389.615234,4234.871582,4430.512695,4280.256348,4248.205078,,,,,,,,,,,,,,,,,,,,,,,,,,,,,,,,,,,,,,,,,,,,,,,,,,,,,,,,,,,,,,,,,,,,,,
1720079815,51,0,4464.358887,4413.205078,4345.641113,4396.153809,4447.307617,4393.974121,4411.282227,4411.794922,4412.820313,4391.153809,4235.769043,4430,4277.820313,4247.94873,,,,,,,,,,,,,,,,,,,,,,,,,,,,,,,,,,,,,,,,,,,,,,,,,,,,,,,,,,,,,,,,,,,,,,
1720079815,52,0,4459.358887,4408.717773,4339.743652,4394.615234,4438.974121,4402.692383,4410.769043,4403.717773,4394.358887,4385.512695,4228.333496,4416.282227,4266.153809,4232.436035,,,,,,,,,,,,,,,,,,,,,,,,,,,,,,,,,,,,,,,,,,,,,,,,,,,,,,,,,,,,,,,,,,,,,,
1720079815,53,0,4456.282227,4407.436035,4334.230957,4403.077148,4435.384766,4410.256348,4416.666504,4404.871582,4387.179688,4384.871582,4227.94873,4416.025879,4260.512695,4231.153809,,,,,,,,,,,,,,,,,,,,,,,,,,,,,,,,,,,,,,,,,,,,,,,,,,,,,,,,,,,,,,,,,,,,,,
1720079815,54,0,4469.615234,4412.563965,4332.05127,4416.538574,4437.179688,4412.692383,4427.05127,4415.769043,4401.410156,4390.384766,4236.153809,4431.025879,4264.743652,4245.897461,,,,,,,,,,,,,,,,,,,,,,,,,,,,,,,,,,,,,,,,,,,,,,,,,,,,,,,,,,,,,,,,,,,,,,
1720079815,55,0,4475,4416.922852,4327.179688,4422.436035,4436.153809,4412.692383,4432.307617,4424.743652,4407.692383,4384.487305,4238.461426,4433.717773,4263.333496,4250.384766,,,,,,,,,,,,,,,,,,,,,,,,,,,,,,,,,,,,,,,,,,,,,,,,,,,,,,,,,,,,,,,,,,,,,,
1720079815,56,0,4465.512695,4416.153809,4325.384766,4418.205078,4439.615234,4415,4439.102539,4431.922852,4405.256348,4378.974121,4237.05127,4428.717773,4261.410156,4248.333496,,,,,,,,,,,,,,,,,,,,,,,,,,,,,,,,,,,,,,,,,,,,,,,,,,,,,,,,,,,,,,,,,,,,,,
1720079815,57,0,4464.871582,4412.563965,4326.153809,4413.717773,4449.358887,4414.230957,4445,4435.641113,4411.153809,4388.846191,4245,4435.769043,4269.102539,4255.641113,,,,,,,,,,,,,,,,,,,,,,,,,,,,,,,,,,,,,,,,,,,,,,,,,,,,,,,,,,,,,,,,,,,,,,
1720079815,58,0,4472.692383,4410.769043,4326.538574,4414.102539,4448.974121,4410.897461,4432.436035,4432.692383,4414.230957,4399.743652,4252.179688,4443.333496,4273.846191,4264.487305,,,,,,,,,,,,,,,,,,,,,,,,,,,,,,,,,,,,,,,,,,,,,,,,,,,,,,,,,,,,,,,,,,,,,,
1720079815,59,0,4474.871582,4412.94873,4329.102539,4419.358887,4442.05127,4413.077148,4414.871582,4421.538574,4409.871582,4398.846191,4249.102539,4437.820313,4276.153809,4263.974121,,,,,,,,,,,,,,,,,,,,,,,,,,,,,,,,,,,,,,,,,,,,,,,,,,,,,,,,,,,,,,,,,,,,,,
1720079815,60,0,4470.256348,4413.461426,4327.692383,4421.153809,4441.025879,4408.333496,4404.230957,4407.307617,4405,4394.487305,4243.846191,4431.410156,4278.077148,4261.666504,,,,,,,,,,,,,,,,,,,,,,,,,,,,,,,,,,,,,,,,,,,,,,,,,,,,,,,,,,,,,,,,,,,,,,
1720079815,61,0,4459.358887,4402.820313,4311.666504,4410.256348,4439.102539,4394.102539,4391.282227,4402.820313,4398.077148,4391.282227,4237.563965,4425.384766,4269.358887,4254.615234,,,,,,,,,,,,,,,,,,,,,,,,,,,,,,,,,,,,,,,,,,,,,,,,,,,,,,,,,,,,,,,,,,,,,,
1720079815,62,0,4443.974121,4389.102539,4295.256348,4402.307617,4428.589844,4397.692383,4396.410156,4412.94873,4398.846191,4383.205078,4228.974121,4415,4259.871582,4237.820313,,,,,,,,,,,,,,,,,,,,,,,,,,,,,,,,,,,,,,,,,,,,,,,,,,,,,,,,,,,,,,,,,,,,,,
1720079815,63,0,4434.358887,4384.102539,4293.846191,4408.333496,4418.077148,4415.512695,4428.461426,4427.179688,4410.769043,4378.205078,4226.666504,4410,4261.794922,4228.846191,,,,,,,,,,,,,,,,,,,,,,,,,,,,,,,,,,,,,,,,,,,,,,,,,,,,,,,,,,,,,,,,,,,,,,
1720079815,64,0,4433.205078,4384.615234,4294.871582,4413.589844,4425.384766,4425.128418,4450.641113,4435.256348,4417.692383,4383.589844,4230.128418,4421.538574,4262.820313,4237.692383,4.538381,0.81261,1.6272,0.785759,0.186134,1.503645,0.727366,1.220134,0.58354,0.287391,9.064691,4.142526,3.052554,1.120105,0.166643,2.710853,0.581238,1.513213,0.677441,0.353675,0.873682,0.121016,1.044458,2.485142,0.837857,7.727796,2.571117,1.965163,0.32661,0.150939,0.701687,2.308889,4.917017,0.312807,0.204076,0.427306,1.68082,5.836316,0.577174,0.197454,0.652205,0.881603,2.239955,0.527904,0.207998,0.727509,0.389741,1.09268,0.258775,0.179765,1.082307,0.636457,2.129681,0.507562,0.337134,1.896829,1.561186,1.798135,0.462276,0.242237,1.008007,0.769297,1.441555,0.544656,0.301689,2.125156,1.139009,1.782954,0.497013,0.28096
1720079815,65,0,4437.692383,4387.692383,4290.128418,4410.897461,4447.94873,4424.487305,4448.717773,4432.05127,4415.769043,4386.410156,4230.769043,4429.487305,4257.307617,4246.153809,,,,,,,,,,,,,,,,,,,,,,,,,,,,,,,,,,,,,,,,,,,,,,,,,,,,,,,,,,,,,,,,,,,,,,
1720079815,66,0,4444.230957,4391.410156,4292.436035,4415.256348,4452.692383,4422.179688,4442.563965,4422.436035,4414.487305,4380.512695,4233.461426,4421.282227,4258.717773,4245.769043,,,,,,,,,,,,,,,,,,,,,,,,,,,,,,,,,,,,,,,,,,,,,,,,,,,,,,,,,,,,,,,,,,,,,,
1720079815,67,0,4442.563965,4391.025879,4296.025879,4421.410156,4435.128418,4414.871582,4433.077148,4413.717773,4412.307617,4384.230957,4236.794922,4414.743652,4264.102539,4246.538574,,,,,,,,,,,,,,,,,,,,,,,,,,,,,,,,,,,,,,,,,,,,,,,,,,,,,,,,,,,,,,,,,,,,,,
1720079815,68,0,4438.974121,4391.922852,4292.05127,4419.487305,4430.897461,4407.94873,4416.025879,4410.641113,4410.128418,4397.307617,4235.641113,4419.102539,4265.897461,4248.077148,,,,,,,,,,,,,,,,,,,,,,,,,,,,,,,,,,,,,,,,,,,,,,,,,,,,,,,,,,,,,,,,,,,,,,
1720079815,69,0,4444.487305,4395,4300,4420.512695,4442.179688,4406.538574,4407.436035,4412.94873,4412.692383,4395.897461,4238.846191,4432.436035,4265.512695,4251.282227,,,,,,,,,,,,,,,,,,,,,,,,,,,,,,,,,,,,,,,,,,,,,,,,,,,,,,,,,,,,,,,,,,,,,,
1720079815,70,0,4455.512695,4400.256348,4324.615234,4430.769043,4436.410156,4408.077148,4416.282227,4414.615234,4409.743652,4388.333496,4247.692383,4444.743652,4266.153809,4261.666504,,,,,,,,,,,,,,,,,,,,,,,,,,,,,,,,,,,,,,,,,,,,,,,,,,,,,,,,,,,,,,,,,,,,,,
1720079815,71,0,4457.563965,4403.461426,4336.282227,4437.05127,4423.077148,4417.692383,4425.769043,4410.384766,4399.615234,4390.128418,4244.358887,4443.846191,4266.410156,4265.256348,,,,,,,,,,,,,,,,,,,,,,,,,,,,,,,,,,,,,,,,,,,,,,,,,,,,,,,,,,,,,,,,,,,,,,
1720079815,72,0,4440.641113,4385.897461,4319.358887,4422.692383,4432.820313,4426.794922,4426.538574,4410,4399.102539,4385.512695,4231.538574,4429.615234,4256.794922,4250.256348,,,,,,,,,,,,,,,,,,,,,,,,,,,,,,,,,,,,,,,,,,,,,,,,,,,,,,,,,,,,,,,,,,,,,,
1720079815,73,0,4419.871582,4366.282227,4293.846191,4406.153809,4445.641113,4430.641113,4432.563965,4421.410156,4409.358887,4377.692383,4226.794922,4416.666504,4240.128418,4233.589844,,,,,,,,,,,,,,,,,,,,,,,,,,,,,,,,,,,,,,,,,,,,,,,,,,,,,,,,,,,,,,,,,,,,,,
1720079815,74,0,4413.589844,4372.820313,4281.410156,4411.282227,4435.384766,4433.461426,4446.410156,4431.794922,4416.025879,4381.922852,4229.743652,4414.871582,4237.436035,4230.384766,,,,,,,,,,,,,,,,,,,,,,,,,,,,,,,,,,,,,,,,,,,,,,,,,,,,,,,,,,,,,,,,,,,,,,
1720079815,75,0,4412.563965,4379.102539,4271.922852,4414.487305,4427.05127,4432.05127,4450.128418,4431.794922,4415.897461,4383.333496,4230.256348,4414.230957,4244.102539,4228.077148,,,,,,,,,,,,,,,,,,,,,,,,,,,,,,,,,,,,,,,,,,,,,,,,,,,,,,,,,,,,,,,,,,,,,,
1720079815,76,0,4409.358887,4369.230957,4258.846191,4402.94873,4432.563965,4429.102539,4443.589844,4429.743652,4419.230957,4384.743652,4232.179688,4413.717773,4247.94873,4228.974121,,,,,,,,,,,,,,,,,,,,,,,,,,,,,,,,,,,,,,,,,,,,,,,,,,,,,,,,,,,,,,,,,,,,,,
1720079815,77,0,4415.384766,4375.512695,4256.538574,4403.205078,4433.717773,4427.05127,4443.461426,4431.794922,4421.153809,4392.563965,4236.794922,4422.307617,4254.358887,4242.179688,,,,,,,,,,,,,,,,,,,,,,,,,,,,,,,,,,,,,,,,,,,,,,,,,,,,,,,,,,,,,,,,,,,,,,
1720079815,78,0,4426.410156,4394.487305,4260.641113,4416.153809,4425.512695,4419.615234,4444.230957,4431.025879,4416.025879,4388.717773,4239.615234,4430.769043,4260.512695,4250.128418,,,,,,,,,,,,,,,,,,,,,,,,,,,,,,,,,,,,,,,,,,,,,,,,,,,,,,,,,,,,,,,,,,,,,,
1720079815,79,0,4433.589844,4397.563965,4262.436035,4421.666504,4419.615234,4413.333496,4434.615234,4418.333496,4410.384766,4380.512695,4244.487305,4427.820313,4260.897461,4250,,,,,,,,,,,,,,,,,,,,,,,,,,,,,,,,,,,,,,,,,,,,,,,,,,,,,,,,,,,,,,,,,,,,,,
1720079815,80,0,4438.846191,4396.410156,4270.384766,4425.897461,4431.794922,4423.717773,4430.641113,4412.820313,4410.128418,4390.512695,4247.820313,4430.256348,4261.666504,4256.410156,2.911871,1.067661,1.806248,0.876937,0.191532,1.391397,1.009771,1.458907,0.637611,0.285056,9.866586,4.303341,3.28541,1.126558,0.173529,3.156912,0.76453,1.641867,0.653477,0.314979,0.871166,0.091727,1.386108,2.380278,0.817739,9.218931,3.015308,2.348131,0.373475,0.15662,0.709986,3.087411,6.936362,0.352815,0.192381,0.441304,1.916761,7.876086,0.774917,0.224594,0.625984,0.924675,2.809114,0.572569,0.21897,0.631521,0.390503,1.173045,0.292145,0.196757,0.833742,0.880641,2.12863,0.454571,0.322811,1.556752,1.689604,1.691011,0.493223,0.273519,0.862948,1.020807,1.548975,0.571738,0.307608,1.765943,1.432167,1.948568,0.523134,0.281162
1720079815,81,0,4444.487305,4400.512695,4284.230957,4429.615234,4449.102539,4429.487305,4437.05127,4425.384766,4415,4399.230957,4249.358887,4444.230957,4265.512695,4267.179688,,,,,,,,,,,,,,,,,,,,,,,,,,,,,,,,,,,,,,,,,,,,,,,,,,,,,,,,,,,,,,,,,,,,,,
1720079815,82,0,4446.794922,4396.666504,4293.205078,4425.256348,4445.769043,4413.461426,4434.230957,4425.128418,4414.230957,4390.897461,4253.205078,4442.820313,4263.461426,4268.846191,,,,,,,,,,,,,,,,,,,,,,,,,,,,,,,,,,,,,,,,,,,,,,,,,,,,,,,,,,,,,,,,,,,,,,
1720079815,83,0,4446.410156,4394.615234,4294.487305,4422.307617,4438.077148,4409.871582,4430,4409.102539,4402.94873,4383.333496,4246.153809,4426.153809,4251.153809,4258.205078,,,,,,,,,,,,,,,,,,,,,,,,,,,,,,,,,,,,,,,,,,,,,,,,,,,,,,,,,,,,,,,,,,,,,,
1720079815,84,0,4445.512695,4402.94873,4294.743652,4424.615234,4443.589844,4426.922852,4442.05127,4415.641113,4401.410156,4382.692383,4232.05127,4424.230957,4239.230957,4248.205078,,,,,,,,,,,,,,,,,,,,,,,,,,,,,,,,,,,,,,,,,,,,,,,,,,,,,,,,,,,,,,,,,,,,,,
1720079815,85,0,4448.333496,4405,4299.230957,4425.769043,4441.282227,4432.307617,4448.589844,4432.05127,4408.461426,4382.05127,4228.717773,4432.563965,4239.615234,4252.436035,,,,,,,,,,,,,,,,,,,,,,,,,,,,,,,,,,,,,,,,,,,,,,,,,,,,,,,,,,,,,,,,,,,,,,
1720079815,86,0,4454.358887,4404.871582,4306.538574,4426.282227,4429.102539,4425.256348,4443.077148,4425.384766,4399.615234,4380.641113,4231.666504,4430,4245.512695,4259.615234,,,,,,,,,,,,,,,,,,,,,,,,,,,,,,,,,,,,,,,,,,,,,,,,,,,,,,,,,,,,,,,,,,,,,,
1720079815,87,0,4461.922852,4420.384766,4314.358887,4430.128418,4428.846191,4426.410156,4439.871582,4421.410156,4391.153809,4385.897461,4237.820313,4430.384766,4252.563965,4263.974121,,,,,,,,,,,,,,,,,,,,,,,,,,,,,,,,,,,,,,,,,,,,,,,,,,,,,,,,,,,,,,,,,,,,,,
1720079815,88,0,4470.512695,4432.307617,4319.871582,4436.410156,4438.974121,4428.589844,4433.461426,4433.077148,4400.512695,4395.769043,4247.179688,4442.563965,4262.563965,4272.563965,,,,,,,,,,,,,,,,,,,,,,,,,,,,,,,,,,,,,,,,,,,,,,,,,,,,,,,,,,,,,,,,,,,,,,
1720079815,89,0,4475.512695,4429.615234,4321.025879,4440,4452.05127,4425.128418,4425.641113,4427.692383,4402.820313,4398.589844,4249.102539,4450,4265.769043,4273.461426,,,,,,,,,,,,,,,,,,,,,,,,,,,,,,,,,,,,,,,,,,,,,,,,,,,,,,,,,,,,,,,,,,,,,,
1720079815,90,0,4483.205078,4435.512695,4322.692383,4443.333496,4460.897461,4424.102539,4422.05127,4411.410156,4395.769043,4398.717773,4251.794922,4454.615234,4269.615234,4274.487305,,,,,,,,,,,,,,,,,,,,,,,,,,,,,,,,,,,,,,,,,,,,,,,,,,,,,,,,,,,,,,,,,,,,,,
1720079815,91,0,4490.128418,4447.05127,4326.025879,4446.666504,4461.666504,4424.871582,4418.077148,4413.205078,4396.794922,4397.692383,4262.94873,4465.128418,4278.717773,4286.153809,,,,,,,,,,,,,,,,,,,,,,,,,,,,,,,,,,,,,,,,,,,,,,,,,,,,,,,,,,,,,,,,,,,,,,
1720079815,92,0,4485.128418,4446.410156,4328.846191,4446.410156,4461.282227,4432.563965,4426.410156,4426.922852,4401.282227,4395,4268.589844,4475.769043,4281.922852,4291.922852,,,,,,,,,,,,,,,,,,,,,,,,,,,,,,,,,,,,,,,,,,,,,,,,,,,,,,,,,,,,,,,,,,,,,,
1720079815,93,0,4476.410156,4440,4326.922852,4445.512695,4460.128418,4444.358887,4447.179688,4434.102539,4401.922852,4395.384766,4260.641113,4476.153809,4276.025879,4288.717773,,,,,,,,,,,,,,,,,,,,,,,,,,,,,,,,,,,,,,,,,,,,,,,,,,,,,,,,,,,,,,,,,,,,,,
1720079815,94,0,4468.717773,4433.205078,4314.743652,4444.615234,4452.692383,4443.333496,4452.94873,4429.615234,4399.230957,4392.436035,4251.153809,4464.871582,4270.384766,4283.974121,,,,,,,,,,,,,,,,,,,,,,,,,,,,,,,,,,,,,,,,,,,,,,,,,,,,,,,,,,,,,,,,,,,,,,
1720079815,95,0,4459.230957,4430.641113,4305.128418,4442.820313,4445.512695,4444.358887,4449.743652,4430,4395.769043,4384.358887,4249.487305,4461.794922,4270.384766,4280.128418,,,,,,,,,,,,,,,,,,,,,,,,,,,,,,,,,,,,,,,,,,,,,,,,,,,,,,,,,,,,,,,,,,,,,,
1720079815,96,0,4456.794922,4437.05127,4315.641113,4444.102539,4441.410156,4457.692383,4453.077148,4439.871582,4399.102539,4388.461426,4258.205078,4471.922852,4276.794922,4284.743652,2.316005,1.498013,1.996459,0.908753,0.195531,1.379664,1.386582,1.697219,0.646492,0.273534,10.588946,4.508611,3.523055,1.100668,0.187421,3.646183,1.029086,1.778087,0.588181,0.269272,0.881964,0.080309,1.647695,2.140966,0.812366,10.424359,3.545684,2.53072,0.41791,0.158118,0.709446,4.114757,8.720755,0.448502,0.183203,0.489889,1.979472,9.433866,0.965729,0.251225,0.612662,0.964045,3.180922,0.618129,0.238654,0.583932,0.469418,1.15739,0.33728,0.220999,0.770977,1.245972,1.991951,0.456981,0.309729,1.454469,1.895109,1.467338,0.5568,0.303333,0.830757,1.428368,1.575099,0.593564,0.301175,1.691326,1.86209,2.017895,0.546436,0.275556
1720079815,97,0,4463.974121,4443.717773,4332.436035,4454.743652,4441.410156,4462.436035,4451.794922,4435.512695,4402.563965,4400.256348,4265.384766,4472.692383,4282.436035,4293.333496,,,,,,,,,,,,,,,,,,,,,,,,,,,,,,,,,,,,,,,,,,,,,,,,,,,,,,,,,,,,,,,,,,,,,,
1720079815,98,0,4464.487305,4442.820313,4338.717773,4460.641113,4451.922852,4457.563965,4441.282227,4417.05127,4395.128418,4396.538574,4259.102539,4463.717773,4282.179688,4289.358887,,,,,,,,,,,,,,,,,,,,,,,,,,,,,,,,,,,,,,,,,,,,,,,,,,,,,,,,,,,,,,,,,,,,,,
1720079815,99,0,4461.025879,4441.794922,4340.641113,4453.077148,4463.846191,4457.94873,4429.102539,4406.794922,4388.077148,4385.641113,4247.692383,4455,4280.128418,4281.794922,,,,,,,,,,,,,,,,,,,,,,,,,,,,,,,,,,,,,,,,,,,,,,,,,,,,,,,,,,,,,,,,,,,,,,
1720079815,100,0,4462.436035,4444.487305,4344.102539,4447.563965,4455.769043,4458.461426,4418.461426,4404.358887,4386.282227,4382.692383,4241.794922,4450.256348,4278.717773,4278.717773,,,,,,,,,,,,,,,,,,,,,,,,,,,,,,,,,,,,,,,,,,,,,,,,,,,,,,,,,,,,,,,,,,,,,,
1720079815,101,0,4458.461426,4442.820313,4344.487305,4450.512695,4446.153809,4453.974121,4412.820313,4402.563965,4388.461426,4381.153809,4247.820313,4453.589844,4278.589844,4279.230957,,,,,,,,,,,,,,,,,,,,,,,,,,,,,,,,,,,,,,,,,,,,,,,,,,,,,,,,,,,,,,,,,,,,,,
1720079815,102,0,4448.589844,4440.897461,4342.05127,4450.256348,4448.461426,4446.025879,4411.794922,4400.256348,4393.717773,4382.820313,4250.897461,4455.512695,4279.230957,4280.256348,,,,,,,,,,,,,,,,,,,,,,,,,,,,,,,,,,,,,,,,,,,,,,,,,,,,,,,,,,,,,,,,,,,,,,
1720079815,103,0,4445.641113,4442.692383,4344.615234,4446.538574,4435.897461,4440.384766,4410.641113,4397.692383,4393.974121,4391.282227,4245.384766,4451.538574,4284.358887,4280.512695,,,,,,,,,,,,,,,,,,,,,,,,,,,,,,,,,,,,,,,,,,,,,,,,,,,,,,,,,,,,,,,,,,,,,,
1720079815,104,0,4448.333496,4439.358887,4348.846191,4447.179688,4424.615234,4448.077148,4416.153809,4405.384766,4397.05127,4398.717773,4251.666504,4457.94873,4296.025879,4282.436035,,,,,,,,,,,,,,,,,,,,,,,,,,,,,,,,,,,,,,,,,,,,,,,,,,,,,,,,,,,,,,,,,,,,,,
1720079815,105,0,4440.769043,4430.641113,4347.436035,4443.717773,4439.102539,4458.077148,4423.717773,4421.410156,4407.94873,4396.666504,4262.05127,4466.538574,4298.461426,4286.025879,,,,,,,,,,,,,,,,,,,,,,,,,,,,,,,,,,,,,,,,,,,,,,,,,,,,,,,,,,,,,,,,,,,,,,
1720079815,106,0,4427.436035,4427.307617,4343.589844,4436.282227,4447.94873,4462.436035,4432.94873,4435,4415.769043,4389.102539,4259.230957,4464.358887,4293.589844,4286.666504,,,,,,,,,,,,,,,,,,,,,,,,,,,,,,,,,,,,,,,,,,,,,,,,,,,,,,,,,,,,,,,,,,,,,,
1720079815,107,0,4421.538574,4430,4335.512695,4433.846191,4440.897461,4473.589844,4453.077148,4442.692383,4413.461426,4384.871582,4251.025879,4460.769043,4294.743652,4283.461426,,,,,,,,,,,,,,,,,,,,,,,,,,,,,,,,,,,,,,,,,,,,,,,,,,,,,,,,,,,,,,,,,,,,,,
1720079815,108,0,4419.487305,4428.717773,4317.436035,4430.512695,4445.641113,4479.358887,4459.102539,4432.436035,4402.307617,4382.179688,4247.692383,4456.025879,4292.692383,4277.563965,,,,,,,,,,,,,,,,,,,,,,,,,,,,,,,,,,,,,,,,,,,,,,,,,,,,,,,,,,,,,,,,,,,,,,
1720079815,109,0,4417.692383,4426.538574,4301.282227,4426.025879,4452.307617,4470.384766,4442.179688,4417.179688,4395.897461,4379.487305,4247.05127,4451.282227,4286.922852,4271.282227,,,,,,,,,,,,,,,,,,,,,,,,,,,,,,,,,,,,,,,,,,,,,,,,,,,,,,,,,,,,,,,,,,,,,,
1720079815,110,0,4415.769043,4426.538574,4296.922852,4426.794922,4447.692383,4458.333496,4430.897461,4419.871582,4402.94873,4382.05127,4248.077148,4453.717773,4291.922852,4271.538574,,,,,,,,,,,,,,,,,,,,,,,,,,,,,,,,,,,,,,,,,,,,,,,,,,,,,,,,,,,,,,,,,,,,,,
1720079815,111,0,4412.179688,4426.153809,4292.307617,4426.538574,4441.025879,4447.820313,4428.846191,4416.666504,4399.358887,4386.410156,4247.436035,4450.897461,4295.384766,4274.487305,,,,,,,,,,,,,,,,,,,,,,,,,,,,,,,,,,,,,,,,,,,,,,,,,,,,,,,,,,,,,,,,,,,,,,
1720079815,112,0,4410.897461,4427.05127,4288.846191,4424.871582,4426.410156,4440.897461,4427.692383,4400.128418,4381.922852,4382.436035,4249.615234,4449.358887,4291.410156,4271.282227,2.264357,2.054431,2.091692,0.868251,0.196773,1.524948,1.844433,1.846601,0.609113,0.254708,11.108178,4.78535,3.744549,1.042939,0.200756,4.225963,1.313351,1.837345,0.499123,0.226156,0.93365,0.095197,1.758218,1.847977,0.820151,10.853335,4.106324,2.446917,0.453714,0.154468,0.70159,5.211039,9.790524,0.598126,0.176438,0.590101,1.834312,10.093848,1.109267,0.270132,0.595778,1.014203,3.252195,0.648824,0.263312,0.596947,0.627483,1.043445,0.373838,0.242541,0.878364,1.711758,1.7441,0.493354,0.297969,1.561407,2.156799,1.15658,0.6334,0.324895,0.884196,1.950123,1.508952,0.59264,0.281943,1.72372,2.41715,1.947658,0.560032,0.266154
1720079815,113,0,4413.077148,4425.384766,4291.538574,4425.769043,4425.769043,4438.077148,4435.128418,4402.05127,4384.102539,4382.692383,4255.897461,4460,4290.769043,4267.179688,,,,,,,,,,,,,,,,,,,,,,,,,,,,,,,,,,,,,,,,,,,,,,,,,,,,,,,,,,,,,,,,,,,,,,
1720079815,114,0,4405.384766,4412.179688,4282.820313,4416.282227,4442.05127,4439.102539,4442.820313,4419.871582,4402.179688,4393.205078,4253.589844,4460.512695,4284.487305,4262.692383,,,,,,,,,,,,,,,,,,,,,,,,,,,,,,,,,,,,,,,,,,,,,,,,,,,,,,,,,,,,,,,,,,,,,,
1720079815,115,0,4392.05127,4401.025879,4259.743652,4405.256348,4437.692383,4437.436035,4438.461426,4427.563965,4412.05127,4395.128418,4243.333496,4452.563965,4271.666504,4260.256348,,,,,,,,,,,,,,,,,,,,,,,,,,,,,,,,,,,,,,,,,,,,,,,,,,,,,,,,,,,,,,,,,,,,,,
1720079815,116,0,4389.615234,4406.922852,4244.358887,4410,4427.563965,4431.538574,4429.615234,4429.615234,4423.077148,4395.897461,4243.846191,4457.94873,4276.410156,4262.436035,,,,,,,,,,,,,,,,,,,,,,,,,,,,,,,,,,,,,,,,,,,,,,,,,,,,,,,,,,,,,,,,,,,,,,
1720079815,117,0,4398.205078,4414.230957,4245.512695,4415,4437.179688,4433.589844,4427.692383,4437.436035,4433.974121,4410.641113,4256.666504,4467.692383,4288.846191,4267.563965,,,,,,,,,,,,,,,,,,,,,,,,,,,,,,,,,,,,,,,,,,,,,,,,,,,,,,,,,,,,,,,,,,,,,,
1720079815,118,0,4404.615234,4412.05127,4247.307617,4413.077148,4447.94873,4445.769043,4452.179688,4444.102539,4428.589844,4416.538574,4265.641113,4470.256348,4286.282227,4274.102539,,,,,,,,,,,,,,,,,,,,,,,,,,,,,,,,,,,,,,,,,,,,,,,,,,,,,,,,,,,,,,,,,,,,,,
1720079815,119,0,4397.820313,4408.333496,4244.102539,4411.025879,4444.487305,4448.974121,4494.102539,4445.512695,4416.922852,4399.615234,4264.871582,4467.436035,4276.922852,4273.333496,,,,,,,,,,,,,,,,,,,,,,,,,,,,,,,,,,,,,,,,,,,,,,,,,,,,,,,,,,,,,,,,,,,,,,
1720079815,120,0,4392.820313,4410.512695,4249.871582,4411.794922,4431.410156,4438.846191,4515.384766,4441.410156,4413.333496,4391.666504,4260.769043,4466.794922,4280.256348,4270.384766,,,,,,,,,,,,,,,,,,,,,,,,,,,,,,,,,,,,,,,,,,,,,,,,,,,,,,,,,,,,,,,,,,,,,,
1720079815,121,0,4400.256348,4417.94873,4267.05127,4417.94873,4425.897461,4434.102539,4511.922852,4433.717773,4413.589844,4398.461426,4263.974121,4470.512695,4291.153809,4273.717773,,,,,,,,,,,,,,,,,,,,,,,,,,,,,,,,,,,,,,,,,,,,,,,,,,,,,,,,,,,,,,,,,,,,,,
1720079815,122,0,4397.05127,4420.128418,4277.179688,4418.077148,4439.230957,4432.563965,4501.025879,4427.436035,4405.897461,4392.563965,4266.538574,4466.025879,4289.743652,4273.846191,,,,,,,,,,,,,,,,,,,,,,,,,,,,,,,,,,,,,,,,,,,,,,,,,,,,,,,,,,,,,,,,,,,,,,
1720079815,123,0,4383.077148,4414.487305,4280.769043,4407.820313,4450.384766,4426.282227,4492.307617,4420.512695,4396.025879,4383.461426,4257.820313,4455.128418,4281.153809,4263.846191,,,,,,,,,,,,,,,,,,,,,,,,,,,,,,,,,,,,,,,,,,,,,,,,,,,,,,,,,,,,,,,,,,,,,,
1720079815,124,0,4376.922852,4412.179688,4292.563965,4403.333496,4441.794922,4420.769043,4488.333496,4416.538574,4398.077148,4386.666504,4248.717773,4453.205078,4279.871582,4259.487305,,,,,,,,,,,,,,,,,,,,,,,,,,,,,,,,,,,,,,,,,,,,,,,,,,,,,,,,,,,,,,,,,,,,,,
1720079815,125,0,4370.641113,4414.102539,4306.153809,4402.563965,4431.410156,4415.897461,4481.410156,4420.384766,4403.717773,4385.384766,4248.333496,4453.333496,4280.512695,4262.179688,,,,,,,,,,,,,,,,,,,,,,,,,,,,,,,,,,,,,,,,,,,,,,,,,,,,,,,,,,,,,,,,,,,,,,
1720079815,126,0,4362.94873,4412.05127,4317.179688,4396.666504,4427.05127,4411.922852,4472.563965,4425.769043,4400.384766,4383.974121,4250.769043,4450.512695,4276.410156,4262.820313,,,,,,,,,,,,,,,,,,,,,,,,,,,,,,,,,,,,,,,,,,,,,,,,,,,,,,,,,,,,,,,,,,,,,,
1720079815,127,0,4360.128418,4407.179688,4328.333496,4393.333496,4427.436035,4410,4472.05127,4426.025879,4395.384766,4402.94873,4248.333496,4456.666504,4276.794922,4262.563965,,,,,,,,,,,,,,,,,,,,,,,,,,,,,,,,,,,,,,,,,,,,,,,,,,,,,,,,,,,,,,,,,,,,,,
1720079815,0,0,4351.922852,4401.922852,4340.512695,4389.743652,4426.794922,4409.615234,4471.153809,4430.384766,4396.410156,4413.205078,4249.871582,4464.358887,4278.717773,4257.94873,2.490236,2.650996,2.033296,0.773228,0.194042,1.82169,2.325601,1.84938,0.537946,0.23409,11.226171,5.103724,3.890573,0.96262,0.206357,4.754586,1.557138,1.764647,0.409356,0.192752,1.03853,0.135775,1.739896,1.58742,0.829578,10.181088,4.574836,2.119175,0.477494,0.148853,0.713882,6.076942,9.894203,0.780038,0.172339,0.746531,1.500439,9.702686,1.172757,0.278866,0.566635,1.06582,3.013581,0.652529,0.286081,0.673839,0.824934,0.866116,0.389328,0.253222,1.135714,2.211806,1.433036,0.534692,0.285735,1.78676,2.460091,0.830649,0.704446,0.333838,0.875899,2.492605,1.373181,0.560499,0.252712,1.815817,3.023378,1.746458,0.56271,0.254571
1720079815,1,0,4339.358887,4399.615234,4347.436035,4381.410156,4411.025879,4409.743652,4466.538574,4431.153809,4391.282227,4396.153809,4245.384766,4457.820313,4268.717773,4246.153809,,,,,,,,,,,,,,,,,,,,,,,,,,,,,,,,,,,,,,,,,,,,,,,,,,,,,,,,,,,,,,,,,,,,,,
1720079815,2,0,4332.563965,4397.692383,4347.179688,4378.846191,4407.94873,4418.589844,4477.179688,4421.153809,4375.384766,4382.820313,4233.846191,4443.846191,4258.589844,4237.05127,,,,,,,,,,,,,,,,,,,,,,,,,,,,,,,,,,,,,,,,,,,,,,,,,,,,,,,,,,,,,,,,,,,,,,
1720079815,3,0,4328.205078,4396.282227,4352.307617,4381.153809,4434.102539,4431.666504,4495.512695,4423.333496,4370.512695,4389.230957,4238.846191,4446.282227,4266.922852,4242.563965,,,,,,,,,,,,,,,,,,,,,,,,,,,,,,,,,,,,,,,,,,,,,,,,,,,,,,,,,,,,,,,,,,,,,,
1720079815,4,0,4323.461426,4400.512695,4362.436035,4382.436035,4447.692383,4430.641113,4494.358887,4430.384766,4378.717773,4396.410156,4252.436035,4460.256348,4280.256348,4253.461426,,,,,,,,,,,,,,,,,,,,,,,,,,,,,,,,,,,,,,,,,,,,,,,,,,,,,,,,,,,,,,,,,,,,,,
1720079815,5,0,4317.05127,4400.384766,4363.205078,4381.410156,4434.871582,4415.128418,4475.128418,4423.717773,4377.05127,4395.512695,4251.410156,4458.077148,4277.436035,4253.974121,,,,,,,,,,,,,,,,,,,,,,,,,,,,,,,,,,,,,,,,,,,,,,,,,,,,,,,,,,,,,,,,,,,,,,
1720079815,6,0,4309.358887,4395,4359.487305,4379.102539,4422.179688,4398.077148,4461.153809,4423.333496,4371.922852,4396.410156,4245.769043,4454.230957,4273.461426,4256.025879,,,,,,,,,,,,,,,,,,,,,,,,,,,,,,,,,,,,,,,,,,,,,,,,,,,,,,,,,,,,,,,,,,,,,,
1720079815,7,0,4306.410156,4398.589844,4362.692383,4381.538574,4421.922852,4388.974121,4459.871582,4433.974121,4378.846191,4398.461426,4251.282227,4463.205078,4280.128418,4261.538574,,,,,,,,,,,,,,,,,,,,,,,,,,,,,,,,,,,,,,,,,,,,,,,,,,,,,,,,,,,,,,,,,,,,,,
1720079815,8,0,4301.666504,4406.922852,4356.922852,4383.846191,4429.615234,4386.666504,4458.974121,4430.128418,4382.563965,4395.897461,4253.846191,4459.487305,4282.94873,4256.666504,,,,,,,,,,,,,,,,,,,,,,,,,,,,,,,,,,,,,,,,,,,,,,,,,,,,,,,,,,,,,,,,,,,,,,
1720079815,9,0,4286.794922,4403.974121,4340.897461,4378.589844,4421.794922,4382.94873,4450.641113,4414.743652,4373.846191,4388.974121,4245.128418,4441.153809,4275.769043,4244.487305,,,,,,,,,,,,,,,,,,,,,,,,,,,,,,,,,,,,,,,,,,,,,,,,,,,,,,,,,,,,,,,,,,,,,,
1720079815,10,0,4270,4396.794922,4337.179688,4374.615234,4394.358887,4376.410156,4442.05127,4407.820313,4366.153809,4384.358887,4235.256348,4431.282227,4267.692383,4241.666504,,,,,,,,,,,,,,,,,,,,,,,,,,,,,,,,,,,,,,,,,,,,,,,,,,,,,,,,,,,,,,,,,,,,,,
1720079815,11,0,4255,4393.846191,4338.846191,4372.436035,4398.333496,4382.436035,4441.282227,4401.153809,4359.871582,4382.436035,4230.256348,4427.820313,4263.846191,4245.128418,,,,,,,,,,,,,,,,,,,,,,,,,,,,,,,,,,,,,,,,,,,,,,,,,,,,,,,,,,,,,,,,,,,,,,
1720079815,12,0,4232.820313,4391.153809,4328.205078,4366.282227,4430.641113,4399.743652,4443.461426,4394.230957,4354.743652,4375.256348,4229.487305,4422.179688,4262.05127,4241.794922,,,,,,,,,,,,,,,,,,,,,,,,,,,,,,,,,,,,,,,,,,,,,,,,,,,,,,,,,,,,,,,,,,,,,,
1720079815,13,0,4205.384766,4390.128418,4312.692383,4366.153809,4431.410156,4413.333496,4446.153809,4397.563965,4360.769043,4367.436035,4227.94873,4417.820313,4259.230957,4235.897461,,,,,,,,,,,,,,,,,,,,,,,,,,,,,,,,,,,,,,,,,,,,,,,,,,,,,,,,,,,,,,,,,,,,,,
1720079815,14,0,4185.128418,4388.717773,4307.307617,4370.641113,4413.461426,4415.128418,4448.589844,4403.717773,4370.256348,4367.307617,4230.256348,4417.307617,4257.307617,4236.538574,,,,,,,,,,,,,,,,,,,,,,,,,,,,,,,,,,,,,,,,,,,,,,,,,,,,,,,,,,,,,,,,,,,,,,
1720079815,15,0,4168.333496,4383.589844,4307.692383,4368.077148,4411.410156,4405.512695,4438.589844,4398.974121,4368.846191,4371.538574,4233.461426,4415.512695,4256.410156,4237.563965,,,,,,,,,,,,,,,,,,,,,,,,,,,,,,,,,,,,,,,,,,,,,,,,,,,,,,,,,,,,,,,,,,,,,,
1720079815,16,0,4151.922852,4382.563965,4312.94873,4365.641113,4411.410156,4396.794922,4428.846191,4395.256348,4371.025879,4373.717773,4230.256348,4415.512695,4254.230957,4237.307617,2.851691,3.190799,1.853177,0.657759,0.186599,2.149278,2.73565,1.711785,0.452368,0.217413,10.850736,5.369846,3.901409,0.880986,0.201716,4.998438,1.709024,1.553612,0.338101,0.171988,1.159535,0.195806,1.684594,1.399841,0.825227,8.672015,4.831638,1.659207,0.487268,0.145869,0.791613,6.523126,9.107812,0.964932,0.171291,0.937055,1.112829,8.466614,1.151754,0.281309,0.527197,1.109607,2.563316,0.62568,0.300755,0.784324,1.007271,0.685546,0.386812,0.250485,1.444731,2.655602,1.131224,0.56048,0.271167,2.048125,2.767997,0.568507,0.755636,0.329561,0.84406,2.945441,1.22912,0.504583,0.218587,1.88311,3.561804,1.477401,0.558983,0.241707
1720079815,17,0,4141.794922,4391.153809,4327.05127,4370.897461,4414.871582,4396.794922,4433.974121,4400.769043,4383.717773,4374.358887,4227.05127,4423.974121,4249.230957,4241.025879,,,,,,,,,,,,,,,,,,,,,,,,,,,,,,,,,,,,,,,,,,,,,,,,,,,,,,,,,,,,,,,,,,,,,,
1720079815,18,0,4138.077148,4399.102539,4341.538574,4377.436035,4412.436035,4393.717773,4433.077148,4401.282227,4387.436035,4374.230957,4228.974121,4430,4251.025879,4244.358887,,,,,,,,,,,,,,,,,,,,,,,,,,,,,,,,,,,,,,,,,,,,,,,,,,,,,,,,,,,,,,,,,,,,,,
1720079815,19,0,4138.333496,4398.974121,4349.230957,4383.077148,4394.743652,4381.538574,4421.794922,4395.641113,4383.974121,4372.05127,4233.846191,4427.307617,4257.563965,4242.179688,,,,,,,,,,,,,,,,,,,,,,,,,,,,,,,,,,,,,,,,,,,,,,,,,,,,,,,,,,,,,,,,,,,,,,
1720079815,20,0,4136.410156,4395.897461,4353.205078,4382.436035,4398.205078,4378.077148,4422.94873,4396.666504,4390,4373.077148,4232.820313,4426.025879,4255.384766,4237.94873,,,,,,,,,,,,,,,,,,,,,,,,,,,,,,,,,,,,,,,,,,,,,,,,,,,,,,,,,,,,,,,,,,,,,,
1720079816,21,0,4126.153809,4392.563965,4352.94873,4373.589844,4419.487305,4384.230957,4428.717773,4406.025879,4399.102539,4373.077148,4230.897461,4427.05127,4245.641113,4232.307617,,,,,,,,,,,,,,,,,,,,,,,,,,,,,,,,,,,,,,,,,,,,,,,,,,,,,,,,,,,,,,,,,,,,,,
1720079816,22,0,4119.358887,4388.077148,4348.461426,4370.897461,4421.282227,4386.282227,4425.384766,4410.897461,4398.589844,4369.615234,4238.974121,4425.256348,4243.077148,4231.794922,,,,,,,,,,,,,,,,,,,,,,,,,,,,,,,,,,,,,,,,,,,,,,,,,,,,,,,,,,,,,,,,,,,,,,
1720079816,23,0,4122.05127,4383.461426,4348.333496,4377.179688,4417.179688,4394.230957,4434.358887,4414.358887,4395.769043,4369.102539,4244.871582,4428.846191,4248.333496,4235.512695,,,,,,,,,,,,,,,,,,,,,,,,,,,,,,,,,,,,,,,,,,,,,,,,,,,,,,,,,,,,,,,,,,,,,,
1720079816,24,0,4124.102539,4380.641113,4351.282227,4377.820313,4418.846191,4406.282227,4449.743652,4418.846191,4398.205078,4365.641113,4236.922852,4432.05127,4242.436035,4227.436035,,,,,,,,,,,,,,,,,,,,,,,,,,,,,,,,,,,,,,,,,,,,,,,,,,,,,,,,,,,,,,,,,,,,,,
1720079816,25,0,4122.05127,4380.512695,4353.846191,4373.589844,4419.487305,4404.743652,4447.307617,4413.974121,4398.461426,4360.641113,4227.307617,4425.128418,4232.179688,4216.794922,,,,,,,,,,,,,,,,,,,,,,,,,,,,,,,,,,,,,,,,,,,,,,,,,,,,,,,,,,,,,,,,,,,,,,
1720079816,26,0,4127.179688,4384.230957,4354.487305,4375.384766,4424.230957,4396.922852,4436.410156,4412.820313,4395.256348,4361.538574,4229.102539,4420.897461,4236.794922,4220,,,,,,,,,,,,,,,,,,,,,,,,,,,,,,,,,,,,,,,,,,,,,,,,,,,,,,,,,,,,,,,,,,,,,,
1720079816,27,0,4141.025879,4391.922852,4351.794922,4384.871582,4416.538574,4397.05127,4431.282227,4423.461426,4400.769043,4366.153809,4232.179688,4425.769043,4244.743652,4230.256348,,,,,,,,,,,,,,,,,,,,,,,,,,,,,,,,,,,,,,,,,,,,,,,,,,,,,,,,,,,,,,,,,,,,,,
1720079816,28,0,4156.153809,4399.615234,4353.205078,4390.512695,4397.436035,4396.410156,4431.025879,4429.871582,4414.230957,4369.871582,4236.410156,4436.282227,4242.94873,4233.974121,,,,,,,,,,,,,,,,,,,,,,,,,,,,,,,,,,,,,,,,,,,,,,,,,,,,,,,,,,,,,,,,,,,,,,
1720079816,29,0,4161.794922,4398.205078,4354.743652,4384.102539,4407.820313,4388.461426,4427.179688,4427.563965,4416.538574,4371.410156,4239.743652,4442.94873,4241.666504,4232.436035,,,,,,,,,,,,,,,,,,,,,,,,,,,,,,,,,,,,,,,,,,,,,,,,,,,,,,,,,,,,,,,,,,,,,,
1720079816,30,0,4157.692383,4390.769043,4345,4373.461426,4427.563965,4379.102539,4419.743652,4424.615234,4409.615234,4372.179688,4236.538574,4436.538574,4246.410156,4231.410156,,,,,,,,,,,,,,,,,,,,,,,,,,,,,,,,,,,,,,,,,,,,,,,,,,,,,,,,,,,,,,,,,,,,,,
1720079816,31,0,4160.384766,4387.820313,4334.487305,4368.717773,4418.974121,4378.333496,4415.128418,4420.384766,4410.128418,4370.512695,4240.128418,4431.410156,4245,4229.230957,,,,,,,,,,,,,,,,,,,,,,,,,,,,,,,,,,,,,,,,,,,,,,,,,,,,,,,,,,,,,,,,,,,,,,
1720079816,32,0,4174.615234,4389.615234,4336.794922,4375.512695,4414.743652,4389.230957,4414.871582,4417.563965,4411.922852,4370.384766,4251.153809,4436.153809,4245.769043,4230.769043,3.461121,3.573726,1.630088,0.552539,0.175267,2.400433,2.968173,1.484067,0.369268,0.208144,10.423596,5.540924,3.744737,0.819914,0.18958,4.866803,1.738399,1.246192,0.292864,0.162809,1.273931,0.273097,1.708412,1.261774,0.798766,6.631721,4.848998,1.200991,0.480395,0.148642,0.984291,6.674973,7.790657,1.129774,0.173364,1.130864,0.91561,6.8598,1.062798,0.284277,0.516406,1.164736,2.070034,0.575411,0.304838,0.891293,1.137062,0.547803,0.379074,0.238047,1.694816,2.949161,0.883391,0.566099,0.254661,2.285234,3.025423,0.409832,0.777268,0.315056,0.737162,3.208831,1.118609,0.442356,0.186426,1.861218,3.900417,1.207878,0.554607,0.227499
1720079816,33,0,4187.179688,4390.256348,4337.05127,4382.179688,4425.769043,4403.077148,4415.897461,4416.025879,4405.769043,4371.538574,4253.333496,4436.666504,4248.846191,4234.871582,,,,,,,,,,,,,,,,,,,,,,,,,,,,,,,,,,,,,,,,,,,,,,,,,,,,,,,,,,,,,,,,,,,,,,
1720079816,34,0,4190.769043,4385.128418,4327.563965,4376.282227,4427.05127,4418.461426,4426.538574,4417.179688,4403.846191,4371.282227,4244.102539,4434.487305,4244.871582,4232.436035,,,,,,,,,,,,,,,,,,,,,,,,,,,,,,,,,,,,,,,,,,,,,,,,,,,,,,,,,,,,,,,,,,,,,,
1720079816,35,0,4196.153809,4384.487305,4323.461426,4374.615234,4418.205078,4431.922852,4443.846191,4421.794922,4409.615234,4371.666504,4238.974121,4440.512695,4244.230957,4224.743652,,,,,,,,,,,,,,,,,,,,,,,,,,,,,,,,,,,,,,,,,,,,,,,,,,,,,,,,,,,,,,,,,,,,,,
1720079816,36,0,4211.410156,4394.871582,4328.077148,4390.769043,4409.743652,4433.205078,4445,4421.025879,4412.820313,4372.307617,4242.307617,4446.666504,4246.538574,4226.410156,,,,,,,,,,,,,,,,,,,,,,,,,,,,,,,,,,,,,,,,,,,,,,,,,,,,,,,,,,,,,,,,,,,,,,
1720079816,37,0,4221.538574,4400.512695,4329.358887,4397.05127,4416.282227,4425.769043,4432.05127,4412.436035,4408.333496,4370.897461,4247.05127,4448.333496,4243.974121,4231.794922,,,,,,,,,,,,,,,,,,,,,,,,,,,,,,,,,,,,,,,,,,,,,,,,,,,,,,,,,,,,,,,,,,,,,,
1720079816,38,0,4223.717773,4398.333496,4321.153809,4386.794922,4430.512695,4424.615234,4425.512695,4407.563965,4405.512695,4366.922852,4246.794922,4455.512695,4241.025879,4227.563965,,,,,,,,,,,,,,,,,,,,,,,,,,,,,,,,,,,,,,,,,,,,,,,,,,,,,,,,,,,,,,,,,,,,,,
1720079816,39,0,4228.205078,4402.179688,4314.487305,4388.717773,4427.307617,4428.589844,4430.769043,4416.410156,4411.025879,4370.512695,4242.820313,4465,4244.615234,4226.538574,,,,,,,,,,,,,,,,,,,,,,,,,,,,,,,,,,,,,,,,,,,,,,,,,,,,,,,,,,,,,,,,,,,,,,
1720079816,40,0,4234.743652,4402.307617,4307.179688,4389.358887,4413.333496,4426.025879,4432.94873,4426.538574,4413.461426,4374.743652,4242.692383,4465.256348,4248.461426,4228.333496,,,,,,,,,,,,,,,,,,,,,,,,,,,,,,,,,,,,,,,,,,,,,,,,,,,,,,,,,,,,,,,,,,,,,,
1720079816,41,0,4236.025879,4391.282227,4295.512695,4374.743652,4410,4418.461426,4422.94873,4422.820313,4410.256348,4371.282227,4244.615234,4457.563965,4246.922852,4221.153809,,,,,,,,,,,,,,,,,,,,,,,,,,,,,,,,,,,,,,,,,,,,,,,,,,,,,,,,,,,,,,,,,,,,,,
1720079816,42,0,4240.384766,4390.256348,4291.153809,4373.461426,4413.077148,4421.153809,4414.358887,4420.256348,4414.358887,4374.743652,4247.436035,4456.153809,4246.666504,4220.512695,,,,,,,,,,,,,,,,,,,,,,,,,,,,,,,,,,,,,,,,,,,,,,,,,,,,,,,,,,,,,,,,,,,,,,
1720079816,43,0,4251.922852,4399.358887,4290,4384.102539,4417.436035,4436.025879,4412.307617,4423.846191,4419.871582,4380.641113,4250.128418,4463.846191,4255.897461,4233.333496,,,,,,,,,,,,,,,,,,,,,,,,,,,,,,,,,,,,,,,,,,,,,,,,,,,,,,,,,,,,,,,,,,,,,,
1720079816,44,0,4256.922852,4396.025879,4281.666504,4381.538574,4416.538574,4446.153809,4411.410156,4416.282227,4414.615234,4374.871582,4250.384766,4461.794922,4261.282227,4232.05127,,,,,,,,,,,,,,,,,,,,,,,,,,,,,,,,,,,,,,,,,,,,,,,,,,,,,,,,,,,,,,,,,,,,,,
1720079816,45,0,4260.128418,4388.717773,4280.384766,4378.846191,4403.461426,4446.794922,4417.307617,4407.179688,4409.102539,4366.410156,4245.897461,4452.307617,4253.333496,4218.333496,,,,,,,,,,,,,,,,,,,,,,,,,,,,,,,,,,,,,,,,,,,,,,,,,,,,,,,,,,,,,,,,,,,,,,
1720079816,46,0,4265,4389.615234,4287.692383,4384.358887,4403.461426,4446.282227,4426.538574,4410.769043,4412.05127,4364.743652,4236.153809,4448.205078,4245.128418,4216.153809,,,,,,,,,,,,,,,,,,,,,,,,,,,,,,,,,,,,,,,,,,,,,,,,,,,,,,,,,,,,,,,,,,,,,,
1720079816,47,0,4263.333496,4387.05127,4288.077148,4382.307617,4418.205078,4448.333496,4435.641113,4413.589844,4415.641113,4365.769043,4231.025879,4442.94873,4246.538574,4215,,,,,,,,,,,,,,,,,,,,,,,,,,,,,,,,,,,,,,,,,,,,,,,,,,,,,,,,,,,,,,,,,,,,,,
1720079816,48,0,4266.538574,4384.871582,4287.563965,4377.179688,4421.538574,4451.282227,4440,4415,4414.871582,4371.025879,4238.077148,4441.282227,4255,4214.487305,3.954322,3.736418,1.451561,0.469738,0.162479,2.453249,2.962024,1.236667,0.297966,0.206015,10.759535,5.540185,3.440389,0.785123,0.175196,4.359959,1.653166,0.921829,0.266174,0.161113,1.336659,0.364538,1.876758,1.111928,0.758761,4.666858,4.723789,0.882038,0.45909,0.157499,1.323969,6.860634,6.386512,1.266504,0.17787,1.299043,1.077742,5.366805,0.928683,0.291749,0.555492,1.249225,1.697141,0.509024,0.299141,0.950075,1.208995,0.47781,0.378898,0.222838,1.810462,3.040497,0.708181,0.553423,0.238303,2.487312,3.19101,0.352341,0.763083,0.295008,0.633281,3.244295,1.057623,0.389292,0.163324,1.742623,3.962663,0.995404,0.549527,0.211198
1720079816,49,0,4278.589844,4391.153809,4287.563965,4380.256348,4411.410156,4447.94873,4430.769043,4415,4411.153809,4375.128418,4251.282227,4451.410156,4264.615234,4225.769043,,,,,,,,,,,,,,,,,,,,,,,,,,,,,,,,,,,,,,,,,,,,,,,,,,,,,,,,,,,,,,,,,,,,,,
1720079816,50,0,4286.410156,4392.692383,4281.538574,4383.974121,4404.871582,4441.794922,4421.025879,4412.307617,4412.179688,4368.205078,4252.94873,4457.820313,4264.615234,4228.846191,,,,,,,,,,,,,,,,,,,,,,,,,,,,,,,,,,,,,,,,,,,,,,,,,,,,,,,,,,,,,,,,,,,,,,
1720079816,51,0,4285.641113,4385.641113,4277.05127,4381.282227,4407.307617,4442.563965,4425.256348,4421.153809,4422.179688,4365.384766,4249.230957,4454.230957,4262.05127,4223.589844,,,,,,,,,,,,,,,,,,,,,,,,,,,,,,,,,,,,,,,,,,,,,,,,,,,,,,,,,,,,,,,,,,,,,,
1720079816,52,0,4267.692383,4387.820313,4276.794922,4383.205078,4410.897461,4444.743652,4431.666504,4434.230957,4435.641113,4371.922852,4256.410156,4458.333496,4271.538574,4231.666504,,,,,,,,,,,,,,,,,,,,,,,,,,,,,,,,,,,,,,,,,,,,,,,,,,,,,,,,,,,,,,,,,,,,,,
1720079816,53,0,4231.282227,4396.025879,4276.025879,4392.307617,4413.974121,4442.436035,4428.846191,4427.436035,4442.307617,4375.897461,4262.820313,4462.692383,4279.743652,4238.589844,,,,,,,,,,,,,,,,,,,,,,,,,,,,,,,,,,,,,,,,,,,,,,,,,,,,,,,,,,,,,,,,,,,,,,
1720079816,54,0,4207.436035,4398.846191,4278.205078,4399.615234,4413.205078,4447.820313,4424.102539,4413.205078,4443.077148,4379.871582,4262.307617,4461.153809,4280,4237.307617,,,,,,,,,,,,,,,,,,,,,,,,,,,,,,,,,,,,,,,,,,,,,,,,,,,,,,,,,,,,,,,,,,,,,,
1720079816,55,0,4200.641113,4398.205078,4276.410156,4399.871582,4410.512695,4452.94873,4418.205078,4412.307617,4441.410156,4383.846191,4263.846191,4461.922852,4285,4240.128418,,,,,,,,,,,,,,,,,,,,,,,,,,,,,,,,,,,,,,,,,,,,,,,,,,,,,,,,,,,,,,,,,,,,,,
1720079816,56,0,4181.025879,4392.692383,4263.974121,4391.794922,4413.974121,4444.615234,4408.974121,4412.563965,4435.128418,4375.641113,4258.717773,4455.128418,4280.128418,4233.077148,,,,,,,,,,,,,,,,,,,,,,,,,,,,,,,,,,,,,,,,,,,,,,,,,,,,,,,,,,,,,,,,,,,,,,
1720079816,57,0,4162.820313,4390,4261.410156,4384.102539,4419.487305,4444.358887,4406.794922,4405,4424.871582,4363.974121,4244.871582,4439.358887,4266.538574,4221.153809,,,,,,,,,,,,,,,,,,,,,,,,,,,,,,,,,,,,,,,,,,,,,,,,,,,,,,,,,,,,,,,,,,,,,,
1720079816,58,0,4162.05127,4394.743652,4276.922852,4384.743652,4418.205078,4460.128418,4420,4407.436035,4425.769043,4366.538574,4244.230957,4437.820313,4267.692383,4222.563965,,,,,,,,,,,,,,,,,,,,,,,,,,,,,,,,,,,,,,,,,,,,,,,,,,,,,,,,,,,,,,,,,,,,,,
1720079816,59,0,4159.743652,4395.384766,4296.666504,4389.871582,4412.563965,4463.333496,4439.102539,4424.358887,4435.769043,4373.077148,4256.153809,4451.922852,4278.333496,4226.538574,,,,,,,,,,,,,,,,,,,,,,,,,,,,,,,,,,,,,,,,,,,,,,,,,,,,,,,,,,,,,,,,,,,,,,
1720079816,60,0,4152.820313,4393.077148,4313.974121,4389.871582,4412.05127,4455.641113,4444.615234,4429.743652,4435.256348,4371.410156,4261.025879,4458.846191,4279.230957,4227.05127,,,,,,,,,,,,,,,,,,,,,,,,,,,,,,,,,,,,,,,,,,,,,,,,,,,,,,,,,,,,,,,,,,,,,,
1720079816,61,0,4150.512695,4393.077148,4330.256348,4387.820313,4417.436035,4467.307617,4444.743652,4424.743652,4433.846191,4371.153809,4263.077148,4458.846191,4277.307617,4232.692383,,,,,,,,,,,,,,,,,,,,,,,,,,,,,,,,,,,,,,,,,,,,,,,,,,,,,,,,,,,,,,,,,,,,,,
1720079816,62,0,4152.692383,4393.205078,4348.077148,4394.102539,4410.384766,4478.461426,4441.410156,4429.230957,4442.692383,4376.794922,4268.589844,4464.102539,4285,4239.487305,,,,,,,,,,,,,,,,,,,,,,,,,,,,,,,,,,,,,,,,,,,,,,,,,,,,,,,,,,,,,,,,,,,,,,
1720079816,63,0,4151.282227,4395.769043,4361.153809,4403.333496,4394.871582,4465.384766,4423.333496,4430.256348,4447.820313,4377.05127,4264.487305,4462.820313,4292.307617,4237.563965,,,,,,,,,,,,,,,,,,,,,,,,,,,,,,,,,,,,,,,,,,,,,,,,,,,,,,,,,,,,,,,,,,,,,,
1720079816,64,0,4146.410156,4397.94873,4363.717773,4400.512695,4402.436035,4453.974121,4411.153809,4415.641113,4441.410156,4373.077148,4252.179688,4450.384766,4286.282227,4232.692383,4.383973,3.670798,1.353732,0.40345,0.151311,2.284237,2.735638,1.037268,0.23898,0.206847,12.910054,5.315742,3.050738,0.76331,0.162328,3.620787,1.49454,0.667071,0.243536,0.162142,1.312854,0.462241,2.186694,0.916842,0.72589,3.052101,4.642246,0.787121,0.429815,0.169975,1.804859,7.371629,5.210391,1.369223,0.183437,1.433822,1.58906,4.270381,0.774866,0.301656,0.673778,1.373646,1.527205,0.432823,0.286388,0.948816,1.243437,0.473902,0.392649,0.2106,1.754254,2.925245,0.587263,0.528056,0.224135,2.592896,3.234716,0.359299,0.715478,0.273604,0.492162,3.069636,1.017046,0.351552,0.153355,1.522196,3.742554,0.853543,0.538265,0.192593
1720079816,65,0,4144.871582,4388.974121,4363.717773,4387.563965,4418.205078,4461.794922,4411.794922,4404.615234,4433.333496,4370.897461,4247.179688,4440.897461,4275.512695,4226.922852,,,,,,,,,,,,,,,,,,,,,,,,,,,,,,,,,,,,,,,,,,,,,,,,,,,,,,,,,,,,,,,,,,,,,,
1720079816,66,0,4148.589844,4383.333496,4374.487305,4384.871582,4414.487305,4470,4410.641113,4405,4427.307617,4366.922852,4249.102539,4437.05127,4275.641113,4222.307617,,,,,,,,,,,,,,,,,,,,,,,,,,,,,,,,,,,,,,,,,,,,,,,,,,,,,,,,,,,,,,,,,,,,,,
1720079816,67,0,4151.794922,4387.05127,4385.897461,4390.512695,4408.717773,4472.94873,4416.153809,4411.666504,4427.05127,4369.743652,4248.589844,4436.666504,4281.410156,4224.743652,,,,,,,,,,,,,,,,,,,,,,,,,,,,,,,,,,,,,,,,,,,,,,,,,,,,,,,,,,,,,,,,,,,,,,
1720079816,68,0,4153.077148,4384.230957,4384.871582,4388.077148,4408.717773,4483.717773,4432.820313,4427.820313,4434.102539,4373.461426,4249.230957,4441.666504,4280.769043,4229.615234,,,,,,,,,,,,,,,,,,,,,,,,,,,,,,,,,,,,,,,,,,,,,,,,,,,,,,,,,,,,,,,,,,,,,,
1720079816,69,0,4153.974121,4379.358887,4377.179688,4383.077148,4405.897461,4491.410156,4437.94873,4435.128418,4434.102539,4363.589844,4249.743652,4440.641113,4277.563965,4223.589844,,,,,,,,,,,,,,,,,,,,,,,,,,,,,,,,,,,,,,,,,,,,,,,,,,,,,,,,,,,,,,,,,,,,,,
1720079816,70,0,4159.230957,4379.487305,4372.307617,4383.077148,4412.820313,4492.94873,4430.512695,4424.102539,4427.307617,4358.333496,4246.153809,4432.307617,4277.179688,4211.794922,,,,,,,,,,,,,,,,,,,,,,,,,,,,,,,,,,,,,,,,,,,,,,,,,,,,,,,,,,,,,,,,,,,,,,
1720079816,71,0,4169.743652,4381.538574,4370.769043,4386.025879,4410.128418,4497.436035,4427.179688,4411.794922,4425.512695,4366.410156,4245.128418,4430.384766,4284.615234,4212.94873,,,,,,,,,,,,,,,,,,,,,,,,,,,,,,,,,,,,,,,,,,,,,,,,,,,,,,,,,,,,,,,,,,,,,,
1720079816,72,0,4172.307617,4384.871582,4355.512695,4389.358887,4392.307617,4499.615234,4422.94873,4406.922852,4426.666504,4366.153809,4247.307617,4428.589844,4294.230957,4216.153809,,,,,,,,,,,,,,,,,,,,,,,,,,,,,,,,,,,,,,,,,,,,,,,,,,,,,,,,,,,,,,,,,,,,,,
1720079816,73,0,4167.563965,4383.077148,4325.769043,4384.358887,4399.615234,4494.615234,4414.615234,4407.820313,4422.563965,4362.692383,4246.153809,4423.589844,4293.974121,4212.179688,,,,,,,,,,,,,,,,,,,,,,,,,,,,,,,,,,,,,,,,,,,,,,,,,,,,,,,,,,,,,,,,,,,,,,
1720079816,74,0,4173.846191,4379.102539,4307.436035,4378.461426,4414.230957,4490.384766,4411.153809,4411.282227,4415.256348,4370.384766,4244.230957,4428.205078,4293.333496,4213.846191,,,,,,,,,,,,,,,,,,,,,,,,,,,,,,,,,,,,,,,,,,,,,,,,,,,,,,,,,,,,,,,,,,,,,,
1720079816,75,0,4190.512695,4382.563965,4306.538574,4381.538574,4409.615234,4489.358887,4412.563965,4416.282227,4415.641113,4373.846191,4250.641113,4439.102539,4303.077148,4222.94873,,,,,,,,,,,,,,,,,,,,,,,,,,,,,,,,,,,,,,,,,,,,,,,,,,,,,,,,,,,,,,,,,,,,,,
1720079816,76,0,4200.256348,4386.025879,4308.974121,4381.153809,4403.589844,4491.153809,4421.153809,4429.615234,4423.846191,4374.487305,4262.307617,4449.230957,4313.333496,4232.05127,,,,,,,,,,,,,,,,,,,,,,,,,,,,,,,,,,,,,,,,,,,,,,,,,,,,,,,,,,,,,,,,,,,,,,
1720079816,77,0,4204.487305,4382.563965,4311.282227,4375.128418,4408.461426,4498.717773,4428.717773,4442.436035,4430.641113,4382.307617,4269.615234,4456.282227,4315.897461,4236.538574,,,,,,,,,,,,,,,,,,,,,,,,,,,,,,,,,,,,,,,,,,,,,,,,,,,,,,,,,,,,,,,,,,,,,,
1720079816,78,0,4207.94873,4375.769043,4305.384766,4368.846191,4408.589844,4498.077148,4420.384766,4433.077148,4430.384766,4380.897461,4262.179688,4447.563965,4313.205078,4228.077148,,,,,,,,,,,,,,,,,,,,,,,,,,,,,,,,,,,,,,,,,,,,,,,,,,,,,,,,,,,,,,,,,,,,,,
1720079816,79,0,4213.717773,4373.717773,4294.102539,4364.871582,4395.512695,4494.743652,4415.128418,4423.589844,4426.794922,4372.94873,4250.128418,4436.282227,4309.358887,4217.179688,,,,,,,,,,,,,,,,,,,,,,,,,,,,,,,,,,,,,,,,,,,,,,,,,,,,,,,,,,,,,,,,,,,,,,
1720079816,80,0,4227.05127,4381.538574,4298.846191,4371.025879,4392.94873,4502.05127,4426.794922,4430.897461,4420.384766,4378.589844,4253.846191,4444.102539,4311.922852,4224.615234,4.686919,3.438235,1.330695,0.345501,0.144464,1.953461,2.375332,0.920457,0.189909,0.205169,17.111259,4.88216,2.649125,0.732965,0.152371,2.82092,1.320724,0.53797,0.215496,0.163879,1.206861,0.557143,2.541279,0.692647,0.719855,2.012386,4.757728,0.940536,0.398555,0.182337,2.365691,8.217335,4.326566,1.432942,0.188434,1.567721,2.256418,3.574865,0.624036,0.307307,0.895531,1.532768,1.535835,0.354467,0.269709,0.906255,1.261389,0.511926,0.415102,0.20283,1.573204,2.647869,0.49141,0.496623,0.214025,2.587794,3.149158,0.385138,0.643718,0.253527,0.411221,2.743488,0.94534,0.325103,0.156649,1.292066,3.307448,0.755319,0.515453,0.173249
1720079816,81,0,4236.538574,4385.384766,4311.410156,4377.436035,4409.743652,4501.794922,4432.05127,4430.897461,4418.205078,4389.615234,4263.205078,4452.692383,4315.897461,4234.487305,,,,,,,,,,,,,,,,,,,,,,,,,,,,,,,,,,,,,,,,,,,,,,,,,,,,,,,,,,,,,,,,,,,,,,
1720079816,82,0,4243.974121,4377.436035,4315.256348,4369.102539,4420.897461,4492.307617,4427.563965,4425.512695,4423.846191,4387.94873,4267.05127,4454.871582,4315.256348,4235.512695,,,,,,,,,,,,,,,,,,,,,,,,,,,,,,,,,,,,,,,,,,,,,,,,,,,,,,,,,,,,,,,,,,,,,,
1720079816,83,0,4252.436035,4372.307617,4318.717773,4359.487305,4408.589844,4492.94873,4426.922852,4437.307617,4427.692383,4382.94873,4263.846191,4455.897461,4309.615234,4236.666504,,,,,,,,,,,,,,,,,,,,,,,,,,,,,,,,,,,,,,,,,,,,,,,,,,,,,,,,,,,,,,,,,,,,,,
1720079816,84,0,4250.897461,4369.230957,4321.666504,4358.205078,4398.205078,4494.230957,4420.641113,4443.974121,4425.128418,4378.717773,4253.846191,4445.128418,4298.461426,4229.487305,,,,,,,,,,,,,,,,,,,,,,,,,,,,,,,,,,,,,,,,,,,,,,,,,,,,,,,,,,,,,,,,,,,,,,
1720079816,85,0,4251.794922,4364.358887,4322.05127,4356.794922,4394.743652,4489.102539,4415.512695,4431.922852,4426.153809,4374.743652,4251.153809,4439.871582,4293.461426,4219.743652,,,,,,,,,,,,,,,,,,,,,,,,,,,,,,,,,,,,,,,,,,,,,,,,,,,,,,,,,,,,,,,,,,,,,,
1720079816,86,0,4275,4378.333496,4332.436035,4364.743652,4396.794922,4491.153809,4426.153809,4428.974121,4434.615234,4385.128418,4263.077148,4452.692383,4306.153809,4227.563965,,,,,,,,,,,,,,,,,,,,,,,,,,,,,,,,,,,,,,,,,,,,,,,,,,,,,,,,,,,,,,,,,,,,,,
1720079816,87,0,4296.282227,4397.05127,4345.897461,4378.589844,4408.589844,4486.153809,4433.461426,4436.794922,4435.384766,4397.94873,4267.05127,4458.461426,4317.436035,4240.641113,,,,,,,,,,,,,,,,,,,,,,,,,,,,,,,,,,,,,,,,,,,,,,,,,,,,,,,,,,,,,,,,,,,,,,
1720079816,88,0,4292.436035,4394.358887,4342.179688,4374.358887,4402.179688,4467.05127,4426.922852,4431.538574,4427.179688,4390.641113,4257.820313,4450,4311.025879,4235.384766,,,,,,,,,,,,,,,,,,,,,,,,,,,,,,,,,,,,,,,,,,,,,,,,,,,,,,,,,,,,,,,,,,,,,,
1720079816,89,0,4290.769043,4385.897461,4335.384766,4362.179688,4392.563965,4458.333496,4421.025879,4424.615234,4425.769043,4380.128418,4260.256348,4451.025879,4306.922852,4230.512695,,,,,,,,,,,,,,,,,,,,,,,,,,,,,,,,,,,,,,,,,,,,,,,,,,,,,,,,,,,,,,,,,,,,,,
1720079816,90,0,4304.102539,4387.692383,4336.666504,4361.666504,4406.666504,4456.922852,4418.717773,4430.897461,4423.461426,4381.410156,4268.717773,4460.256348,4314.743652,4241.538574,,,,,,,,,,,,,,,,,,,,,,,,,,,,,,,,,,,,,,,,,,,,,,,,,,,,,,,,,,,,,,,,,,,,,,
1720079816,91,0,4316.794922,4390.512695,4337.94873,4367.179688,4420.128418,4448.205078,4414.743652,4428.333496,4412.692383,4380.897461,4262.436035,4460,4314.102539,4247.05127,,,,,,,,,,,,,,,,,,,,,,,,,,,,,,,,,,,,,,,,,,,,,,,,,,,,,,,,,,,,,,,,,,,,,,
1720079816,92,0,4321.794922,4388.846191,4337.820313,4366.538574,4415.256348,4443.974121,4411.794922,4413.589844,4409.615234,4378.205078,4251.153809,4452.692383,4305,4238.077148,,,,,,,,,,,,,,,,,,,,,,,,,,,,,,,,,,,,,,,,,,,,,,,,,,,,,,,,,,,,,,,,,,,,,,
1720079816,93,0,4328.461426,4389.871582,4339.871582,4364.743652,4408.717773,4446.282227,4412.179688,4413.333496,4415,4379.743652,4250.384766,4449.871582,4302.94873,4235.641113,,,,,,,,,,,,,,,,,,,,,,,,,,,,,,,,,,,,,,,,,,,,,,,,,,,,,,,,,,,,,,,,,,,,,,
1720079816,94,0,4340.897461,4394.615234,4345,4367.692383,4412.179688,4443.461426,4411.410156,4421.922852,4416.666504,4381.410156,4258.461426,4455.641113,4309.487305,4246.794922,,,,,,,,,,,,,,,,,,,,,,,,,,,,,,,,,,,,,,,,,,,,,,,,,,,,,,,,,,,,,,,,,,,,,,
1720079816,95,0,4350.256348,4399.871582,4344.615234,4365.769043,4413.461426,4441.410156,4412.692383,4422.307617,4421.153809,4381.153809,4262.94873,4458.205078,4311.794922,4251.153809,,,,,,,,,,,,,,,,,,,,,,,,,,,,,,,,,,,,,,,,,,,,,,,,,,,,,,,,,,,,,,,,,,,,,,
1720079816,96,0,4352.05127,4396.922852,4337.436035,4358.717773,4401.153809,4445.128418,4422.05127,4424.102539,4428.717773,4382.436035,4263.974121,4458.717773,4310,4247.94873,4.731003,3.164245,1.344137,0.299727,0.143189,1.564434,1.977336,0.865085,0.150386,0.197396,22.840601,4.40396,2.29064,0.682835,0.145579,2.119509,1.16216,0.526222,0.181773,0.166971,1.045231,0.63404,2.797535,0.482598,0.746116,1.469679,5.085756,1.27073,0.369069,0.192031,2.868327,9.089574,3.59798,1.453923,0.191135,1.719055,2.797898,3.106361,0.498021,0.302646,1.211568,1.691515,1.635198,0.287248,0.251769,0.837198,1.268906,0.557153,0.434037,0.197453,1.338859,2.27809,0.413281,0.467773,0.208293,2.490377,2.948025,0.404588,0.56609,0.235798,0.380498,2.33976,0.810634,0.302641,0.170034,1.078536,2.758607,0.65912,0.482045,0.156169
1720079816,97,0,4350.769043,4391.666504,4326.538574,4351.410156,4388.974121,4448.589844,4429.358887,4430.897461,4429.871582,4380.512695,4259.615234,4457.436035,4307.563965,4243.077148,,,,,,,,,,,,,,,,,,,,,,,,,,,,,,,,,,,,,,,,,,,,,,,,,,,,,,,,,,,,,,,,,,,,,,
1720079816,98,0,4349.487305,4393.717773,4314.358887,4342.307617,4399.871582,4448.717773,4427.94873,4428.461426,4424.615234,4374.230957,4248.974121,4445.897461,4301.794922,4231.538574,,,,,,,,,,,,,,,,,,,,,,,,,,,,,,,,,,,,,,,,,,,,,,,,,,,,,,,,,,,,,,,,,,,,,,
1720079816,99,0,4354.743652,4393.846191,4305.641113,4335.769043,4415,4448.589844,4427.179688,4426.025879,4419.230957,4373.974121,4247.820313,4442.307617,4302.179688,4229.358887,,,,,,,,,,,,,,,,,,,,,,,,,,,,,,,,,,,,,,,,,,,,,,,,,,,,,,,,,,,,,,,,,,,,,,
1720079816,100,0,4365.641113,4392.563965,4307.563965,4335.769043,4413.461426,4449.615234,4426.538574,4424.871582,4418.717773,4378.077148,4255.384766,4454.743652,4312.563965,4242.179688,,,,,,,,,,,,,,,,,,,,,,,,,,,,,,,,,,,,,,,,,,,,,,,,,,,,,,,,,,,,,,,,,,,,,,
1720079816,101,0,4368.846191,4390.128418,4312.179688,4332.692383,4406.666504,4447.692383,4417.563965,4414.743652,4416.794922,4375.512695,4253.717773,4456.025879,4311.025879,4244.230957,,,,,,,,,,,,,,,,,,,,,,,,,,,,,,,,,,,,,,,,,,,,,,,,,,,,,,,,,,,,,,,,,,,,,,
1720079816,102,0,4369.230957,4387.05127,4313.205078,4325.128418,4402.05127,4443.333496,4411.153809,4407.692383,4413.077148,4372.05127,4246.538574,4445.128418,4298.846191,4235.769043,,,,,,,,,,,,,,,,,,,,,,,,,,,,,,,,,,,,,,,,,,,,,,,,,,,,,,,,,,,,,,,,,,,,,,
1720079816,103,0,4376.153809,4387.307617,4318.205078,4325.384766,4404.358887,4444.487305,4416.025879,4413.589844,4416.538574,4375.256348,4246.794922,4448.205078,4303.077148,4238.974121,,,,,,,,,,,,,,,,,,,,,,,,,,,,,,,,,,,,,,,,,,,,,,,,,,,,,,,,,,,,,,,,,,,,,,
1720079816,104,0,4381.666504,4389.102539,4319.615234,4329.102539,4401.538574,4441.025879,4416.922852,4417.94873,4414.743652,4371.410156,4248.846191,4456.666504,4310.897461,4242.692383,,,,,,,,,,,,,,,,,,,,,,,,,,,,,,,,,,,,,,,,,,,,,,,,,,,,,,,,,,,,,,,,,,,,,,
1720079816,105,0,4382.179688,4388.589844,4308.974121,4327.307617,4381.025879,4427.179688,4408.846191,4411.794922,4403.717773,4366.794922,4246.410156,4455.384766,4305.128418,4238.333496,,,,,,,,,,,,,,,,,,,,,,,,,,,,,,,,,,,,,,,,,,,,,,,,,,,,,,,,,,,,,,,,,,,,,,
1720079816,106,0,4381.282227,4384.102539,4298.077148,4324.743652,4374.871582,4424.871582,4406.282227,4405.641113,4403.205078,4374.102539,4245.641113,4451.153809,4303.461426,4237.820313,,,,,,,,,,,,,,,,,,,,,,,,,,,,,,,,,,,,,,,,,,,,,,,,,,,,,,,,,,,,,,,,,,,,,,
1720079816,107,0,4380.641113,4377.563965,4296.025879,4324.743652,4391.922852,4432.436035,4411.410156,4409.230957,4411.282227,4378.461426,4247.179688,4448.205078,4304.487305,4238.717773,,,,,,,,,,,,,,,,,,,,,,,,,,,,,,,,,,,,,,,,,,,,,,,,,,,,,,,,,,,,,,,,,,,,,,
1720079816,108,0,4379.358887,4372.436035,4295.256348,4320.384766,4400.769043,4430.512695,4414.230957,4418.846191,4413.589844,4373.974121,4243.589844,4444.487305,4297.94873,4232.94873,,,,,,,,,,,,,,,,,,,,,,,,,,,,,,,,,,,,,,,,,,,,,,,,,,,,,,,,,,,,,,,,,,,,,,
1720079816,109,0,4377.563965,4371.025879,4282.94873,4311.538574,4395.128418,4427.436035,4414.358887,4414.358887,4408.974121,4365.897461,4235.512695,4434.358887,4291.025879,4226.153809,,,,,,,,,,,,,,,,,,,,,,,,,,,,,,,,,,,,,,,,,,,,,,,,,,,,,,,,,,,,,,,,,,,,,,
1720079816,110,0,4377.563965,4367.563965,4266.025879,4308.461426,4388.461426,4432.692383,4411.794922,4398.846191,4402.692383,4357.05127,4226.410156,4420.897461,4284.871582,4222.820313,,,,,,,,,,,,,,,,,,,,,,,,,,,,,,,,,,,,,,,,,,,,,,,,,,,,,,,,,,,,,,,,,,,,,,
1720079816,111,0,4381.410156,4365.769043,4259.487305,4314.871582,4391.794922,4433.974121,4405.384766,4398.333496,4398.974121,4354.358887,4221.025879,4418.846191,4277.05127,4218.717773,,,,,,,,,,,,,,,,,,,,,,,,,,,,,,,,,,,,,,,,,,,,,,,,,,,,,,,,,,,,,,,,,,,,,,
1720079816,112,0,4384.871582,4369.615234,4260.128418,4321.025879,4390.512695,4429.871582,4402.692383,4405.897461,4400.769043,4361.794922,4222.820313,4425.769043,4278.846191,4217.94873,5.517346,2.969572,1.344663,0.278167,0.147293,1.233878,1.612682,0.824871,0.123632,0.183935,29.017914,3.968123,1.993267,0.611578,0.142088,1.619101,1.020351,0.584814,0.149051,0.173206,0.872697,0.678796,2.846717,0.327574,0.79047,1.239541,5.465327,1.677039,0.341923,0.198917,3.130647,9.53797,2.906083,1.434283,0.190405,1.86979,2.992439,2.706926,0.41961,0.286537,1.582124,1.801939,1.728299,0.244269,0.233932,0.761352,1.254462,0.582386,0.437912,0.191062,1.135649,1.893241,0.372584,0.448285,0.205354,2.355606,2.676608,0.427697,0.506253,0.220521,0.394239,1.934001,0.628099,0.279559,0.188243,0.928013,2.211977,0.541867,0.447428,0.145054
1720079816,113,0,4388.717773,4371.282227,4258.589844,4324.358887,4374.615234,4429.358887,4406.025879,4403.205078,4404.230957,4366.282227,4231.410156,4427.307617,4287.05127,4224.358887,,,,,,,,,,,,,,,,,,,,,,,,,,,,,,,,,,,,,,,,,,,,,,,,,,,,,,,,,,,,,,,,,,,,,,
1720079816,114,0,4393.974121,4373.205078,4258.974121,4326.153809,4377.563965,4431.282227,4407.436035,4397.05127,4401.922852,4363.846191,4231.282227,4424.230957,4285.641113,4228.077148,,,,,,,,,,,,,,,,,,,,,,,,,,,,,,,,,,,,,,,,,,,,,,,,,,,,,,,,,,,,,,,,,,,,,,
1720079816,115,0,4393.717773,4376.922852,4259.871582,4325,4402.94873,4430.128418,4401.794922,4397.692383,4400.641113,4364.743652,4221.282227,4423.077148,4280.384766,4225.897461,,,,,,,,,,,,,,,,,,,,,,,,,,,,,,,,,,,,,,,,,,,,,,,,,,,,,,,,,,,,,,,,,,,,,,
1720079816,116,0,4394.615234,4380.897461,4266.282227,4330.256348,4401.794922,4428.461426,4401.922852,4397.179688,4406.025879,4365,4222.436035,4430.897461,4279.230957,4228.717773,,,,,,,,,,,,,,,,,,,,,,,,,,,,,,,,,,,,,,,,,,,,,,,,,,,,,,,,,,,,,,,,,,,,,,
1720079816,117,0,4401.794922,4385.256348,4279.487305,4340.512695,4388.461426,4427.820313,4410,4394.871582,4406.410156,4360.641113,4232.820313,4445.512695,4279.102539,4234.871582,,,,,,,,,,,,,,,,,,,,,,,,,,,,,,,,,,,,,,,,,,,,,,,,,,,,,,,,,,,,,,,,,,,,,,
1720079816,118,0,4401.410156,4384.487305,4280.769043,4341.153809,4394.102539,4423.974121,4407.05127,4395,4400.769043,4356.282227,4233.717773,4455.128418,4282.820313,4236.410156,,,,,,,,,,,,,,,,,,,,,,,,,,,,,,,,,,,,,,,,,,,,,,,,,,,,,,,,,,,,,,,,,,,,,,
1720079816,119,0,4395,4382.307617,4277.179688,4336.794922,4398.461426,4417.05127,4399.358887,4396.794922,4404.615234,4360.641113,4229.102539,4464.743652,4288.461426,4237.94873,,,,,,,,,,,,,,,,,,,,,,,,,,,,,,,,,,,,,,,,,,,,,,,,,,,,,,,,,,,,,,,,,,,,,,
1720079816,120,0,4390.512695,4383.846191,4288.077148,4341.794922,4396.538574,4411.153809,4406.025879,4400.128418,4416.153809,4368.077148,4229.871582,4477.820313,4283.846191,4238.846191,,,,,,,,,,,,,,,,,,,,,,,,,,,,,,,,,,,,,,,,,,,,,,,,,,,,,,,,,,,,,,,,,,,,,,
1720079816,121,0,4384.358887,4381.794922,4294.487305,4349.487305,4391.410156,4401.153809,4414.615234,4403.333496,4419.487305,4370,4230.128418,4484.102539,4277.563965,4235.512695,,,,,,,,,,,,,,,,,,,,,,,,,,,,,,,,,,,,,,,,,,,,,,,,,,,,,,,,,,,,,,,,,,,,,,
1720079816,122,0,4383.717773,4383.846191,4283.205078,4352.692383,4387.94873,4390.384766,4412.563965,4409.230957,4418.333496,4369.358887,4232.179688,4491.666504,4289.487305,4241.538574,,,,,,,,,,,,,,,,,,,,,,,,,,,,,,,,,,,,,,,,,,,,,,,,,,,,,,,,,,,,,,,,,,,,,,
1720079816,123,0,4390.512695,4392.563965,4276.538574,4353.461426,4402.820313,4386.666504,4413.205078,4415.641113,4421.922852,4372.179688,4240.897461,4497.820313,4300.769043,4253.461426,,,,,,,,,,,,,,,,,,,,,,,,,,,,,,,,,,,,,,,,,,,,,,,,,,,,,,,,,,,,,,,,,,,,,,
1720079816,124,0,4394.358887,4396.922852,4276.153809,4352.436035,4418.461426,4382.94873,4416.153809,4413.205078,4425.256348,4374.615234,4243.717773,4486.282227,4296.794922,4253.077148,,,,,,,,,,,,,,,,,,,,,,,,,,,,,,,,,,,,,,,,,,,,,,,,,,,,,,,,,,,,,,,,,,,,,,
1720079816,125,0,4396.538574,4398.205078,4268.461426,4351.922852,4414.487305,4377.692383,4413.333496,4407.436035,4427.692383,4372.179688,4243.846191,4474.743652,4295.769043,4253.333496,,,,,,,,,,,,,,,,,,,,,,,,,,,,,,,,,,,,,,,,,,,,,,,,,,,,,,,,,,,,,,,,,,,,,,
1720079816,126,0,4402.563965,4398.589844,4264.743652,4348.077148,4408.077148,4382.307617,4410.256348,4404.358887,4428.974121,4373.461426,4247.436035,4479.358887,4300.512695,4260.256348,,,,,,,,,,,,,,,,,,,,,,,,,,,,,,,,,,,,,,,,,,,,,,,,,,,,,,,,,,,,,,,,,,,,,,
1720079816,127,0,4402.692383,4395.897461,4262.820313,4338.461426,4407.820313,4390.512695,4408.205078,4400.897461,4428.205078,4371.538574,4242.692383,4477.05127,4296.794922,4255.641113,,,,,,,,,,,,,,,,,,,,,,,,,,,,,,,,,,,,,,,,,,,,,,,,,,,,,,,,,,,,,,,,,,,,,,
1720079816,0,0,4399.615234,4398.333496,4251.794922,4337.436035,4401.538574,4386.538574,4404.358887,4400.256348,4425.769043,4365.641113,4235.256348,4461.025879,4288.974121,4247.05127,6.565271,2.914641,1.316241,0.286818,0.155744,1.027258,1.30768,0.758484,0.112972,0.167941,34.763332,3.605777,1.754272,0.530713,0.142301,1.354406,0.886248,0.660982,0.127861,0.182938,0.725049,0.681609,2.66104,0.247188,0.826966,1.314886,5.666674,2.043802,0.316437,0.204085,3.065058,9.232264,2.298172,1.372984,0.185968,2.00148,2.765938,2.331383,0.404354,0.263995,1.936054,1.816756,1.740247,0.230678,0.216088,0.7026,1.197455,0.570051,0.422641,0.181484,1.038619,1.549993,0.378749,0.440409,0.202916,2.239565,2.389457,0.464291,0.481239,0.207754,0.502962,1.583346,0.443398,0.254835,0.205592,0.855317,1.76488,0.417156,0.42254,0.142958
1720079816,1,0,4402.94873,4397.94873,4243.205078,4340.512695,4393.846191,4385,4411.025879,4409.102539,4429.230957,4376.282227,4245,4464.615234,4292.94873,4257.05127,,,,,,,,,,,,,,,,,,,,,,,,,,,,,,,,,,,,,,,,,,,,,,,,,,,,,,,,,,,,,,,,,,,,,,
1720079816,2,0,4403.461426,4387.94873,4240.128418,4332.05127,4397.436035,4398.717773,4428.333496,4417.692383,4434.230957,4382.307617,4255.256348,4480.769043,4299.871582,4263.974121,,,,,,,,,,,,,,,,,,,,,,,,,,,,,,,,,,,,,,,,,,,,,,,,,,,,,,,,,,,,,,,,,,,,,,
1720079816,3,0,4403.589844,4392.563965,4231.025879,4327.820313,4411.282227,4398.589844,4428.589844,4415.384766,4424.487305,4364.743652,4242.692383,4472.692383,4286.025879,4252.05127,,,,,,,,,,,,,,,,,,,,,,,,,,,,,,,,,,,,,,,,,,,,,,,,,,,,,,,,,,,,,,,,,,,,,,
1720079816,4,0,4409.358887,4412.436035,4223.077148,4338.205078,4419.743652,4382.692383,4412.05127,4410.641113,4411.794922,4358.589844,4227.820313,4456.025879,4264.615234,4245.256348,,,,,,,,,,,,,,,,,,,,,,,,,,,,,,,,,,,,,,,,,,,,,,,,,,,,,,,,,,,,,,,,,,,,,,
1720079816,5,0,4418.077148,4422.307617,4224.871582,4342.179688,4417.820313,4386.538574,4409.102539,4411.922852,4415.897461,4373.717773,4231.666504,4461.538574,4266.153809,4253.205078,,,,,,,,,,,,,,,,,,,,,,,,,,,,,,,,,,,,,,,,,,,,,,,,,,,,,,,,,,,,,,,,,,,,,,
1720079816,6,0,4423.205078,4419.230957,4226.666504,4333.461426,4414.487305,4399.871582,4418.974121,4414.871582,4427.692383,4377.436035,4238.461426,4470,4279.871582,4263.205078,,,,,,,,,,,,,,,,,,,,,,,,,,,,,,,,,,,,,,,,,,,,,,,,,,,,,,,,,,,,,,,,,,,,,,
1720079816,7,0,4418.077148,4415.256348,4231.922852,4326.922852,4412.05127,4386.666504,4418.717773,4415.128418,4428.717773,4371.666504,4235.512695,4462.563965,4277.820313,4262.563965,,,,,,,,,,,,,,,,,,,,,,,,,,,,,,,,,,,,,,,,,,,,,,,,,,,,,,,,,,,,,,,,,,,,,,
1720079816,8,0,4405.256348,4411.410156,4246.538574,4325,4412.307617,4370.512695,4412.563965,4411.025879,4425.769043,4374.230957,4230.897461,4454.871582,4267.563965,4254.487305,,,,,,,,,,,,,,,,,,,,,,,,,,,,,,,,,,,,,,,,,,,,,,,,,,,,,,,,,,,,,,,,,,,,,,
1720079816,9,0,4398.846191,4412.05127,4265.769043,4328.077148,4404.871582,4376.025879,4414.102539,4407.94873,4428.205078,4374.615234,4231.025879,4451.666504,4270.512695,4251.922852,,,,,,,,,,,,,,,,,,,,,,,,,,,,,,,,,,,,,,,,,,,,,,,,,,,,,,,,,,,,,,,,,,,,,,
1720079816,10,0,4400.769043,4417.563965,4283.974121,4332.436035,4396.538574,4378.205078,4413.717773,4410.256348,4425.256348,4374.230957,4232.307617,4450.384766,4279.230957,4256.410156,,,,,,,,,,,,,,,,,,,,,,,,,,,,,,,,,,,,,,,,,,,,,,,,,,,,,,,,,,,,,,,,,,,,,,
1720079816,11,0,4396.410156,4416.666504,4292.563965,4328.589844,4406.794922,4371.410156,4411.666504,4412.563965,4416.282227,4377.436035,4234.743652,4453.461426,4275.897461,4254.230957,,,,,,,,,,,,,,,,,,,,,,,,,,,,,,,,,,,,,,,,,,,,,,,,,,,,,,,,,,,,,,,,,,,,,,
1720079816,12,0,4391.666504,4412.436035,4297.05127,4325.384766,4419.102539,4373.717773,4419.487305,4412.179688,4415.128418,4374.487305,4240.897461,4457.05127,4271.538574,4250.641113,,,,,,,,,,,,,,,,,,,,,,,,,,,,,,,,,,,,,,,,,,,,,,,,,,,,,,,,,,,,,,,,,,,,,,
1720079816,13,0,4392.05127,4410.384766,4306.922852,4326.922852,4422.820313,4372.692383,4427.436035,4413.333496,4417.563965,4365.769043,4247.179688,4458.846191,4276.153809,4257.820313,,,,,,,,,,,,,,,,,,,,,,,,,,,,,,,,,,,,,,,,,,,,,,,,,,,,,,,,,,,,,,,,,,,,,,
1720079816,14,0,4394.743652,4411.666504,4321.666504,4327.05127,4423.846191,4358.974121,4427.563965,4416.025879,4417.692383,4363.846191,4251.153809,4461.025879,4280.384766,4260.769043,,,,,,,,,,,,,,,,,,,,,,,,,,,,,,,,,,,,,,,,,,,,,,,,,,,,,,,,,,,,,,,,,,,,,,
1720079816,15,0,4400,4414.102539,4333.717773,4327.307617,4419.615234,4351.282227,4426.922852,4414.102539,4421.153809,4370.641113,4245.512695,4459.871582,4276.538574,4255.641113,,,,,,,,,,,,,,,,,,,,,,,,,,,,,,,,,,,,,,,,,,,,,,,,,,,,,,,,,,,,,,,,,,,,,,
1720079816,16,0,4398.846191,4412.692383,4339.102539,4326.282227,4415.256348,4348.974121,4421.922852,4405.256348,4423.333496,4368.461426,4231.922852,4452.179688,4273.333496,4255.769043,8.055289,2.965588,1.269691,0.319688,0.166868,0.991929,1.059906,0.67627,0.12022,0.152988,38.907585,3.308746,1.572466,0.462075,0.146879,1.315404,0.758409,0.730792,0.125006,0.193726,0.65463,0.641683,2.303294,0.237523,0.833206,1.545682,5.511027,2.261568,0.288167,0.207868,2.690577,8.150545,1.93848,1.274834,0.178371,2.058583,2.205676,2.010979,0.450777,0.243525,2.154783,1.712889,1.645713,0.239992,0.197749,0.662287,1.07977,0.522441,0.392985,0.169203,1.040327,1.26465,0.433376,0.442934,0.199209,2.207082,2.131228,0.50916,0.492418,0.19837,0.680887,1.318908,0.321053,0.230297,0.218465,0.849538,1.460867,0.329466,0.41242,0.151261
1720079816,17,0,4393.333496,4410.897461,4343.589844,4326.282227,4407.05127,4342.436035,4414.102539,4403.461426,4424.358887,4362.179688,4233.333496,4448.333496,4277.307617,4260.641113,,,,,,,,,,,,,,,,,,,,,,,,,,,,,,,,,,,,,,,,,,,,,,,,,,,,,,,,,,,,,,,,,,,,,,
1720079816,18,0,4394.358887,4417.307617,4350.897461,4331.025879,4395.384766,4342.307617,4416.922852,4408.205078,4425.512695,4370,4246.410156,4453.461426,4281.666504,4260.769043,,,,,,,,,,,,,,,,,,,,,,,,,,,,,,,,,,,,,,,,,,,,,,,,,,,,,,,,,,,,,,,,,,,,,,
1720079816,19,0,4396.153809,4423.974121,4353.077148,4332.05127,4404.871582,4345,4420.641113,4406.538574,4422.563965,4373.461426,4246.153809,4453.846191,4280.128418,4257.436035,,,,,,,,,,,,,,,,,,,,,,,,,,,,,,,,,,,,,,,,,,,,,,,,,,,,,,,,,,,,,,,,,,,,,,
1720079816,20,0,4390.512695,4416.794922,4342.563965,4326.922852,4424.358887,4344.871582,4416.025879,4406.666504,4423.589844,4363.205078,4241.538574,4448.974121,4275.897461,4255.512695,,,,,,,,,,,,,,,,,,,,,,,,,,,,,,,,,,,,,,,,,,,,,,,,,,,,,,,,,,,,,,,,,,,,,,
1720079817,21,0,4386.282227,4408.846191,4334.487305,4325.128418,4420.897461,4340.512695,4411.538574,4408.846191,4429.102539,4362.307617,4246.538574,4453.205078,4276.410156,4248.717773,,,,,,,,,,,,,,,,,,,,,,,,,,,,,,,,,,,,,,,,,,,,,,,,,,,,,,,,,,,,,,,,,,,,,,
1720079817,22,0,4386.025879,4410.256348,4336.153809,4326.410156,4409.871582,4332.307617,4407.820313,4400.256348,4425.897461,4369.230957,4243.846191,4455.256348,4277.820313,4243.333496,,,,,,,,,,,,,,,,,,,,,,,,,,,,,,,,,,,,,,,,,,,,,,,,,,,,,,,,,,,,,,,,,,,,,,
1720079817,23,0,4388.846191,4413.333496,4336.538574,4328.461426,4410.897461,4335.256348,4409.743652,4395.512695,4424.615234,4367.307617,4241.922852,4451.794922,4278.077148,4246.410156,,,,,,,,,,,,,,,,,,,,,,,,,,,,,,,,,,,,,,,,,,,,,,,,,,,,,,,,,,,,,,,,,,,,,,
1720079817,24,0,4394.102539,4412.05127,4330.128418,4327.179688,4418.974121,4344.358887,4413.205078,4400.641113,4430.641113,4362.94873,4244.743652,4452.307617,4278.077148,4246.666504,,,,,,,,,,,,,,,,,,,,,,,,,,,,,,,,,,,,,,,,,,,,,,,,,,,,,,,,,,,,,,,,,,,,,,
1720079817,25,0,4393.077148,4407.820313,4317.692383,4319.871582,4417.05127,4330.641113,4411.538574,4395.512695,4427.692383,4360.256348,4236.410156,4447.307617,4275.641113,4237.692383,,,,,,,,,,,,,,,,,,,,,,,,,,,,,,,,,,,,,,,,,,,,,,,,,,,,,,,,,,,,,,,,,,,,,,
1720079817,26,0,4388.461426,4407.307617,4309.871582,4321.666504,4397.692383,4307.436035,4417.820313,4396.153809,4429.871582,4356.282227,4232.179688,4435.384766,4273.717773,4234.871582,,,,,,,,,,,,,,,,,,,,,,,,,,,,,,,,,,,,,,,,,,,,,,,,,,,,,,,,,,,,,,,,,,,,,,
1720079817,27,0,4395.128418,4411.282227,4314.230957,4331.153809,4396.410156,4303.717773,4431.794922,4411.410156,4441.410156,4356.922852,4245,4439.230957,4276.282227,4245,,,,,,,,,,,,,,,,,,,,,,,,,,,,,,,,,,,,,,,,,,,,,,,,,,,,,,,,,,,,,,,,,,,,,,
1720079817,28,0,4408.461426,4415.769043,4326.922852,4331.794922,4424.358887,4299.102539,4433.846191,4414.102539,4446.666504,4366.794922,4253.333496,4455.512695,4285.512695,4253.717773,,,,,,,,,,,,,,,,,,,,,,,,,,,,,,,,,,,,,,,,,,,,,,,,,,,,,,,,,,,,,,,,,,,,,,
1720079817,29,0,4413.846191,4415.512695,4336.025879,4330.512695,4428.461426,4281.153809,4428.589844,4413.974121,4449.615234,4374.358887,4249.615234,4461.025879,4295,4258.461426,,,,,,,,,,,,,,,,,,,,,,,,,,,,,,,,,,,,,,,,,,,,,,,,,,,,,,,,,,,,,,,,,,,,,,
1720079817,30,0,4412.820313,4412.436035,4339.358887,4333.205078,4411.282227,4276.794922,4430.384766,4425.897461,4453.846191,4373.589844,4248.974121,4460.512695,4294.743652,4261.794922,,,,,,,,,,,,,,,,,,,,,,,,,,,,,,,,,,,,,,,,,,,,,,,,,,,,,,,,,,,,,,,,,,,,,,
1720079817,31,0,4417.692383,4416.153809,4347.307617,4335.512695,4409.230957,4279.871582,4425.512695,4429.358887,4450.897461,4374.743652,4253.974121,4463.589844,4292.94873,4265.256348,,,,,,,,,,,,,,,,,,,,,,,,,,,,,,,,,,,,,,,,,,,,,,,,,,,,,,,,,,,,,,,,,,,,,,
1720079817,32,0,4435,4426.282227,4357.179688,4345.256348,4414.743652,4269.487305,4415.384766,4417.307617,4444.743652,4381.153809,4260.128418,4466.922852,4302.820313,4268.717773,9.263626,3.018901,1.2301,0.361022,0.177806,1.034913,0.862296,0.610615,0.145496,0.141113,40.51112,3.034968,1.448359,0.423214,0.155614,1.473222,0.644406,0.787287,0.142207,0.20113,0.6196,0.572111,1.910594,0.276866,0.801354,1.970758,4.977535,2.258033,0.256321,0.209585,2.095862,6.573915,1.873302,1.149151,0.169307,1.987229,1.531367,1.776685,0.532295,0.232144,2.210761,1.516391,1.468755,0.254636,0.179293,0.624535,0.907428,0.452336,0.360994,0.157542,1.091831,1.030561,0.512543,0.4535,0.194839,2.387506,1.940656,0.54465,0.525927,0.194788,0.917072,1.143261,0.288219,0.212047,0.226814,0.878504,1.281365,0.304676,0.415349,0.167993
1720079817,33,0,4447.692383,4431.025879,4362.820313,4355.641113,4424.615234,4261.153809,4420.641113,4415,4445,4382.307617,4266.538574,4473.333496,4313.717773,4271.666504,,,,,,,,,,,,,,,,,,,,,,,,,,,,,,,,,,,,,,,,,,,,,,,,,,,,,,,,,,,,,,,,,,,,,,
1720079817,34,0,4446.025879,4427.179688,4365,4349.487305,4427.94873,4268.974121,4425.897461,4422.94873,4447.820313,4378.974121,4269.615234,4478.461426,4313.077148,4273.333496,,,,,,,,,,,,,,,,,,,,,,,,,,,,,,,,,,,,,,,,,,,,,,,,,,,,,,,,,,,,,,,,,,,,,,
1720079817,35,0,4439.743652,4422.820313,4361.282227,4340.512695,4415.769043,4275.384766,4414.615234,4416.666504,4446.538574,4377.820313,4261.025879,4466.794922,4306.922852,4267.307617,,,,,,,,,,,,,,,,,,,,,,,,,,,,,,,,,,,,,,,,,,,,,,,,,,,,,,,,,,,,,,,,,,,,,,
1720079817,36,0,4434.743652,4416.538574,4347.563965,4341.922852,4416.025879,4273.205078,4410.256348,4411.410156,4442.820313,4371.666504,4248.974121,4452.05127,4305.769043,4257.820313,,,,,,,,,,,,,,,,,,,,,,,,,,,,,,,,,,,,,,,,,,,,,,,,,,,,,,,,,,,,,,,,,,,,,,
1720079817,37,0,4436.538574,4410.897461,4337.05127,4344.102539,4430.384766,4280.128418,4424.358887,4423.974121,4448.846191,4364.743652,4253.589844,4456.538574,4310.128418,4258.333496,,,,,,,,,,,,,,,,,,,,,,,,,,,,,,,,,,,,,,,,,,,,,,,,,,,,,,,,,,,,,,,,,,,,,,
1720079817,38,0,4443.333496,4413.077148,4341.282227,4342.563965,4430.641113,4293.077148,4436.922852,4434.230957,4458.205078,4367.94873,4264.487305,4466.282227,4311.794922,4265.384766,,,,,,,,,,,,,,,,,,,,,,,,,,,,,,,,,,,,,,,,,,,,,,,,,,,,,,,,,,,,,,,,,,,,,,
1720079817,39,0,4447.436035,4419.358887,4345.897461,4342.692383,4428.846191,4297.692383,4443.589844,4430.897461,4458.461426,4374.358887,4263.333496,4468.717773,4312.05127,4267.820313,,,,,,,,,,,,,,,,,,,,,,,,,,,,,,,,,,,,,,,,,,,,,,,,,,,,,,,,,,,,,,,,,,,,,,
1720079817,40,0,4453.333496,4425.897461,4346.794922,4347.94873,4431.538574,4294.487305,4447.307617,4428.589844,4457.563965,4379.743652,4262.179688,4469.743652,4321.538574,4272.307617,,,,,,,,,,,,,,,,,,,,,,,,,,,,,,,,,,,,,,,,,,,,,,,,,,,,,,,,,,,,,,,,,,,,,,
1720079817,41,0,4461.794922,4427.94873,4352.436035,4355.512695,4418.589844,4292.179688,4440,4430.256348,4458.974121,4382.179688,4268.077148,4473.461426,4331.025879,4280.512695,,,,,,,,,,,,,,,,,,,,,,,,,,,,,,,,,,,,,,,,,,,,,,,,,,,,,,,,,,,,,,,,,,,,,,
1720079817,42,0,4459.871582,4425.641113,4357.05127,4355.512695,4415.128418,4296.025879,4431.666504,4428.717773,4456.794922,4375.897461,4267.307617,4470.128418,4327.307617,4280.128418,,,,,,,,,,,,,,,,,,,,,,,,,,,,,,,,,,,,,,,,,,,,,,,,,,,,,,,,,,,,,,,,,,,,,,
1720079817,43,0,4457.179688,4426.410156,4357.179688,4352.307617,4431.538574,4295,4427.563965,4428.717773,4455.897461,4370.384766,4261.922852,4464.102539,4327.94873,4278.461426,,,,,,,,,,,,,,,,,,,,,,,,,,,,,,,,,,,,,,,,,,,,,,,,,,,,,,,,,,,,,,,,,,,,,,
1720079817,44,0,4468.461426,4429.102539,4363.333496,4359.487305,4427.820313,4289.487305,4421.922852,4426.794922,4458.717773,4377.436035,4266.282227,4467.05127,4339.615234,4285.897461,,,,,,,,,,,,,,,,,,,,,,,,,,,,,,,,,,,,,,,,,,,,,,,,,,,,,,,,,,,,,,,,,,,,,,
1720079817,45,0,4473.333496,4429.358887,4372.05127,4365.128418,4416.025879,4298.205078,4420.641113,4425.256348,4457.179688,4384.102539,4272.820313,4473.717773,4343.846191,4293.333496,,,,,,,,,,,,,,,,,,,,,,,,,,,,,,,,,,,,,,,,,,,,,,,,,,,,,,,,,,,,,,,,,,,,,,
1720079817,46,0,4466.025879,4430.256348,4374.871582,4359.102539,4431.410156,4316.153809,4425.641113,4425.897461,4455.128418,4381.538574,4268.974121,4473.077148,4338.333496,4290.641113,,,,,,,,,,,,,,,,,,,,,,,,,,,,,,,,,,,,,,,,,,,,,,,,,,,,,,,,,,,,,,,,,,,,,,
1720079817,47,0,4463.846191,4430.769043,4376.794922,4355.128418,4448.077148,4323.333496,4432.94873,4427.94873,4457.94873,4380,4266.794922,4470.256348,4334.230957,4286.282227,,,,,,,,,,,,,,,,,,,,,,,,,,,,,,,,,,,,,,,,,,,,,,,,,,,,,,,,,,,,,,,,,,,,,,
1720079817,48,0,4466.410156,4427.563965,4381.922852,4359.615234,4436.410156,4327.820313,4439.615234,4436.794922,4460.256348,4382.307617,4277.820313,4476.025879,4336.794922,4288.077148,9.796777,2.958654,1.187216,0.391727,0.184958,1.106148,0.702614,0.569239,0.18465,0.132756,40.11887,2.772765,1.373325,0.411074,0.166091,1.837922,0.539484,0.814037,0.172836,0.201027,0.634174,0.487645,1.635664,0.340395,0.740651,2.605856,4.191033,2.033376,0.221776,0.209313,1.484107,4.892432,1.965777,1.004594,0.161016,1.784342,0.963437,1.622271,0.608136,0.231169,2.157768,1.279109,1.261303,0.264084,0.162606,0.583016,0.710151,0.379082,0.337179,0.15078,1.160457,0.832475,0.582137,0.469118,0.192923,2.894886,1.832573,0.560373,0.558057,0.200689,1.209811,1.030143,0.322641,0.206381,0.233725,0.917592,1.164943,0.32849,0.422857,0.18868
1720079817,49,0,4462.05127,4425.897461,4389.615234,4360.256348,4427.179688,4336.282227,4445.641113,4444.743652,4458.717773,4386.538574,4282.820313,4479.102539,4339.743652,4286.922852,,,,,,,,,,,,,,,,,,,,,,,,,,,,,,,,,,,,,,,,,,,,,,,,,,,,,,,,,,,,,,,,,,,,,,
1720079817,50,0,4459.102539,4426.410156,4395,4356.538574,4429.230957,4332.820313,4445.384766,4445.128418,4459.743652,4391.410156,4272.820313,4475.769043,4337.692383,4283.589844,,,,,,,,,,,,,,,,,,,,,,,,,,,,,,,,,,,,,,,,,,,,,,,,,,,,,,,,,,,,,,,,,,,,,,
1720079817,51,0,4460.384766,4425.128418,4392.436035,4358.974121,4420.641113,4323.717773,4436.025879,4438.846191,4459.871582,4389.358887,4263.974121,4467.563965,4335,4280.256348,,,,,,,,,,,,,,,,,,,,,,,,,,,,,,,,,,,,,,,,,,,,,,,,,,,,,,,,,,,,,,,,,,,,,,
1720079817,52,0,4459.487305,4425.256348,4391.410156,4363.333496,4419.615234,4329.230957,4428.974121,4430.128418,4452.05127,4385,4262.94873,4458.846191,4334.615234,4277.179688,,,,,,,,,,,,,,,,,,,,,,,,,,,,,,,,,,,,,,,,,,,,,,,,,,,,,,,,,,,,,,,,,,,,,,
1720079817,53,0,4462.820313,4428.333496,4398.205078,4366.410156,4424.102539,4341.153809,4428.205078,4424.230957,4444.230957,4383.846191,4263.205078,4459.358887,4331.922852,4278.846191,,,,,,,,,,,,,,,,,,,,,,,,,,,,,,,,,,,,,,,,,,,,,,,,,,,,,,,,,,,,,,,,,,,,,,
1720079817,54,0,4465.512695,4430,4397.94873,4370,4420,4345.256348,4429.230957,4425.512695,4443.461426,4380.384766,4264.871582,4458.717773,4329.871582,4279.487305,,,,,,,,,,,,,,,,,,,,,,,,,,,,,,,,,,,,,,,,,,,,,,,,,,,,,,,,,,,,,,,,,,,,,,
1720079817,55,0,4459.102539,4428.077148,4391.410156,4367.94873,4424.358887,4348.846191,4427.05127,4427.94873,4444.102539,4380.512695,4265.769043,4456.282227,4330.769043,4272.563965,,,,,,,,,,,,,,,,,,,,,,,,,,,,,,,,,,,,,,,,,,,,,,,,,,,,,,,,,,,,,,,,,,,,,,
1720079817,56,0,4457.179688,4419.871582,4392.820313,4358.461426,4433.205078,4350.769043,4425.641113,4425.256348,4448.333496,4385.769043,4262.307617,4459.230957,4327.94873,4269.230957,,,,,,,,,,,,,,,,,,,,,,,,,,,,,,,,,,,,,,,,,,,,,,,,,,,,,,,,,,,,,,,,,,,,,,
1720079817,57,0,4466.153809,4413.589844,4397.05127,4354.743652,4429.615234,4349.102539,4428.589844,4431.538574,4456.282227,4385.641113,4265.769043,4468.077148,4324.743652,4275.512695,,,,,,,,,,,,,,,,,,,,,,,,,,,,,,,,,,,,,,,,,,,,,,,,,,,,,,,,,,,,,,,,,,,,,,
1720079817,58,0,4469.230957,4417.307617,4396.922852,4360.512695,4423.589844,4346.025879,4427.94873,4442.307617,4464.102539,4386.025879,4277.820313,4476.922852,4328.333496,4279.615234,,,,,,,,,,,,,,,,,,,,,,,,,,,,,,,,,,,,,,,,,,,,,,,,,,,,,,,,,,,,,,,,,,,,,,
1720079817,59,0,4469.230957,4427.05127,4400.641113,4370.256348,4426.153809,4349.615234,4426.538574,4444.871582,4472.563965,4394.102539,4280.128418,4481.666504,4338.717773,4280.512695,,,,,,,,,,,,,,,,,,,,,,,,,,,,,,,,,,,,,,,,,,,,,,,,,,,,,,,,,,,,,,,,,,,,,,
1720079817,60,0,4480.256348,4439.358887,4411.794922,4381.922852,4434.487305,4363.846191,4438.461426,4443.077148,4476.282227,4400.897461,4281.153809,4483.717773,4349.743652,4292.436035,,,,,,,,,,,,,,,,,,,,,,,,,,,,,,,,,,,,,,,,,,,,,,,,,,,,,,,,,,,,,,,,,,,,,,
1720079817,61,0,4486.794922,4444.358887,4412.563965,4387.692383,4443.333496,4370.641113,4444.871582,4438.717773,4465,4395.641113,4283.717773,4480.384766,4349.871582,4298.205078,,,,,,,,,,,,,,,,,,,,,,,,,,,,,,,,,,,,,,,,,,,,,,,,,,,,,,,,,,,,,,,,,,,,,,
1720079817,62,0,4477.436035,4436.922852,4398.205078,4385.128418,4430.769043,4365.128418,4430.769043,4429.871582,4449.871582,4385.641113,4271.410156,4473.333496,4336.410156,4282.436035,,,,,,,,,,,,,,,,,,,,,,,,,,,,,,,,,,,,,,,,,,,,,,,,,,,,,,,,,,,,,,,,,,,,,,
1720079817,63,0,4469.615234,4430.769043,4386.922852,4386.153809,4406.153809,4364.487305,4430.384766,4427.436035,4451.666504,4383.846191,4262.05127,4467.692383,4333.589844,4273.333496,,,,,,,,,,,,,,,,,,,,,,,,,,,,,,,,,,,,,,,,,,,,,,,,,,,,,,,,,,,,,,,,,,,,,,
1720079817,64,0,4467.94873,4435.128418,4376.794922,4388.461426,4414.102539,4370.128418,4442.05127,4431.666504,4454.487305,4386.153809,4272.436035,4464.615234,4346.538574,4284.615234,9.3976,2.730022,1.118584,0.395248,0.186239,1.174376,0.588715,0.543788,0.228815,0.127599,38.588158,2.507012,1.30416,0.407751,0.175682,2.38273,0.4554,0.794558,0.20454,0.192439,0.645993,0.402808,1.566255,0.410147,0.672877,3.389067,3.359312,1.650497,0.189349,0.208699,0.972519,3.436177,2.000263,0.852326,0.155689,1.481767,0.623803,1.4961,0.639302,0.23525,1.994208,1.048445,1.071518,0.262651,0.149301,0.5313,0.531719,0.320906,0.32545,0.15155,1.216527,0.670437,0.611106,0.484025,0.196273,3.757513,1.809296,0.555917,0.564553,0.217272,1.545866,0.952988,0.370648,0.21381,0.241928,0.970503,1.070757,0.362381,0.421685,0.207883
1720079817,65,0,4457.179688,4440.641113,4362.692383,4388.461426,4441.025879,4367.820313,4434.102539,4429.487305,4450.512695,4386.025879,4277.94873,4462.307617,4350.128418,4290.128418,,,,,,,,,,,,,,,,,,,,,,,,,,,,,,,,,,,,,,,,,,,,,,,,,,,,,,,,,,,,,,,,,,,,,,
1720079817,66,0,4444.871582,4443.077148,4355.641113,4395.897461,4447.692383,4362.436035,4419.615234,4426.538574,4454.743652,4390.128418,4275,4467.179688,4345,4288.974121,,,,,,,,,,,,,,,,,,,,,,,,,,,,,,,,,,,,,,,,,,,,,,,,,,,,,,,,,,,,,,,,,,,,,,
1720079817,67,0,4445.512695,4446.666504,4350.384766,4408.846191,4442.94873,4364.615234,4419.743652,4425.384766,4459.743652,4394.230957,4286.025879,4481.666504,4350.769043,4300.128418,,,,,,,,,,,,,,,,,,,,,,,,,,,,,,,,,,,,,,,,,,,,,,,,,,,,,,,,,,,,,,,,,,,,,,
1720079817,68,0,4447.692383,4449.358887,4334.487305,4416.538574,4442.94873,4365.769043,4418.974121,4430.769043,4460.128418,4393.717773,4298.717773,4489.743652,4363.846191,4309.743652,,,,,,,,,,,,,,,,,,,,,,,,,,,,,,,,,,,,,,,,,,,,,,,,,,,,,,,,,,,,,,,,,,,,,,
1720079817,69,0,4437.820313,4448.077148,4313.974121,4412.94873,4436.538574,4358.333496,4411.410156,4441.794922,4462.563965,4395.897461,4293.333496,4484.102539,4360.128418,4304.871582,,,,,,,,,,,,,,,,,,,,,,,,,,,,,,,,,,,,,,,,,,,,,,,,,,,,,,,,,,,,,,,,,,,,,,
1720079817,70,0,4422.820313,4438.846191,4293.974121,4402.436035,4425.384766,4350.512695,4412.05127,4437.436035,4462.179688,4394.102539,4278.077148,4474.358887,4343.974121,4291.922852,,,,,,,,,,,,,,,,,,,,,,,,,,,,,,,,,,,,,,,,,,,,,,,,,,,,,,,,,,,,,,,,,,,,,,
1720079817,71,0,4415.256348,4429.230957,4280.641113,4402.307617,4428.461426,4359.102539,4425.128418,4431.666504,4457.436035,4383.205078,4271.922852,4470.384766,4338.717773,4283.077148,,,,,,,,,,,,,,,,,,,,,,,,,,,,,,,,,,,,,,,,,,,,,,,,,,,,,,,,,,,,,,,,,,,,,,
1720079817,72,0,4410.641113,4428.205078,4277.94873,4411.282227,4429.743652,4368.846191,4442.820313,4443.846191,4459.615234,4378.333496,4277.94873,4466.410156,4340.897461,4280.641113,,,,,,,,,,,,,,,,,,,,,,,,,,,,,,,,,,,,,,,,,,,,,,,,,,,,,,,,,,,,,,,,,,,,,,
1720079817,73,0,4410.769043,4431.666504,4275.128418,4415.256348,4419.358887,4361.282227,4446.410156,4443.205078,4456.794922,4379.871582,4275.897461,4459.487305,4340.512695,4275.256348,,,,,,,,,,,,,,,,,,,,,,,,,,,,,,,,,,,,,,,,,,,,,,,,,,,,,,,,,,,,,,,,,,,,,,
1720079817,74,0,4412.692383,4430.897461,4263.717773,4413.077148,4421.025879,4357.05127,4439.102539,4425.641113,4446.410156,4376.410156,4265.384766,4455.128418,4336.666504,4272.05127,,,,,,,,,,,,,,,,,,,,,,,,,,,,,,,,,,,,,,,,,,,,,,,,,,,,,,,,,,,,,,,,,,,,,,
1720079817,75,0,4408.589844,4426.025879,4247.563965,4411.666504,4431.666504,4359.743652,4428.589844,4423.077148,4445.256348,4366.410156,4259.230957,4448.846191,4329.871582,4271.794922,,,,,,,,,,,,,,,,,,,,,,,,,,,,,,,,,,,,,,,,,,,,,,,,,,,,,,,,,,,,,,,,,,,,,,
1720079817,76,0,4404.615234,4424.615234,4234.871582,4409.487305,4430,4351.922852,4415.897461,4422.820313,4444.743652,4358.461426,4256.538574,4442.563965,4323.205078,4265.512695,,,,,,,,,,,,,,,,,,,,,,,,,,,,,,,,,,,,,,,,,,,,,,,,,,,,,,,,,,,,,,,,,,,,,,
1720079817,77,0,4409.358887,4427.692383,4234.487305,4412.563965,4424.102539,4346.922852,4415,4416.410156,4440.384766,4363.717773,4258.974121,4450.256348,4333.461426,4264.871582,,,,,,,,,,,,,,,,,,,,,,,,,,,,,,,,,,,,,,,,,,,,,,,,,,,,,,,,,,,,,,,,,,,,,,
1720079817,78,0,4411.794922,4427.307617,4234.615234,4419.743652,4421.666504,4349.871582,4418.589844,4422.05127,4441.538574,4372.692383,4265.641113,4458.717773,4344.487305,4274.358887,,,,,,,,,,,,,,,,,,,,,,,,,,,,,,,,,,,,,,,,,,,,,,,,,,,,,,,,,,,,,,,,,,,,,,
1720079817,79,0,4407.820313,4419.871582,4223.974121,4420.512695,4414.487305,4343.461426,4412.05127,4429.487305,4444.230957,4371.922852,4264.615234,4450.256348,4336.794922,4272.820313,,,,,,,,,,,,,,,,,,,,,,,,,,,,,,,,,,,,,,,,,,,,,,,,,,,,,,,,,,,,,,,,,,,,,,
1720079817,80,0,4407.692383,4418.077148,4213.205078,4422.436035,4411.153809,4338.589844,4406.922852,4429.230957,4444.230957,4372.94873,4261.794922,4446.410156,4334.102539,4263.589844,8.045583,2.37553,1.020301,0.369369,0.181157,1.19931,0.527835,0.522635,0.268456,0.124666,36.547729,2.246872,1.223978,0.397137,0.181721,2.911385,0.397698,0.726755,0.226124,0.177924,0.64176,0.331351,1.692805,0.475247,0.620532,4.217794,2.668729,1.214205,0.167496,0.210704,0.623326,2.391982,1.867031,0.708054,0.154503,1.167905,0.505722,1.361859,0.610215,0.235929,1.785748,0.845197,0.918433,0.251311,0.139301,0.48739,0.401961,0.29039,0.321109,0.158805,1.255873,0.543599,0.584473,0.491001,0.204393,4.799819,1.828647,0.54664,0.534234,0.239992,1.875355,0.88249,0.388465,0.228298,0.25095,1.025126,0.994996,0.3787,0.403332,0.220014
1720079817,81,0,4412.05127,4422.05127,4206.153809,4426.538574,4422.179688,4342.692383,4410.256348,4429.743652,4443.077148,4376.538574,4265.769043,4451.153809,4335.897461,4263.589844,,,,,,,,,,,,,,,,,,,,,,,,,,,,,,,,,,,,,,,,,,,,,,,,,,,,,,,,,,,,,,,,,,,,,,
1720079817,82,0,4414.871582,4420.512695,4201.025879,4432.820313,4418.205078,4341.794922,4412.436035,4429.743652,4443.589844,4371.666504,4265.641113,4448.717773,4328.461426,4269.487305,,,,,,,,,,,,,,,,,,,,,,,,,,,,,,,,,,,,,,,,,,,,,,,,,,,,,,,,,,,,,,,,,,,,,,
1720079817,83,0,4411.538574,4410.256348,4197.436035,4440,4399.487305,4347.692383,4421.025879,4427.436035,4443.461426,4369.230957,4264.230957,4449.615234,4327.05127,4274.743652,,,,,,,,,,,,,,,,,,,,,,,,,,,,,,,,,,,,,,,,,,,,,,,,,,,,,,,,,,,,,,,,,,,,,,
1720079817,84,0,4406.922852,4407.563965,4189.230957,4439.102539,4406.666504,4363.333496,4436.025879,4427.307617,4434.743652,4368.846191,4261.666504,4450.897461,4327.94873,4271.153809,,,,,,,,,,,,,,,,,,,,,,,,,,,,,,,,,,,,,,,,,,,,,,,,,,,,,,,,,,,,,,,,,,,,,,
1720079817,85,0,4408.846191,4420.897461,4180,4439.487305,4431.025879,4364.487305,4435,4426.538574,4424.871582,4358.205078,4253.205078,4441.153809,4311.794922,4258.077148,,,,,,,,,,,,,,,,,,,,,,,,,,,,,,,,,,,,,,,,,,,,,,,,,,,,,,,,,,,,,,,,,,,,,,
1720079817,86,0,4414.487305,4430.256348,4179.358887,4444.871582,4432.307617,4350.256348,4421.538574,4423.974121,4423.974121,4352.820313,4244.871582,4440.641113,4295.897461,4255.769043,,,,,,,,,,,,,,,,,,,,,,,,,,,,,,,,,,,,,,,,,,,,,,,,,,,,,,,,,,,,,,,,,,,,,,
1720079817,87,0,4419.487305,4426.666504,4189.102539,4443.846191,4422.820313,4344.615234,4415.641113,4427.05127,4427.179688,4364.487305,4246.666504,4459.487305,4306.538574,4266.922852,,,,,,,,,,,,,,,,,,,,,,,,,,,,,,,,,,,,,,,,,,,,,,,,,,,,,,,,,,,,,,,,,,,,,,
1720079817,88,0,4424.743652,4426.922852,4209.871582,4445.128418,4426.666504,4342.692383,4415,4429.871582,4427.820313,4371.153809,4257.307617,4479.743652,4322.563965,4276.153809,,,,,,,,,,,,,,,,,,,,,,,,,,,,,,,,,,,,,,,,,,,,,,,,,,,,,,,,,,,,,,,,,,,,,,
1720079817,89,0,4430.128418,4432.179688,4237.179688,4459.615234,4430.128418,4330.897461,4418.077148,4425.769043,4428.589844,4370,4263.589844,4498.461426,4319.230957,4280.512695,,,,,,,,,,,,,,,,,,,,,,,,,,,,,,,,,,,,,,,,,,,,,,,,,,,,,,,,,,,,,,,,,,,,,,
1720079817,90,0,4429.102539,4428.846191,4256.153809,4464.102539,4426.153809,4326.282227,4424.743652,4426.538574,4428.077148,4378.589844,4260.641113,4511.666504,4313.333496,4279.358887,,,,,,,,,,,,,,,,,,,,,,,,,,,,,,,,,,,,,,,,,,,,,,,,,,,,,,,,,,,,,,,,,,,,,,
1720079817,91,0,4428.333496,4427.94873,4270.512695,4458.333496,4427.692383,4336.025879,4427.692383,4430,4430.769043,4382.820313,4259.871582,4507.307617,4318.846191,4276.666504,,,,,,,,,,,,,,,,,,,,,,,,,,,,,,,,,,,,,,,,,,,,,,,,,,,,,,,,,,,,,,,,,,,,,,
1720079817,92,0,4432.179688,4433.974121,4287.820313,4465.641113,4433.333496,4339.358887,4426.153809,4428.205078,4439.102539,4375.769043,4263.717773,4496.922852,4322.820313,4277.05127,,,,,,,,,,,,,,,,,,,,,,,,,,,,,,,,,,,,,,,,,,,,,,,,,,,,,,,,,,,,,,,,,,,,,,
1720079817,93,0,4432.94873,4432.179688,4296.538574,4476.025879,4427.563965,4333.461426,4425.256348,4431.922852,4442.820313,4376.666504,4262.307617,4491.282227,4320.512695,4277.563965,,,,,,,,,,,,,,,,,,,,,,,,,,,,,,,,,,,,,,,,,,,,,,,,,,,,,,,,,,,,,,,,,,,,,,
1720079817,94,0,4428.974121,4427.307617,4298.461426,4474.358887,4416.025879,4337.692383,4429.487305,4443.333496,4444.102539,4383.974121,4266.666504,4490.512695,4325.769043,4280,,,,,,,,,,,,,,,,,,,,,,,,,,,,,,,,,,,,,,,,,,,,,,,,,,,,,,,,,,,,,,,,,,,,,,
1720079817,95,0,4427.05127,4427.179688,4307.05127,4465.128418,4425.512695,4344.358887,4432.436035,4448.717773,4446.666504,4382.05127,4276.410156,4499.230957,4331.025879,4282.179688,,,,,,,,,,,,,,,,,,,,,,,,,,,,,,,,,,,,,,,,,,,,,,,,,,,,,,,,,,,,,,,,,,,,,,
1720079817,96,0,4428.589844,4427.94873,4320.641113,4460,4444.615234,4338.461426,4431.794922,4441.666504,4442.820313,4378.077148,4271.153809,4505.769043,4328.717773,4280,6.122661,1.996242,0.907563,0.325464,0.171161,1.214169,0.519056,0.500779,0.299399,0.122727,34.480747,2.063504,1.124909,0.370165,0.181656,3.204474,0.373266,0.629012,0.233746,0.161897,0.615509,0.284796,1.924884,0.53512,0.596386,4.901887,2.207698,0.837614,0.166056,0.217351,0.446054,1.800076,1.58963,0.582192,0.157417,0.934041,0.52362,1.219122,0.527779,0.22763,1.616625,0.682937,0.81717,0.235484,0.130916,0.468175,0.32966,0.296611,0.315932,0.167969,1.301318,0.458225,0.525265,0.4857,0.214303,5.764117,1.841351,0.573747,0.472687,0.259909,2.153215,0.807666,0.36845,0.242444,0.257846,1.145308,0.957292,0.374692,0.369797,0.221526
1720079817,97,0,4431.282227,4426.922852,4332.563965,4466.666504,4446.410156,4332.94873,4430.769043,4432.436035,4437.820313,4379.743652,4265.897461,4497.307617,4332.436035,4279.358887,,,,,,,,,,,,,,,,,,,,,,,,,,,,,,,,,,,,,,,,,,,,,,,,,,,,,,,,,,,,,,,,,,,,,,
1720079817,98,0,4435.256348,4427.436035,4339.487305,4473.461426,4441.282227,4326.666504,4425.641113,4428.461426,4441.794922,4381.282227,4267.563965,4488.205078,4335.512695,4285.128418,,,,,,,,,,,,,,,,,,,,,,,,,,,,,,,,,,,,,,,,,,,,,,,,,,,,,,,,,,,,,,,,,,,,,,
1720079817,99,0,4433.333496,4427.436035,4343.205078,4472.94873,4441.153809,4316.666504,4421.922852,4427.179688,4445.897461,4380.769043,4265.512695,4485.641113,4332.05127,4289.871582,,,,,,,,,,,,,,,,,,,,,,,,,,,,,,,,,,,,,,,,,,,,,,,,,,,,,,,,,,,,,,,,,,,,,,
1720079817,100,0,4432.436035,4426.922852,4348.077148,4472.563965,4444.358887,4309.871582,4425,4426.922852,4443.846191,4378.846191,4268.846191,4481.538574,4332.94873,4290.128418,,,,,,,,,,,,,,,,,,,,,,,,,,,,,,,,,,,,,,,,,,,,,,,,,,,,,,,,,,,,,,,,,,,,,,
1720079817,101,0,4439.230957,4432.820313,4352.179688,4474.230957,4443.205078,4303.717773,4421.538574,4428.461426,4443.205078,4379.615234,4276.538574,4478.205078,4339.871582,4291.538574,,,,,,,,,,,,,,,,,,,,,,,,,,,,,,,,,,,,,,,,,,,,,,,,,,,,,,,,,,,,,,,,,,,,,,
1720079817,102,0,4446.666504,4442.307617,4352.820313,4480.256348,4425.384766,4292.94873,4414.230957,4427.307617,4448.974121,4382.179688,4274.358887,4479.358887,4340.769043,4296.794922,,,,,,,,,,,,,,,,,,,,,,,,,,,,,,,,,,,,,,,,,,,,,,,,,,,,,,,,,,,,,,,,,,,,,,
1720079817,103,0,4452.563965,4445,4358.077148,4491.538574,4417.436035,4288.717773,4421.794922,4427.94873,4454.871582,4383.461426,4272.692383,4480.897461,4339.743652,4304.102539,,,,,,,,,,,,,,,,,,,,,,,,,,,,,,,,,,,,,,,,,,,,,,,,,,,,,,,,,,,,,,,,,,,,,,
1720079817,104,0,4460.512695,4442.94873,4364.743652,4494.743652,4439.487305,4294.871582,4431.282227,4441.282227,4458.717773,4385,4282.05127,4489.615234,4347.820313,4310.256348,,,,,,,,,,,,,,,,,,,,,,,,,,,,,,,,,,,,,,,,,,,,,,,,,,,,,,,,,,,,,,,,,,,,,,
1720079817,105,0,4463.589844,4443.205078,4368.589844,4488.205078,4453.461426,4296.282227,4426.025879,4443.077148,4460.256348,4385.512695,4285.384766,4494.230957,4352.94873,4314.615234,,,,,,,,,,,,,,,,,,,,,,,,,,,,,,,,,,,,,,,,,,,,,,,,,,,,,,,,,,,,,,,,,,,,,,
1720079817,106,0,4459.358887,4445.128418,4376.666504,4488.974121,4443.589844,4293.589844,4429.230957,4428.717773,4454.230957,4383.205078,4279.871582,4488.077148,4348.846191,4318.333496,,,,,,,,,,,,,,,,,,,,,,,,,,,,,,,,,,,,,,,,,,,,,,,,,,,,,,,,,,,,,,,,,,,,,,
1720079817,107,0,4461.282227,4443.589844,4384.487305,4488.333496,4443.205078,4298.589844,4445.384766,4433.461426,4451.666504,4379.487305,4279.358887,4487.820313,4344.615234,4318.333496,,,,,,,,,,,,,,,,,,,,,,,,,,,,,,,,,,,,,,,,,,,,,,,,,,,,,,,,,,,,,,,,,,,,,,
1720079817,108,0,4458.077148,4435.512695,4382.563965,4475.897461,4444.487305,4300.641113,4446.794922,4445,4451.922852,4374.487305,4278.205078,4484.102539,4341.282227,4309.102539,,,,,,,,,,,,,,,,,,,,,,,,,,,,,,,,,,,,,,,,,,,,,,,,,,,,,,,,,,,,,,,,,,,,,,
1720079817,109,0,4448.205078,4433.333496,4384.615234,4472.307617,4434.358887,4290.641113,4434.358887,4443.333496,4452.436035,4375,4276.538574,4474.102539,4340.897461,4304.487305,,,,,,,,,,,,,,,,,,,,,,,,,,,,,,,,,,,,,,,,,,,,,,,,,,,,,,,,,,,,,,,,,,,,,,
1720079817,110,0,4450.641113,4441.410156,4392.436035,4476.538574,4437.820313,4284.358887,4429.102539,4442.05127,4452.94873,4387.436035,4279.230957,4473.974121,4350.512695,4311.666504,,,,,,,,,,,,,,,,,,,,,,,,,,,,,,,,,,,,,,,,,,,,,,,,,,,,,,,,,,,,,,,,,,,,,,
1720079817,111,0,4460.256348,4446.153809,4398.717773,4476.025879,4438.846191,4289.102539,4428.974121,4436.410156,4447.94873,4392.05127,4279.102539,4477.179688,4362.307617,4316.025879,,,,,,,,,,,,,,,,,,,,,,,,,,,,,,,,,,,,,,,,,,,,,,,,,,,,,,,,,,,,,,,,,,,,,,
1720079817,112,0,4463.974121,4447.05127,4411.794922,4484.871582,4426.282227,4294.102539,4427.692383,4428.333496,4446.410156,4382.94873,4277.820313,4478.077148,4363.333496,4315.897461,4.370006,1.690582,0.80641,0.280916,0.159784,1.224746,0.545636,0.481547,0.324815,0.120733,32.008881,2.06789,1.030391,0.334516,0.174444,3.187444,0.374052,0.532375,0.234944,0.148365,0.60223,0.259045,2.145474,0.589856,0.598869,5.264252,1.961503,0.589379,0.187882,0.228346,0.372779,1.632017,1.271198,0.481717,0.163793,0.802104,0.595901,1.096763,0.416566,0.211365,1.480452,0.584551,0.779717,0.219926,0.122488,0.489338,0.311257,0.344371,0.303354,0.173616,1.341521,0.429777,0.479979,0.470733,0.223616,6.397604,1.826907,0.684859,0.399608,0.269047,2.349893,0.742941,0.333317,0.252221,0.261159,1.367293,0.971374,0.366528,0.331748,0.21343
1720079817,113,0,4462.820313,4448.846191,4414.615234,4493.205078,4431.666504,4298.461426,4427.820313,4431.538574,4454.871582,4383.846191,4280.384766,4477.436035,4356.922852,4315.512695,,,,,,,,,,,,,,,,,,,,,,,,,,,,,,,,,,,,,,,,,,,,,,,,,,,,,,,,,,,,,,,,,,,,,,
1720079817,114,0,4456.410156,4443.205078,4394.358887,4479.230957,4449.743652,4305.769043,4425.769043,4431.538574,4460.384766,4392.179688,4278.205078,4467.307617,4355.512695,4305.769043,,,,,,,,,,,,,,,,,,,,,,,,,,,,,,,,,,,,,,,,,,,,,,,,,,,,,,,,,,,,,,,,,,,,,,
1720079817,115,0,4452.307617,4437.820313,4384.871582,4468.717773,4451.794922,4317.307617,4426.538574,4430.512695,4458.077148,4390.641113,4275.769043,4462.179688,4362.307617,4299.102539,,,,,,,,,,,,,,,,,,,,,,,,,,,,,,,,,,,,,,,,,,,,,,,,,,,,,,,,,,,,,,,,,,,,,,
1720079817,116,0,4456.666504,4441.794922,4395.769043,4478.974121,4443.589844,4329.102539,4433.461426,4442.179688,4462.05127,4387.820313,4283.589844,4469.743652,4366.922852,4304.615234,,,,,,,,,,,,,,,,,,,,,,,,,,,,,,,,,,,,,,,,,,,,,,,,,,,,,,,,,,,,,,,,,,,,,,
1720079817,117,0,4454.358887,4439.743652,4399.487305,4479.487305,4437.820313,4328.846191,4434.871582,4447.692383,4463.974121,4387.05127,4280.897461,4467.307617,4360.769043,4301.794922,,,,,,,,,,,,,,,,,,,,,,,,,,,,,,,,,,,,,,,,,,,,,,,,,,,,,,,,,,,,,,,,,,,,,,
1720079817,118,0,4448.717773,4434.615234,4401.666504,4473.077148,4432.94873,4323.846191,4436.666504,4442.307617,4458.077148,4380,4265.641113,4462.436035,4351.410156,4292.179688,,,,,,,,,,,,,,,,,,,,,,,,,,,,,,,,,,,,,,,,,,,,,,,,,,,,,,,,,,,,,,,,,,,,,,
1720079817,119,0,4456.153809,4438.717773,4419.487305,4483.846191,4441.794922,4332.307617,4442.94873,4444.102539,4459.487305,4376.794922,4268.077148,4471.538574,4356.025879,4298.461426,,,,,,,,,,,,,,,,,,,,,,,,,,,,,,,,,,,,,,,,,,,,,,,,,,,,,,,,,,,,,,,,,,,,,,
1720079817,120,0,4466.922852,4449.743652,4438.717773,4495.128418,4446.410156,4349.102539,4444.487305,4446.410156,4463.974121,4384.743652,4282.563965,4482.05127,4367.563965,4311.025879,,,,,,,,,,,,,,,,,,,,,,,,,,,,,,,,,,,,,,,,,,,,,,,,,,,,,,,,,,,,,,,,,,,,,,
1720079817,121,0,4471.282227,4455.897461,4446.153809,4496.410156,4431.282227,4356.025879,4446.666504,4443.846191,4465.256348,4390.897461,4282.820313,4482.436035,4366.153809,4312.179688,,,,,,,,,,,,,,,,,,,,,,,,,,,,,,,,,,,,,,,,,,,,,,,,,,,,,,,,,,,,,,,,,,,,,,
1720079817,122,0,4467.05127,4449.487305,4435,4488.589844,4427.563965,4349.487305,4441.025879,4441.922852,4461.922852,4384.743652,4277.436035,4477.563965,4356.794922,4306.922852,,,,,,,,,,,,,,,,,,,,,,,,,,,,,,,,,,,,,,,,,,,,,,,,,,,,,,,,,,,,,,,,,,,,,,
1720079817,123,0,4458.589844,4440,4415.256348,4477.307617,4441.410156,4346.794922,4427.05127,4440.512695,4457.94873,4381.025879,4285.512695,4481.666504,4359.487305,4307.94873,,,,,,,,,,,,,,,,,,,,,,,,,,,,,,,,,,,,,,,,,,,,,,,,,,,,,,,,,,,,,,,,,,,,,,
1720079817,124,0,4464.487305,4442.820313,4411.025879,4483.077148,4447.179688,4355.641113,4431.025879,4442.94873,4461.282227,4392.563965,4296.153809,4499.358887,4373.461426,4319.358887,,,,,,,,,,,,,,,,,,,,,,,,,,,,,,,,,,,,,,,,,,,,,,,,,,,,,,,,,,,,,,,,,,,,,,
1720079817,125,0,4478.333496,4449.743652,4414.230957,4489.743652,4441.282227,4359.615234,4442.94873,4443.717773,4463.333496,4400.897461,4293.974121,4511.025879,4375.128418,4327.179688,,,,,,,,,,,,,,,,,,,,,,,,,,,,,,,,,,,,,,,,,,,,,,,,,,,,,,,,,,,,,,,,,,,,,,
1720079817,126,0,4477.94873,4448.205078,4411.410156,4477.820313,4442.179688,4359.871582,4439.487305,4440.897461,4461.922852,4396.538574,4288.846191,4511.282227,4370,4324.743652,,,,,,,,,,,,,,,,,,,,,,,,,,,,,,,,,,,,,,,,,,,,,,,,,,,,,,,,,,,,,,,,,,,,,,
1720079817,127,0,4469.615234,4447.692383,4407.563965,4470.641113,4454.615234,4373.846191,4436.666504,4448.205078,4468.205078,4394.487305,4291.794922,4515.641113,4371.025879,4321.153809,,,,,,,,,,,,,,,,,,,,,,,,,,,,,,,,,,,,,,,,,,,,,,,,,,,,,,,,,,,,,,,,,,,,,,
1720079817,0,0,4465.897461,4447.05127,4403.589844,4472.179688,4461.282227,4391.922852,4450,4460.641113,4478.077148,4398.205078,4295.256348,4517.692383,4369.102539,4317.94873,3.372851,1.504347,0.727482,0.249595,0.150583,1.259411,0.583485,0.465246,0.348687,0.118118,28.407913,2.354707,0.959368,0.314837,0.161531,2.867136,0.380885,0.460286,0.242236,0.139794,0.616653,0.244669,2.257807,0.635859,0.617613,5.270937,1.868154,0.484069,0.227527,0.239971,0.327932,1.82003,1.023271,0.418822,0.172019,0.748374,0.694978,1.027429,0.309324,0.193003,1.381978,0.582852,0.807322,0.207624,0.113488,0.555762,0.342704,0.427505,0.282241,0.172758,1.379425,0.46787,0.478265,0.453112,0.230895,6.661987,1.790765,0.910895,0.34692,0.263125,2.484833,0.709779,0.306699,0.258683,0.262338,1.696642,1.026203,0.371052,0.303566,0.200163
1720079817,1,0,4465.256348,4443.846191,4402.05127,4462.94873,4454.358887,4397.179688,4458.717773,4462.563965,4479.102539,4401.282227,4296.922852,4512.94873,4365.769043,4317.307617,,,,,,,,,,,,,,,,,,,,,,,,,,,,,,,,,,,,,,,,,,,,,,,,,,,,,,,,,,,,,,,,,,,,,,
1720079817,2,0,4467.692383,4442.820313,4407.05127,4455.512695,4448.333496,4395,4450.897461,4457.563965,4473.846191,4401.666504,4290.769043,4505.256348,4363.205078,4316.666504,,,,,,,,,,,,,,,,,,,,,,,,,,,,,,,,,,,,,,,,,,,,,,,,,,,,,,,,,,,,,,,,,,,,,,
1720079817,3,0,4469.871582,4444.102539,4409.487305,4458.461426,4444.358887,4389.743652,4440.897461,4457.05127,4472.436035,4397.563965,4279.871582,4498.461426,4359.102539,4311.153809,,,,,,,,,,,,,,,,,,,,,,,,,,,,,,,,,,,,,,,,,,,,,,,,,,,,,,,,,,,,,,,,,,,,,,
1720079817,4,0,4472.307617,4450,4410,4459.743652,4433.589844,4387.436035,4442.179688,4459.743652,4473.974121,4395.256348,4285.384766,4506.410156,4360.384766,4314.487305,,,,,,,,,,,,,,,,,,,,,,,,,,,,,,,,,,,,,,,,,,,,,,,,,,,,,,,,,,,,,,,,,,,,,,
1720079817,5,0,4482.179688,4458.077148,4420,4462.692383,4440.256348,4393.846191,4447.563965,4460.641113,4474.487305,4397.307617,4297.179688,4520,4367.436035,4326.794922,,,,,,,,,,,,,,,,,,,,,,,,,,,,,,,,,,,,,,,,,,,,,,,,,,,,,,,,,,,,,,,,,,,,,,
1720079817,6,0,4490.769043,4461.922852,4429.871582,4465.256348,4462.692383,4399.102539,4446.282227,4458.333496,4472.692383,4397.179688,4295.384766,4519.487305,4366.025879,4327.820313,,,,,,,,,,,,,,,,,,,,,,,,,,,,,,,,,,,,,,,,,,,,,,,,,,,,,,,,,,,,,,,,,,,,,,
1720079817,7,0,4488.974121,4458.846191,4429.358887,4461.153809,4460,4395.256348,4441.922852,4452.436035,4472.05127,4398.333496,4291.410156,4512.563965,4362.436035,4323.846191,,,,,,,,,,,,,,,,,,,,,,,,,,,,,,,,,,,,,,,,,,,,,,,,,,,,,,,,,,,,,,,,,,,,,,
1720079817,8,0,4486.794922,4458.461426,4428.333496,4460,4445.897461,4396.153809,4440,4452.05127,4474.871582,4406.025879,4299.743652,4515.128418,4370.256348,4327.563965,,,,,,,,,,,,,,,,,,,,,,,,,,,,,,,,,,,,,,,,,,,,,,,,,,,,,,,,,,,,,,,,,,,,,,
1720079817,9,0,4489.871582,4460,4429.615234,4461.922852,4456.025879,4409.230957,4449.358887,4459.743652,4477.05127,4411.282227,4306.410156,4518.717773,4370.256348,4327.692383,,,,,,,,,,,,,,,,,,,,,,,,,,,,,,,,,,,,,,,,,,,,,,,,,,,,,,,,,,,,,,,,,,,,,,
1720079817,10,0,4492.692383,4455.512695,4421.282227,4455.512695,4466.410156,4419.230957,4457.307617,4463.461426,4478.205078,4409.358887,4301.410156,4514.358887,4362.692383,4318.589844,,,,,,,,,,,,,,,,,,,,,,,,,,,,,,,,,,,,,,,,,,,,,,,,,,,,,,,,,,,,,,,,,,,,,,
1720079817,11,0,4487.05127,4447.820313,4403.589844,4445.769043,4454.358887,4415.641113,4448.717773,4459.615234,4472.179688,4401.025879,4290.128418,4503.333496,4356.410156,4309.871582,,,,,,,,,,,,,,,,,,,,,,,,,,,,,,,,,,,,,,,,,,,,,,,,,,,,,,,,,,,,,,,,,,,,,,
1720079817,12,0,4478.205078,4444.743652,4391.410156,4441.153809,4446.922852,4410.769043,4438.974121,4457.307617,4462.179688,4391.538574,4277.05127,4492.820313,4346.282227,4305.641113,,,,,,,,,,,,,,,,,,,,,,,,,,,,,,,,,,,,,,,,,,,,,,,,,,,,,,,,,,,,,,,,,,,,,,
1720079817,13,0,4480.897461,4452.05127,4396.153809,4444.358887,4453.205078,4418.077148,4441.410156,4458.333496,4457.307617,4387.307617,4277.05127,4491.922852,4345.384766,4307.05127,,,,,,,,,,,,,,,,,,,,,,,,,,,,,,,,,,,,,,,,,,,,,,,,,,,,,,,,,,,,,,,,,,,,,,
1720079817,14,0,4494.230957,4459.743652,4409.230957,4452.436035,4446.410156,4428.846191,4448.077148,4456.025879,4456.025879,4387.692383,4288.205078,4501.025879,4358.461426,4313.589844,,,,,,,,,,,,,,,,,,,,,,,,,,,,,,,,,,,,,,,,,,,,,,,,,,,,,,,,,,,,,,,,,,,,,,
1720079817,15,0,4501.538574,4460.384766,4408.846191,4458.461426,4435.769043,4431.666504,4450.641113,4458.589844,4463.974121,4391.922852,4294.615234,4515,4367.436035,4323.333496,,,,,,,,,,,,,,,,,,,,,,,,,,,,,,,,,,,,,,,,,,,,,,,,,,,,,,,,,,,,,,,,,,,,,,
1720079817,16,0,4501.922852,4460.897461,4398.974121,4459.743652,4451.282227,4427.94873,4446.410156,4462.05127,4473.589844,4396.794922,4294.487305,4522.179688,4362.307617,4329.487305,3.247215,1.435457,0.660326,0.236291,0.14516,1.329255,0.609279,0.448592,0.370321,0.115278,23.852161,2.879571,0.923534,0.334679,0.146477,2.391769,0.379149,0.422449,0.264621,0.137121,0.686969,0.238022,2.227727,0.666034,0.642174,4.67559,1.864469,0.483935,0.274622,0.246888,0.312483,2.244228,0.900411,0.401468,0.179994,0.716457,0.826824,1.01818,0.232144,0.178731,1.266934,0.692135,0.88777,0.198287,0.104123,0.669341,0.425628,0.534223,0.256858,0.166283,1.410075,0.58129,0.51904,0.43824,0.235181,6.710883,1.770202,1.226266,0.345189,0.243023,2.535869,0.732252,0.304205,0.266522,0.264628,2.09565,1.102528,0.397562,0.297961,0.186983
1720079817,17,0,4505.384766,4462.05127,4396.794922,4457.820313,4468.205078,4426.282227,4437.307617,4449.102539,4467.179688,4395.256348,4292.563965,4521.666504,4357.94873,4324.358887,,,,,,,,,,,,,,,,,,,,,,,,,,,,,,,,,,,,,,,,,,,,,,,,,,,,,,,,,,,,,,,,,,,,,,
1720079817,18,0,4506.666504,4459.358887,4400.128418,4457.436035,4461.922852,4433.205078,4436.538574,4438.333496,4461.794922,4393.461426,4290.897461,4523.461426,4361.282227,4318.461426,,,,,,,,,,,,,,,,,,,,,,,,,,,,,,,,,,,,,,,,,,,,,,,,,,,,,,,,,,,,,,,,,,,,,,
1720079817,19,0,4505.256348,4465,4403.077148,4463.461426,4463.974121,4442.563965,4442.179688,4449.358887,4472.820313,4401.153809,4293.974121,4531.282227,4364.871582,4323.846191,,,,,,,,,,,,,,,,,,,,,,,,,,,,,,,,,,,,,,,,,,,,,,,,,,,,,,,,,,,,,,,,,,,,,,
1720079817,20,0,4510.384766,4476.538574,4405.769043,4474.615234,4478.077148,4445.641113,4444.230957,4460.256348,4481.025879,4413.589844,4305.641113,4540.256348,4370.256348,4337.436035,,,,,,,,,,,,,,,,,,,,,,,,,,,,,,,,,,,,,,,,,,,,,,,,,,,,,,,,,,,,,,,,,,,,,,
1720079818,21,0,4510.512695,4470.256348,4404.102539,4476.282227,4466.153809,4441.410156,4443.974121,4461.410156,4479.230957,4421.025879,4316.153809,4542.307617,4374.358887,4341.794922,,,,,,,,,,,,,,,,,,,,,,,,,,,,,,,,,,,,,,,,,,,,,,,,,,,,,,,,,,,,,,,,,,,,,,
1720079818,22,0,4503.589844,4454.487305,4393.846191,4465.512695,4439.487305,4440.641113,4444.230957,4461.794922,4477.436035,4417.05127,4312.94873,4535.128418,4366.538574,4330.256348,,,,,,,,,,,,,,,,,,,,,,,,,,,,,,,,,,,,,,,,,,,,,,,,,,,,,,,,,,,,,,,,,,,,,,
1720079818,23,0,4506.922852,4456.666504,4378.077148,4460.256348,4439.487305,4441.282227,4444.871582,4464.743652,4477.05127,4406.794922,4301.538574,4524.487305,4353.974121,4324.358887,,,,,,,,,,,,,,,,,,,,,,,,,,,,,,,,,,,,,,,,,,,,,,,,,,,,,,,,,,,,,,,,,,,,,,
1720079818,24,0,4519.230957,4470.769043,4363.589844,4467.179688,4460.128418,4444.487305,4443.846191,4468.077148,4475.256348,4404.871582,4296.153809,4522.94873,4356.282227,4337.692383,,,,,,,,,,,,,,,,,,,,,,,,,,,,,,,,,,,,,,,,,,,,,,,,,,,,,,,,,,,,,,,,,,,,,,
1720079818,25,0,4526.153809,4477.820313,4357.179688,4476.666504,4467.94873,4452.436035,4443.461426,4466.410156,4468.846191,4403.461426,4295.512695,4522.307617,4357.820313,4348.589844,,,,,,,,,,,,,,,,,,,,,,,,,,,,,,,,,,,,,,,,,,,,,,,,,,,,,,,,,,,,,,,,,,,,,,
1720079818,26,0,4531.025879,4480.256348,4357.179688,4477.436035,4460.641113,4451.666504,4442.05127,4456.538574,4461.410156,4391.410156,4291.282227,4512.820313,4349.615234,4344.230957,,,,,,,,,,,,,,,,,,,,,,,,,,,,,,,,,,,,,,,,,,,,,,,,,,,,,,,,,,,,,,,,,,,,,,
1720079818,27,0,4538.461426,4479.102539,4356.282227,4469.615234,4458.846191,4445.641113,4440.512695,4452.179688,4455.897461,4384.230957,4284.871582,4505,4347.307617,4340.256348,,,,,,,,,,,,,,,,,,,,,,,,,,,,,,,,,,,,,,,,,,,,,,,,,,,,,,,,,,,,,,,,,,,,,,
1720079818,28,0,4536.538574,4474.358887,4356.922852,4469.358887,4458.974121,4447.179688,4442.94873,4457.94873,4452.563965,4391.538574,4280.641113,4507.563965,4345.512695,4342.179688,,,,,,,,,,,,,,,,,,,,,,,,,,,,,,,,,,,,,,,,,,,,,,,,,,,,,,,,,,,,,,,,,,,,,,
1720079818,29,0,4537.820313,4478.205078,4366.794922,4475.128418,4453.589844,4447.692383,4444.743652,4459.487305,4453.589844,4401.922852,4285.897461,4513.717773,4348.077148,4348.461426,,,,,,,,,,,,,,,,,,,,,,,,,,,,,,,,,,,,,,,,,,,,,,,,,,,,,,,,,,,,,,,,,,,,,,
1720079818,30,0,4551.538574,4488.333496,4383.333496,4476.153809,4458.846191,4444.743652,4444.230957,4458.846191,4452.692383,4410.641113,4300.641113,4522.179688,4360.256348,4361.025879,,,,,,,,,,,,,,,,,,,,,,,,,,,,,,,,,,,,,,,,,,,,,,,,,,,,,,,,,,,,,,,,,,,,,,
1720079818,31,0,4561.794922,4500.512695,4395.641113,4481.666504,4460.641113,4452.692383,4443.846191,4460.897461,4444.102539,4414.743652,4308.717773,4534.358887,4369.230957,4369.487305,,,,,,,,,,,,,,,,,,,,,,,,,,,,,,,,,,,,,,,,,,,,,,,,,,,,,,,,,,,,,,,,,,,,,,
1720079818,32,0,4564.743652,4507.692383,4397.94873,4491.922852,4444.487305,4459.615234,4444.487305,4460.128418,4439.871582,4413.461426,4311.794922,4538.077148,4370.256348,4367.94873,3.710884,1.432141,0.588133,0.237592,0.143543,1.465425,0.614249,0.432878,0.385367,0.113477,19.288115,3.538785,0.939015,0.404264,0.134607,1.987437,0.373523,0.418862,0.30248,0.141186,0.8102,0.227793,2.090755,0.670031,0.665567,3.887468,1.90661,0.543112,0.318853,0.245769,0.314653,2.736794,0.893818,0.416047,0.186518,0.684615,0.986225,1.024335,0.196299,0.171777,1.218483,0.882279,0.975204,0.190184,0.095026,0.799305,0.552459,0.640728,0.233502,0.157642,1.453743,0.753136,0.572392,0.424539,0.236135,6.764354,1.791415,1.549589,0.405646,0.214721,2.574906,0.815239,0.323863,0.279483,0.270209,2.569263,1.165249,0.439532,0.317901,0.177897
1720079818,33,0,4565.128418,4501.794922,4389.871582,4482.94873,4448.077148,4456.922852,4443.589844,4458.461426,4443.717773,4412.692383,4313.205078,4530.512695,4368.461426,4365.897461,,,,,,,,,,,,,,,,,,,,,,,,,,,,,,,,,,,,,,,,,,,,,,,,,,,,,,,,,,,,,,,,,,,,,,
1720079818,34,0,4556.282227,4490.128418,4376.153809,4460,4471.538574,4459.487305,4440.769043,4458.205078,4443.205078,4412.307617,4302.05127,4521.922852,4359.487305,4357.179688,,,,,,,,,,,,,,,,,,,,,,,,,,,,,,,,,,,,,,,,,,,,,,,,,,,,,,,,,,,,,,,,,,,,,,
1720079818,35,0,4545.384766,4485.384766,4369.615234,4454.487305,4470.769043,4461.025879,4440.256348,4459.615234,4442.820313,4410.384766,4291.922852,4520.256348,4349.743652,4345.512695,,,,,,,,,,,,,,,,,,,,,,,,,,,,,,,,,,,,,,,,,,,,,,,,,,,,,,,,,,,,,,,,,,,,,,
1720079818,36,0,4543.333496,4480.897461,4370.384766,4457.563965,4456.153809,4462.179688,4441.794922,4462.179688,4446.153809,4404.487305,4297.692383,4519.230957,4345.897461,4343.461426,,,,,,,,,,,,,,,,,,,,,,,,,,,,,,,,,,,,,,,,,,,,,,,,,,,,,,,,,,,,,,,,,,,,,,
1720079818,37,0,4533.717773,4472.05127,4364.487305,4448.077148,4457.436035,4471.538574,4443.461426,4457.179688,4442.94873,4392.563965,4293.717773,4509.102539,4336.794922,4334.871582,,,,,,,,,,,,,,,,,,,,,,,,,,,,,,,,,,,,,,,,,,,,,,,,,,,,,,,,,,,,,,,,,,,,,,
1720079818,38,0,4522.307617,4472.05127,4359.743652,4437.307617,4459.615234,4480.128418,4444.102539,4442.94873,4436.282227,4385.641113,4279.487305,4500,4329.871582,4320.384766,,,,,,,,,,,,,,,,,,,,,,,,,,,,,,,,,,,,,,,,,,,,,,,,,,,,,,,,,,,,,,,,,,,,,,
1720079818,39,0,4530.256348,4476.025879,4370.769043,4442.179688,4457.820313,4477.820313,4445.769043,4444.871582,4438.589844,4391.410156,4288.846191,4508.333496,4335.512695,4328.077148,,,,,,,,,,,,,,,,,,,,,,,,,,,,,,,,,,,,,,,,,,,,,,,,,,,,,,,,,,,,,,,,,,,,,,
1720079818,40,0,4543.846191,4476.282227,4378.589844,4456.282227,4458.205078,4475.512695,4447.94873,4456.538574,4446.025879,4399.487305,4303.717773,4525.384766,4346.025879,4347.563965,,,,,,,,,,,,,,,,,,,,,,,,,,,,,,,,,,,,,,,,,,,,,,,,,,,,,,,,,,,,,,,,,,,,,,
1720079818,41,0,4544.102539,4485,4365.769043,4461.794922,4456.922852,4475.128418,4445.384766,4450.384766,4444.615234,4401.282227,4301.282227,4527.820313,4350.256348,4350.769043,,,,,,,,,,,,,,,,,,,,,,,,,,,,,,,,,,,,,,,,,,,,,,,,,,,,,,,,,,,,,,,,,,,,,,
1720079818,42,0,4539.871582,4491.153809,4350.769043,4460,4461.538574,4473.717773,4441.025879,4441.794922,4436.282227,4404.615234,4301.410156,4524.230957,4351.153809,4348.461426,,,,,,,,,,,,,,,,,,,,,,,,,,,,,,,,,,,,,,,,,,,,,,,,,,,,,,,,,,,,,,,,,,,,,,
1720079818,43,0,4541.410156,4481.410156,4343.717773,4459.230957,4459.230957,4481.794922,4441.538574,4444.487305,4428.589844,4406.666504,4301.922852,4525,4350.769043,4348.461426,,,,,,,,,,,,,,,,,,,,,,,,,,,,,,,,,,,,,,,,,,,,,,,,,,,,,,,,,,,,,,,,,,,,,,
1720079818,44,0,4539.743652,4473.205078,4332.05127,4461.410156,4449.358887,4490.897461,4443.846191,4442.563965,4425.256348,4397.94873,4296.922852,4522.436035,4342.436035,4341.282227,,,,,,,,,,,,,,,,,,,,,,,,,,,,,,,,,,,,,,,,,,,,,,,,,,,,,,,,,,,,,,,,,,,,,,
1720079818,45,0,4536.538574,4480.897461,4315.128418,4458.333496,4456.922852,4492.563965,4443.077148,4445.897461,4428.461426,4396.794922,4300.897461,4526.282227,4340.384766,4339.487305,,,,,,,,,,,,,,,,,,,,,,,,,,,,,,,,,,,,,,,,,,,,,,,,,,,,,,,,,,,,,,,,,,,,,,
1720079818,46,0,4531.410156,4477.94873,4297.820313,4448.717773,4468.205078,4490.512695,4441.922852,4458.974121,4431.153809,4409.102539,4304.615234,4531.794922,4344.871582,4341.025879,,,,,,,,,,,,,,,,,,,,,,,,,,,,,,,,,,,,,,,,,,,,,,,,,,,,,,,,,,,,,,,,,,,,,,
1720079818,47,0,4516.794922,4461.282227,4276.666504,4440.897461,4457.436035,4490.256348,4442.94873,4462.436035,4430.512695,4410.769043,4291.666504,4519.230957,4334.743652,4328.333496,,,,,,,,,,,,,,,,,,,,,,,,,,,,,,,,,,,,,,,,,,,,,,,,,,,,,,,,,,,,,,,,,,,,,,
1720079818,48,0,4503.717773,4457.692383,4260.384766,4436.538574,4443.717773,4496.666504,4442.179688,4459.871582,4424.230957,4397.05127,4279.615234,4506.410156,4315.128418,4311.794922,4.079117,1.426458,0.519377,0.246865,0.144366,1.534403,0.606533,0.425377,0.390188,0.113875,15.363171,4.222874,0.999135,0.515704,0.130509,1.70667,0.391486,0.442436,0.347487,0.152524,0.910063,0.212824,1.940155,0.650914,0.685341,3.164279,1.964326,0.626608,0.353448,0.237284,0.330159,3.118981,0.941107,0.43642,0.192285,0.619032,1.149746,0.978846,0.194416,0.171556,1.106688,1.085035,1.002707,0.182856,0.087374,0.90435,0.707422,0.705017,0.217335,0.149991,1.434963,0.949818,0.593786,0.408375,0.233741,6.882017,1.849613,1.773987,0.514079,0.186175,2.458086,0.93817,0.34766,0.298527,0.27763,2.902974,1.189494,0.478539,0.35419,0.174063
1720079818,49,0,4503.717773,4458.846191,4257.820313,4429.615234,4442.94873,4505.512695,4440.897461,4454.615234,4412.05127,4387.05127,4274.487305,4503.077148,4307.179688,4306.410156,,,,,,,,,,,,,,,,,,,,,,,,,,,,,,,,,,,,,,,,,,,,,,,,,,,,,,,,,,,,,,,,,,,,,,
1720079818,50,0,4503.205078,4453.589844,4258.589844,4422.692383,4443.205078,4509.358887,4440.897461,4440.897461,4400.256348,4387.05127,4269.358887,4494.102539,4307.692383,4304.615234,,,,,,,,,,,,,,,,,,,,,,,,,,,,,,,,,,,,,,,,,,,,,,,,,,,,,,,,,,,,,,,,,,,,,,
1720079818,51,0,4495.128418,4451.025879,4253.333496,4424.358887,4443.846191,4508.846191,4436.025879,4433.717773,4398.333496,4388.461426,4266.282227,4485.128418,4308.333496,4302.94873,,,,,,,,,,,,,,,,,,,,,,,,,,,,,,,,,,,,,,,,,,,,,,,,,,,,,,,,,,,,,,,,,,,,,,
1720079818,52,0,4494.358887,4451.666504,4249.102539,4427.307617,4436.025879,4503.717773,4429.230957,4436.666504,4405,4388.333496,4265.384766,4488.846191,4309.230957,4305.897461,,,,,,,,,,,,,,,,,,,,,,,,,,,,,,,,,,,,,,,,,,,,,,,,,,,,,,,,,,,,,,,,,,,,,,
1720079818,53,0,4498.846191,4450,4247.307617,4422.05127,4423.589844,4495.384766,4429.487305,4435.128418,4410.641113,4391.410156,4266.410156,4495.128418,4305.128418,4312.179688,,,,,,,,,,,,,,,,,,,,,,,,,,,,,,,,,,,,,,,,,,,,,,,,,,,,,,,,,,,,,,,,,,,,,,
1720079818,54,0,4496.025879,4449.487305,4240.512695,4414.358887,4431.282227,4495,4427.05127,4426.538574,4409.487305,4393.589844,4267.692383,4489.743652,4298.717773,4311.794922,,,,,,,,,,,,,,,,,,,,,,,,,,,,,,,,,,,,,,,,,,,,,,,,,,,,,,,,,,,,,,,,,,,,,,
1720079818,55,0,4492.563965,4448.717773,4230.769043,4412.436035,4448.461426,4503.333496,4425,4422.05127,4405.384766,4386.538574,4269.230957,4480.512695,4294.358887,4303.974121,,,,,,,,,,,,,,,,,,,,,,,,,,,,,,,,,,,,,,,,,,,,,,,,,,,,,,,,,,,,,,,,,,,,,,
1720079818,56,0,4492.563965,4446.025879,4224.102539,4416.410156,4448.846191,4513.461426,4438.974121,4433.333496,4415.384766,4381.794922,4275,4486.666504,4293.333496,4303.461426,,,,,,,,,,,,,,,,,,,,,,,,,,,,,,,,,,,,,,,,,,,,,,,,,,,,,,,,,,,,,,,,,,,,,,
1720079818,57,0,4491.922852,4444.743652,4213.461426,4416.794922,4440.897461,4519.871582,4444.871582,4446.410156,4428.205078,4386.666504,4280.769043,4499.871582,4294.102539,4312.563965,,,,,,,,,,,,,,,,,,,,,,,,,,,,,,,,,,,,,,,,,,,,,,,,,,,,,,,,,,,,,,,,,,,,,,
1720079818,58,0,4488.974121,4443.461426,4198.589844,4414.102539,4443.589844,4523.333496,4429.743652,4443.589844,4424.102539,4386.282227,4278.077148,4496.538574,4287.563965,4312.179688,,,,,,,,,,,,,,,,,,,,,,,,,,,,,,,,,,,,,,,,,,,,,,,,,,,,,,,,,,,,,,,,,,,,,,
1720079818,59,0,4483.461426,4442.307617,4191.410156,4412.563965,4444.871582,4530.512695,4424.358887,4439.615234,4420.512695,4383.974121,4266.794922,4487.436035,4276.666504,4296.794922,,,,,,,,,,,,,,,,,,,,,,,,,,,,,,,,,,,,,,,,,,,,,,,,,,,,,,,,,,,,,,,,,,,,,,
1720079818,60,0,4482.436035,4439.871582,4194.230957,4412.179688,4434.358887,4540.769043,4428.333496,4444.230957,4430.384766,4387.436035,4260.512695,4488.333496,4274.743652,4289.615234,,,,,,,,,,,,,,,,,,,,,,,,,,,,,,,,,,,,,,,,,,,,,,,,,,,,,,,,,,,,,,,,,,,,,,
1720079818,61,0,4489.102539,4440.769043,4204.358887,4414.615234,4434.102539,4549.487305,4428.589844,4446.025879,4434.487305,4387.563965,4268.205078,4489.743652,4277.307617,4298.717773,,,,,,,,,,,,,,,,,,,,,,,,,,,,,,,,,,,,,,,,,,,,,,,,,,,,,,,,,,,,,,,,,,,,,,
