Timestamp,EEG.Counter,EEG.Interpolated,EEG.AF3,EEG.F7,EEG.F3,EEG.FC5,EEG.T7,EEG.P7,EEG.O1,EEG.O2,EEG.P8,EEG.T8,EEG.FC6,EEG.F4,EEG.F8,EEG.AF4,POW.AF3.Theta,POW.AF3.Alpha,POW.AF3.BetaL,POW.AF3.BetaH,POW.AF3.Gamma,POW.F7.Theta,POW.F7.Alpha,POW.F7.BetaL,POW.F7.BetaH,POW.F7.Gamma,POW.F3.Theta,POW.F3.Alpha,POW.F3.BetaL,POW.F3.BetaH,POW.F3.Gamma,POW.FC5.Theta,POW.FC5.Alpha,POW.FC5.BetaL,POW.FC5.BetaH,POW.FC5.Gamma,POW.T7.Theta,POW.T7.Alpha,POW.T7.BetaL,POW.T7.BetaH,POW.T7.Gamma,POW.P7.Theta,POW.P7.Alpha,POW.P7.BetaL,POW.P7.BetaH,POW.P7.Gamma,POW.O1.Theta,POW.O1.Alpha,POW.O1.BetaL,POW.O1.BetaH,POW.O1.Gamma,POW.O2.Theta,POW.O2.Alpha,POW.O2.BetaL,POW.O2.BetaH,POW.O2.Gamma,POW.P8.Theta,POW.P8.Alpha,POW.P8.BetaL,POW.P8.BetaH,POW.P8.Gamma,POW.T8.Theta,POW.T8.Alpha,POW.T8.BetaL,POW.T8.BetaH,POW.T8.Gamma,POW.FC6.Theta,POW.FC6.Alpha,POW.FC6.BetaL,POW.FC6.BetaH,POW.FC6.Gamma,POW.F4.Theta,POW.F4.Alpha,POW.F4.BetaL,POW.F4.BetaH,POW.F4.Gamma,POW.F8.Theta,POW.F8.Alpha,POW.F8.BetaL,POW.F8.BetaH,POW.F8.Gamma,POW.AF4.Theta,POW.AF4.Alpha,POW.AF4.BetaL,POW.AF4.BetaH,POW.AF4.Gamma,,,,,,,,,,,,,,,,,,,,,,,,,
1720416518,11,0,4410.256348,4294.871582,4302.179688,4301.922852,4263.333496,4306.922852,4289.358887,4285,4292.307617,4255.769043,4428.589844,4464.102539,4328.205078,4501.282227,,,,,,,,,,,,,,,,,,,,,,,,,,,,,,,,,,,,,,,,,,,,,,,,,,,,,,,,,,,,,,,,,,,,,,,,,,,,,,,,,,,,,,,,,,,,,,,
1720416518,12,0,4411.153809,4294.358887,4306.922852,4311.410156,4269.615234,4313.077148,4294.615234,4292.307617,4300,4264.358887,4433.205078,4470.256348,4329.102539,4506.922852,,,,,,,,,,,,,,,,,,,,,,,,,,,,,,,,,,,,,,,,,,,,,,,,,,,,,,,,,,,,,,,,,,,,,,,,,,,,,,,,,,,,,,,,,,,,,,,
1720416518,13,0,4409.615234,4294.871582,4308.077148,4309.358887,4273.717773,4307.563965,4291.025879,4293.974121,4307.307617,4268.205078,4436.153809,4458.846191,4333.205078,4506.922852,,,,,,,,,,,,,,,,,,,,,,,,,,,,,,,,,,,,,,,,,,,,,,,,,,,,,,,,,,,,,,,,,,,,,,,,,,,,,,,,,,,,,,,,,,,,,,,
1720416518,14,0,4398.333496,4295.128418,4300.128418,4297.05127,4265.256348,4299.871582,4283.077148,4288.205078,4303.333496,4267.05127,4430.256348,4427.820313,4332.820313,4505.769043,,,,,,,,,,,,,,,,,,,,,,,,,,,,,,,,,,,,,,,,,,,,,,,,,,,,,,,,,,,,,,,,,,,,,,,,,,,,,,,,,,,,,,,,,,,,,,,
1720416518,15,0,4385.384766,4291.538574,4288.589844,4291.410156,4260.256348,4292.692383,4276.410156,4277.179688,4291.153809,4259.871582,4421.922852,4402.307617,4327.05127,4497.307617,,,,,,,,,,,,,,,,,,,,,,,,,,,,,,,,,,,,,,,,,,,,,,,,,,,,,,,,,,,,,,,,,,,,,,,,,,,,,,,,,,,,,,,,,,,,,,,
1720416518,16,0,4388.846191,4292.436035,4289.487305,4296.922852,4260.769043,4293.717773,4275.897461,4274.358887,4286.025879,4253.333496,4422.563965,4413.974121,4331.153809,4501.410156,,,,,,,,,,,,,,,,,,,,,,,,,,,,,,,,,,,,,,,,,,,,,,,,,,,,,,,,,,,,,,,,,,,,,,,,,,,,,,,,,,,,,,,,,,,,,,,
1720416518,17,0,4402.05127,4304.487305,4311.666504,4310.641113,4267.820313,4308.461426,4289.871582,4289.743652,4294.615234,4264.743652,4438.717773,4436.922852,4346.666504,4521.153809,,,,,,,,,,,,,,,,,,,,,,,,,,,,,,,,,,,,,,,,,,,,,,,,,,,,,,,,,,,,,,,,,,,,,,,,,,,,,,,,,,,,,,,,,,,,,,,
1720416518,18,0,4403.077148,4313.205078,4325.897461,4318.461426,4278.589844,4313.461426,4297.563965,4297.692383,4297.563965,4276.025879,4448.077148,4433.846191,4353.974121,4529.102539,,,,,,,,,,,,,,,,,,,,,,,,,,,,,,,,,,,,,,,,,,,,,,,,,,,,,,,,,,,,,,,,,,,,,,,,,,,,,,,,,,,,,,,,,,,,,,,
1720416518,19,0,4395.128418,4311.410156,4317.307617,4311.922852,4273.333496,4297.179688,4284.358887,4283.461426,4286.666504,4263.974121,4433.974121,4424.487305,4344.743652,4521.922852,,,,,,,,,,,,,,,,,,,,,,,,,,,,,,,,,,,,,,,,,,,,,,,,,,,,,,,,,,,,,,,,,,,,,,,,,,,,,,,,,,,,,,,,,,,,,,,
1720416518,20,0,4391.025879,4307.179688,4313.333496,4309.743652,4265,4294.743652,4280.641113,4277.563965,4284.615234,4256.153809,4425.128418,4425.128418,4337.563965,4512.436035,,,,,,,,,,,,,,,,,,,,,,,,,,,,,,,,,,,,,,,,,,,,,,,,,,,,,,,,,,,,,,,,,,,,,,,,,,,,,,,,,,,,,,,,,,,,,,,
1720416518,21,0,4390.384766,4302.692383,4315.769043,4312.563965,4273.589844,4312.307617,4294.743652,4289.358887,4293.717773,4262.05127,4431.794922,4420.897461,4340.128418,4504.487305,,,,,,,,,,,,,,,,,,,,,,,,,,,,,,,,,,,,,,,,,,,,,,,,,,,,,,,,,,,,,,,,,,,,,,,,,,,,,,,,,,,,,,,,,,,,,,,
1720416518,22,0,4401.025879,4303.717773,4315,4309.871582,4276.410156,4315.769043,4297.820313,4295.769043,4297.692383,4266.153809,4437.563965,4426.666504,4343.717773,4505.512695,7.234593,2.762701,0.821538,0.372591,0.307049,1.244805,1.254975,0.424289,0.248396,0.243708,0.74831,1.632641,0.859939,0.326163,0.267738,1.517037,2.304046,0.602501,0.302559,0.289397,0.475383,0.756019,0.243303,0.23736,0.165214,0.428965,0.704285,0.244712,0.204159,0.231862,0.501269,1.454358,0.489529,0.31008,0.241659,0.309836,2.253604,0.690597,0.260115,0.268015,0.400087,3.190322,0.759069,0.331372,0.406805,2.373007,1.264555,1.195279,0.375917,0.318359,0.873405,2.031364,1.105662,0.465265,0.47099,16.117249,7.722751,3.872427,0.930006,0.69918,0.770047,1.039878,1.080768,0.276264,0.332223,2.234465,2.166432,1.847574,0.466792,0.407876,,,,,,,,,,,,,,,,,,,,,,,,,
1720416519,23,0,4412.692383,4312.820313,4313.974121,4313.846191,4267.436035,4307.94873,4290,4293.205078,4297.179688,4267.563965,4443.205078,4435.384766,4345.769043,4507.692383,,,,,,,,,,,,,,,,,,,,,,,,,,,,,,,,,,,,,,,,,,,,,,,,,,,,,,,,,,,,,,,,,,,,,,,,,,,,,,,,,,,,,,,,,,,,,,,
1720416519,24,0,4400.512695,4306.922852,4308.077148,4313.846191,4265,4308.846191,4290.128418,4292.307617,4294.487305,4265.256348,4440.384766,4426.922852,4343.717773,4502.179688,,,,,,,,,,,,,,,,,,,,,,,,,,,,,,,,,,,,,,,,,,,,,,,,,,,,,,,,,,,,,,,,,,,,,,,,,,,,,,,,,,,,,,,,,,,,,,,
1720416519,25,0,4382.563965,4293.846191,4299.230957,4299.871582,4265.512695,4311.666504,4292.563965,4293.717773,4296.794922,4261.538574,4428.205078,4422.179688,4338.717773,4497.820313,,,,,,,,,,,,,,,,,,,,,,,,,,,,,,,,,,,,,,,,,,,,,,,,,,,,,,,,,,,,,,,,,,,,,,,,,,,,,,,,,,,,,,,,,,,,,,,
1720416519,26,0,4383.974121,4302.820313,4303.589844,4301.282227,4264.487305,4311.666504,4294.615234,4296.794922,4305.384766,4265.512695,4435.256348,4430,4343.589844,4501.794922,,,,,,,,,,,,,,,,,,,,,,,,,,,,,,,,,,,,,,,,,,,,,,,,,,,,,,,,,,,,,,,,,,,,,,,,,,,,,,,,,,,,,,,,,,,,,,,
1720416519,27,0,4386.538574,4310.384766,4313.717773,4313.333496,4265.897461,4310.769043,4294.487305,4295.512695,4302.94873,4268.974121,4444.487305,4431.153809,4348.717773,4503.846191,,,,,,,,,,,,,,,,,,,,,,,,,,,,,,,,,,,,,,,,,,,,,,,,,,,,,,,,,,,,,,,,,,,,,,,,,,,,,,,,,,,,,,,,,,,,,,,
1720416519,28,0,4380.769043,4299.102539,4309.358887,4308.077148,4266.922852,4309.230957,4288.974121,4290.256348,4290.128418,4262.94873,4432.05127,4422.692383,4343.205078,4497.692383,,,,,,,,,,,,,,,,,,,,,,,,,,,,,,,,,,,,,,,,,,,,,,,,,,,,,,,,,,,,,,,,,,,,,,,,,,,,,,,,,,,,,,,,,,,,,,,
1720416519,29,0,4384.230957,4297.692383,4304.743652,4302.94873,4266.538574,4309.615234,4290.128418,4291.153809,4291.538574,4261.666504,4425.769043,4424.871582,4341.538574,4496.153809,,,,,,,,,,,,,,,,,,,,,,,,,,,,,,,,,,,,,,,,,,,,,,,,,,,,,,,,,,,,,,,,,,,,,,,,,,,,,,,,,,,,,,,,,,,,,,,
1720416519,30,0,4391.922852,4307.820313,4312.179688,4311.538574,4267.05127,4308.717773,4295.641113,4292.692383,4297.820313,4267.436035,4435.641113,4434.871582,4348.333496,4501.025879,,,,,,,,,,,,,,,,,,,,,,,,,,,,,,,,,,,,,,,,,,,,,,,,,,,,,,,,,,,,,,,,,,,,,,,,,,,,,,,,,,,,,,,,,,,,,,,
1720416519,31,0,4391.153809,4305.256348,4317.436035,4315.512695,4274.487305,4309.743652,4296.153809,4291.922852,4293.846191,4267.05127,4437.563965,4435.256348,4349.102539,4502.692383,,,,,,,,,,,,,,,,,,,,,,,,,,,,,,,,,,,,,,,,,,,,,,,,,,,,,,,,,,,,,,,,,,,,,,,,,,,,,,,,,,,,,,,,,,,,,,,
1720416519,32,0,4386.025879,4295.384766,4313.846191,4310.897461,4279.743652,4314.487305,4294.743652,4294.102539,4291.410156,4261.794922,4432.179688,4434.230957,4343.717773,4499.230957,,,,,,,,,,,,,,,,,,,,,,,,,,,,,,,,,,,,,,,,,,,,,,,,,,,,,,,,,,,,,,,,,,,,,,,,,,,,,,,,,,,,,,,,,,,,,,,
1720416519,33,0,4383.974121,4290.512695,4312.307617,4308.846191,4268.846191,4312.179688,4294.615234,4295.769043,4295.384766,4268.333496,4434.871582,4443.974121,4348.974121,4501.794922,,,,,,,,,,,,,,,,,,,,,,,,,,,,,,,,,,,,,,,,,,,,,,,,,,,,,,,,,,,,,,,,,,,,,,,,,,,,,,,,,,,,,,,,,,,,,,,
1720416519,34,0,4387.94873,4295.512695,4322.307617,4317.820313,4261.282227,4307.307617,4296.282227,4299.871582,4300.641113,4280.512695,4444.102539,4448.974121,4357.820313,4506.153809,,,,,,,,,,,,,,,,,,,,,,,,,,,,,,,,,,,,,,,,,,,,,,,,,,,,,,,,,,,,,,,,,,,,,,,,,,,,,,,,,,,,,,,,,,,,,,,
1720416519,35,0,4395.256348,4305,4331.538574,4327.563965,4274.102539,4311.666504,4298.333496,4304.358887,4300.769043,4274.487305,4446.922852,4446.153809,4352.563965,4503.205078,,,,,,,,,,,,,,,,,,,,,,,,,,,,,,,,,,,,,,,,,,,,,,,,,,,,,,,,,,,,,,,,,,,,,,,,,,,,,,,,,,,,,,,,,,,,,,,
1720416519,36,0,4394.230957,4307.05127,4327.436035,4322.692383,4282.94873,4315.256348,4295.512695,4298.846191,4293.717773,4266.538574,4442.436035,4455.769043,4349.230957,4503.974121,,,,,,,,,,,,,,,,,,,,,,,,,,,,,,,,,,,,,,,,,,,,,,,,,,,,,,,,,,,,,,,,,,,,,,,,,,,,,,,,,,,,,,,,,,,,,,,
1720416519,37,0,4384.871582,4306.538574,4320.256348,4318.974121,4276.538574,4308.974121,4290.128418,4293.077148,4292.179688,4275,4442.820313,4455.769043,4358.974121,4511.794922,,,,,,,,,,,,,,,,,,,,,,,,,,,,,,,,,,,,,,,,,,,,,,,,,,,,,,,,,,,,,,,,,,,,,,,,,,,,,,,,,,,,,,,,,,,,,,,
1720416519,38,0,4386.410156,4311.410156,4323.333496,4325.128418,4277.94873,4308.333496,4294.871582,4300.384766,4302.563965,4283.205078,4453.589844,4451.282227,4367.820313,4517.820313,6.679156,2.406327,0.641586,0.385852,0.332433,1.177276,1.222236,0.393871,0.277346,0.254958,0.857478,1.28275,0.767262,0.327528,0.268171,1.424577,1.983843,0.540169,0.338325,0.280392,0.410963,0.678306,0.232205,0.278183,0.183536,0.368772,0.801065,0.244239,0.248878,0.247225,0.433752,1.974282,0.37563,0.345011,0.246675,0.320855,3.073179,0.485574,0.285196,0.265037,0.47513,3.894664,0.799251,0.34966,0.397172,1.912899,1.398314,1.048143,0.394148,0.319537,0.727663,2.151478,1.022407,0.47209,0.480952,15.479374,7.625155,3.582977,0.8715,0.677807,0.80058,0.945924,1.033808,0.323831,0.33227,2.595406,1.912037,1.890881,0.472878,0.426466,,,,,,,,,,,,,,,,,,,,,,,,,
1720416519,39,0,4394.615234,4311.538574,4326.153809,4324.102539,4282.692383,4311.153809,4298.205078,4303.077148,4302.563965,4278.461426,4457.179688,4456.794922,4364.230957,4512.94873,,,,,,,,,,,,,,,,,,,,,,,,,,,,,,,,,,,,,,,,,,,,,,,,,,,,,,,,,,,,,,,,,,,,,,,,,,,,,,,,,,,,,,,,,,,,,,,
1720416519,40,0,4388.077148,4301.282227,4318.205078,4315.256348,4267.820313,4293.846191,4283.846191,4287.563965,4285.256348,4269.358887,4442.94873,4446.153809,4351.794922,4497.820313,,,,,,,,,,,,,,,,,,,,,,,,,,,,,,,,,,,,,,,,,,,,,,,,,,,,,,,,,,,,,,,,,,,,,,,,,,,,,,,,,,,,,,,,,,,,,,,
1720416519,41,0,4371.410156,4290.769043,4309.102539,4308.333496,4252.563965,4281.922852,4274.487305,4276.666504,4276.794922,4261.153809,4426.282227,4436.410156,4343.077148,4486.922852,,,,,,,,,,,,,,,,,,,,,,,,,,,,,,,,,,,,,,,,,,,,,,,,,,,,,,,,,,,,,,,,,,,,,,,,,,,,,,,,,,,,,,,,,,,,,,,
1720416519,42,0,4361.410156,4289.615234,4305.769043,4305.384766,4264.743652,4299.230957,4285.769043,4282.563965,4276.794922,4258.461426,4425.128418,4440.512695,4343.589844,4482.820313,,,,,,,,,,,,,,,,,,,,,,,,,,,,,,,,,,,,,,,,,,,,,,,,,,,,,,,,,,,,,,,,,,,,,,,,,,,,,,,,,,,,,,,,,,,,,,,
1720416519,43,0,4361.538574,4297.563965,4308.333496,4311.538574,4276.153809,4311.922852,4294.230957,4290.769043,4276.922852,4263.461426,4428.846191,4439.102539,4347.307617,4478.461426,,,,,,,,,,,,,,,,,,,,,,,,,,,,,,,,,,,,,,,,,,,,,,,,,,,,,,,,,,,,,,,,,,,,,,,,,,,,,,,,,,,,,,,,,,,,,,,
1720416519,44,0,4362.179688,4305.256348,4312.94873,4318.077148,4268.974121,4305.769043,4291.794922,4293.846191,4285.769043,4266.538574,4426.666504,4433.589844,4346.410156,4473.333496,,,,,,,,,,,,,,,,,,,,,,,,,,,,,,,,,,,,,,,,,,,,,,,,,,,,,,,,,,,,,,,,,,,,,,,,,,,,,,,,,,,,,,,,,,,,,,,
1720416519,45,0,4361.922852,4306.666504,4314.871582,4319.358887,4267.94873,4306.282227,4290.641113,4293.717773,4290.512695,4266.922852,4426.922852,4436.282227,4346.922852,4473.589844,,,,,,,,,,,,,,,,,,,,,,,,,,,,,,,,,,,,,,,,,,,,,,,,,,,,,,,,,,,,,,,,,,,,,,,,,,,,,,,,,,,,,,,,,,,,,,,
1720416519,46,0,4360.256348,4306.153809,4316.282227,4322.307617,4273.461426,4309.230957,4288.077148,4292.05127,4283.205078,4266.153809,4433.461426,4437.436035,4351.282227,4476.538574,,,,,,,,,,,,,,,,,,,,,,,,,,,,,,,,,,,,,,,,,,,,,,,,,,,,,,,,,,,,,,,,,,,,,,,,,,,,,,,,,,,,,,,,,,,,,,,
1720416519,47,0,4350.641113,4303.846191,4313.846191,4317.179688,4273.589844,4306.922852,4284.743652,4291.282227,4285.512695,4267.307617,4439.871582,4440.641113,4352.94873,4479.487305,,,,,,,,,,,,,,,,,,,,,,,,,,,,,,,,,,,,,,,,,,,,,,,,,,,,,,,,,,,,,,,,,,,,,,,,,,,,,,,,,,,,,,,,,,,,,,,
1720416519,48,0,4350.128418,4306.410156,4314.615234,4313.205078,4274.871582,4306.794922,4289.487305,4295.512695,4297.692383,4278.461426,4444.358887,4452.05127,4359.871582,4486.282227,,,,,,,,,,,,,,,,,,,,,,,,,,,,,,,,,,,,,,,,,,,,,,,,,,,,,,,,,,,,,,,,,,,,,,,,,,,,,,,,,,,,,,,,,,,,,,,
1720416519,49,0,4359.743652,4312.05127,4321.282227,4323.077148,4279.230957,4302.179688,4292.563965,4299.230957,4299.487305,4281.410156,4446.922852,4448.717773,4362.820313,4487.307617,,,,,,,,,,,,,,,,,,,,,,,,,,,,,,,,,,,,,,,,,,,,,,,,,,,,,,,,,,,,,,,,,,,,,,,,,,,,,,,,,,,,,,,,,,,,,,,
1720416519,50,0,4357.692383,4311.153809,4322.179688,4326.410156,4278.589844,4294.102539,4285.512695,4292.94873,4288.333496,4266.153809,4444.743652,4446.153809,4356.025879,4482.563965,,,,,,,,,,,,,,,,,,,,,,,,,,,,,,,,,,,,,,,,,,,,,,,,,,,,,,,,,,,,,,,,,,,,,,,,,,,,,,,,,,,,,,,,,,,,,,,
1720416519,51,0,4353.589844,4310.256348,4322.692383,4322.436035,4270.641113,4290.128418,4278.589844,4282.563965,4273.461426,4260.384766,4441.922852,4450.769043,4356.666504,4482.179688,,,,,,,,,,,,,,,,,,,,,,,,,,,,,,,,,,,,,,,,,,,,,,,,,,,,,,,,,,,,,,,,,,,,,,,,,,,,,,,,,,,,,,,,,,,,,,,
1720416519,52,0,4357.307617,4312.179688,4324.487305,4321.794922,4264.358887,4287.563965,4275.128418,4277.436035,4261.666504,4262.05127,4440.769043,4445.769043,4363.461426,4482.307617,,,,,,,,,,,,,,,,,,,,,,,,,,,,,,,,,,,,,,,,,,,,,,,,,,,,,,,,,,,,,,,,,,,,,,,,,,,,,,,,,,,,,,,,,,,,,,,
1720416519,53,0,4356.922852,4306.922852,4317.179688,4317.692383,4269.743652,4288.077148,4276.025879,4276.282227,4262.05127,4251.025879,4441.025879,4443.589844,4362.179688,4479.871582,,,,,,,,,,,,,,,,,,,,,,,,,,,,,,,,,,,,,,,,,,,,,,,,,,,,,,,,,,,,,,,,,,,,,,,,,,,,,,,,,,,,,,,,,,,,,,,
1720416519,54,0,4361.794922,4304.615234,4314.102539,4316.282227,4279.871582,4297.05127,4285.897461,4280.256348,4272.563965,4252.179688,4442.179688,4449.487305,4359.743652,4480.512695,5.75393,2.027079,0.526933,0.400297,0.371605,1.075051,1.215415,0.376569,0.305178,0.270595,0.95171,1.065249,0.666692,0.354198,0.285129,1.220691,1.648903,0.47603,0.383895,0.280418,0.335578,0.590008,0.222303,0.309248,0.208106,0.334798,0.851179,0.244687,0.295504,0.26449,0.387636,2.522687,0.312699,0.37778,0.253518,0.339504,3.929397,0.370395,0.321736,0.265072,0.556872,4.534676,0.858246,0.375523,0.385252,1.40339,1.612421,0.909667,0.412126,0.326995,0.654753,2.274978,0.966426,0.476573,0.504012,12.936429,6.799662,2.999452,0.773167,0.640099,0.834195,0.865324,0.965046,0.389692,0.344457,2.803382,1.782033,1.871179,0.493019,0.459854,,,,,,,,,,,,,,,,,,,,,,,,,
1720416519,55,0,4376.282227,4317.05127,4325.128418,4325.897461,4281.538574,4305.128418,4295.641113,4290.512695,4283.589844,4272.179688,4446.410156,4457.179688,4369.230957,4484.230957,,,,,,,,,,,,,,,,,,,,,,,,,,,,,,,,,,,,,,,,,,,,,,,,,,,,,,,,,,,,,,,,,,,,,,,,,,,,,,,,,,,,,,,,,,,,,,,
1720416519,56,0,4379.743652,4323.589844,4329.743652,4335,4281.538574,4303.974121,4295.384766,4296.282227,4288.333496,4279.487305,4447.692383,4461.025879,4369.871582,4482.692383,,,,,,,,,,,,,,,,,,,,,,,,,,,,,,,,,,,,,,,,,,,,,,,,,,,,,,,,,,,,,,,,,,,,,,,,,,,,,,,,,,,,,,,,,,,,,,,
1720416519,57,0,4376.153809,4316.410156,4326.666504,4336.153809,4281.153809,4307.820313,4293.717773,4296.025879,4293.461426,4278.205078,4444.230957,4462.307617,4362.820313,4477.94873,,,,,,,,,,,,,,,,,,,,,,,,,,,,,,,,,,,,,,,,,,,,,,,,,,,,,,,,,,,,,,,,,,,,,,,,,,,,,,,,,,,,,,,,,,,,,,,
1720416519,58,0,4373.205078,4309.230957,4321.025879,4324.871582,4280.128418,4310.384766,4295,4295.897461,4294.102539,4280.384766,4446.282227,4456.538574,4362.692383,4473.205078,,,,,,,,,,,,,,,,,,,,,,,,,,,,,,,,,,,,,,,,,,,,,,,,,,,,,,,,,,,,,,,,,,,,,,,,,,,,,,,,,,,,,,,,,,,,,,,
1720416519,59,0,4365.641113,4305.769043,4311.282227,4311.025879,4280.769043,4300.897461,4288.461426,4292.307617,4285.256348,4277.563965,4441.410156,4443.205078,4359.102539,4463.974121,,,,,,,,,,,,,,,,,,,,,,,,,,,,,,,,,,,,,,,,,,,,,,,,,,,,,,,,,,,,,,,,,,,,,,,,,,,,,,,,,,,,,,,,,,,,,,,
1720416519,60,0,4370,4308.333496,4312.05127,4318.205078,4280.512695,4301.922852,4287.436035,4292.436035,4286.025879,4275.256348,4433.077148,4442.179688,4357.692383,4459.102539,,,,,,,,,,,,,,,,,,,,,,,,,,,,,,,,,,,,,,,,,,,,,,,,,,,,,,,,,,,,,,,,,,,,,,,,,,,,,,,,,,,,,,,,,,,,,,,
1720416519,61,0,4375,4309.615234,4315.769043,4324.230957,4280.512695,4310.897461,4292.179688,4297.05127,4290.256348,4272.179688,4436.538574,4449.102539,4361.025879,4460.769043,,,,,,,,,,,,,,,,,,,,,,,,,,,,,,,,,,,,,,,,,,,,,,,,,,,,,,,,,,,,,,,,,,,,,,,,,,,,,,,,,,,,,,,,,,,,,,,
1720416519,62,0,4367.307617,4306.410156,4308.589844,4311.538574,4277.692383,4299.615234,4284.102539,4292.179688,4283.974121,4270.256348,4440.128418,4444.487305,4360.128418,4462.05127,,,,,,,,,,,,,,,,,,,,,,,,,,,,,,,,,,,,,,,,,,,,,,,,,,,,,,,,,,,,,,,,,,,,,,,,,,,,,,,,,,,,,,,,,,,,,,,
1720416519,63,0,4369.102539,4305.641113,4306.666504,4306.922852,4272.179688,4288.077148,4278.846191,4288.846191,4281.666504,4273.846191,4440,4443.717773,4359.358887,4466.666504,,,,,,,,,,,,,,,,,,,,,,,,,,,,,,,,,,,,,,,,,,,,,,,,,,,,,,,,,,,,,,,,,,,,,,,,,,,,,,,,,,,,,,,,,,,,,,,
1720416519,64,0,4380.384766,4305,4315,4312.436035,4274.487305,4295.897461,4287.307617,4295.128418,4286.922852,4273.461426,4443.333496,4460.897461,4365.256348,4471.025879,,,,,,,,,,,,,,,,,,,,,,,,,,,,,,,,,,,,,,,,,,,,,,,,,,,,,,,,,,,,,,,,,,,,,,,,,,,,,,,,,,,,,,,,,,,,,,,
1720416519,65,0,4375.384766,4298.846191,4311.538574,4311.794922,4279.871582,4296.666504,4288.589844,4291.410156,4279.230957,4263.205078,4436.153809,4452.563965,4360.128418,4459.487305,,,,,,,,,,,,,,,,,,,,,,,,,,,,,,,,,,,,,,,,,,,,,,,,,,,,,,,,,,,,,,,,,,,,,,,,,,,,,,,,,,,,,,,,,,,,,,,
1720416519,66,0,4365.512695,4293.333496,4299.487305,4307.05127,4278.333496,4289.615234,4275.512695,4273.589844,4262.307617,4251.538574,4414.487305,4423.717773,4346.153809,4441.153809,,,,,,,,,,,,,,,,,,,,,,,,,,,,,,,,,,,,,,,,,,,,,,,,,,,,,,,,,,,,,,,,,,,,,,,,,,,,,,,,,,,,,,,,,,,,,,,
1720416519,67,0,4370.256348,4298.077148,4301.410156,4310.641113,4277.563965,4291.410156,4270.641113,4266.282227,4255,4244.487305,4409.487305,4423.589844,4347.436035,4438.589844,,,,,,,,,,,,,,,,,,,,,,,,,,,,,,,,,,,,,,,,,,,,,,,,,,,,,,,,,,,,,,,,,,,,,,,,,,,,,,,,,,,,,,,,,,,,,,,
1720416519,68,0,4373.589844,4306.794922,4314.102539,4322.179688,4281.922852,4294.615234,4276.282227,4273.205078,4258.717773,4247.179688,4424.102539,4431.666504,4357.179688,4444.615234,,,,,,,,,,,,,,,,,,,,,,,,,,,,,,,,,,,,,,,,,,,,,,,,,,,,,,,,,,,,,,,,,,,,,,,,,,,,,,,,,,,,,,,,,,,,,,,
1720416519,69,0,4369.615234,4307.436035,4319.743652,4326.410156,4284.358887,4293.589844,4279.871582,4280.512695,4268.333496,4260.641113,4436.282227,4439.487305,4364.358887,4453.205078,,,,,,,,,,,,,,,,,,,,,,,,,,,,,,,,,,,,,,,,,,,,,,,,,,,,,,,,,,,,,,,,,,,,,,,,,,,,,,,,,,,,,,,,,,,,,,,
1720416519,70,0,4366.666504,4302.436035,4316.410156,4320.512695,4280.769043,4292.307617,4282.94873,4286.794922,4277.436035,4273.589844,4442.179688,4459.871582,4370.128418,4464.615234,4.56145,1.761331,0.457354,0.419928,0.407673,0.967024,1.240298,0.360819,0.325918,0.285017,1.000347,1.011978,0.56165,0.402683,0.313374,0.963304,1.382127,0.402715,0.43628,0.291619,0.265563,0.519061,0.209988,0.32089,0.232078,0.331165,0.83688,0.244306,0.338292,0.286136,0.363537,2.911877,0.287295,0.399535,0.260184,0.354032,4.541897,0.319995,0.358326,0.265372,0.627613,4.916773,0.886254,0.389276,0.367738,0.96916,1.832682,0.787104,0.422767,0.336899,0.642083,2.328072,0.9254,0.477408,0.52856,9.49143,5.537169,2.29039,0.684337,0.59645,0.869765,0.813311,0.885323,0.458517,0.358714,2.986817,1.72146,1.759038,0.540935,0.492982,,,,,,,,,,,,,,,,,,,,,,,,,
1720416519,71,0,4368.077148,4304.871582,4313.717773,4321.153809,4280,4295.897461,4289.230957,4294.102539,4287.820313,4280.769043,4450.256348,4467.94873,4375.384766,4474.102539,,,,,,,,,,,,,,,,,,,,,,,,,,,,,,,,,,,,,,,,,,,,,,,,,,,,,,,,,,,,,,,,,,,,,,,,,,,,,,,,,,,,,,,,,,,,,,,
1720416519,72,0,4369.743652,4310.897461,4313.846191,4326.794922,4287.179688,4299.487305,4296.282227,4301.922852,4297.436035,4281.794922,4461.282227,4462.307617,4376.025879,4477.179688,,,,,,,,,,,,,,,,,,,,,,,,,,,,,,,,,,,,,,,,,,,,,,,,,,,,,,,,,,,,,,,,,,,,,,,,,,,,,,,,,,,,,,,,,,,,,,,
1720416519,73,0,4369.487305,4310.769043,4314.487305,4326.410156,4288.846191,4294.358887,4296.025879,4303.974121,4298.077148,4281.922852,4462.563965,4467.692383,4375.384766,4477.179688,,,,,,,,,,,,,,,,,,,,,,,,,,,,,,,,,,,,,,,,,,,,,,,,,,,,,,,,,,,,,,,,,,,,,,,,,,,,,,,,,,,,,,,,,,,,,,,
1720416519,74,0,4365.641113,4309.230957,4310.641113,4325.256348,4284.615234,4296.922852,4293.461426,4299.358887,4294.230957,4282.179688,4448.717773,4460.512695,4370.769043,4469.615234,,,,,,,,,,,,,,,,,,,,,,,,,,,,,,,,,,,,,,,,,,,,,,,,,,,,,,,,,,,,,,,,,,,,,,,,,,,,,,,,,,,,,,,,,,,,,,,
1720416519,75,0,4358.846191,4306.794922,4306.153809,4325.641113,4288.461426,4308.589844,4293.461426,4297.307617,4291.025879,4275.769043,4440,4442.94873,4361.666504,4457.179688,,,,,,,,,,,,,,,,,,,,,,,,,,,,,,,,,,,,,,,,,,,,,,,,,,,,,,,,,,,,,,,,,,,,,,,,,,,,,,,,,,,,,,,,,,,,,,,
1720416519,76,0,4362.94873,4307.307617,4313.589844,4325.769043,4292.436035,4304.615234,4291.538574,4296.666504,4287.436035,4272.820313,4447.563965,4455.256348,4365.384766,4460.256348,,,,,,,,,,,,,,,,,,,,,,,,,,,,,,,,,,,,,,,,,,,,,,,,,,,,,,,,,,,,,,,,,,,,,,,,,,,,,,,,,,,,,,,,,,,,,,,
1720416519,77,0,4356.410156,4302.692383,4303.589844,4315,4283.717773,4297.692383,4281.922852,4281.538574,4265.897461,4260.128418,4435,4449.102539,4357.94873,4448.974121,,,,,,,,,,,,,,,,,,,,,,,,,,,,,,,,,,,,,,,,,,,,,,,,,,,,,,,,,,,,,,,,,,,,,,,,,,,,,,,,,,,,,,,,,,,,,,,
1720416519,78,0,4336.666504,4290.769043,4280.384766,4300.128418,4275.384766,4302.307617,4274.487305,4267.179688,4243.717773,4239.487305,4408.846191,4422.05127,4338.077148,4422.563965,,,,,,,,,,,,,,,,,,,,,,,,,,,,,,,,,,,,,,,,,,,,,,,,,,,,,,,,,,,,,,,,,,,,,,,,,,,,,,,,,,,,,,,,,,,,,,,
1720416519,79,0,4342.436035,4296.538574,4293.461426,4310.897461,4278.461426,4300.512695,4284.615234,4280.512695,4257.436035,4251.025879,4423.205078,4441.025879,4352.820313,4435.128418,,,,,,,,,,,,,,,,,,,,,,,,,,,,,,,,,,,,,,,,,,,,,,,,,,,,,,,,,,,,,,,,,,,,,,,,,,,,,,,,,,,,,,,,,,,,,,,
1720416519,80,0,4365.769043,4316.282227,4322.820313,4333.717773,4283.077148,4292.563965,4296.282227,4296.410156,4282.436035,4280.897461,4457.692383,4473.717773,4382.179688,4471.025879,,,,,,,,,,,,,,,,,,,,,,,,,,,,,,,,,,,,,,,,,,,,,,,,,,,,,,,,,,,,,,,,,,,,,,,,,,,,,,,,,,,,,,,,,,,,,,,
1720416519,81,0,4367.436035,4313.461426,4318.974121,4325.384766,4280.897461,4293.205078,4288.846191,4292.436035,4280.641113,4277.692383,4455.512695,4466.153809,4376.666504,4472.436035,,,,,,,,,,,,,,,,,,,,,,,,,,,,,,,,,,,,,,,,,,,,,,,,,,,,,,,,,,,,,,,,,,,,,,,,,,,,,,,,,,,,,,,,,,,,,,,
1720416519,82,0,4357.563965,4299.487305,4305.384766,4308.205078,4276.025879,4294.102539,4281.922852,4288.589844,4270.769043,4260.256348,4438.717773,4453.846191,4364.871582,4455,,,,,,,,,,,,,,,,,,,,,,,,,,,,,,,,,,,,,,,,,,,,,,,,,,,,,,,,,,,,,,,,,,,,,,,,,,,,,,,,,,,,,,,,,,,,,,,
1720416519,83,0,4364.743652,4305.641113,4312.05127,4318.846191,4280.256348,4292.179688,4291.282227,4295.897461,4278.974121,4266.794922,4446.666504,4464.358887,4373.717773,4458.333496,,,,,,,,,,,,,,,,,,,,,,,,,,,,,,,,,,,,,,,,,,,,,,,,,,,,,,,,,,,,,,,,,,,,,,,,,,,,,,,,,,,,,,,,,,,,,,,
1720416519,84,0,4373.717773,4315.512695,4314.487305,4331.025879,4286.666504,4295.512695,4296.666504,4299.615234,4288.717773,4273.846191,4451.794922,4463.077148,4376.025879,4461.794922,,,,,,,,,,,,,,,,,,,,,,,,,,,,,,,,,,,,,,,,,,,,,,,,,,,,,,,,,,,,,,,,,,,,,,,,,,,,,,,,,,,,,,,,,,,,,,,
1720416519,85,0,4376.538574,4314.871582,4309.871582,4328.846191,4289.102539,4298.717773,4292.692383,4296.794922,4284.487305,4267.820313,4443.461426,4453.974121,4373.717773,4456.282227,,,,,,,,,,,,,,,,,,,,,,,,,,,,,,,,,,,,,,,,,,,,,,,,,,,,,,,,,,,,,,,,,,,,,,,,,,,,,,,,,,,,,,,,,,,,,,,
1720416519,86,0,4377.563965,4312.179688,4312.05127,4327.05127,4291.538574,4295.641113,4292.692383,4294.743652,4281.410156,4268.461426,4443.205078,4454.102539,4376.282227,4453.717773,3.58311,1.676576,0.421962,0.449919,0.425521,0.871566,1.281609,0.349526,0.33867,0.292094,1.008324,1.085943,0.458077,0.462012,0.340621,0.716227,1.222025,0.325401,0.488146,0.309563,0.221175,0.47937,0.196536,0.312892,0.250142,0.346305,0.777817,0.243462,0.372494,0.311473,0.35711,3.000335,0.27661,0.409446,0.265069,0.353208,4.69195,0.295583,0.388528,0.263395,0.653197,4.924299,0.851557,0.384579,0.343965,0.674401,1.976122,0.678355,0.42309,0.344308,0.680439,2.26956,0.878879,0.478489,0.54004,6.304829,4.23805,1.635644,0.65075,0.555482,0.906369,0.794204,0.800375,0.512523,0.362999,3.073404,1.642824,1.558091,0.622678,0.507199,,,,,,,,,,,,,,,,,,,,,,,,,
1720416519,87,0,4374.358887,4311.153809,4315.769043,4328.205078,4286.666504,4293.077148,4290.512695,4291.410156,4278.461426,4270.256348,4445.384766,4451.410156,4372.179688,4451.538574,,,,,,,,,,,,,,,,,,,,,,,,,,,,,,,,,,,,,,,,,,,,,,,,,,,,,,,,,,,,,,,,,,,,,,,,,,,,,,,,,,,,,,,,,,,,,,,
1720416519,88,0,4372.692383,4311.666504,4320,4328.077148,4281.794922,4301.282227,4290.769043,4289.358887,4270.641113,4263.846191,4440.256348,4452.820313,4368.205078,4450,,,,,,,,,,,,,,,,,,,,,,,,,,,,,,,,,,,,,,,,,,,,,,,,,,,,,,,,,,,,,,,,,,,,,,,,,,,,,,,,,,,,,,,,,,,,,,,
1720416519,89,0,4363.846191,4303.333496,4311.922852,4318.205078,4278.333496,4305.384766,4291.282227,4285.897461,4263.974121,4256.794922,4430.897461,4445.256348,4362.563965,4441.922852,,,,,,,,,,,,,,,,,,,,,,,,,,,,,,,,,,,,,,,,,,,,,,,,,,,,,,,,,,,,,,,,,,,,,,,,,,,,,,,,,,,,,,,,,,,,,,,
1720416519,90,0,4346.282227,4288.077148,4292.94873,4306.538574,4269.487305,4294.358887,4281.410156,4278.333496,4265.256348,4258.205078,4427.179688,4431.153809,4356.922852,4432.436035,,,,,,,,,,,,,,,,,,,,,,,,,,,,,,,,,,,,,,,,,,,,,,,,,,,,,,,,,,,,,,,,,,,,,,,,,,,,,,,,,,,,,,,,,,,,,,,
1720416519,91,0,4342.94873,4288.205078,4288.333496,4309.358887,4269.615234,4294.230957,4276.794922,4278.205078,4266.153809,4263.717773,4430.512695,4438.846191,4361.794922,4436.538574,,,,,,,,,,,,,,,,,,,,,,,,,,,,,,,,,,,,,,,,,,,,,,,,,,,,,,,,,,,,,,,,,,,,,,,,,,,,,,,,,,,,,,,,,,,,,,,
1720416519,92,0,4355.384766,4294.487305,4298.846191,4310.128418,4277.94873,4298.333496,4281.666504,4281.410156,4265.641113,4264.230957,4433.846191,4458.461426,4366.794922,4447.563965,,,,,,,,,,,,,,,,,,,,,,,,,,,,,,,,,,,,,,,,,,,,,,,,,,,,,,,,,,,,,,,,,,,,,,,,,,,,,,,,,,,,,,,,,,,,,,,
1720416519,93,0,4360.256348,4290.256348,4306.025879,4303.333496,4276.666504,4285.897461,4281.410156,4280.256348,4273.205078,4263.205078,4437.94873,4457.820313,4368.717773,4451.153809,,,,,,,,,,,,,,,,,,,,,,,,,,,,,,,,,,,,,,,,,,,,,,,,,,,,,,,,,,,,,,,,,,,,,,,,,,,,,,,,,,,,,,,,,,,,,,,
1720416519,94,0,4361.153809,4299.615234,4317.179688,4318.077148,4275.384766,4284.871582,4285.256348,4287.436035,4279.230957,4265.128418,4446.025879,4453.461426,4375.769043,4453.974121,,,,,,,,,,,,,,,,,,,,,,,,,,,,,,,,,,,,,,,,,,,,,,,,,,,,,,,,,,,,,,,,,,,,,,,,,,,,,,,,,,,,,,,,,,,,,,,
1720416519,95,0,4370.256348,4313.974121,4328.205078,4333.461426,4282.94873,4297.307617,4295.641113,4297.94873,4274.743652,4265.384766,4449.358887,4472.307617,4378.717773,4459.102539,,,,,,,,,,,,,,,,,,,,,,,,,,,,,,,,,,,,,,,,,,,,,,,,,,,,,,,,,,,,,,,,,,,,,,,,,,,,,,,,,,,,,,,,,,,,,,,
1720416519,96,0,4366.282227,4302.179688,4317.94873,4320.128418,4286.794922,4296.282227,4296.538574,4296.538574,4272.692383,4263.589844,4446.153809,4474.487305,4372.94873,4451.666504,,,,,,,,,,,,,,,,,,,,,,,,,,,,,,,,,,,,,,,,,,,,,,,,,,,,,,,,,,,,,,,,,,,,,,,,,,,,,,,,,,,,,,,,,,,,,,,
1720416519,97,0,4356.922852,4293.205078,4310.256348,4315.769043,4288.077148,4297.563965,4296.538574,4296.410156,4278.461426,4263.333496,4442.692383,4460.128418,4369.743652,4441.025879,,,,,,,,,,,,,,,,,,,,,,,,,,,,,,,,,,,,,,,,,,,,,,,,,,,,,,,,,,,,,,,,,,,,,,,,,,,,,,,,,,,,,,,,,,,,,,,
1720416519,98,0,4358.846191,4302.307617,4314.871582,4326.153809,4287.179688,4302.307617,4296.282227,4296.666504,4279.871582,4264.358887,4433.077148,4460,4365.897461,4434.615234,,,,,,,,,,,,,,,,,,,,,,,,,,,,,,,,,,,,,,,,,,,,,,,,,,,,,,,,,,,,,,,,,,,,,,,,,,,,,,,,,,,,,,,,,,,,,,,
1720416519,99,0,4351.025879,4298.846191,4306.922852,4315.256348,4277.820313,4293.974121,4284.615234,4283.333496,4273.589844,4261.538574,4419.358887,4449.615234,4353.717773,4414.743652,,,,,,,,,,,,,,,,,,,,,,,,,,,,,,,,,,,,,,,,,,,,,,,,,,,,,,,,,,,,,,,,,,,,,,,,,,,,,,,,,,,,,,,,,,,,,,,
1720416519,100,0,4344.230957,4293.077148,4300.512695,4306.794922,4277.692383,4289.358887,4279.743652,4274.487305,4271.794922,4258.846191,4418.717773,4436.153809,4352.05127,4399.871582,,,,,,,,,,,,,,,,,,,,,,,,,,,,,,,,,,,,,,,,,,,,,,,,,,,,,,,,,,,,,,,,,,,,,,,,,,,,,,,,,,,,,,,,,,,,,,,
1720416519,101,0,4356.794922,4305.769043,4308.205078,4321.410156,4288.846191,4296.025879,4288.974121,4280,4274.871582,4264.230957,4432.94873,4452.05127,4365.897461,4412.820313,,,,,,,,,,,,,,,,,,,,,,,,,,,,,,,,,,,,,,,,,,,,,,,,,,,,,,,,,,,,,,,,,,,,,,,,,,,,,,,,,,,,,,,,,,,,,,,
1720416519,102,0,4361.794922,4310,4306.410156,4324.871582,4292.05127,4295.384766,4292.179688,4281.922852,4275.128418,4268.333496,4443.461426,4461.153809,4372.307617,4422.436035,3.047818,1.758226,0.410898,0.490056,0.417728,0.79869,1.318265,0.354029,0.345751,0.287771,1.000664,1.215852,0.366963,0.517918,0.354248,0.552593,1.159733,0.259612,0.530725,0.325924,0.206454,0.46982,0.189504,0.293298,0.259484,0.37141,0.721427,0.249915,0.394203,0.335593,0.362385,2.764096,0.268036,0.411161,0.266176,0.336147,4.344529,0.276854,0.411096,0.25712,0.632907,4.60007,0.764604,0.370903,0.316033,0.524568,2.017947,0.585891,0.418043,0.344863,0.777432,2.130079,0.822428,0.484361,0.528705,4.233042,3.232922,1.173893,0.690844,0.522135,0.948371,0.807777,0.717748,0.538554,0.350439,3.31672,1.504451,1.327025,0.727244,0.489688,,,,,,,,,,,,,,,,,,,,,,,,,
1720416519,103,0,4355.256348,4302.820313,4301.153809,4316.922852,4290,4296.153809,4289.615234,4281.410156,4273.589844,4263.717773,4441.538574,4450.512695,4367.692383,4416.025879,,,,,,,,,,,,,,,,,,,,,,,,,,,,,,,,,,,,,,,,,,,,,,,,,,,,,,,,,,,,,,,,,,,,,,,,,,,,,,,,,,,,,,,,,,,,,,,
1720416519,104,0,4366.538574,4308.333496,4315.897461,4323.846191,4293.846191,4305.128418,4293.717773,4289.358887,4276.666504,4267.179688,4441.153809,4463.589844,4371.538574,4424.102539,,,,,,,,,,,,,,,,,,,,,,,,,,,,,,,,,,,,,,,,,,,,,,,,,,,,,,,,,,,,,,,,,,,,,,,,,,,,,,,,,,,,,,,,,,,,,,,
1720416519,105,0,4380,4315.384766,4328.846191,4332.692383,4297.820313,4305,4297.436035,4297.692383,4281.025879,4279.871582,4452.307617,4477.94873,4381.410156,4437.563965,,,,,,,,,,,,,,,,,,,,,,,,,,,,,,,,,,,,,,,,,,,,,,,,,,,,,,,,,,,,,,,,,,,,,,,,,,,,,,,,,,,,,,,,,,,,,,,
1720416519,106,0,4372.307617,4313.205078,4322.820313,4329.615234,4295.641113,4303.077148,4296.025879,4297.820313,4280,4281.538574,4462.179688,4473.717773,4383.717773,4437.05127,,,,,,,,,,,,,,,,,,,,,,,,,,,,,,,,,,,,,,,,,,,,,,,,,,,,,,,,,,,,,,,,,,,,,,,,,,,,,,,,,,,,,,,,,,,,,,,
1720416519,107,0,4362.94873,4312.307617,4312.820313,4327.563965,4295.512695,4306.410156,4297.563965,4293.974121,4283.333496,4275.256348,4457.436035,4471.922852,4377.94873,4430,,,,,,,,,,,,,,,,,,,,,,,,,,,,,,,,,,,,,,,,,,,,,,,,,,,,,,,,,,,,,,,,,,,,,,,,,,,,,,,,,,,,,,,,,,,,,,,
1720416519,108,0,4358.974121,4307.94873,4309.358887,4325,4294.230957,4300.384766,4295.128418,4294.615234,4291.282227,4278.205078,4447.05127,4471.666504,4370.769043,4422.94873,,,,,,,,,,,,,,,,,,,,,,,,,,,,,,,,,,,,,,,,,,,,,,,,,,,,,,,,,,,,,,,,,,,,,,,,,,,,,,,,,,,,,,,,,,,,,,,
1720416519,109,0,4353.333496,4296.410156,4309.358887,4314.615234,4288.846191,4293.846191,4285.384766,4294.743652,4288.205078,4279.358887,4438.077148,4469.230957,4367.94873,4417.563965,,,,,,,,,,,,,,,,,,,,,,,,,,,,,,,,,,,,,,,,,,,,,,,,,,,,,,,,,,,,,,,,,,,,,,,,,,,,,,,,,,,,,,,,,,,,,,,
1720416519,110,0,4348.077148,4297.820313,4307.692383,4308.846191,4289.871582,4304.102539,4283.717773,4286.538574,4278.333496,4269.743652,4434.102539,4461.282227,4367.692383,4414.487305,,,,,,,,,,,,,,,,,,,,,,,,,,,,,,,,,,,,,,,,,,,,,,,,,,,,,,,,,,,,,,,,,,,,,,,,,,,,,,,,,,,,,,,,,,,,,,,
1720416519,111,0,4346.794922,4305.384766,4307.307617,4316.153809,4293.846191,4310.384766,4292.179688,4283.205078,4277.05127,4265,4437.307617,4454.487305,4367.820313,4411.025879,,,,,,,,,,,,,,,,,,,,,,,,,,,,,,,,,,,,,,,,,,,,,,,,,,,,,,,,,,,,,,,,,,,,,,,,,,,,,,,,,,,,,,,,,,,,,,,
1720416519,112,0,4346.922852,4299.487305,4310.128418,4322.820313,4293.205078,4304.871582,4295.384766,4291.025879,4280.256348,4266.538574,4440.769043,4458.077148,4367.563965,4405.769043,,,,,,,,,,,,,,,,,,,,,,,,,,,,,,,,,,,,,,,,,,,,,,,,,,,,,,,,,,,,,,,,,,,,,,,,,,,,,,,,,,,,,,,,,,,,,,,
1720416519,113,0,4349.615234,4297.179688,4314.871582,4317.820313,4294.743652,4307.179688,4295.384766,4299.487305,4280.128418,4267.436035,4443.717773,4466.153809,4369.615234,4408.461426,,,,,,,,,,,,,,,,,,,,,,,,,,,,,,,,,,,,,,,,,,,,,,,,,,,,,,,,,,,,,,,,,,,,,,,,,,,,,,,,,,,,,,,,,,,,,,,
1720416519,114,0,4351.922852,4302.05127,4314.358887,4312.563965,4294.358887,4305.769043,4297.307617,4296.410156,4280.256348,4267.179688,4445,4463.461426,4371.794922,4415,,,,,,,,,,,,,,,,,,,,,,,,,,,,,,,,,,,,,,,,,,,,,,,,,,,,,,,,,,,,,,,,,,,,,,,,,,,,,,,,,,,,,,,,,,,,,,,
1720416519,115,0,4348.205078,4298.974121,4306.922852,4313.717773,4285.512695,4294.487305,4288.589844,4283.846191,4277.563965,4265,4437.563965,4457.692383,4368.589844,4411.410156,,,,,,,,,,,,,,,,,,,,,,,,,,,,,,,,,,,,,,,,,,,,,,,,,,,,,,,,,,,,,,,,,,,,,,,,,,,,,,,,,,,,,,,,,,,,,,,
1720416519,116,0,4345.641113,4294.615234,4303.589844,4312.692383,4281.922852,4294.743652,4281.666504,4280.256348,4272.692383,4260.384766,4431.538574,4462.05127,4363.717773,4405.512695,,,,,,,,,,,,,,,,,,,,,,,,,,,,,,,,,,,,,,,,,,,,,,,,,,,,,,,,,,,,,,,,,,,,,,,,,,,,,,,,,,,,,,,,,,,,,,,
1720416519,117,0,4350,4296.153809,4306.794922,4309.358887,4288.974121,4298.589844,4287.436035,4288.333496,4273.589844,4259.615234,4437.692383,4468.846191,4365.256348,4409.102539,,,,,,,,,,,,,,,,,,,,,,,,,,,,,,,,,,,,,,,,,,,,,,,,,,,,,,,,,,,,,,,,,,,,,,,,,,,,,,,,,,,,,,,,,,,,,,,
1720416519,118,0,4350.384766,4295.897461,4308.077148,4308.717773,4292.692383,4293.077148,4286.410156,4290.641113,4277.307617,4264.743652,4444.743652,4471.153809,4372.94873,4416.025879,3.062964,1.938067,0.421859,0.535922,0.387923,0.763873,1.332561,0.379298,0.35179,0.273239,1.014478,1.344602,0.301034,0.563554,0.350592,0.498618,1.161999,0.219113,0.55723,0.335086,0.219108,0.482427,0.200847,0.273353,0.25925,0.394331,0.713401,0.272073,0.399067,0.351081,0.386419,2.302247,0.268397,0.408674,0.262002,0.317211,3.674837,0.279108,0.427966,0.246836,0.579965,4.146069,0.691843,0.36676,0.289771,0.475857,2.018162,0.528052,0.420088,0.337742,0.932041,2.009671,0.786819,0.501855,0.496686,3.439219,2.643896,0.968003,0.789699,0.498933,0.985025,0.863845,0.647786,0.534303,0.323644,3.608519,1.357287,1.159408,0.833157,0.441833,,,,,,,,,,,,,,,,,,,,,,,,,
1720416519,119,0,4343.717773,4295.128418,4303.846191,4311.282227,4285,4291.282227,4283.333496,4289.230957,4277.820313,4267.307617,4446.025879,4463.717773,4371.538574,4413.589844,,,,,,,,,,,,,,,,,,,,,,,,,,,,,,,,,,,,,,,,,,,,,,,,,,,,,,,,,,,,,,,,,,,,,,,,,,,,,,,,,,,,,,,,,,,,,,,
1720416519,120,0,4344.102539,4297.94873,4302.94873,4313.589844,4282.563965,4296.666504,4288.589844,4291.922852,4274.230957,4267.307617,4443.846191,4464.871582,4370.128418,4412.563965,,,,,,,,,,,,,,,,,,,,,,,,,,,,,,,,,,,,,,,,,,,,,,,,,,,,,,,,,,,,,,,,,,,,,,,,,,,,,,,,,,,,,,,,,,,,,,,
1720416519,121,0,4343.974121,4296.025879,4304.358887,4309.871582,4291.410156,4297.436035,4286.666504,4287.179688,4266.666504,4262.94873,4431.025879,4470,4370.256348,4410.512695,,,,,,,,,,,,,,,,,,,,,,,,,,,,,,,,,,,,,,,,,,,,,,,,,,,,,,,,,,,,,,,,,,,,,,,,,,,,,,,,,,,,,,,,,,,,,,,
1720416519,122,0,4336.922852,4295.897461,4305.128418,4309.358887,4294.358887,4294.358887,4281.025879,4282.820313,4260.128418,4258.205078,4423.717773,4462.563965,4364.487305,4399.102539,,,,,,,,,,,,,,,,,,,,,,,,,,,,,,,,,,,,,,,,,,,,,,,,,,,,,,,,,,,,,,,,,,,,,,,,,,,,,,,,,,,,,,,,,,,,,,,
1720416519,123,0,4340.128418,4302.692383,4310,4317.179688,4291.538574,4298.461426,4290.512695,4291.794922,4267.820313,4261.794922,4436.794922,4471.025879,4364.230957,4403.589844,,,,,,,,,,,,,,,,,,,,,,,,,,,,,,,,,,,,,,,,,,,,,,,,,,,,,,,,,,,,,,,,,,,,,,,,,,,,,,,,,,,,,,,,,,,,,,,
1720416519,124,0,4346.410156,4306.282227,4310.897461,4320,4293.205078,4304.102539,4297.563965,4297.436035,4281.666504,4266.794922,4437.94873,4476.538574,4366.538574,4413.974121,,,,,,,,,,,,,,,,,,,,,,,,,,,,,,,,,,,,,,,,,,,,,,,,,,,,,,,,,,,,,,,,,,,,,,,,,,,,,,,,,,,,,,,,,,,,,,,
1720416519,125,0,4345.641113,4302.307617,4308.077148,4318.077148,4293.333496,4307.692383,4290.384766,4293.717773,4281.410156,4266.794922,4427.820313,4463.461426,4365.512695,4408.205078,,,,,,,,,,,,,,,,,,,,,,,,,,,,,,,,,,,,,,,,,,,,,,,,,,,,,,,,,,,,,,,,,,,,,,,,,,,,,,,,,,,,,,,,,,,,,,,
1720416519,126,0,4347.436035,4298.461426,4308.974121,4318.589844,4291.282227,4310.512695,4290,4296.025879,4278.077148,4266.922852,4434.102539,4468.077148,4367.307617,4405.769043,,,,,,,,,,,,,,,,,,,,,,,,,,,,,,,,,,,,,,,,,,,,,,,,,,,,,,,,,,,,,,,,,,,,,,,,,,,,,,,,,,,,,,,,,,,,,,,
1720416519,127,0,4341.282227,4295,4304.102539,4311.922852,4292.05127,4305.641113,4292.179688,4296.794922,4279.487305,4267.179688,4435.512695,4473.333496,4366.922852,4405.769043,,,,,,,,,,,,,,,,,,,,,,,,,,,,,,,,,,,,,,,,,,,,,,,,,,,,,,,,,,,,,,,,,,,,,,,,,,,,,,,,,,,,,,,,,,,,,,,
1720416519,0,0,4327.436035,4287.179688,4295.256348,4301.922852,4286.922852,4295.128418,4283.974121,4287.563965,4270.384766,4260.512695,4420.897461,4456.794922,4356.025879,4397.179688,,,,,,,,,,,,,,,,,,,,,,,,,,,,,,,,,,,,,,,,,,,,,,,,,,,,,,,,,,,,,,,,,,,,,,,,,,,,,,,,,,,,,,,,,,,,,,,
1720416519,1,0,4339.102539,4293.077148,4300.897461,4310.641113,4284.230957,4293.589844,4281.538574,4288.077148,4265.897461,4257.820313,4422.820313,4461.922852,4357.563965,4401.282227,,,,,,,,,,,,,,,,,,,,,,,,,,,,,,,,,,,,,,,,,,,,,,,,,,,,,,,,,,,,,,,,,,,,,,,,,,,,,,,,,,,,,,,,,,,,,,,
1720416519,2,0,4362.563965,4309.230957,4315,4322.692383,4292.436035,4297.436035,4290.769043,4297.563965,4273.333496,4264.358887,4437.179688,4481.538574,4370.897461,4414.615234,,,,,,,,,,,,,,,,,,,,,,,,,,,,,,,,,,,,,,,,,,,,,,,,,,,,,,,,,,,,,,,,,,,,,,,,,,,,,,,,,,,,,,,,,,,,,,,
1720416519,3,0,4355.897461,4304.230957,4308.589844,4315.256348,4291.410156,4291.153809,4291.538574,4294.230957,4271.794922,4265.256348,4433.717773,4467.179688,4366.153809,4406.538574,,,,,,,,,,,,,,,,,,,,,,,,,,,,,,,,,,,,,,,,,,,,,,,,,,,,,,,,,,,,,,,,,,,,,,,,,,,,,,,,,,,,,,,,,,,,,,,
1720416519,4,0,4341.538574,4290.897461,4297.307617,4307.179688,4288.461426,4292.179688,4288.589844,4287.94873,4267.692383,4261.794922,4430.256348,4457.692383,4359.102539,4397.692383,,,,,,,,,,,,,,,,,,,,,,,,,,,,,,,,,,,,,,,,,,,,,,,,,,,,,,,,,,,,,,,,,,,,,,,,,,,,,,,,,,,,,,,,,,,,,,,
1720416519,5,0,4350.384766,4296.794922,4305.384766,4310.384766,4297.179688,4307.05127,4295.256348,4293.461426,4270.512695,4264.230957,4436.922852,4469.358887,4363.717773,4406.153809,,,,,,,,,,,,,,,,,,,,,,,,,,,,,,,,,,,,,,,,,,,,,,,,,,,,,,,,,,,,,,,,,,,,,,,,,,,,,,,,,,,,,,,,,,,,,,,
1720416519,6,0,4360.897461,4308.846191,4311.666504,4314.358887,4301.538574,4308.077148,4292.436035,4292.179688,4268.461426,4267.179688,4436.666504,4470.769043,4369.102539,4411.666504,3.425851,2.109595,0.470466,0.573878,0.348585,0.780915,1.318593,0.421695,0.359336,0.255092,1.049997,1.450905,0.27763,0.59728,0.33651,0.559312,1.19851,0.213491,0.563962,0.337822,0.251524,0.506689,0.239749,0.259627,0.250006,0.418676,0.769674,0.31158,0.38481,0.351549,0.418342,1.783177,0.294055,0.403841,0.252339,0.302291,2.975485,0.333656,0.441078,0.234838,0.518273,3.81078,0.702325,0.386962,0.271637,0.502375,2.070101,0.52832,0.441995,0.325569,1.142871,2.028513,0.824508,0.534224,0.455899,3.45348,2.428945,0.988148,0.901282,0.48829,1.015982,0.979477,0.610363,0.508289,0.29251,3.94958,1.338943,1.138509,0.912759,0.379785,,,,,,,,,,,,,,,,,,,,,,,,,
1720416519,7,0,4356.538574,4309.358887,4302.820313,4312.820313,4297.563965,4297.94873,4279.102539,4279.743652,4262.692383,4262.05127,4431.538574,4462.05127,4367.05127,4406.282227,,,,,,,,,,,,,,,,,,,,,,,,,,,,,,,,,,,,,,,,,,,,,,,,,,,,,,,,,,,,,,,,,,,,,,,,,,,,,,,,,,,,,,,,,,,,,,,
1720416519,8,0,4354.358887,4304.230957,4297.820313,4312.179688,4296.153809,4300.512695,4282.436035,4280.769043,4267.692383,4257.94873,4433.589844,4458.077148,4364.743652,4401.922852,,,,,,,,,,,,,,,,,,,,,,,,,,,,,,,,,,,,,,,,,,,,,,,,,,,,,,,,,,,,,,,,,,,,,,,,,,,,,,,,,,,,,,,,,,,,,,,
1720416519,9,0,4361.282227,4300.512695,4307.563965,4314.871582,4297.307617,4313.077148,4298.077148,4297.307617,4279.487305,4266.538574,4443.846191,4471.282227,4372.820313,4410.384766,,,,,,,,,,,,,,,,,,,,,,,,,,,,,,,,,,,,,,,,,,,,,,,,,,,,,,,,,,,,,,,,,,,,,,,,,,,,,,,,,,,,,,,,,,,,,,,
1720416519,10,0,4358.589844,4294.230957,4309.102539,4310.769043,4296.410156,4312.307617,4300.256348,4303.974121,4286.025879,4276.794922,4446.794922,4477.563965,4377.692383,4415.512695,,,,,,,,,,,,,,,,,,,,,,,,,,,,,,,,,,,,,,,,,,,,,,,,,,,,,,,,,,,,,,,,,,,,,,,,,,,,,,,,,,,,,,,,,,,,,,,
1720416519,11,0,4346.410156,4288.333496,4297.307617,4301.666504,4291.794922,4298.974121,4289.102539,4295.128418,4283.205078,4272.94873,4436.282227,4465.384766,4366.794922,4401.153809,,,,,,,,,,,,,,,,,,,,,,,,,,,,,,,,,,,,,,,,,,,,,,,,,,,,,,,,,,,,,,,,,,,,,,,,,,,,,,,,,,,,,,,,,,,,,,,
1720416519,12,0,4344.743652,4289.487305,4294.230957,4302.563965,4289.743652,4290.897461,4287.179688,4291.794922,4273.461426,4262.563965,4431.794922,4464.102539,4363.589844,4390.512695,,,,,,,,,,,,,,,,,,,,,,,,,,,,,,,,,,,,,,,,,,,,,,,,,,,,,,,,,,,,,,,,,,,,,,,,,,,,,,,,,,,,,,,,,,,,,,,
1720416519,13,0,4351.025879,4295.256348,4302.820313,4309.487305,4293.974121,4296.794922,4295.256348,4297.436035,4269.230957,4262.307617,4442.94873,4478.205078,4377.05127,4399.615234,,,,,,,,,,,,,,,,,,,,,,,,,,,,,,,,,,,,,,,,,,,,,,,,,,,,,,,,,,,,,,,,,,,,,,,,,,,,,,,,,,,,,,,,,,,,,,,
1720416519,14,0,4349.358887,4294.102539,4309.358887,4306.922852,4295.256348,4307.692383,4295.769043,4296.282227,4265.256348,4263.717773,4447.563965,4483.205078,4377.179688,4406.153809,,,,,,,,,,,,,,,,,,,,,,,,,,,,,,,,,,,,,,,,,,,,,,,,,,,,,,,,,,,,,,,,,,,,,,,,,,,,,,,,,,,,,,,,,,,,,,,
1720416519,15,0,4351.410156,4292.563965,4312.94873,4307.563965,4294.230957,4313.077148,4294.487305,4292.179688,4263.717773,4261.153809,4442.179688,4481.666504,4369.871582,4409.871582,,,,,,,,,,,,,,,,,,,,,,,,,,,,,,,,,,,,,,,,,,,,,,,,,,,,,,,,,,,,,,,,,,,,,,,,,,,,,,,,,,,,,,,,,,,,,,,
1720416519,16,0,4361.794922,4300.384766,4315.512695,4317.05127,4297.94873,4309.358887,4296.922852,4293.461426,4270.897461,4263.077148,4443.846191,4481.794922,4375.641113,4415.769043,,,,,,,,,,,,,,,,,,,,,,,,,,,,,,,,,,,,,,,,,,,,,,,,,,,,,,,,,,,,,,,,,,,,,,,,,,,,,,,,,,,,,,,,,,,,,,,
1720416519,17,0,4353.717773,4300.256348,4307.05127,4316.410156,4297.436035,4303.974121,4293.846191,4293.846191,4276.153809,4266.410156,4445.769043,4478.717773,4376.282227,4408.717773,,,,,,,,,,,,,,,,,,,,,,,,,,,,,,,,,,,,,,,,,,,,,,,,,,,,,,,,,,,,,,,,,,,,,,,,,,,,,,,,,,,,,,,,,,,,,,,
1720416519,18,0,4342.563965,4292.436035,4301.922852,4308.461426,4293.461426,4306.282227,4290.512695,4293.717773,4277.436035,4267.179688,4443.461426,4482.692383,4371.282227,4404.102539,,,,,,,,,,,,,,,,,,,,,,,,,,,,,,,,,,,,,,,,,,,,,,,,,,,,,,,,,,,,,,,,,,,,,,,,,,,,,,,,,,,,,,,,,,,,,,,
1720416519,19,0,4357.179688,4293.077148,4312.436035,4308.846191,4293.205078,4302.94873,4293.589844,4294.230957,4276.025879,4266.538574,4439.871582,4478.333496,4370.256348,4406.153809,,,,,,,,,,,,,,,,,,,,,,,,,,,,,,,,,,,,,,,,,,,,,,,,,,,,,,,,,,,,,,,,,,,,,,,,,,,,,,,,,,,,,,,,,,,,,,,
1720416519,20,0,4375.384766,4297.05127,4317.179688,4311.922852,4292.692383,4294.743652,4294.358887,4293.846191,4272.820313,4264.230957,4436.410156,4474.871582,4368.717773,4398.846191,,,,,,,,,,,,,,,,,,,,,,,,,,,,,,,,,,,,,,,,,,,,,,,,,,,,,,,,,,,,,,,,,,,,,,,,,,,,,,,,,,,,,,,,,,,,,,,
1720416519,21,0,4371.794922,4294.743652,4312.179688,4311.410156,4291.282227,4300.641113,4294.487305,4296.794922,4271.025879,4264.871582,4436.410156,4484.487305,4368.077148,4398.333496,,,,,,,,,,,,,,,,,,,,,,,,,,,,,,,,,,,,,,,,,,,,,,,,,,,,,,,,,,,,,,,,,,,,,,,,,,,,,,,,,,,,,,,,,,,,,,,
1720416519,22,0,4363.589844,4290.128418,4307.692383,4309.102539,4292.05127,4309.358887,4294.871582,4293.846191,4268.717773,4261.538574,4434.358887,4473.846191,4364.743652,4400.128418,3.815731,2.204349,0.577402,0.58741,0.314157,0.863887,1.266602,0.471465,0.367411,0.241536,1.086113,1.525304,0.313554,0.62075,0.323901,0.697955,1.233457,0.24882,0.5512,0.339858,0.297466,0.526483,0.306016,0.252467,0.233129,0.444952,0.869259,0.358732,0.353484,0.335019,0.449151,1.359514,0.356208,0.394601,0.23828,0.301391,2.497031,0.45348,0.448584,0.223961,0.465458,3.740029,0.814295,0.43042,0.26457,0.56887,2.219094,0.588127,0.483406,0.312413,1.367678,2.242973,0.969207,0.58043,0.421086,3.555244,2.466421,1.147786,0.974102,0.491344,1.032371,1.15697,0.623872,0.473483,0.268037,4.139751,1.577665,1.291169,0.944552,0.326112,,,,,,,,,,,,,,,,,,,,,,,,,
1720416520,23,0,4370.384766,4291.666504,4310.128418,4307.307617,4293.974121,4304.743652,4290.128418,4284.871582,4264.487305,4251.666504,4427.820313,4468.077148,4358.461426,4390.769043,,,,,,,,,,,,,,,,,,,,,,,,,,,,,,,,,,,,,,,,,,,,,,,,,,,,,,,,,,,,,,,,,,,,,,,,,,,,,,,,,,,,,,,,,,,,,,,
1720416520,24,0,4377.05127,4298.205078,4316.025879,4312.179688,4293.205078,4300.641113,4287.563965,4285.128418,4267.563965,4252.05127,4424.615234,4482.692383,4358.717773,4388.846191,,,,,,,,,,,,,,,,,,,,,,,,,,,,,,,,,,,,,,,,,,,,,,,,,,,,,,,,,,,,,,,,,,,,,,,,,,,,,,,,,,,,,,,,,,,,,,,
1720416520,25,0,4377.820313,4308.846191,4319.230957,4324.102539,4292.436035,4310.641113,4291.922852,4292.05127,4278.589844,4263.077148,4430.128418,4483.205078,4364.615234,4399.743652,,,,,,,,,,,,,,,,,,,,,,,,,,,,,,,,,,,,,,,,,,,,,,,,,,,,,,,,,,,,,,,,,,,,,,,,,,,,,,,,,,,,,,,,,,,,,,,
1720416520,26,0,4378.974121,4312.820313,4318.974121,4324.871582,4293.717773,4312.692383,4294.615234,4293.077148,4280.128418,4267.436035,4436.794922,4480.256348,4365.641113,4404.615234,,,,,,,,,,,,,,,,,,,,,,,,,,,,,,,,,,,,,,,,,,,,,,,,,,,,,,,,,,,,,,,,,,,,,,,,,,,,,,,,,,,,,,,,,,,,,,,
1720416520,27,0,4380.256348,4306.922852,4315.897461,4313.461426,4294.102539,4299.102539,4294.230957,4289.487305,4277.563965,4266.282227,4438.333496,4483.461426,4365.256348,4403.589844,,,,,,,,,,,,,,,,,,,,,,,,,,,,,,,,,,,,,,,,,,,,,,,,,,,,,,,,,,,,,,,,,,,,,,,,,,,,,,,,,,,,,,,,,,,,,,,
1720416520,28,0,4379.102539,4305.512695,4311.410156,4312.563965,4292.563965,4294.487305,4293.974121,4288.333496,4280.641113,4267.563965,4438.589844,4474.743652,4368.205078,4403.333496,,,,,,,,,,,,,,,,,,,,,,,,,,,,,,,,,,,,,,,,,,,,,,,,,,,,,,,,,,,,,,,,,,,,,,,,,,,,,,,,,,,,,,,,,,,,,,,
1720416520,29,0,4376.794922,4311.410156,4310.512695,4323.077148,4292.307617,4308.717773,4295.128418,4291.538574,4276.794922,4266.282227,4440.769043,4471.153809,4369.487305,4402.436035,,,,,,,,,,,,,,,,,,,,,,,,,,,,,,,,,,,,,,,,,,,,,,,,,,,,,,,,,,,,,,,,,,,,,,,,,,,,,,,,,,,,,,,,,,,,,,,
1720416520,30,0,4376.410156,4311.282227,4317.820313,4325.128418,4292.563965,4313.974121,4296.282227,4295.256348,4268.974121,4264.358887,4444.230957,4487.94873,4372.307617,4409.743652,,,,,,,,,,,,,,,,,,,,,,,,,,,,,,,,,,,,,,,,,,,,,,,,,,,,,,,,,,,,,,,,,,,,,,,,,,,,,,,,,,,,,,,,,,,,,,,
1720416520,31,0,4370.769043,4304.230957,4322.820313,4318.333496,4291.410156,4305,4294.487305,4293.974121,4274.102539,4264.871582,4447.307617,4491.410156,4374.102539,4417.94873,,,,,,,,,,,,,,,,,,,,,,,,,,,,,,,,,,,,,,,,,,,,,,,,,,,,,,,,,,,,,,,,,,,,,,,,,,,,,,,,,,,,,,,,,,,,,,,
1720416520,32,0,4366.666504,4306.153809,4319.487305,4317.307617,4295.384766,4306.538574,4293.846191,4294.102539,4282.563965,4265.256348,4446.794922,4483.333496,4370.641113,4414.743652,,,,,,,,,,,,,,,,,,,,,,,,,,,,,,,,,,,,,,,,,,,,,,,,,,,,,,,,,,,,,,,,,,,,,,,,,,,,,,,,,,,,,,,,,,,,,,,
1720416520,33,0,4360.769043,4312.05127,4317.05127,4318.846191,4293.461426,4310.897461,4290.512695,4294.743652,4275.769043,4266.410156,4436.410156,4477.436035,4360.384766,4406.666504,,,,,,,,,,,,,,,,,,,,,,,,,,,,,,,,,,,,,,,,,,,,,,,,,,,,,,,,,,,,,,,,,,,,,,,,,,,,,,,,,,,,,,,,,,,,,,,
1720416520,34,0,4346.410156,4304.743652,4308.974121,4312.436035,4284.102539,4306.410156,4284.230957,4283.333496,4261.282227,4257.692383,4421.794922,4466.153809,4350.384766,4396.410156,,,,,,,,,,,,,,,,,,,,,,,,,,,,,,,,,,,,,,,,,,,,,,,,,,,,,,,,,,,,,,,,,,,,,,,,,,,,,,,,,,,,,,,,,,,,,,,
1720416520,35,0,4340,4294.871582,4301.794922,4305.897461,4285.897461,4306.538574,4285.512695,4277.820313,4259.615234,4248.333496,4420,4465.512695,4353.077148,4392.94873,,,,,,,,,,,,,,,,,,,,,,,,,,,,,,,,,,,,,,,,,,,,,,,,,,,,,,,,,,,,,,,,,,,,,,,,,,,,,,,,,,,,,,,,,,,,,,,
1720416520,36,0,4345.384766,4299.230957,4305.384766,4308.846191,4292.05127,4310.256348,4293.974121,4291.666504,4274.230957,4257.307617,4427.692383,4472.05127,4362.179688,4396.666504,,,,,,,,,,,,,,,,,,,,,,,,,,,,,,,,,,,,,,,,,,,,,,,,,,,,,,,,,,,,,,,,,,,,,,,,,,,,,,,,,,,,,,,,,,,,,,,
1720416520,37,0,4350.256348,4307.05127,4308.461426,4312.563965,4288.589844,4309.102539,4292.563965,4297.692383,4281.538574,4266.794922,4428.974121,4471.410156,4362.179688,4395.128418,,,,,,,,,,,,,,,,,,,,,,,,,,,,,,,,,,,,,,,,,,,,,,,,,,,,,,,,,,,,,,,,,,,,,,,,,,,,,,,,,,,,,,,,,,,,,,,
1720416520,38,0,4355.897461,4307.05127,4306.922852,4312.563965,4284.615234,4307.692383,4283.717773,4286.153809,4273.205078,4261.282227,4427.436035,4472.820313,4359.230957,4393.205078,3.968391,2.186864,0.747574,0.566188,0.294406,0.978958,1.171865,0.525235,0.371476,0.237375,1.081019,1.552811,0.415368,0.633728,0.320351,0.866306,1.22999,0.32482,0.52185,0.345358,0.357194,0.528072,0.389238,0.246371,0.210496,0.478236,0.962503,0.397707,0.312757,0.305014,0.465158,1.098987,0.450308,0.378395,0.221833,0.312378,2.322606,0.618455,0.44581,0.215104,0.440241,3.897871,0.988174,0.481085,0.26484,0.660952,2.427205,0.676473,0.527172,0.299729,1.555181,2.594562,1.204347,0.6329,0.400355,3.336395,2.653485,1.352797,0.978929,0.504765,1.025946,1.367967,0.691821,0.439893,0.255542,4.01196,2.084297,1.582239,0.921133,0.296536,,,,,,,,,,,,,,,,,,,,,,,,,
1720416520,39,0,4358.974121,4306.538574,4307.563965,4309.871582,4286.794922,4306.410156,4285,4284.102539,4271.666504,4262.307617,4430.641113,4477.94873,4365.256348,4398.974121,,,,,,,,,,,,,,,,,,,,,,,,,,,,,,,,,,,,,,,,,,,,,,,,,,,,,,,,,,,,,,,,,,,,,,,,,,,,,,,,,,,,,,,,,,,,,,,
1720416520,40,0,4355.128418,4307.436035,4308.205078,4307.820313,4284.743652,4301.410156,4287.179688,4286.153809,4278.846191,4275.128418,4432.307617,4477.692383,4369.615234,4403.846191,,,,,,,,,,,,,,,,,,,,,,,,,,,,,,,,,,,,,,,,,,,,,,,,,,,,,,,,,,,,,,,,,,,,,,,,,,,,,,,,,,,,,,,,,,,,,,,
1720416520,41,0,4363.717773,4310.384766,4314.358887,4317.94873,4284.358887,4302.820313,4282.94873,4282.563965,4280.769043,4279.487305,4436.794922,4481.922852,4369.743652,4412.563965,,,,,,,,,,,,,,,,,,,,,,,,,,,,,,,,,,,,,,,,,,,,,,,,,,,,,,,,,,,,,,,,,,,,,,,,,,,,,,,,,,,,,,,,,,,,,,,
1720416520,42,0,4375.897461,4314.230957,4323.974121,4325.897461,4291.794922,4311.153809,4284.615234,4286.282227,4279.487305,4272.436035,4440.641113,4490.512695,4367.563965,4419.487305,,,,,,,,,,,,,,,,,,,,,,,,,,,,,,,,,,,,,,,,,,,,,,,,,,,,,,,,,,,,,,,,,,,,,,,,,,,,,,,,,,,,,,,,,,,,,,,
1720416520,43,0,4368.205078,4311.666504,4319.102539,4315.641113,4294.743652,4310.128418,4291.666504,4289.230957,4274.102539,4263.333496,4433.461426,4488.077148,4359.102539,4408.846191,,,,,,,,,,,,,,,,,,,,,,,,,,,,,,,,,,,,,,,,,,,,,,,,,,,,,,,,,,,,,,,,,,,,,,,,,,,,,,,,,,,,,,,,,,,,,,,
1720416520,44,0,4360.128418,4306.282227,4309.871582,4311.538574,4294.743652,4303.974121,4291.282227,4284.615234,4263.333496,4258.461426,4429.230957,4482.307617,4355.384766,4402.179688,,,,,,,,,,,,,,,,,,,,,,,,,,,,,,,,,,,,,,,,,,,,,,,,,,,,,,,,,,,,,,,,,,,,,,,,,,,,,,,,,,,,,,,,,,,,,,,
1720416520,45,0,4366.538574,4312.179688,4317.94873,4323.333496,4297.692383,4306.922852,4291.794922,4288.461426,4261.922852,4260.769043,4438.846191,4487.94873,4361.153809,4416.666504,,,,,,,,,,,,,,,,,,,,,,,,,,,,,,,,,,,,,,,,,,,,,,,,,,,,,,,,,,,,,,,,,,,,,,,,,,,,,,,,,,,,,,,,,,,,,,,
1720416520,46,0,4371.025879,4324.615234,4331.025879,4332.820313,4302.820313,4315.769043,4304.230957,4301.538574,4269.230957,4267.563965,4448.846191,4502.692383,4366.538574,4431.922852,,,,,,,,,,,,,,,,,,,,,,,,,,,,,,,,,,,,,,,,,,,,,,,,,,,,,,,,,,,,,,,,,,,,,,,,,,,,,,,,,,,,,,,,,,,,,,,
1720416520,47,0,4360.128418,4320.641113,4321.922852,4326.153809,4294.743652,4309.871582,4300.769043,4294.871582,4267.307617,4261.922852,4439.871582,4492.94873,4356.410156,4423.205078,,,,,,,,,,,,,,,,,,,,,,,,,,,,,,,,,,,,,,,,,,,,,,,,,,,,,,,,,,,,,,,,,,,,,,,,,,,,,,,,,,,,,,,,,,,,,,,
1720416520,48,0,4346.666504,4305.769043,4298.974121,4309.743652,4281.025879,4293.717773,4278.846191,4278.205078,4262.692383,4247.05127,4423.205078,4466.153809,4343.077148,4404.358887,,,,,,,,,,,,,,,,,,,,,,,,,,,,,,,,,,,,,,,,,,,,,,,,,,,,,,,,,,,,,,,,,,,,,,,,,,,,,,,,,,,,,,,,,,,,,,,
1720416520,49,0,4345.256348,4300.769043,4296.410156,4300.256348,4288.077148,4295.641113,4276.666504,4282.307617,4269.615234,4253.333496,4422.94873,4473.589844,4349.743652,4403.846191,,,,,,,,,,,,,,,,,,,,,,,,,,,,,,,,,,,,,,,,,,,,,,,,,,,,,,,,,,,,,,,,,,,,,,,,,,,,,,,,,,,,,,,,,,,,,,,
1720416520,50,0,4352.307617,4307.563965,4310.897461,4308.589844,4300.769043,4310.641113,4293.205078,4297.05127,4283.077148,4273.205078,4433.333496,4490.769043,4361.666504,4411.025879,,,,,,,,,,,,,,,,,,,,,,,,,,,,,,,,,,,,,,,,,,,,,,,,,,,,,,,,,,,,,,,,,,,,,,,,,,,,,,,,,,,,,,,,,,,,,,,
1720416520,51,0,4362.692383,4319.102539,4317.820313,4322.436035,4302.179688,4313.077148,4297.436035,4301.025879,4291.410156,4278.974121,4437.563965,4492.179688,4365.512695,4411.922852,,,,,,,,,,,,,,,,,,,,,,,,,,,,,,,,,,,,,,,,,,,,,,,,,,,,,,,,,,,,,,,,,,,,,,,,,,,,,,,,,,,,,,,,,,,,,,,
1720416520,52,0,4371.922852,4325.897461,4318.461426,4326.282227,4302.94873,4308.717773,4292.563965,4296.282227,4289.102539,4278.589844,4443.333496,4497.179688,4371.794922,4415.128418,,,,,,,,,,,,,,,,,,,,,,,,,,,,,,,,,,,,,,,,,,,,,,,,,,,,,,,,,,,,,,,,,,,,,,,,,,,,,,,,,,,,,,,,,,,,,,,
1720416520,53,0,4381.922852,4323.333496,4325.128418,4328.333496,4303.717773,4310.641113,4295.128418,4294.358887,4278.333496,4276.282227,4452.179688,4498.717773,4373.589844,4418.974121,,,,,,,,,,,,,,,,,,,,,,,,,,,,,,,,,,,,,,,,,,,,,,,,,,,,,,,,,,,,,,,,,,,,,,,,,,,,,,,,,,,,,,,,,,,,,,,
1720416520,54,0,4390.128418,4317.307617,4325.897461,4327.179688,4298.333496,4310.769043,4296.922852,4292.179688,4268.333496,4264.487305,4442.436035,4489.871582,4359.230957,4407.436035,3.796496,2.042992,0.959397,0.516281,0.292666,1.096201,1.035828,0.581025,0.366787,0.24196,0.999957,1.510793,0.568114,0.635764,0.326084,0.996774,1.163964,0.42977,0.481218,0.353916,0.417909,0.503493,0.468832,0.233823,0.184597,0.509955,0.999679,0.422245,0.275241,0.270546,0.455018,0.971667,0.55342,0.354752,0.206069,0.327293,2.346895,0.783339,0.429943,0.208335,0.439462,4.080312,1.156074,0.519445,0.26417,0.756945,2.581574,0.750391,0.550736,0.285704,1.647859,2.934423,1.459768,0.68078,0.391061,2.763092,2.870081,1.529402,0.915942,0.52269,0.988357,1.556,0.794648,0.410836,0.252469,3.504324,2.723989,1.917286,0.854141,0.293747,,,,,,,,,,,,,,,,,,,,,,,,,
1720416520,55,0,4383.846191,4311.922852,4314.102539,4317.436035,4292.820313,4300.384766,4290.769043,4288.333496,4266.153809,4257.820313,4425.128418,4481.282227,4346.538574,4390.769043,,,,,,,,,,,,,,,,,,,,,,,,,,,,,,,,,,,,,,,,,,,,,,,,,,,,,,,,,,,,,,,,,,,,,,,,,,,,,,,,,,,,,,,,,,,,,,,
1720416520,56,0,4377.307617,4309.358887,4306.666504,4311.025879,4292.179688,4294.615234,4291.025879,4289.358887,4271.794922,4263.717773,4422.563965,4475.641113,4347.307617,4391.282227,,,,,,,,,,,,,,,,,,,,,,,,,,,,,,,,,,,,,,,,,,,,,,,,,,,,,,,,,,,,,,,,,,,,,,,,,,,,,,,,,,,,,,,,,,,,,,,
1720416520,57,0,4386.025879,4316.410156,4317.692383,4319.230957,4298.333496,4308.846191,4301.922852,4295.641113,4281.025879,4267.436035,4428.205078,4479.743652,4349.615234,4400.128418,,,,,,,,,,,,,,,,,,,,,,,,,,,,,,,,,,,,,,,,,,,,,,,,,,,,,,,,,,,,,,,,,,,,,,,,,,,,,,,,,,,,,,,,,,,,,,,
1720416520,58,0,4389.487305,4324.358887,4330.256348,4327.563965,4302.94873,4317.436035,4303.333496,4298.589844,4278.717773,4262.179688,4435.384766,4491.538574,4352.436035,4404.615234,,,,,,,,,,,,,,,,,,,,,,,,,,,,,,,,,,,,,,,,,,,,,,,,,,,,,,,,,,,,,,,,,,,,,,,,,,,,,,,,,,,,,,,,,,,,,,,
1720416520,59,0,4383.205078,4322.563965,4327.820313,4323.589844,4299.487305,4304.230957,4291.410156,4292.436035,4266.538574,4257.563965,4439.487305,4491.153809,4356.282227,4409.871582,,,,,,,,,,,,,,,,,,,,,,,,,,,,,,,,,,,,,,,,,,,,,,,,,,,,,,,,,,,,,,,,,,,,,,,,,,,,,,,,,,,,,,,,,,,,,,,
1720416520,60,0,4397.179688,4330,4333.333496,4330.384766,4303.205078,4297.820313,4294.358887,4293.333496,4270.897461,4270.512695,4447.820313,4498.077148,4362.820313,4421.538574,,,,,,,,,,,,,,,,,,,,,,,,,,,,,,,,,,,,,,,,,,,,,,,,,,,,,,,,,,,,,,,,,,,,,,,,,,,,,,,,,,,,,,,,,,,,,,,
1720416520,61,0,4413.974121,4342.436035,4346.666504,4341.282227,4310.897461,4304.871582,4304.358887,4299.358887,4283.589844,4281.538574,4458.974121,4512.563965,4368.717773,4430.128418,,,,,,,,,,,,,,,,,,,,,,,,,,,,,,,,,,,,,,,,,,,,,,,,,,,,,,,,,,,,,,,,,,,,,,,,,,,,,,,,,,,,,,,,,,,,,,,
1720416520,62,0,4412.05127,4341.666504,4342.820313,4335.769043,4308.461426,4308.846191,4299.871582,4296.025879,4280,4268.974121,4457.820313,4508.077148,4367.05127,4429.615234,,,,,,,,,,,,,,,,,,,,,,,,,,,,,,,,,,,,,,,,,,,,,,,,,,,,,,,,,,,,,,,,,,,,,,,,,,,,,,,,,,,,,,,,,,,,,,,
1720416520,63,0,4412.307617,4338.333496,4335,4336.153809,4309.102539,4308.077148,4297.692383,4296.922852,4276.538574,4268.333496,4451.794922,4503.205078,4365.897461,4427.94873,,,,,,,,,,,,,,,,,,,,,,,,,,,,,,,,,,,,,,,,,,,,,,,,,,,,,,,,,,,,,,,,,,,,,,,,,,,,,,,,,,,,,,,,,,,,,,,
1720416520,64,0,4413.205078,4335.769043,4334.230957,4343.717773,4314.615234,4311.538574,4305.897461,4305.897461,4285.256348,4282.94873,4450,4504.230957,4365.769043,4425.256348,,,,,,,,,,,,,,,,,,,,,,,,,,,,,,,,,,,,,,,,,,,,,,,,,,,,,,,,,,,,,,,,,,,,,,,,,,,,,,,,,,,,,,,,,,,,,,,
1720416520,65,0,4404.230957,4327.94873,4330.512695,4333.717773,4314.102539,4320.897461,4307.436035,4303.461426,4283.846191,4273.717773,4447.436035,4499.615234,4358.717773,4422.94873,,,,,,,,,,,,,,,,,,,,,,,,,,,,,,,,,,,,,,,,,,,,,,,,,,,,,,,,,,,,,,,,,,,,,,,,,,,,,,,,,,,,,,,,,,,,,,,
1720416520,66,0,4402.94873,4324.230957,4327.563965,4323.974121,4312.563965,4322.563965,4300.897461,4291.666504,4273.974121,4261.538574,4440.256348,4492.436035,4353.205078,4419.358887,,,,,,,,,,,,,,,,,,,,,,,,,,,,,,,,,,,,,,,,,,,,,,,,,,,,,,,,,,,,,,,,,,,,,,,,,,,,,,,,,,,,,,,,,,,,,,,
1720416520,67,0,4412.820313,4326.666504,4329.358887,4331.922852,4311.410156,4309.871582,4303.077148,4293.846191,4282.307617,4275.128418,4439.871582,4492.05127,4353.974121,4416.153809,,,,,,,,,,,,,,,,,,,,,,,,,,,,,,,,,,,,,,,,,,,,,,,,,,,,,,,,,,,,,,,,,,,,,,,,,,,,,,,,,,,,,,,,,,,,,,,
1720416520,68,0,4412.179688,4326.922852,4329.358887,4333.333496,4309.358887,4308.717773,4311.282227,4303.205078,4294.358887,4281.538574,4443.461426,4498.333496,4351.153809,4422.94873,,,,,,,,,,,,,,,,,,,,,,,,,,,,,,,,,,,,,,,,,,,,,,,,,,,,,,,,,,,,,,,,,,,,,,,,,,,,,,,,,,,,,,,,,,,,,,,
1720416520,69,0,4403.077148,4325.384766,4326.410156,4324.487305,4308.974121,4315.512695,4306.666504,4298.717773,4285.128418,4272.436035,4441.922852,4499.871582,4349.871582,4431.922852,,,,,,,,,,,,,,,,,,,,,,,,,,,,,,,,,,,,,,,,,,,,,,,,,,,,,,,,,,,,,,,,,,,,,,,,,,,,,,,,,,,,,,,,,,,,,,,
1720416520,70,0,4402.179688,4325.128418,4322.563965,4323.589844,4308.589844,4303.205078,4294.230957,4292.436035,4272.94873,4270.769043,4442.436035,4494.871582,4357.179688,4432.94873,3.427961,1.841823,1.156272,0.456507,0.305287,1.176233,0.881408,0.629175,0.352199,0.250278,0.833273,1.390241,0.730937,0.625768,0.334372,1.047336,1.035374,0.53557,0.4356,0.360481,0.467233,0.453893,0.521475,0.21042,0.15843,0.531931,0.953719,0.433847,0.252784,0.242379,0.415172,0.891368,0.631982,0.326963,0.193502,0.336807,2.364727,0.894906,0.402166,0.204172,0.442014,4.045301,1.258789,0.533598,0.25601,0.827199,2.571465,0.780794,0.537976,0.267754,1.625617,3.105224,1.634173,0.710465,0.383521,2.066747,2.984805,1.597884,0.803778,0.538712,0.916943,1.664956,0.887412,0.382602,0.251468,2.716591,3.281719,2.165283,0.764832,0.308243,,,,,,,,,,,,,,,,,,,,,,,,,
1720416520,71,0,4406.922852,4325,4323.205078,4325,4309.230957,4295.769043,4290.897461,4292.820313,4276.282227,4269.487305,4442.820313,4491.922852,4356.538574,4428.077148,,,,,,,,,,,,,,,,,,,,,,,,,,,,,,,,,,,,,,,,,,,,,,,,,,,,,,,,,,,,,,,,,,,,,,,,,,,,,,,,,,,,,,,,,,,,,,,
1720416520,72,0,4407.179688,4326.538574,4332.05127,4324.358887,4310.769043,4304.871582,4297.307617,4293.333496,4279.230957,4264.230957,4440.512695,4494.743652,4348.333496,4421.922852,,,,,,,,,,,,,,,,,,,,,,,,,,,,,,,,,,,,,,,,,,,,,,,,,,,,,,,,,,,,,,,,,,,,,,,,,,,,,,,,,,,,,,,,,,,,,,,
1720416520,73,0,4404.358887,4326.282227,4336.794922,4328.846191,4310.128418,4308.717773,4303.846191,4298.205078,4279.358887,4269.871582,4444.230957,4497.179688,4353.077148,4422.94873,,,,,,,,,,,,,,,,,,,,,,,,,,,,,,,,,,,,,,,,,,,,,,,,,,,,,,,,,,,,,,,,,,,,,,,,,,,,,,,,,,,,,,,,,,,,,,,
1720416520,74,0,4412.307617,4327.179688,4335.128418,4335.641113,4310.897461,4308.077148,4309.102539,4305.128418,4290.128418,4284.358887,4453.589844,4507.820313,4366.410156,4436.153809,,,,,,,,,,,,,,,,,,,,,,,,,,,,,,,,,,,,,,,,,,,,,,,,,,,,,,,,,,,,,,,,,,,,,,,,,,,,,,,,,,,,,,,,,,,,,,,
1720416520,75,0,4424.615234,4328.717773,4334.487305,4334.487305,4313.974121,4309.230957,4309.230957,4299.871582,4293.846191,4289.615234,4451.538574,4509.487305,4367.436035,4437.179688,,,,,,,,,,,,,,,,,,,,,,,,,,,,,,,,,,,,,,,,,,,,,,,,,,,,,,,,,,,,,,,,,,,,,,,,,,,,,,,,,,,,,,,,,,,,,,,
1720416520,76,0,4421.538574,4319.358887,4327.820313,4325,4313.333496,4310.128418,4307.563965,4292.05127,4283.717773,4275,4435,4491.025879,4353.717773,4415.256348,,,,,,,,,,,,,,,,,,,,,,,,,,,,,,,,,,,,,,,,,,,,,,,,,,,,,,,,,,,,,,,,,,,,,,,,,,,,,,,,,,,,,,,,,,,,,,,
1720416520,77,0,4417.307617,4311.666504,4324.358887,4321.538574,4310,4311.666504,4307.179688,4294.743652,4277.94873,4262.94873,4425.641113,4492.820313,4346.025879,4408.333496,,,,,,,,,,,,,,,,,,,,,,,,,,,,,,,,,,,,,,,,,,,,,,,,,,,,,,,,,,,,,,,,,,,,,,,,,,,,,,,,,,,,,,,,,,,,,,,
1720416520,78,0,4422.94873,4320.512695,4330.128418,4326.410156,4309.615234,4312.436035,4303.205078,4296.153809,4279.230957,4271.410156,4429.487305,4502.05127,4352.179688,4417.820313,,,,,,,,,,,,,,,,,,,,,,,,,,,,,,,,,,,,,,,,,,,,,,,,,,,,,,,,,,,,,,,,,,,,,,,,,,,,,,,,,,,,,,,,,,,,,,,
1720416520,79,0,4424.102539,4329.358887,4331.538574,4327.436035,4310,4310.384766,4302.563965,4294.871582,4279.871582,4278.077148,4437.820313,4495.769043,4357.94873,4417.820313,,,,,,,,,,,,,,,,,,,,,,,,,,,,,,,,,,,,,,,,,,,,,,,,,,,,,,,,,,,,,,,,,,,,,,,,,,,,,,,,,,,,,,,,,,,,,,,
1720416520,80,0,4419.615234,4326.410156,4328.077148,4325.384766,4309.743652,4311.666504,4305.384766,4297.436035,4279.871582,4268.846191,4441.794922,4495.641113,4355.641113,4414.615234,,,,,,,,,,,,,,,,,,,,,,,,,,,,,,,,,,,,,,,,,,,,,,,,,,,,,,,,,,,,,,,,,,,,,,,,,,,,,,,,,,,,,,,,,,,,,,,
1720416520,81,0,4418.589844,4324.871582,4329.230957,4326.922852,4310.384766,4311.282227,4307.94873,4305.512695,4287.820313,4270,4443.461426,4498.589844,4357.820313,4417.05127,,,,,,,,,,,,,,,,,,,,,,,,,,,,,,,,,,,,,,,,,,,,,,,,,,,,,,,,,,,,,,,,,,,,,,,,,,,,,,,,,,,,,,,,,,,,,,,
1720416520,82,0,4424.615234,4329.615234,4334.743652,4329.743652,4312.563965,4310.897461,4310.897461,4311.025879,4295.897461,4284.230957,4448.461426,4501.922852,4365.128418,4421.538574,,,,,,,,,,,,,,,,,,,,,,,,,,,,,,,,,,,,,,,,,,,,,,,,,,,,,,,,,,,,,,,,,,,,,,,,,,,,,,,,,,,,,,,,,,,,,,,
1720416520,83,0,4423.077148,4327.563965,4333.846191,4327.692383,4311.794922,4311.666504,4307.692383,4303.717773,4285.897461,4281.282227,4448.077148,4506.794922,4363.077148,4419.102539,,,,,,,,,,,,,,,,,,,,,,,,,,,,,,,,,,,,,,,,,,,,,,,,,,,,,,,,,,,,,,,,,,,,,,,,,,,,,,,,,,,,,,,,,,,,,,,
1720416520,84,0,4410.641113,4320.641113,4326.538574,4322.436035,4304.358887,4303.461426,4296.282227,4292.94873,4275.641113,4266.410156,4440,4497.820313,4355.128418,4410.512695,,,,,,,,,,,,,,,,,,,,,,,,,,,,,,,,,,,,,,,,,,,,,,,,,,,,,,,,,,,,,,,,,,,,,,,,,,,,,,,,,,,,,,,,,,,,,,,
1720416520,85,0,4411.794922,4321.282227,4324.743652,4321.538574,4300.769043,4294.871582,4289.487305,4287.307617,4277.307617,4265.128418,4440.128418,4484.615234,4356.410156,4410,,,,,,,,,,,,,,,,,,,,,,,,,,,,,,,,,,,,,,,,,,,,,,,,,,,,,,,,,,,,,,,,,,,,,,,,,,,,,,,,,,,,,,,,,,,,,,,
1720416520,86,0,4424.615234,4327.307617,4328.717773,4328.205078,4306.666504,4292.692383,4289.358887,4281.025879,4271.538574,4271.025879,4442.436035,4492.307617,4360.769043,4419.102539,3.044983,1.654175,1.275888,0.409395,0.32435,1.20678,0.736087,0.660071,0.333396,0.256749,0.6213,1.208323,0.860106,0.605524,0.337151,1.008611,0.867727,0.613232,0.39528,0.358915,0.488241,0.389422,0.533488,0.179828,0.135282,0.530613,0.832721,0.438935,0.251495,0.22818,0.355691,0.787127,0.659754,0.302099,0.185569,0.337436,2.216008,0.919248,0.370778,0.203698,0.427875,3.674239,1.275764,0.527358,0.240114,0.849185,2.359664,0.765608,0.490533,0.24682,1.502602,3.036011,1.669718,0.715739,0.368228,1.395653,2.919463,1.527313,0.677512,0.544851,0.814878,1.666337,0.93627,0.35405,0.246295,1.892259,3.567726,2.237598,0.677613,0.326287,,,,,,,,,,,,,,,,,,,,,,,,,
1720416520,87,0,4423.974121,4325.897461,4326.922852,4328.333496,4306.538574,4295.641113,4287.820313,4277.05127,4266.922852,4269.487305,4433.589844,4493.846191,4356.153809,4415.897461,,,,,,,,,,,,,,,,,,,,,,,,,,,,,,,,,,,,,,,,,,,,,,,,,,,,,,,,,,,,,,,,,,,,,,,,,,,,,,,,,,,,,,,,,,,,,,,
1720416520,88,0,4415.897461,4318.461426,4318.974121,4317.692383,4296.410156,4300.641113,4290,4282.307617,4276.538574,4263.077148,4429.743652,4481.538574,4350.769043,4404.743652,,,,,,,,,,,,,,,,,,,,,,,,,,,,,,,,,,,,,,,,,,,,,,,,,,,,,,,,,,,,,,,,,,,,,,,,,,,,,,,,,,,,,,,,,,,,,,,
1720416520,89,0,4419.743652,4321.282227,4320.384766,4320.897461,4295.384766,4307.436035,4296.153809,4291.282227,4280.897461,4266.794922,4441.538574,4490.641113,4355.128418,4410.128418,,,,,,,,,,,,,,,,,,,,,,,,,,,,,,,,,,,,,,,,,,,,,,,,,,,,,,,,,,,,,,,,,,,,,,,,,,,,,,,,,,,,,,,,,,,,,,,
1720416520,90,0,4421.153809,4325.769043,4322.563965,4327.692383,4301.410156,4309.358887,4298.333496,4295.641113,4278.333496,4273.461426,4452.436035,4505.128418,4363.461426,4420.128418,,,,,,,,,,,,,,,,,,,,,,,,,,,,,,,,,,,,,,,,,,,,,,,,,,,,,,,,,,,,,,,,,,,,,,,,,,,,,,,,,,,,,,,,,,,,,,,
1720416520,91,0,4414.743652,4319.615234,4315.128418,4318.077148,4298.717773,4301.794922,4295.897461,4296.410156,4281.794922,4269.358887,4449.871582,4503.974121,4364.487305,4418.974121,,,,,,,,,,,,,,,,,,,,,,,,,,,,,,,,,,,,,,,,,,,,,,,,,,,,,,,,,,,,,,,,,,,,,,,,,,,,,,,,,,,,,,,,,,,,,,,
1720416520,92,0,4416.666504,4320.897461,4316.410156,4317.94873,4298.846191,4300.128418,4296.025879,4296.666504,4279.487305,4263.846191,4451.025879,4503.974121,4364.230957,4417.05127,,,,,,,,,,,,,,,,,,,,,,,,,,,,,,,,,,,,,,,,,,,,,,,,,,,,,,,,,,,,,,,,,,,,,,,,,,,,,,,,,,,,,,,,,,,,,,,
1720416520,93,0,4414.358887,4329.615234,4327.94873,4327.692383,4305,4308.205078,4299.487305,4298.077148,4274.358887,4265.512695,4457.563965,4509.230957,4366.794922,4419.743652,,,,,,,,,,,,,,,,,,,,,,,,,,,,,,,,,,,,,,,,,,,,,,,,,,,,,,,,,,,,,,,,,,,,,,,,,,,,,,,,,,,,,,,,,,,,,,,
1720416520,94,0,4406.410156,4330.384766,4331.922852,4325.769043,4308.846191,4308.717773,4301.922852,4300.384766,4281.666504,4267.307617,4457.05127,4508.461426,4366.922852,4419.487305,,,,,,,,,,,,,,,,,,,,,,,,,,,,,,,,,,,,,,,,,,,,,,,,,,,,,,,,,,,,,,,,,,,,,,,,,,,,,,,,,,,,,,,,,,,,,,,
1720416520,95,0,4401.538574,4324.358887,4324.230957,4319.358887,4304.487305,4296.666504,4292.820313,4294.487305,4280,4263.333496,4451.282227,4499.743652,4362.692383,4412.94873,,,,,,,,,,,,,,,,,,,,,,,,,,,,,,,,,,,,,,,,,,,,,,,,,,,,,,,,,,,,,,,,,,,,,,,,,,,,,,,,,,,,,,,,,,,,,,,
1720416520,96,0,4393.333496,4319.743652,4315.128418,4317.307617,4297.563965,4291.025879,4279.102539,4279.743652,4264.615234,4261.025879,4440.769043,4489.230957,4353.717773,4400.769043,,,,,,,,,,,,,,,,,,,,,,,,,,,,,,,,,,,,,,,,,,,,,,,,,,,,,,,,,,,,,,,,,,,,,,,,,,,,,,,,,,,,,,,,,,,,,,,
1720416520,97,0,4385.641113,4321.410156,4314.102539,4317.94873,4300.384766,4296.410156,4282.436035,4278.077148,4265,4262.179688,4436.794922,4487.05127,4351.025879,4395.128418,,,,,,,,,,,,,,,,,,,,,,,,,,,,,,,,,,,,,,,,,,,,,,,,,,,,,,,,,,,,,,,,,,,,,,,,,,,,,,,,,,,,,,,,,,,,,,,
1720416520,98,0,4386.025879,4327.436035,4317.94873,4321.794922,4308.589844,4299.358887,4294.743652,4291.282227,4280.384766,4266.282227,4445.384766,4496.794922,4356.922852,4401.153809,,,,,,,,,,,,,,,,,,,,,,,,,,,,,,,,,,,,,,,,,,,,,,,,,,,,,,,,,,,,,,,,,,,,,,,,,,,,,,,,,,,,,,,,,,,,,,,
1720416520,99,0,4386.666504,4328.461426,4318.461426,4322.436035,4310,4303.589844,4295.897461,4296.153809,4282.05127,4273.974121,4453.333496,4503.846191,4363.461426,4409.230957,,,,,,,,,,,,,,,,,,,,,,,,,,,,,,,,,,,,,,,,,,,,,,,,,,,,,,,,,,,,,,,,,,,,,,,,,,,,,,,,,,,,,,,,,,,,,,,
1720416520,100,0,4385.641113,4323.205078,4319.230957,4319.230957,4302.692383,4311.410156,4295.128418,4295.256348,4274.358887,4274.615234,4453.077148,4505.897461,4365.512695,4415.384766,,,,,,,,,,,,,,,,,,,,,,,,,,,,,,,,,,,,,,,,,,,,,,,,,,,,,,,,,,,,,,,,,,,,,,,,,,,,,,,,,,,,,,,,,,,,,,,
1720416520,101,0,4389.871582,4325.897461,4326.794922,4326.922852,4297.94873,4309.102539,4301.410156,4302.05127,4279.102539,4269.615234,4459.358887,4508.717773,4366.025879,4418.717773,,,,,,,,,,,,,,,,,,,,,,,,,,,,,,,,,,,,,,,,,,,,,,,,,,,,,,,,,,,,,,,,,,,,,,,,,,,,,,,,,,,,,,,,,,,,,,,
1720416520,102,0,4386.410156,4325.897461,4324.358887,4328.974121,4294.615234,4300.384766,4302.05127,4302.436035,4283.205078,4267.05127,4463.077148,4512.94873,4364.871582,4418.974121,2.808243,1.529903,1.282702,0.387805,0.341318,1.186839,0.621622,0.670865,0.320624,0.257185,0.440431,1.007821,0.928152,0.581141,0.329321,0.915448,0.697901,0.646224,0.372244,0.344664,0.483537,0.32303,0.505925,0.152248,0.117914,0.500461,0.674012,0.440834,0.270843,0.229946,0.293323,0.642263,0.629774,0.289785,0.183206,0.327488,1.866399,0.86059,0.348259,0.207418,0.388679,3.035791,1.233122,0.519091,0.222778,0.810938,2.006533,0.728582,0.429282,0.228884,1.329285,2.773618,1.585908,0.700586,0.340626,0.963802,2.673409,1.35866,0.573323,0.533239,0.699872,1.585631,0.937021,0.329044,0.234559,1.288492,3.519057,2.118889,0.61192,0.335543,,,,,,,,,,,,,,,,,,,,,,,,,
1720416520,103,0,4374.102539,4313.205078,4310.769043,4314.358887,4292.179688,4299.871582,4295.897461,4293.717773,4276.922852,4264.358887,4449.871582,4510,4358.077148,4411.666504,,,,,,,,,,,,,,,,,,,,,,,,,,,,,,,,,,,,,,,,,,,,,,,,,,,,,,,,,,,,,,,,,,,,,,,,,,,,,,,,,,,,,,,,,,,,,,,
1720416520,104,0,4371.153809,4307.563965,4304.102539,4307.179688,4294.358887,4300.769043,4290,4288.205078,4271.282227,4259.615234,4443.846191,4488.333496,4351.666504,4394.487305,,,,,,,,,,,,,,,,,,,,,,,,,,,,,,,,,,,,,,,,,,,,,,,,,,,,,,,,,,,,,,,,,,,,,,,,,,,,,,,,,,,,,,,,,,,,,,,
1720416520,105,0,4375.512695,4312.563965,4304.743652,4310.256348,4292.436035,4293.846191,4279.871582,4282.179688,4268.974121,4261.538574,4446.153809,4477.436035,4348.717773,4384.358887,,,,,,,,,,,,,,,,,,,,,,,,,,,,,,,,,,,,,,,,,,,,,,,,,,,,,,,,,,,,,,,,,,,,,,,,,,,,,,,,,,,,,,,,,,,,,,,
1720416520,106,0,4376.282227,4312.307617,4301.538574,4309.615234,4291.153809,4292.179688,4274.615234,4277.436035,4266.666504,4261.410156,4436.282227,4480.641113,4347.307617,4383.846191,,,,,,,,,,,,,,,,,,,,,,,,,,,,,,,,,,,,,,,,,,,,,,,,,,,,,,,,,,,,,,,,,,,,,,,,,,,,,,,,,,,,,,,,,,,,,,,
1720416520,107,0,4373.974121,4308.717773,4298.461426,4306.538574,4295.512695,4296.410156,4279.743652,4279.615234,4262.563965,4252.94873,4427.05127,4475.641113,4345.897461,4381.794922,,,,,,,,,,,,,,,,,,,,,,,,,,,,,,,,,,,,,,,,,,,,,,,,,,,,,,,,,,,,,,,,,,,,,,,,,,,,,,,,,,,,,,,,,,,,,,,
1720416520,108,0,4373.333496,4313.333496,4304.615234,4311.922852,4299.102539,4295,4284.230957,4283.717773,4262.179688,4252.563965,4433.205078,4480.512695,4347.436035,4381.025879,,,,,,,,,,,,,,,,,,,,,,,,,,,,,,,,,,,,,,,,,,,,,,,,,,,,,,,,,,,,,,,,,,,,,,,,,,,,,,,,,,,,,,,,,,,,,,,
1720416520,109,0,4369.615234,4316.410156,4303.846191,4316.025879,4296.666504,4295,4281.153809,4280.641113,4258.846191,4253.333496,4435.256348,4485.128418,4345.897461,4371.922852,,,,,,,,,,,,,,,,,,,,,,,,,,,,,,,,,,,,,,,,,,,,,,,,,,,,,,,,,,,,,,,,,,,,,,,,,,,,,,,,,,,,,,,,,,,,,,,
1720416520,110,0,4368.717773,4312.94873,4296.410156,4311.922852,4294.871582,4298.077148,4277.94873,4276.025879,4252.307617,4247.820313,4428.077148,4479.743652,4342.307617,4361.153809,,,,,,,,,,,,,,,,,,,,,,,,,,,,,,,,,,,,,,,,,,,,,,,,,,,,,,,,,,,,,,,,,,,,,,,,,,,,,,,,,,,,,,,,,,,,,,,
1720416520,111,0,4368.461426,4311.025879,4300.128418,4310.256348,4296.410156,4297.94873,4280,4276.922852,4253.589844,4254.871582,4428.461426,4483.461426,4345.512695,4365.897461,,,,,,,,,,,,,,,,,,,,,,,,,,,,,,,,,,,,,,,,,,,,,,,,,,,,,,,,,,,,,,,,,,,,,,,,,,,,,,,,,,,,,,,,,,,,,,,
1720416520,112,0,4356.282227,4308.461426,4302.05127,4309.743652,4292.436035,4295.384766,4288.333496,4282.820313,4265.769043,4266.410156,4435.256348,4487.563965,4348.461426,4370.128418,,,,,,,,,,,,,,,,,,,,,,,,,,,,,,,,,,,,,,,,,,,,,,,,,,,,,,,,,,,,,,,,,,,,,,,,,,,,,,,,,,,,,,,,,,,,,,,
1720416520,113,0,4347.05127,4303.333496,4294.230957,4306.153809,4289.487305,4297.563965,4293.846191,4286.538574,4273.461426,4265.897461,4439.615234,4478.846191,4347.692383,4365.384766,,,,,,,,,,,,,,,,,,,,,,,,,,,,,,,,,,,,,,,,,,,,,,,,,,,,,,,,,,,,,,,,,,,,,,,,,,,,,,,,,,,,,,,,,,,,,,,
1720416520,114,0,4345.128418,4298.333496,4289.102539,4300.897461,4291.538574,4299.102539,4288.077148,4283.974121,4269.743652,4262.05127,4437.94873,4476.666504,4349.871582,4367.563965,,,,,,,,,,,,,,,,,,,,,,,,,,,,,,,,,,,,,,,,,,,,,,,,,,,,,,,,,,,,,,,,,,,,,,,,,,,,,,,,,,,,,,,,,,,,,,,
1720416520,115,0,4334.871582,4293.974121,4282.94873,4294.230957,4287.563965,4287.692383,4272.563965,4277.179688,4265.256348,4255.384766,4428.589844,4473.974121,4345.384766,4363.333496,,,,,,,,,,,,,,,,,,,,,,,,,,,,,,,,,,,,,,,,,,,,,,,,,,,,,,,,,,,,,,,,,,,,,,,,,,,,,,,,,,,,,,,,,,,,,,,
1720416520,116,0,4325,4290.512695,4277.05127,4290.641113,4276.666504,4279.743652,4264.230957,4271.794922,4261.153809,4243.717773,4419.358887,4464.102539,4333.077148,4351.153809,,,,,,,,,,,,,,,,,,,,,,,,,,,,,,,,,,,,,,,,,,,,,,,,,,,,,,,,,,,,,,,,,,,,,,,,,,,,,,,,,,,,,,,,,,,,,,,
1720416520,117,0,4333.333496,4294.102539,4290.384766,4298.461426,4277.820313,4287.563965,4270.897461,4272.820313,4259.487305,4242.820313,4423.589844,4475.384766,4334.358887,4363.589844,,,,,,,,,,,,,,,,,,,,,,,,,,,,,,,,,,,,,,,,,,,,,,,,,,,,,,,,,,,,,,,,,,,,,,,,,,,,,,,,,,,,,,,,,,,,,,,
1720416520,118,0,4346.025879,4303.589844,4307.94873,4309.615234,4293.846191,4295,4279.102539,4277.307617,4259.487305,4248.589844,4437.94873,4490.897461,4347.436035,4385.897461,2.795212,1.488887,1.179844,0.390065,0.350638,1.151224,0.545804,0.66188,0.320947,0.250086,0.366847,0.831618,0.92581,0.56018,0.312073,0.820129,0.560056,0.631866,0.374278,0.319173,0.444396,0.26497,0.451032,0.137504,0.107294,0.442537,0.531104,0.43895,0.30355,0.243631,0.24049,0.481392,0.554462,0.295456,0.186448,0.30785,1.387847,0.746759,0.340348,0.214593,0.325303,2.296571,1.167172,0.525854,0.212599,0.70583,1.61791,0.695202,0.381258,0.223374,1.150289,2.402637,1.443557,0.673773,0.303752,0.75957,2.280469,1.158891,0.511384,0.502393,0.589868,1.469335,0.908972,0.31379,0.218694,1.035029,3.184827,1.855776,0.576343,0.331685,,,,,,,,,,,,,,,,,,,,,,,,,
1720416520,119,0,4347.692383,4307.820313,4305.512695,4311.538574,4298.846191,4293.974121,4282.05127,4278.846191,4260,4247.563965,4444.871582,4491.025879,4351.153809,4384.743652,,,,,,,,,,,,,,,,,,,,,,,,,,,,,,,,,,,,,,,,,,,,,,,,,,,,,,,,,,,,,,,,,,,,,,,,,,,,,,,,,,,,,,,,,,,,,,,
1720416520,120,0,4344.871582,4307.563965,4300.128418,4310.512695,4295.256348,4294.358887,4283.333496,4277.436035,4261.538574,4246.538574,4438.846191,4485.897461,4346.666504,4376.282227,,,,,,,,,,,,,,,,,,,,,,,,,,,,,,,,,,,,,,,,,,,,,,,,,,,,,,,,,,,,,,,,,,,,,,,,,,,,,,,,,,,,,,,,,,,,,,,
1720416520,121,0,4350.384766,4316.666504,4310.897461,4322.179688,4303.461426,4299.743652,4292.436035,4285.769043,4264.615234,4256.666504,4440,4489.358887,4354.615234,4389.743652,,,,,,,,,,,,,,,,,,,,,,,,,,,,,,,,,,,,,,,,,,,,,,,,,,,,,,,,,,,,,,,,,,,,,,,,,,,,,,,,,,,,,,,,,,,,,,,
1720416520,122,0,4357.05127,4323.589844,4320.128418,4329.743652,4307.692383,4297.307617,4296.794922,4294.743652,4267.05127,4265.897461,4449.743652,4498.974121,4365.512695,4405.897461,,,,,,,,,,,,,,,,,,,,,,,,,,,,,,,,,,,,,,,,,,,,,,,,,,,,,,,,,,,,,,,,,,,,,,,,,,,,,,,,,,,,,,,,,,,,,,,
1720416520,123,0,4348.077148,4314.487305,4312.563965,4315.512695,4297.436035,4291.922852,4287.307617,4287.179688,4264.615234,4263.717773,4447.436035,4494.102539,4358.589844,4396.153809,,,,,,,,,,,,,,,,,,,,,,,,,,,,,,,,,,,,,,,,,,,,,,,,,,,,,,,,,,,,,,,,,,,,,,,,,,,,,,,,,,,,,,,,,,,,,,,
1720416520,124,0,4334.743652,4307.307617,4305,4308.589844,4296.666504,4301.794922,4288.333496,4285.641113,4266.153809,4258.717773,4442.436035,4490.897461,4351.922852,4389.102539,,,,,,,,,,,,,,,,,,,,,,,,,,,,,,,,,,,,,,,,,,,,,,,,,,,,,,,,,,,,,,,,,,,,,,,,,,,,,,,,,,,,,,,,,,,,,,,
1720416520,125,0,4337.179688,4310.128418,4304.487305,4318.333496,4303.846191,4310.256348,4296.922852,4295.512695,4266.666504,4258.974121,4447.563965,4500,4356.794922,4400.641113,,,,,,,,,,,,,,,,,,,,,,,,,,,,,,,,,,,,,,,,,,,,,,,,,,,,,,,,,,,,,,,,,,,,,,,,,,,,,,,,,,,,,,,,,,,,,,,
1720416520,126,0,4347.692383,4308.589844,4302.94873,4317.179688,4299.102539,4300.128418,4291.538574,4298.077148,4265.769043,4263.846191,4453.589844,4505,4358.846191,4409.487305,,,,,,,,,,,,,,,,,,,,,,,,,,,,,,,,,,,,,,,,,,,,,,,,,,,,,,,,,,,,,,,,,,,,,,,,,,,,,,,,,,,,,,,,,,,,,,,
1720416520,127,0,4342.05127,4297.307617,4297.307617,4301.794922,4292.179688,4289.230957,4276.794922,4288.589844,4266.922852,4259.230957,4445.512695,4495,4349.487305,4401.153809,,,,,,,,,,,,,,,,,,,,,,,,,,,,,,,,,,,,,,,,,,,,,,,,,,,,,,,,,,,,,,,,,,,,,,,,,,,,,,,,,,,,,,,,,,,,,,,
1720416520,0,0,4331.282227,4292.94873,4292.436035,4300.384766,4290,4290.897461,4276.025879,4280.897461,4262.563965,4247.179688,4432.692383,4487.436035,4343.461426,4392.692383,,,,,,,,,,,,,,,,,,,,,,,,,,,,,,,,,,,,,,,,,,,,,,,,,,,,,,,,,,,,,,,,,,,,,,,,,,,,,,,,,,,,,,,,,,,,,,,
1720416520,1,0,4335.897461,4304.358887,4299.358887,4316.153809,4293.974121,4295.512695,4287.94873,4286.538574,4263.333496,4253.333496,4439.615234,4492.05127,4352.94873,4399.871582,,,,,,,,,,,,,,,,,,,,,,,,,,,,,,,,,,,,,,,,,,,,,,,,,,,,,,,,,,,,,,,,,,,,,,,,,,,,,,,,,,,,,,,,,,,,,,,
1720416520,2,0,4347.179688,4320,4314.487305,4327.179688,4306.538574,4300.769043,4297.820313,4297.563965,4271.282227,4267.05127,4459.230957,4504.230957,4363.846191,4410.769043,,,,,,,,,,,,,,,,,,,,,,,,,,,,,,,,,,,,,,,,,,,,,,,,,,,,,,,,,,,,,,,,,,,,,,,,,,,,,,,,,,,,,,,,,,,,,,,
1720416520,3,0,4351.538574,4323.077148,4319.230957,4325.256348,4311.922852,4303.589844,4296.282227,4297.307617,4269.230957,4261.025879,4461.922852,4515.384766,4362.563965,4413.461426,,,,,,,,,,,,,,,,,,,,,,,,,,,,,,,,,,,,,,,,,,,,,,,,,,,,,,,,,,,,,,,,,,,,,,,,,,,,,,,,,,,,,,,,,,,,,,,
1720416520,4,0,4349.487305,4315.128418,4310.641113,4318.333496,4306.538574,4299.487305,4285.897461,4288.461426,4259.102539,4254.615234,4448.589844,4501.922852,4356.153809,4408.717773,,,,,,,,,,,,,,,,,,,,,,,,,,,,,,,,,,,,,,,,,,,,,,,,,,,,,,,,,,,,,,,,,,,,,,,,,,,,,,,,,,,,,,,,,,,,,,,
1720416520,5,0,4354.230957,4319.615234,4311.538574,4324.102539,4308.461426,4304.102539,4286.922852,4290.641113,4264.871582,4263.717773,4448.974121,4497.820313,4358.717773,4415,,,,,,,,,,,,,,,,,,,,,,,,,,,,,,,,,,,,,,,,,,,,,,,,,,,,,,,,,,,,,,,,,,,,,,,,,,,,,,,,,,,,,,,,,,,,,,,
1720416520,6,0,4361.153809,4326.922852,4318.974121,4329.871582,4314.230957,4311.282227,4293.717773,4296.538574,4276.922852,4263.974121,4454.358887,4511.922852,4358.974121,4425.512695,2.964617,1.512304,1.001726,0.404761,0.349735,1.11084,0.502658,0.640919,0.334159,0.236309,0.408429,0.696612,0.869822,0.548062,0.291027,0.750437,0.468872,0.5827,0.398418,0.289584,0.392482,0.225161,0.384031,0.138932,0.102075,0.371915,0.449974,0.43184,0.337784,0.260655,0.210812,0.352924,0.467255,0.318924,0.194044,0.288188,0.912575,0.632932,0.346325,0.222653,0.246216,1.640063,1.103782,0.553269,0.215246,0.550924,1.293009,0.677968,0.366735,0.236579,0.994568,2.001907,1.335192,0.649078,0.265483,0.715656,1.809412,1.024799,0.494959,0.458108,0.493642,1.346018,0.889767,0.31527,0.202782,1.099989,2.679599,1.550875,0.571271,0.319023,,,,,,,,,,,,,,,,,,,,,,,,,
1720416520,7,0,4358.333496,4317.179688,4317.307617,4320.384766,4311.410156,4306.794922,4293.461426,4293.974121,4277.436035,4257.94873,4452.563965,4511.025879,4356.666504,4431.025879,,,,,,,,,,,,,,,,,,,,,,,,,,,,,,,,,,,,,,,,,,,,,,,,,,,,,,,,,,,,,,,,,,,,,,,,,,,,,,,,,,,,,,,,,,,,,,,
1720416520,8,0,4352.179688,4306.922852,4315,4313.333496,4305.769043,4303.846191,4293.333496,4295.384766,4279.358887,4263.717773,4452.563965,4511.153809,4359.487305,4440.256348,,,,,,,,,,,,,,,,,,,,,,,,,,,,,,,,,,,,,,,,,,,,,,,,,,,,,,,,,,,,,,,,,,,,,,,,,,,,,,,,,,,,,,,,,,,,,,,
1720416520,9,0,4354.102539,4313.077148,4323.333496,4321.922852,4305.128418,4306.025879,4294.230957,4302.563965,4283.846191,4265.128418,4453.589844,4519.615234,4356.153809,4443.974121,,,,,,,,,,,,,,,,,,,,,,,,,,,,,,,,,,,,,,,,,,,,,,,,,,,,,,,,,,,,,,,,,,,,,,,,,,,,,,,,,,,,,,,,,,,,,,,
1720416520,10,0,4354.102539,4318.077148,4329.743652,4326.282227,4306.922852,4303.974121,4295.128418,4304.487305,4277.820313,4256.282227,4452.436035,4519.230957,4352.307617,4439.743652,,,,,,,,,,,,,,,,,,,,,,,,,,,,,,,,,,,,,,,,,,,,,,,,,,,,,,,,,,,,,,,,,,,,,,,,,,,,,,,,,,,,,,,,,,,,,,,
1720416520,11,0,4337.436035,4305.897461,4319.230957,4310.641113,4304.487305,4302.307617,4292.692383,4293.974121,4259.487305,4245,4441.794922,4507.692383,4350.512695,4431.153809,,,,,,,,,,,,,,,,,,,,,,,,,,,,,,,,,,,,,,,,,,,,,,,,,,,,,,,,,,,,,,,,,,,,,,,,,,,,,,,,,,,,,,,,,,,,,,,
1720416520,12,0,4335,4302.436035,4317.692383,4307.692383,4306.538574,4310.512695,4292.820313,4290.256348,4258.333496,4245.512695,4441.153809,4507.05127,4351.282227,4434.615234,,,,,,,,,,,,,,,,,,,,,,,,,,,,,,,,,,,,,,,,,,,,,,,,,,,,,,,,,,,,,,,,,,,,,,,,,,,,,,,,,,,,,,,,,,,,,,,
1720416520,13,0,4355.384766,4317.307617,4335.641113,4339.102539,4316.794922,4313.461426,4302.563965,4303.974121,4281.666504,4263.077148,4460.897461,4518.974121,4359.871582,4455.128418,,,,,,,,,,,,,,,,,,,,,,,,,,,,,,,,,,,,,,,,,,,,,,,,,,,,,,,,,,,,,,,,,,,,,,,,,,,,,,,,,,,,,,,,,,,,,,,
1720416520,14,0,4355.512695,4325.128418,4339.871582,4369.358887,4320.256348,4310.128418,4307.94873,4311.282227,4288.846191,4272.436035,4468.205078,4528.846191,4365.512695,4463.077148,,,,,,,,,,,,,,,,,,,,,,,,,,,,,,,,,,,,,,,,,,,,,,,,,,,,,,,,,,,,,,,,,,,,,,,,,,,,,,,,,,,,,,,,,,,,,,,
1720416520,15,0,4331.153809,4320.384766,4329.102539,4376.794922,4321.025879,4312.179688,4301.153809,4306.794922,4275.897461,4264.102539,4458.077148,4527.692383,4363.461426,4455.769043,,,,,,,,,,,,,,,,,,,,,,,,,,,,,,,,,,,,,,,,,,,,,,,,,,,,,,,,,,,,,,,,,,,,,,,,,,,,,,,,,,,,,,,,,,,,,,,
1720416520,16,0,4322.820313,4319.743652,4331.666504,4379.487305,4325.512695,4314.230957,4302.179688,4308.333496,4276.538574,4260.769043,4461.666504,4523.717773,4366.922852,4458.974121,,,,,,,,,,,,,,,,,,,,,,,,,,,,,,,,,,,,,,,,,,,,,,,,,,,,,,,,,,,,,,,,,,,,,,,,,,,,,,,,,,,,,,,,,,,,,,,
1720416520,17,0,4323.333496,4315.769043,4331.666504,4373.846191,4319.615234,4309.871582,4308.333496,4312.563965,4284.871582,4266.922852,4461.153809,4523.077148,4366.538574,4459.871582,,,,,,,,,,,,,,,,,,,,,,,,,,,,,,,,,,,,,,,,,,,,,,,,,,,,,,,,,,,,,,,,,,,,,,,,,,,,,,,,,,,,,,,,,,,,,,,
1720416520,18,0,4310.641113,4301.538574,4312.692383,4354.743652,4308.717773,4306.666504,4300.641113,4309.743652,4280.256348,4265.769043,4446.922852,4511.538574,4353.077148,4442.436035,,,,,,,,,,,,,,,,,,,,,,,,,,,,,,,,,,,,,,,,,,,,,,,,,,,,,,,,,,,,,,,,,,,,,,,,,,,,,,,,,,,,,,,,,,,,,,,
1720416520,19,0,4310,4302.436035,4311.153809,4362.05127,4309.358887,4308.846191,4296.538574,4309.230957,4278.846191,4261.666504,4451.538574,4508.077148,4356.538574,4440.897461,,,,,,,,,,,,,,,,,,,,,,,,,,,,,,,,,,,,,,,,,,,,,,,,,,,,,,,,,,,,,,,,,,,,,,,,,,,,,,,,,,,,,,,,,,,,,,,
1720416520,20,0,4322.692383,4312.692383,4327.05127,4381.794922,4312.692383,4312.436035,4306.666504,4312.692383,4286.410156,4266.153809,4463.717773,4515.897461,4371.794922,4454.615234,,,,,,,,,,,,,,,,,,,,,,,,,,,,,,,,,,,,,,,,,,,,,,,,,,,,,,,,,,,,,,,,,,,,,,,,,,,,,,,,,,,,,,,,,,,,,,,
1720416520,21,0,4328.589844,4314.743652,4331.794922,4376.922852,4315.512695,4314.871582,4309.743652,4315.769043,4294.615234,4275.256348,4470.769043,4521.153809,4377.307617,4463.461426,,,,,,,,,,,,,,,,,,,,,,,,,,,,,,,,,,,,,,,,,,,,,,,,,,,,,,,,,,,,,,,,,,,,,,,,,,,,,,,,,,,,,,,,,,,,,,,
1720416520,22,0,4333.846191,4321.153809,4332.179688,4375.769043,4319.230957,4307.307617,4296.922852,4312.05127,4295.128418,4277.05127,4477.307617,4521.410156,4378.205078,4472.563965,3.129345,1.585769,0.810858,0.415888,0.337699,1.081565,0.486992,0.619709,0.351928,0.218278,0.53358,0.605021,0.799198,0.54558,0.270881,0.716709,0.426156,0.524317,0.43076,0.263696,0.341474,0.216868,0.318308,0.152552,0.099885,0.307187,0.446951,0.420495,0.362259,0.271747,0.215301,0.2998,0.418826,0.355288,0.202778,0.284077,0.561235,0.589159,0.359848,0.227423,0.187503,1.191365,1.058219,0.590527,0.228866,0.392993,1.085694,0.682067,0.387495,0.265257,0.892222,1.629182,1.341702,0.632616,0.233596,0.747191,1.354089,1.043302,0.510016,0.409857,0.41565,1.224134,0.913695,0.331719,0.189817,1.394494,2.151891,1.324861,0.589616,0.304946,,,,,,,,,,,,,,,,,,,,,,,,,
1720416521,23,0,4337.436035,4324.358887,4328.974121,4382.94873,4311.282227,4295.897461,4279.615234,4292.05127,4274.871582,4263.461426,4466.666504,4508.846191,4373.717773,4465.897461,,,,,,,,,,,,,,,,,,,,,,,,,,,,,,,,,,,,,,,,,,,,,,,,,,,,,,,,,,,,,,,,,,,,,,,,,,,,,,,,,,,,,,,,,,,,,,,
1720416521,24,0,4334.871582,4320.641113,4320.512695,4373.846191,4307.436035,4298.077148,4275.769043,4281.538574,4261.666504,4256.410156,4454.615234,4499.102539,4367.307617,4452.436035,,,,,,,,,,,,,,,,,,,,,,,,,,,,,,,,,,,,,,,,,,,,,,,,,,,,,,,,,,,,,,,,,,,,,,,,,,,,,,,,,,,,,,,,,,,,,,,
1720416521,25,0,4330.769043,4322.307617,4315.128418,4364.743652,4311.153809,4302.179688,4282.179688,4289.615234,4272.692383,4262.05127,4456.794922,4499.487305,4367.307617,4453.717773,,,,,,,,,,,,,,,,,,,,,,,,,,,,,,,,,,,,,,,,,,,,,,,,,,,,,,,,,,,,,,,,,,,,,,,,,,,,,,,,,,,,,,,,,,,,,,,
1720416521,26,0,4326.922852,4319.871582,4310.384766,4363.717773,4302.179688,4293.589844,4276.922852,4284.871582,4270.512695,4259.615234,4451.153809,4493.717773,4365.512695,4452.307617,,,,,,,,,,,,,,,,,,,,,,,,,,,,,,,,,,,,,,,,,,,,,,,,,,,,,,,,,,,,,,,,,,,,,,,,,,,,,,,,,,,,,,,,,,,,,,,
1720416521,27,0,4323.589844,4311.025879,4308.205078,4358.461426,4298.205078,4292.436035,4271.282227,4273.974121,4258.205078,4253.589844,4443.589844,4487.692383,4362.563965,4446.153809,,,,,,,,,,,,,,,,,,,,,,,,,,,,,,,,,,,,,,,,,,,,,,,,,,,,,,,,,,,,,,,,,,,,,,,,,,,,,,,,,,,,,,,,,,,,,,,
1720416521,28,0,4318.589844,4308.717773,4310.256348,4354.230957,4305.769043,4302.820313,4277.692383,4278.333496,4266.794922,4256.538574,4447.692383,4490.384766,4359.871582,4448.077148,,,,,,,,,,,,,,,,,,,,,,,,,,,,,,,,,,,,,,,,,,,,,,,,,,,,,,,,,,,,,,,,,,,,,,,,,,,,,,,,,,,,,,,,,,,,,,,
1720416521,29,0,4310.512695,4309.102539,4304.871582,4354.358887,4299.487305,4298.846191,4277.563965,4281.282227,4275.641113,4260.641113,4445.512695,4487.436035,4352.307617,4444.743652,,,,,,,,,,,,,,,,,,,,,,,,,,,,,,,,,,,,,,,,,,,,,,,,,,,,,,,,,,,,,,,,,,,,,,,,,,,,,,,,,,,,,,,,,,,,,,,
1720416521,30,0,4308.974121,4309.230957,4300.384766,4352.05127,4292.563965,4288.461426,4274.102539,4280.641113,4271.794922,4259.230957,4441.410156,4486.410156,4353.333496,4440.128418,,,,,,,,,,,,,,,,,,,,,,,,,,,,,,,,,,,,,,,,,,,,,,,,,,,,,,,,,,,,,,,,,,,,,,,,,,,,,,,,,,,,,,,,,,,,,,,
1720416521,31,0,4316.282227,4317.307617,4312.307617,4357.179688,4305.128418,4297.692383,4280.897461,4290.641113,4277.436035,4260.128418,4451.794922,4501.666504,4364.102539,4452.179688,,,,,,,,,,,,,,,,,,,,,,,,,,,,,,,,,,,,,,,,,,,,,,,,,,,,,,,,,,,,,,,,,,,,,,,,,,,,,,,,,,,,,,,,,,,,,,,
1720416521,32,0,4317.692383,4318.846191,4320.128418,4360.128418,4307.692383,4306.025879,4282.307617,4292.05127,4278.589844,4263.205078,4458.205078,4500.897461,4364.102539,4458.589844,,,,,,,,,,,,,,,,,,,,,,,,,,,,,,,,,,,,,,,,,,,,,,,,,,,,,,,,,,,,,,,,,,,,,,,,,,,,,,,,,,,,,,,,,,,,,,,
1720416521,33,0,4311.922852,4304.358887,4313.205078,4347.563965,4294.487305,4297.307617,4276.282227,4283.461426,4265.256348,4260.769043,4450.641113,4494.615234,4357.436035,4454.871582,,,,,,,,,,,,,,,,,,,,,,,,,,,,,,,,,,,,,,,,,,,,,,,,,,,,,,,,,,,,,,,,,,,,,,,,,,,,,,,,,,,,,,,,,,,,,,,
1720416521,34,0,4313.461426,4301.922852,4314.358887,4343.461426,4295.128418,4292.94873,4278.846191,4286.153809,4265.512695,4259.743652,4448.205078,4509.358887,4359.102539,4459.102539,,,,,,,,,,,,,,,,,,,,,,,,,,,,,,,,,,,,,,,,,,,,,,,,,,,,,,,,,,,,,,,,,,,,,,,,,,,,,,,,,,,,,,,,,,,,,,,
1720416521,35,0,4315.256348,4314.230957,4321.922852,4354.102539,4301.025879,4295.512695,4281.922852,4294.230957,4276.794922,4263.461426,4456.922852,4512.307617,4364.230957,4461.666504,,,,,,,,,,,,,,,,,,,,,,,,,,,,,,,,,,,,,,,,,,,,,,,,,,,,,,,,,,,,,,,,,,,,,,,,,,,,,,,,,,,,,,,,,,,,,,,
1720416521,36,0,4312.820313,4315,4325.256348,4357.179688,4300.641113,4295.128418,4282.179688,4294.102539,4278.461426,4265.384766,4462.307617,4506.794922,4364.871582,4458.974121,,,,,,,,,,,,,,,,,,,,,,,,,,,,,,,,,,,,,,,,,,,,,,,,,,,,,,,,,,,,,,,,,,,,,,,,,,,,,,,,,,,,,,,,,,,,,,,
1720416521,37,0,4309.358887,4307.307617,4321.922852,4349.230957,4304.102539,4299.487305,4286.922852,4292.179688,4275,4261.410156,4454.487305,4508.974121,4361.153809,4453.333496,,,,,,,,,,,,,,,,,,,,,,,,,,,,,,,,,,,,,,,,,,,,,,,,,,,,,,,,,,,,,,,,,,,,,,,,,,,,,,,,,,,,,,,,,,,,,,,
1720416521,38,0,4302.820313,4308.846191,4316.025879,4348.846191,4313.205078,4311.025879,4293.461426,4295.256348,4275.769043,4259.615234,4445.641113,4503.717773,4356.282227,4444.358887,3.154462,1.702443,0.670901,0.411549,0.317688,1.050629,0.508037,0.617126,0.361406,0.20033,0.687393,0.558978,0.760435,0.546111,0.255363,0.713723,0.43644,0.494284,0.453089,0.248272,0.317216,0.258131,0.265479,0.170688,0.100222,0.262283,0.508451,0.410851,0.37181,0.271736,0.260846,0.335617,0.456027,0.394506,0.210542,0.311642,0.391662,0.659381,0.369965,0.226824,0.166079,0.963518,1.023677,0.616347,0.246193,0.274689,0.978083,0.700179,0.425384,0.299215,0.869706,1.298801,1.486812,0.621246,0.214892,0.813765,0.985868,1.242432,0.531834,0.368756,0.367645,1.089711,0.989417,0.352091,0.18165,1.851963,1.693324,1.253307,0.61721,0.297237,,,,,,,,,,,,,,,,,,,,,,,,,
1720416521,39,0,4300,4314.871582,4316.153809,4354.743652,4311.025879,4312.692383,4292.307617,4296.410156,4277.307617,4260.641113,4446.025879,4495.897461,4355.384766,4441.666504,,,,,,,,,,,,,,,,,,,,,,,,,,,,,,,,,,,,,,,,,,,,,,,,,,,,,,,,,,,,,,,,,,,,,,,,,,,,,,,,,,,,,,,,,,,,,,,
1720416521,40,0,4295.769043,4307.94873,4312.692383,4346.922852,4298.333496,4301.153809,4283.461426,4287.94873,4274.358887,4256.282227,4444.358887,4497.563965,4352.05127,4440.384766,,,,,,,,,,,,,,,,,,,,,,,,,,,,,,,,,,,,,,,,,,,,,,,,,,,,,,,,,,,,,,,,,,,,,,,,,,,,,,,,,,,,,,,,,,,,,,,
1720416521,41,0,4283.205078,4296.282227,4302.563965,4332.94873,4293.077148,4297.820313,4278.077148,4279.358887,4266.282227,4249.615234,4433.974121,4492.179688,4345.897461,4433.589844,,,,,,,,,,,,,,,,,,,,,,,,,,,,,,,,,,,,,,,,,,,,,,,,,,,,,,,,,,,,,,,,,,,,,,,,,,,,,,,,,,,,,,,,,,,,,,,
1720416521,42,0,4277.05127,4295.897461,4298.205078,4328.333496,4293.077148,4298.077148,4276.666504,4275.897461,4261.153809,4246.410156,4427.436035,4483.077148,4347.05127,4432.307617,,,,,,,,,,,,,,,,,,,,,,,,,,,,,,,,,,,,,,,,,,,,,,,,,,,,,,,,,,,,,,,,,,,,,,,,,,,,,,,,,,,,,,,,,,,,,,,
1720416521,43,0,4286.538574,4305,4303.717773,4335.512695,4296.922852,4298.589844,4280.128418,4279.358887,4271.025879,4248.846191,4437.692383,4492.307617,4352.692383,4439.102539,,,,,,,,,,,,,,,,,,,,,,,,,,,,,,,,,,,,,,,,,,,,,,,,,,,,,,,,,,,,,,,,,,,,,,,,,,,,,,,,,,,,,,,,,,,,,,,
1720416521,44,0,4297.820313,4313.589844,4311.922852,4346.922852,4306.025879,4305.384766,4285.897461,4290.769043,4283.077148,4250.897461,4450.512695,4500.641113,4359.487305,4446.410156,,,,,,,,,,,,,,,,,,,,,,,,,,,,,,,,,,,,,,,,,,,,,,,,,,,,,,,,,,,,,,,,,,,,,,,,,,,,,,,,,,,,,,,,,,,,,,,
1720416521,45,0,4293.974121,4312.05127,4314.230957,4348.717773,4308.717773,4304.871582,4284.230957,4292.820313,4280.384766,4249.102539,4449.871582,4495.897461,4362.563965,4446.282227,,,,,,,,,,,,,,,,,,,,,,,,,,,,,,,,,,,,,,,,,,,,,,,,,,,,,,,,,,,,,,,,,,,,,,,,,,,,,,,,,,,,,,,,,,,,,,,
1720416521,46,0,4285.128418,4308.717773,4309.871582,4342.179688,4303.589844,4295.512695,4280.641113,4285.769043,4277.307617,4248.717773,4443.717773,4488.846191,4360,4437.94873,,,,,,,,,,,,,,,,,,,,,,,,,,,,,,,,,,,,,,,,,,,,,,,,,,,,,,,,,,,,,,,,,,,,,,,,,,,,,,,,,,,,,,,,,,,,,,,
1720416521,47,0,4286.538574,4314.743652,4309.358887,4341.282227,4306.410156,4296.410156,4283.846191,4287.436035,4279.487305,4251.153809,4446.153809,4493.205078,4357.692383,4434.102539,,,,,,,,,,,,,,,,,,,,,,,,,,,,,,,,,,,,,,,,,,,,,,,,,,,,,,,,,,,,,,,,,,,,,,,,,,,,,,,,,,,,,,,,,,,,,,,
1720416521,48,0,4287.563965,4317.436035,4312.94873,4345.384766,4311.922852,4306.153809,4284.743652,4288.846191,4272.436035,4248.333496,4446.538574,4496.666504,4352.692383,4428.333496,,,,,,,,,,,,,,,,,,,,,,,,,,,,,,,,,,,,,,,,,,,,,,,,,,,,,,,,,,,,,,,,,,,,,,,,,,,,,,,,,,,,,,,,,,,,,,,
1720416521,49,0,4278.461426,4309.615234,4307.307617,4341.410156,4308.077148,4307.05127,4283.461426,4285,4267.436035,4246.025879,4440.641113,4490,4350.256348,4416.538574,,,,,,,,,,,,,,,,,,,,,,,,,,,,,,,,,,,,,,,,,,,,,,,,,,,,,,,,,,,,,,,,,,,,,,,,,,,,,,,,,,,,,,,,,,,,,,,
1720416521,50,0,4276.282227,4316.153809,4306.025879,4341.666504,4309.743652,4309.487305,4292.94873,4293.461426,4278.974121,4258.333496,4447.179688,4497.436035,4360.641113,4421.025879,,,,,,,,,,,,,,,,,,,,,,,,,,,,,,,,,,,,,,,,,,,,,,,,,,,,,,,,,,,,,,,,,,,,,,,,,,,,,,,,,,,,,,,,,,,,,,,
1720416521,51,0,4282.692383,4326.153809,4310.769043,4348.333496,4314.102539,4312.179688,4297.05127,4300,4286.025879,4265.512695,4453.846191,4502.692383,4367.436035,4427.307617,,,,,,,,,,,,,,,,,,,,,,,,,,,,,,,,,,,,,,,,,,,,,,,,,,,,,,,,,,,,,,,,,,,,,,,,,,,,,,,,,,,,,,,,,,,,,,,
1720416521,52,0,4276.538574,4313.589844,4306.666504,4340.641113,4309.871582,4310.384766,4291.025879,4290.641113,4276.538574,4249.615234,4441.025879,4491.410156,4357.692383,4415.256348,,,,,,,,,,,,,,,,,,,,,,,,,,,,,,,,,,,,,,,,,,,,,,,,,,,,,,,,,,,,,,,,,,,,,,,,,,,,,,,,,,,,,,,,,,,,,,,
1720416521,53,0,4271.538574,4312.436035,4309.743652,4339.358887,4310,4314.615234,4293.717773,4291.666504,4274.102539,4243.077148,4439.487305,4496.666504,4358.846191,4416.794922,,,,,,,,,,,,,,,,,,,,,,,,,,,,,,,,,,,,,,,,,,,,,,,,,,,,,,,,,,,,,,,,,,,,,,,,,,,,,,,,,,,,,,,,,,,,,,,
1720416521,54,0,4277.94873,4328.333496,4316.153809,4345.897461,4310.641113,4308.333496,4291.538574,4298.461426,4282.820313,4257.692383,4456.410156,4513.205078,4371.666504,4433.077148,2.95927,1.852452,0.623976,0.38991,0.296546,1.001742,0.577594,0.659899,0.353085,0.187672,0.818757,0.555062,0.784988,0.538744,0.2462,0.792181,0.524353,0.537179,0.462302,0.247033,0.311192,0.357322,0.237917,0.186533,0.103726,0.24342,0.597565,0.411116,0.366438,0.259804,0.347531,0.437245,0.586063,0.425668,0.21618,0.386252,0.386702,0.823309,0.367534,0.221426,0.188548,0.887393,0.97515,0.61726,0.260161,0.222393,0.918624,0.717474,0.457273,0.325844,0.924377,1.008275,1.714831,0.608762,0.212177,0.90664,0.729625,1.560736,0.536242,0.338706,0.369961,0.926462,1.092385,0.363793,0.177981,2.349467,1.338324,1.316788,0.637559,0.299943,,,,,,,,,,,,,,,,,,,,,,,,,
1720416521,55,0,4271.153809,4316.794922,4306.922852,4332.820313,4298.717773,4292.820313,4276.922852,4290.512695,4279.358887,4257.94873,4449.871582,4504.358887,4363.717773,4423.974121,,,,,,,,,,,,,,,,,,,,,,,,,,,,,,,,,,,,,,,,,,,,,,,,,,,,,,,,,,,,,,,,,,,,,,,,,,,,,,,,,,,,,,,,,,,,,,,
1720416521,56,0,4252.692383,4295,4294.615234,4318.846191,4289.230957,4293.333496,4274.615234,4286.922852,4275.384766,4244.615234,4431.538574,4490.769043,4349.871582,4402.94873,,,,,,,,,,,,,,,,,,,,,,,,,,,,,,,,,,,,,,,,,,,,,,,,,,,,,,,,,,,,,,,,,,,,,,,,,,,,,,,,,,,,,,,,,,,,,,,
1720416521,57,0,4244.358887,4298.974121,4291.153809,4323.589844,4296.666504,4304.487305,4282.436035,4292.94873,4280.769043,4246.794922,4435.384766,4495.128418,4351.025879,4402.179688,,,,,,,,,,,,,,,,,,,,,,,,,,,,,,,,,,,,,,,,,,,,,,,,,,,,,,,,,,,,,,,,,,,,,,,,,,,,,,,,,,,,,,,,,,,,,,,
1720416521,58,0,4250.897461,4308.077148,4293.589844,4325.897461,4305,4307.94873,4279.358887,4293.077148,4280.128418,4258.589844,4444.615234,4496.538574,4356.538574,4413.205078,,,,,,,,,,,,,,,,,,,,,,,,,,,,,,,,,,,,,,,,,,,,,,,,,,,,,,,,,,,,,,,,,,,,,,,,,,,,,,,,,,,,,,,,,,,,,,,
1720416521,59,0,4263.717773,4312.05127,4306.282227,4327.179688,4307.307617,4306.922852,4278.077148,4290.769043,4274.743652,4264.487305,4449.358887,4504.615234,4360.897461,4421.025879,,,,,,,,,,,,,,,,,,,,,,,,,,,,,,,,,,,,,,,,,,,,,,,,,,,,,,,,,,,,,,,,,,,,,,,,,,,,,,,,,,,,,,,,,,,,,,,
1720416521,60,0,4264.871582,4320.512695,4317.436035,4338.974121,4313.974121,4310.256348,4291.025879,4295.128418,4278.717773,4266.025879,4456.282227,4512.05127,4364.230957,4417.94873,,,,,,,,,,,,,,,,,,,,,,,,,,,,,,,,,,,,,,,,,,,,,,,,,,,,,,,,,,,,,,,,,,,,,,,,,,,,,,,,,,,,,,,,,,,,,,,
1720416521,61,0,4260.384766,4326.666504,4313.333496,4342.692383,4321.282227,4313.589844,4299.102539,4298.205078,4284.358887,4266.538574,4460.256348,4505.641113,4363.461426,4414.743652,,,,,,,,,,,,,,,,,,,,,,,,,,,,,,,,,,,,,,,,,,,,,,,,,,,,,,,,,,,,,,,,,,,,,,,,,,,,,,,,,,,,,,,,,,,,,,,
1720416521,62,0,4272.692383,4326.538574,4316.282227,4342.563965,4317.692383,4315,4295.384766,4298.077148,4282.05127,4266.153809,4458.974121,4511.794922,4364.102539,4427.05127,,,,,,,,,,,,,,,,,,,,,,,,,,,,,,,,,,,,,,,,,,,,,,,,,,,,,,,,,,,,,,,,,,,,,,,,,,,,,,,,,,,,,,,,,,,,,,,
1720416521,63,0,4284.487305,4326.922852,4327.692383,4348.717773,4309.230957,4312.307617,4291.666504,4298.461426,4278.717773,4265.769043,4459.102539,4515.641113,4366.922852,4433.974121,,,,,,,,,,,,,,,,,,,,,,,,,,,,,,,,,,,,,,,,,,,,,,,,,,,,,,,,,,,,,,,,,,,,,,,,,,,,,,,,,,,,,,,,,,,,,,,
1720416521,64,0,4277.692383,4329.871582,4326.025879,4347.563965,4314.615234,4310.384766,4293.974121,4296.153809,4279.102539,4263.589844,4457.820313,4504.743652,4365.384766,4425.641113,,,,,,,,,,,,,,,,,,,,,,,,,,,,,,,,,,,,,,,,,,,,,,,,,,,,,,,,,,,,,,,,,,,,,,,,,,,,,,,,,,,,,,,,,,,,,,,
1720416521,65,0,4265.897461,4324.487305,4312.563965,4339.487305,4323.333496,4312.692383,4292.563965,4295.641113,4282.179688,4263.333496,4452.94873,4504.358887,4360.256348,4420.897461,,,,,,,,,,,,,,,,,,,,,,,,,,,,,,,,,,,,,,,,,,,,,,,,,,,,,,,,,,,,,,,,,,,,,,,,,,,,,,,,,,,,,,,,,,,,,,,
1720416521,66,0,4260,4314.102539,4301.794922,4333.589844,4314.615234,4306.922852,4280.384766,4291.410156,4279.102539,4261.666504,4445.769043,4499.230957,4352.436035,4417.692383,,,,,,,,,,,,,,,,,,,,,,,,,,,,,,,,,,,,,,,,,,,,,,,,,,,,,,,,,,,,,,,,,,,,,,,,,,,,,,,,,,,,,,,,,,,,,,,
1720416521,67,0,4262.179688,4314.871582,4301.794922,4332.179688,4307.307617,4302.436035,4278.205078,4284.102539,4272.563965,4253.589844,4438.974121,4481.410156,4350.641113,4409.358887,,,,,,,,,,,,,,,,,,,,,,,,,,,,,,,,,,,,,,,,,,,,,,,,,,,,,,,,,,,,,,,,,,,,,,,,,,,,,,,,,,,,,,,,,,,,,,,
1720416521,68,0,4269.743652,4323.077148,4308.077148,4333.974121,4313.077148,4306.153809,4288.589844,4287.563965,4277.820313,4247.692383,4440.769043,4485.897461,4353.717773,4407.692383,,,,,,,,,,,,,,,,,,,,,,,,,,,,,,,,,,,,,,,,,,,,,,,,,,,,,,,,,,,,,,,,,,,,,,,,,,,,,,,,,,,,,,,,,,,,,,,
1720416521,69,0,4270.256348,4322.563965,4309.871582,4334.871582,4311.794922,4300.512695,4286.025879,4294.230957,4282.692383,4252.307617,4447.820313,4497.563965,4353.077148,4412.05127,,,,,,,,,,,,,,,,,,,,,,,,,,,,,,,,,,,,,,,,,,,,,,,,,,,,,,,,,,,,,,,,,,,,,,,,,,,,,,,,,,,,,,,,,,,,,,,
1720416521,70,0,4272.436035,4324.743652,4315.512695,4340.897461,4307.436035,4298.077148,4282.692383,4293.717773,4279.871582,4259.230957,4453.333496,4496.282227,4358.846191,4413.974121,2.645195,2.003719,0.685881,0.358616,0.281423,0.917489,0.697642,0.760977,0.327494,0.184191,0.909352,0.592063,0.872294,0.515889,0.242876,1.035899,0.704596,0.674014,0.474295,0.260396,0.319272,0.503688,0.24377,0.199145,0.111313,0.244452,0.675634,0.421155,0.351305,0.239916,0.481368,0.564392,0.766066,0.442509,0.219788,0.528763,0.486913,1.004658,0.351642,0.214177,0.24388,0.87588,0.894309,0.598308,0.268398,0.236854,0.869829,0.723747,0.468045,0.335544,1.021432,0.766972,1.920059,0.591771,0.22296,1.006009,0.577175,1.871977,0.51457,0.317234,0.430362,0.740661,1.181564,0.360159,0.176664,2.774092,1.083234,1.433473,0.641483,0.311196,,,,,,,,,,,,,,,,,,,,,,,,,
1720416521,71,0,4286.282227,4337.05127,4333.717773,4353.333496,4321.153809,4315,4297.05127,4297.94873,4285.641113,4264.358887,4462.179688,4505.897461,4372.436035,4416.666504,,,,,,,,,,,,,,,,,,,,,,,,,,,,,,,,,,,,,,,,,,,,,,,,,,,,,,,,,,,,,,,,,,,,,,,,,,,,,,,,,,,,,,,,,,,,,,,
1720416521,72,0,4295.384766,4338.589844,4342.692383,4355.256348,4332.563965,4323.333496,4304.871582,4311.025879,4300,4271.666504,4475.128418,4520.769043,4381.153809,4422.307617,,,,,,,,,,,,,,,,,,,,,,,,,,,,,,,,,,,,,,,,,,,,,,,,,,,,,,,,,,,,,,,,,,,,,,,,,,,,,,,,,,,,,,,,,,,,,,,
1720416521,73,0,4293.333496,4326.153809,4328.205078,4344.615234,4322.179688,4311.153809,4295.256348,4310.897461,4299.615234,4272.563965,4475.256348,4521.282227,4374.743652,4422.436035,,,,,,,,,,,,,,,,,,,,,,,,,,,,,,,,,,,,,,,,,,,,,,,,,,,,,,,,,,,,,,,,,,,,,,,,,,,,,,,,,,,,,,,,,,,,,,,
1720416521,74,0,4293.333496,4321.922852,4317.05127,4339.230957,4312.307617,4304.615234,4288.077148,4296.410156,4282.436035,4262.94873,4460,4508.974121,4364.102539,4412.436035,,,,,,,,,,,,,,,,,,,,,,,,,,,,,,,,,,,,,,,,,,,,,,,,,,,,,,,,,,,,,,,,,,,,,,,,,,,,,,,,,,,,,,,,,,,,,,,
1720416521,75,0,4301.025879,4329.743652,4326.666504,4342.94873,4323.717773,4315.384766,4293.717773,4293.333496,4275.897461,4259.358887,4456.538574,4505.769043,4368.333496,4409.102539,,,,,,,,,,,,,,,,,,,,,,,,,,,,,,,,,,,,,,,,,,,,,,,,,,,,,,,,,,,,,,,,,,,,,,,,,,,,,,,,,,,,,,,,,,,,,,,
1720416521,76,0,4301.410156,4335.512695,4337.563965,4346.282227,4333.077148,4320.769043,4298.717773,4300.256348,4281.666504,4266.666504,4464.358887,4512.94873,4376.666504,4414.358887,,,,,,,,,,,,,,,,,,,,,,,,,,,,,,,,,,,,,,,,,,,,,,,,,,,,,,,,,,,,,,,,,,,,,,,,,,,,,,,,,,,,,,,,,,,,,,,
1720416521,77,0,4287.94873,4326.794922,4326.538574,4336.538574,4313.333496,4304.358887,4280.128418,4287.563965,4273.205078,4260.769043,4452.820313,4499.615234,4364.487305,4399.743652,,,,,,,,,,,,,,,,,,,,,,,,,,,,,,,,,,,,,,,,,,,,,,,,,,,,,,,,,,,,,,,,,,,,,,,,,,,,,,,,,,,,,,,,,,,,,,,
1720416521,78,0,4279.871582,4310.769043,4306.282227,4321.410156,4296.153809,4285.384766,4257.563965,4267.436035,4255.769043,4243.717773,4434.230957,4478.974121,4349.743652,4378.846191,,,,,,,,,,,,,,,,,,,,,,,,,,,,,,,,,,,,,,,,,,,,,,,,,,,,,,,,,,,,,,,,,,,,,,,,,,,,,,,,,,,,,,,,,,,,,,,
1720416521,79,0,4293.589844,4311.666504,4310.769043,4324.615234,4308.205078,4290.769043,4268.205078,4274.615234,4261.794922,4246.666504,4441.922852,4488.077148,4357.820313,4389.358887,,,,,,,,,,,,,,,,,,,,,,,,,,,,,,,,,,,,,,,,,,,,,,,,,,,,,,,,,,,,,,,,,,,,,,,,,,,,,,,,,,,,,,,,,,,,,,,
1720416521,80,0,4311.538574,4322.05127,4328.589844,4334.487305,4317.820313,4302.307617,4284.615234,4288.333496,4277.692383,4259.871582,4458.077148,4505,4366.025879,4409.615234,,,,,,,,,,,,,,,,,,,,,,,,,,,,,,,,,,,,,,,,,,,,,,,,,,,,,,,,,,,,,,,,,,,,,,,,,,,,,,,,,,,,,,,,,,,,,,,
1720416521,81,0,4318.461426,4324.230957,4330.512695,4336.794922,4314.230957,4296.282227,4278.974121,4285.897461,4278.205078,4258.974121,4458.717773,4503.717773,4364.102539,4408.974121,,,,,,,,,,,,,,,,,,,,,,,,,,,,,,,,,,,,,,,,,,,,,,,,,,,,,,,,,,,,,,,,,,,,,,,,,,,,,,,,,,,,,,,,,,,,,,,
1720416521,82,0,4328.205078,4327.563965,4331.794922,4343.717773,4318.717773,4292.692383,4277.692383,4286.666504,4275.769043,4256.282227,4456.922852,4503.846191,4367.94873,4408.077148,,,,,,,,,,,,,,,,,,,,,,,,,,,,,,,,,,,,,,,,,,,,,,,,,,,,,,,,,,,,,,,,,,,,,,,,,,,,,,,,,,,,,,,,,,,,,,,
1720416521,83,0,4340.512695,4334.487305,4341.794922,4351.794922,4328.077148,4301.153809,4288.589844,4295,4278.717773,4264.230957,4463.717773,4510.769043,4376.922852,4417.820313,,,,,,,,,,,,,,,,,,,,,,,,,,,,,,,,,,,,,,,,,,,,,,,,,,,,,,,,,,,,,,,,,,,,,,,,,,,,,,,,,,,,,,,,,,,,,,,
1720416521,84,0,4341.538574,4336.666504,4342.820313,4352.94873,4334.358887,4310.769043,4296.025879,4298.205078,4281.922852,4269.871582,4473.205078,4513.846191,4382.820313,4420.897461,,,,,,,,,,,,,,,,,,,,,,,,,,,,,,,,,,,,,,,,,,,,,,,,,,,,,,,,,,,,,,,,,,,,,,,,,,,,,,,,,,,,,,,,,,,,,,,
1720416521,85,0,4332.179688,4334.487305,4338.846191,4349.487305,4339.615234,4313.589844,4297.436035,4295.641113,4281.282227,4268.589844,4477.820313,4515.256348,4380,4417.307617,,,,,,,,,,,,,,,,,,,,,,,,,,,,,,,,,,,,,,,,,,,,,,,,,,,,,,,,,,,,,,,,,,,,,,,,,,,,,,,,,,,,,,,,,,,,,,,
1720416521,86,0,4322.563965,4333.077148,4340,4343.846191,4332.436035,4308.461426,4293.461426,4293.846191,4277.436035,4264.358887,4472.94873,4510,4372.179688,4411.025879,2.256595,2.122733,0.83356,0.330935,0.277112,0.804739,0.851576,0.899591,0.296245,0.192223,0.966706,0.670403,0.992158,0.481167,0.244306,1.499126,0.970206,0.877539,0.512106,0.286088,0.328892,0.671198,0.275139,0.213775,0.122613,0.261075,0.716462,0.429245,0.333824,0.218953,0.67172,0.683574,0.922481,0.443434,0.221954,0.753277,0.626408,1.113104,0.328406,0.209053,0.319496,0.881178,0.776876,0.574754,0.273851,0.305648,0.82995,0.708112,0.455026,0.326922,1.120954,0.608137,2.007984,0.572354,0.243114,1.142387,0.507438,2.049672,0.478218,0.301693,0.537315,0.564682,1.220957,0.343217,0.176108,3.032971,0.907416,1.527135,0.632445,0.326455,,,,,,,,,,,,,,,,,,,,,,,,,
1720416521,87,0,4323.077148,4337.436035,4341.153809,4345.769043,4325.128418,4310.641113,4297.692383,4303.333496,4282.820313,4266.410156,4470.641113,4516.794922,4372.179688,4412.307617,,,,,,,,,,,,,,,,,,,,,,,,,,,,,,,,,,,,,,,,,,,,,,,,,,,,,,,,,,,,,,,,,,,,,,,,,,,,,,,,,,,,,,,,,,,,,,,
1720416521,88,0,4330.128418,4343.974121,4342.820313,4356.025879,4333.205078,4320.897461,4309.743652,4314.102539,4293.717773,4275.256348,4477.307617,4532.179688,4383.974121,4426.025879,,,,,,,,,,,,,,,,,,,,,,,,,,,,,,,,,,,,,,,,,,,,,,,,,,,,,,,,,,,,,,,,,,,,,,,,,,,,,,,,,,,,,,,,,,,,,,,
1720416521,89,0,4319.615234,4336.025879,4337.94873,4349.487305,4332.05127,4315.641113,4301.282227,4306.282227,4291.922852,4274.871582,4472.563965,4515.897461,4383.974121,4421.538574,,,,,,,,,,,,,,,,,,,,,,,,,,,,,,,,,,,,,,,,,,,,,,,,,,,,,,,,,,,,,,,,,,,,,,,,,,,,,,,,,,,,,,,,,,,,,,,
1720416521,90,0,4292.436035,4315.897461,4318.461426,4325.512695,4313.333496,4298.333496,4279.358887,4289.615234,4273.974121,4257.94873,4455.256348,4492.820313,4365.256348,4393.717773,,,,,,,,,,,,,,,,,,,,,,,,,,,,,,,,,,,,,,,,,,,,,,,,,,,,,,,,,,,,,,,,,,,,,,,,,,,,,,,,,,,,,,,,,,,,,,,
1720416521,91,0,4280.512695,4310.897461,4308.333496,4321.282227,4306.922852,4300.769043,4282.436035,4291.794922,4268.333496,4249.102539,4454.358887,4496.794922,4359.230957,4383.077148,,,,,,,,,,,,,,,,,,,,,,,,,,,,,,,,,,,,,,,,,,,,,,,,,,,,,,,,,,,,,,,,,,,,,,,,,,,,,,,,,,,,,,,,,,,,,,,
1720416521,92,0,4282.94873,4315.512695,4312.692383,4331.025879,4314.230957,4309.230957,4292.94873,4296.538574,4275.897461,4257.436035,4459.615234,4498.333496,4365.769043,4391.025879,,,,,,,,,,,,,,,,,,,,,,,,,,,,,,,,,,,,,,,,,,,,,,,,,,,,,,,,,,,,,,,,,,,,,,,,,,,,,,,,,,,,,,,,,,,,,,,
1720416521,93,0,4282.94873,4312.820313,4310.769043,4327.563965,4316.025879,4300.128418,4283.205078,4287.307617,4272.94873,4265,4451.666504,4489.487305,4365.641113,4387.692383,,,,,,,,,,,,,,,,,,,,,,,,,,,,,,,,,,,,,,,,,,,,,,,,,,,,,,,,,,,,,,,,,,,,,,,,,,,,,,,,,,,,,,,,,,,,,,,
1720416521,94,0,4277.436035,4308.717773,4301.666504,4317.692383,4312.307617,4290,4276.282227,4283.205078,4267.05127,4259.615234,4441.538574,4485.769043,4358.077148,4372.94873,,,,,,,,,,,,,,,,,,,,,,,,,,,,,,,,,,,,,,,,,,,,,,,,,,,,,,,,,,,,,,,,,,,,,,,,,,,,,,,,,,,,,,,,,,,,,,,
1720416521,95,0,4272.307617,4307.436035,4298.333496,4313.205078,4311.153809,4295.256348,4284.102539,4288.333496,4269.487305,4248.077148,4438.589844,4480.128418,4351.922852,4363.974121,,,,,,,,,,,,,,,,,,,,,,,,,,,,,,,,,,,,,,,,,,,,,,,,,,,,,,,,,,,,,,,,,,,,,,,,,,,,,,,,,,,,,,,,,,,,,,,
1720416521,96,0,4280.256348,4312.94873,4306.153809,4318.974121,4318.461426,4307.820313,4295.128418,4297.820313,4281.282227,4253.846191,4448.461426,4487.05127,4359.102539,4374.743652,,,,,,,,,,,,,,,,,,,,,,,,,,,,,,,,,,,,,,,,,,,,,,,,,,,,,,,,,,,,,,,,,,,,,,,,,,,,,,,,,,,,,,,,,,,,,,,
1720416521,97,0,4289.358887,4318.205078,4318.077148,4331.282227,4326.666504,4313.461426,4301.794922,4305.769043,4291.666504,4267.436035,4462.436035,4505.641113,4369.871582,4392.563965,,,,,,,,,,,,,,,,,,,,,,,,,,,,,,,,,,,,,,,,,,,,,,,,,,,,,,,,,,,,,,,,,,,,,,,,,,,,,,,,,,,,,,,,,,,,,,,
1720416521,98,0,4285.641113,4314.102539,4319.358887,4330.769043,4326.282227,4311.025879,4300.512695,4303.717773,4288.077148,4265.512695,4462.436035,4505,4365.512695,4393.974121,,,,,,,,,,,,,,,,,,,,,,,,,,,,,,,,,,,,,,,,,,,,,,,,,,,,,,,,,,,,,,,,,,,,,,,,,,,,,,,,,,,,,,,,,,,,,,,
1720416521,99,0,4281.538574,4308.717773,4313.077148,4315.256348,4323.717773,4310.384766,4295.384766,4296.922852,4279.358887,4260.769043,4455.256348,4494.743652,4358.205078,4385.641113,,,,,,,,,,,,,,,,,,,,,,,,,,,,,,,,,,,,,,,,,,,,,,,,,,,,,,,,,,,,,,,,,,,,,,,,,,,,,,,,,,,,,,,,,,,,,,,
1720416521,100,0,4280,4309.487305,4313.461426,4311.410156,4318.717773,4308.846191,4293.333496,4294.102539,4278.717773,4262.820313,4455.384766,4490.256348,4361.153809,4383.333496,,,,,,,,,,,,,,,,,,,,,,,,,,,,,,,,,,,,,,,,,,,,,,,,,,,,,,,,,,,,,,,,,,,,,,,,,,,,,,,,,,,,,,,,,,,,,,,
1720416521,101,0,4275.641113,4312.05127,4316.922852,4320.769043,4315.384766,4305.128418,4299.487305,4294.871582,4280.769043,4263.205078,4459.230957,4493.717773,4361.282227,4387.563965,,,,,,,,,,,,,,,,,,,,,,,,,,,,,,,,,,,,,,,,,,,,,,,,,,,,,,,,,,,,,,,,,,,,,,,,,,,,,,,,,,,,,,,,,,,,,,,
1720416521,102,0,4277.307617,4311.922852,4318.717773,4322.05127,4319.871582,4311.153809,4306.666504,4296.666504,4278.461426,4262.179688,4460,4500.256348,4358.077148,4393.589844,1.912471,2.180036,1.023981,0.314719,0.284684,0.677224,1.008982,1.033339,0.276203,0.212574,0.993466,0.790474,1.112803,0.447731,0.250965,2.127539,1.280183,1.087102,0.58636,0.318911,0.346451,0.831088,0.31133,0.237096,0.1373,0.290815,0.717038,0.418151,0.319357,0.20386,0.90859,0.781812,0.992639,0.429217,0.224194,1.043857,0.755308,1.092896,0.305266,0.209008,0.401935,0.890022,0.642204,0.558648,0.282192,0.399344,0.812861,0.662153,0.424958,0.307496,1.166163,0.56805,1.939925,0.554397,0.269369,1.310432,0.502284,2.029098,0.443947,0.292662,0.658069,0.435855,1.197915,0.321398,0.177184,3.04417,0.78758,1.564682,0.618514,0.342369,,,,,,,,,,,,,,,,,,,,,,,,,
1720416521,103,0,4280.512695,4312.179688,4318.846191,4316.794922,4317.563965,4309.871582,4302.820313,4297.179688,4278.846191,4264.358887,4455.769043,4497.179688,4359.871582,4397.692383,,,,,,,,,,,,,,,,,,,,,,,,,,,,,,,,,,,,,,,,,,,,,,,,,,,,,,,,,,,,,,,,,,,,,,,,,,,,,,,,,,,,,,,,,,,,,,,
1720416521,104,0,4274.615234,4309.102539,4314.230957,4310.641113,4305.384766,4296.282227,4292.94873,4292.05127,4277.179688,4261.794922,4451.025879,4490.769043,4360.384766,4395.512695,,,,,,,,,,,,,,,,,,,,,,,,,,,,,,,,,,,,,,,,,,,,,,,,,,,,,,,,,,,,,,,,,,,,,,,,,,,,,,,,,,,,,,,,,,,,,,,
1720416521,105,0,4276.666504,4309.102539,4316.922852,4313.333496,4306.922852,4298.461426,4294.743652,4293.589844,4281.666504,4263.205078,4457.436035,4496.666504,4362.820313,4398.333496,,,,,,,,,,,,,,,,,,,,,,,,,,,,,,,,,,,,,,,,,,,,,,,,,,,,,,,,,,,,,,,,,,,,,,,,,,,,,,,,,,,,,,,,,,,,,,,
1720416521,106,0,4282.820313,4311.282227,4323.717773,4318.461426,4311.666504,4308.333496,4297.307617,4298.974121,4290.641113,4265.769043,4461.153809,4498.333496,4362.179688,4400.512695,,,,,,,,,,,,,,,,,,,,,,,,,,,,,,,,,,,,,,,,,,,,,,,,,,,,,,,,,,,,,,,,,,,,,,,,,,,,,,,,,,,,,,,,,,,,,,,
1720416521,107,0,4280,4308.846191,4318.589844,4313.461426,4307.307617,4305.897461,4291.666504,4291.538574,4280.641113,4260.128418,4455.897461,4486.410156,4357.179688,4393.717773,,,,,,,,,,,,,,,,,,,,,,,,,,,,,,,,,,,,,,,,,,,,,,,,,,,,,,,,,,,,,,,,,,,,,,,,,,,,,,,,,,,,,,,,,,,,,,,
1720416521,108,0,4287.179688,4310.512695,4318.205078,4314.487305,4308.077148,4303.205078,4292.436035,4290.769043,4273.974121,4260.384766,4459.743652,4492.692383,4364.230957,4398.333496,,,,,,,,,,,,,,,,,,,,,,,,,,,,,,,,,,,,,,,,,,,,,,,,,,,,,,,,,,,,,,,,,,,,,,,,,,,,,,,,,,,,,,,,,,,,,,,
1720416521,109,0,4295.512695,4313.589844,4324.487305,4323.717773,4313.205078,4312.05127,4303.333496,4306.282227,4289.871582,4267.307617,4466.410156,4506.538574,4370.512695,4408.589844,,,,,,,,,,,,,,,,,,,,,,,,,,,,,,,,,,,,,,,,,,,,,,,,,,,,,,,,,,,,,,,,,,,,,,,,,,,,,,,,,,,,,,,,,,,,,,,
1720416521,110,0,4289.615234,4310.641113,4321.666504,4323.461426,4316.282227,4317.820313,4309.615234,4307.436035,4291.153809,4265.256348,4462.307617,4494.743652,4361.025879,4403.717773,,,,,,,,,,,,,,,,,,,,,,,,,,,,,,,,,,,,,,,,,,,,,,,,,,,,,,,,,,,,,,,,,,,,,,,,,,,,,,,,,,,,,,,,,,,,,,,
1720416521,111,0,4285,4308.077148,4315.769043,4319.487305,4318.205078,4310.897461,4303.205078,4293.846191,4274.743652,4259.871582,4457.179688,4482.436035,4356.025879,4396.282227,,,,,,,,,,,,,,,,,,,,,,,,,,,,,,,,,,,,,,,,,,,,,,,,,,,,,,,,,,,,,,,,,,,,,,,,,,,,,,,,,,,,,,,,,,,,,,,
1720416521,112,0,4289.102539,4315.641113,4319.615234,4326.282227,4319.358887,4308.589844,4304.102539,4301.025879,4285,4264.615234,4462.820313,4496.410156,4363.974121,4403.205078,,,,,,,,,,,,,,,,,,,,,,,,,,,,,,,,,,,,,,,,,,,,,,,,,,,,,,,,,,,,,,,,,,,,,,,,,,,,,,,,,,,,,,,,,,,,,,,
1720416521,113,0,4297.436035,4325.897461,4327.179688,4333.717773,4324.487305,4317.307617,4312.94873,4315,4302.692383,4270.384766,4470.384766,4512.563965,4367.94873,4415.897461,,,,,,,,,,,,,,,,,,,,,,,,,,,,,,,,,,,,,,,,,,,,,,,,,,,,,,,,,,,,,,,,,,,,,,,,,,,,,,,,,,,,,,,,,,,,,,,
1720416521,114,0,4302.05127,4322.179688,4326.025879,4330,4324.615234,4317.692383,4303.974121,4303.077148,4289.230957,4264.102539,4465.769043,4500.897461,4362.692383,4414.871582,,,,,,,,,,,,,,,,,,,,,,,,,,,,,,,,,,,,,,,,,,,,,,,,,,,,,,,,,,,,,,,,,,,,,,,,,,,,,,,,,,,,,,,,,,,,,,,
1720416521,115,0,4302.307617,4311.410156,4321.922852,4323.974121,4315.641113,4306.538574,4291.153809,4289.615234,4274.358887,4257.94873,4457.179688,4491.153809,4362.563965,4408.461426,,,,,,,,,,,,,,,,,,,,,,,,,,,,,,,,,,,,,,,,,,,,,,,,,,,,,,,,,,,,,,,,,,,,,,,,,,,,,,,,,,,,,,,,,,,,,,,
1720416521,116,0,4306.025879,4313.333496,4323.077148,4325.641113,4309.743652,4299.358887,4293.333496,4294.615234,4279.230957,4260.897461,4458.717773,4500,4364.743652,4413.205078,,,,,,,,,,,,,,,,,,,,,,,,,,,,,,,,,,,,,,,,,,,,,,,,,,,,,,,,,,,,,,,,,,,,,,,,,,,,,,,,,,,,,,,,,,,,,,,
1720416521,117,0,4310.769043,4321.538574,4323.077148,4328.461426,4308.717773,4298.461426,4293.205078,4295.128418,4281.025879,4260.256348,4457.05127,4491.794922,4355.769043,4412.436035,,,,,,,,,,,,,,,,,,,,,,,,,,,,,,,,,,,,,,,,,,,,,,,,,,,,,,,,,,,,,,,,,,,,,,,,,,,,,,,,,,,,,,,,,,,,,,,
1720416521,118,0,4321.153809,4322.94873,4323.974121,4328.205078,4313.077148,4303.333496,4295,4295.512695,4286.538574,4264.743652,4457.436035,4486.666504,4358.974121,4412.436035,1.666644,2.193387,1.225723,0.31054,0.300897,0.569124,1.148777,1.122387,0.279213,0.242675,1.00017,0.970972,1.218245,0.427579,0.26299,2.787087,1.582958,1.245621,0.682827,0.350269,0.368417,0.979766,0.33572,0.272283,0.157496,0.324445,0.717679,0.380502,0.309768,0.201171,1.160468,0.889727,0.959875,0.403185,0.230464,1.34624,0.864966,0.951696,0.287483,0.214881,0.479596,0.905699,0.523485,0.550392,0.296141,0.48858,0.837932,0.585379,0.386656,0.287564,1.130365,0.695251,1.743665,0.536995,0.297599,1.471823,0.593001,1.833073,0.419746,0.292062,0.753086,0.397285,1.12761,0.302251,0.182094,2.837497,0.750151,1.556544,0.600507,0.357406,,,,,,,,,,,,,,,,,,,,,,,,,
1720416521,119,0,4340.256348,4325.512695,4335.256348,4334.871582,4321.666504,4310.769043,4304.871582,4305.641113,4296.922852,4276.922852,4471.538574,4507.94873,4374.358887,4433.077148,,,,,,,,,,,,,,,,,,,,,,,,,,,,,,,,,,,,,,,,,,,,,,,,,,,,,,,,,,,,,,,,,,,,,,,,,,,,,,,,,,,,,,,,,,,,,,,
1720416521,120,0,4350.256348,4328.717773,4343.846191,4343.589844,4322.436035,4310.641113,4304.743652,4309.102539,4295,4274.230957,4474.871582,4513.333496,4370.128418,4445,,,,,,,,,,,,,,,,,,,,,,,,,,,,,,,,,,,,,,,,,,,,,,,,,,,,,,,,,,,,,,,,,,,,,,,,,,,,,,,,,,,,,,,,,,,,,,,
1720416521,121,0,4353.205078,4327.692383,4343.461426,4344.487305,4323.461426,4313.846191,4305.641113,4310.384766,4297.563965,4271.153809,4470.384766,4507.94873,4366.282227,4443.461426,,,,,,,,,,,,,,,,,,,,,,,,,,,,,,,,,,,,,,,,,,,,,,,,,,,,,,,,,,,,,,,,,,,,,,,,,,,,,,,,,,,,,,,,,,,,,,,
1720416521,122,0,4361.025879,4328.461426,4347.307617,4343.333496,4323.846191,4312.179688,4308.589844,4312.820313,4304.871582,4280.256348,4478.077148,4521.538574,4378.717773,4454.230957,,,,,,,,,,,,,,,,,,,,,,,,,,,,,,,,,,,,,,,,,,,,,,,,,,,,,,,,,,,,,,,,,,,,,,,,,,,,,,,,,,,,,,,,,,,,,,,
1720416521,123,0,4359.487305,4328.333496,4344.871582,4341.282227,4313.077148,4301.153809,4297.94873,4304.102539,4296.153809,4274.871582,4475.769043,4518.846191,4376.666504,4457.692383,,,,,,,,,,,,,,,,,,,,,,,,,,,,,,,,,,,,,,,,,,,,,,,,,,,,,,,,,,,,,,,,,,,,,,,,,,,,,,,,,,,,,,,,,,,,,,,
1720416521,124,0,4351.538574,4323.846191,4338.461426,4338.974121,4313.589844,4305.769043,4294.102539,4299.487305,4287.563965,4260.641113,4462.563965,4503.333496,4364.230957,4446.922852,,,,,,,,,,,,,,,,,,,,,,,,,,,,,,,,,,,,,,,,,,,,,,,,,,,,,,,,,,,,,,,,,,,,,,,,,,,,,,,,,,,,,,,,,,,,,,,
1720416521,125,0,4357.436035,4323.589844,4343.974121,4339.102539,4320.641113,4311.282227,4299.230957,4302.820313,4286.666504,4259.871582,4461.922852,4510.128418,4363.846191,4445.512695,,,,,,,,,,,,,,,,,,,,,,,,,,,,,,,,,,,,,,,,,,,,,,,,,,,,,,,,,,,,,,,,,,,,,,,,,,,,,,,,,,,,,,,,,,,,,,,
1720416521,126,0,4368.461426,4329.615234,4355.897461,4343.717773,4314.871582,4314.487305,4306.538574,4310,4288.333496,4264.487305,4471.153809,4522.820313,4368.717773,4453.205078,,,,,,,,,,,,,,,,,,,,,,,,,,,,,,,,,,,,,,,,,,,,,,,,,,,,,,,,,,,,,,,,,,,,,,,,,,,,,,,,,,,,,,,,,,,,,,,
1720416521,127,0,4376.025879,4335.769043,4366.153809,4354.487305,4318.846191,4330.256348,4322.820313,4322.307617,4295.384766,4269.487305,4478.333496,4531.794922,4373.589844,4465.769043,,,,,,,,,,,,,,,,,,,,,,,,,,,,,,,,,,,,,,,,,,,,,,,,,,,,,,,,,,,,,,,,,,,,,,,,,,,,,,,,,,,,,,,,,,,,,,,
1720416521,0,0,4383.589844,4340.384766,4371.282227,4360.897461,4329.230957,4326.794922,4327.179688,4323.717773,4298.205078,4276.666504,4480.256348,4535.384766,4376.153809,4472.94873,,,,,,,,,,,,,,,,,,,,,,,,,,,,,,,,,,,,,,,,,,,,,,,,,,,,,,,,,,,,,,,,,,,,,,,,,,,,,,,,,,,,,,,,,,,,,,,
1720416521,1,0,4387.307617,4339.871582,4372.05127,4354.358887,4326.410156,4308.589844,4313.846191,4316.666504,4295.769043,4276.410156,4478.974121,4534.102539,4376.794922,4472.692383,,,,,,,,,,,,,,,,,,,,,,,,,,,,,,,,,,,,,,,,,,,,,,,,,,,,,,,,,,,,,,,,,,,,,,,,,,,,,,,,,,,,,,,,,,,,,,,
1720416521,2,0,4381.153809,4331.153809,4363.589844,4342.179688,4319.871582,4314.230957,4310.128418,4316.794922,4297.307617,4270.512695,4480.256348,4531.282227,4377.94873,4469.358887,,,,,,,,,,,,,,,,,,,,,,,,,,,,,,,,,,,,,,,,,,,,,,,,,,,,,,,,,,,,,,,,,,,,,,,,,,,,,,,,,,,,,,,,,,,,,,,
1720416521,3,0,4366.794922,4322.94873,4350.256348,4336.666504,4316.282227,4318.461426,4308.846191,4311.153809,4292.307617,4263.589844,4472.179688,4520.641113,4369.871582,4458.974121,,,,,,,,,,,,,,,,,,,,,,,,,,,,,,,,,,,,,,,,,,,,,,,,,,,,,,,,,,,,,,,,,,,,,,,,,,,,,,,,,,,,,,,,,,,,,,,
1720416521,4,0,4362.692383,4326.282227,4350.256348,4341.538574,4316.153809,4306.922852,4304.487305,4304.871582,4289.615234,4265.256348,4466.025879,4513.461426,4368.461426,4455,,,,,,,,,,,,,,,,,,,,,,,,,,,,,,,,,,,,,,,,,,,,,,,,,,,,,,,,,,,,,,,,,,,,,,,,,,,,,,,,,,,,,,,,,,,,,,,
1720416521,5,0,4362.692383,4327.563965,4348.717773,4340,4316.025879,4308.205078,4303.974121,4306.538574,4293.846191,4272.563965,4469.487305,4513.589844,4370.384766,4454.358887,,,,,,,,,,,,,,,,,,,,,,,,,,,,,,,,,,,,,,,,,,,,,,,,,,,,,,,,,,,,,,,,,,,,,,,,,,,,,,,,,,,,,,,,,,,,,,,
1720416521,6,0,4356.794922,4322.436035,4342.05127,4331.922852,4309.615234,4311.794922,4302.436035,4300.512695,4287.692383,4271.666504,4466.794922,4511.410156,4364.871582,4450,1.619328,2.226421,1.413026,0.316355,0.319989,0.520093,1.262079,1.142497,0.306028,0.275506,1.028627,1.230601,1.301506,0.423711,0.279051,3.305332,1.835087,1.317151,0.767771,0.371516,0.413887,1.143589,0.337718,0.314048,0.185989,0.359904,0.779686,0.320879,0.303413,0.215031,1.378407,1.060991,0.848248,0.369738,0.245843,1.590404,0.980673,0.748549,0.276508,0.226194,0.545125,0.940936,0.451349,0.540468,0.314561,0.55597,0.916017,0.488748,0.347677,0.275225,1.035369,1.018945,1.49649,0.515226,0.323525,1.604679,0.834244,1.555087,0.404169,0.302344,0.805734,0.472714,1.040253,0.288619,0.193235,2.506835,0.829594,1.539109,0.575311,0.372714,,,,,,,,,,,,,,,,,,,,,,,,,
1720416521,7,0,4360.641113,4330.769043,4356.538574,4342.94873,4313.589844,4311.666504,4306.538574,4302.692383,4289.871582,4274.358887,4475.641113,4518.077148,4374.615234,4458.974121,,,,,,,,,,,,,,,,,,,,,,,,,,,,,,,,,,,,,,,,,,,,,,,,,,,,,,,,,,,,,,,,,,,,,,,,,,,,,,,,,,,,,,,,,,,,,,,
1720416521,8,0,4366.538574,4345.256348,4373.333496,4361.538574,4329.102539,4322.563965,4320.641113,4323.205078,4304.615234,4284.487305,4495.769043,4533.589844,4388.205078,4472.179688,,,,,,,,,,,,,,,,,,,,,,,,,,,,,,,,,,,,,,,,,,,,,,,,,,,,,,,,,,,,,,,,,,,,,,,,,,,,,,,,,,,,,,,,,,,,,,,
