Timestamp,EEG.Counter,EEG.Interpolated,EEG.AF3,EEG.F7,EEG.F3,EEG.FC5,EEG.T7,EEG.P7,EEG.O1,EEG.O2,EEG.P8,EEG.T8,EEG.FC6,EEG.F4,EEG.F8,EEG.AF4,POW.AF3.Theta,POW.AF3.Alpha,POW.AF3.BetaL,POW.AF3.BetaH,POW.AF3.Gamma,POW.F7.Theta,POW.F7.Alpha,POW.F7.BetaL,POW.F7.BetaH,POW.F7.Gamma,POW.F3.Theta,POW.F3.Alpha,POW.F3.BetaL,POW.F3.BetaH,POW.F3.Gamma,POW.FC5.Theta,POW.FC5.Alpha,POW.FC5.BetaL,POW.FC5.BetaH,POW.FC5.Gamma,POW.T7.Theta,POW.T7.Alpha,POW.T7.BetaL,POW.T7.BetaH,POW.T7.Gamma,POW.P7.Theta,POW.P7.Alpha,POW.P7.BetaL,POW.P7.BetaH,POW.P7.Gamma,POW.O1.Theta,POW.O1.Alpha,POW.O1.BetaL,POW.O1.BetaH,POW.O1.Gamma,POW.O2.Theta,POW.O2.Alpha,POW.O2.BetaL,POW.O2.BetaH,POW.O2.Gamma,POW.P8.Theta,POW.P8.Alpha,POW.P8.BetaL,POW.P8.BetaH,POW.P8.Gamma,POW.T8.Theta,POW.T8.Alpha,POW.T8.BetaL,POW.T8.BetaH,POW.T8.Gamma,POW.FC6.Theta,POW.FC6.Alpha,POW.FC6.BetaL,POW.FC6.BetaH,POW.FC6.Gamma,POW.F4.Theta,POW.F4.Alpha,POW.F4.BetaL,POW.F4.BetaH,POW.F4.Gamma,POW.F8.Theta,POW.F8.Alpha,POW.F8.BetaL,POW.F8.BetaH,POW.F8.Gamma,POW.AF4.Theta,POW.AF4.Alpha,POW.AF4.BetaL,POW.AF4.BetaH,POW.AF4.Gamma
1720178085,116,0,4338.974121,4323.589844,4341.922852,4346.922852,4315,4316.538574,4321.666504,4303.205078,4281.153809,4262.307617,4432.436035,4486.666504,4361.410156,4396.922852,,,,,,,,,,,,,,,,,,,,,,,,,,,,,,,,,,,,,,,,,,,,,,,,,,,,,,,,,,,,,,,,,,,,,,
1720178085,117,0,4324.358887,4326.538574,4333.461426,4343.333496,4310.897461,4319.615234,4324.102539,4314.743652,4287.563965,4272.436035,4446.666504,4483.974121,4369.358887,4398.461426,,,,,,,,,,,,,,,,,,,,,,,,,,,,,,,,,,,,,,,,,,,,,,,,,,,,,,,,,,,,,,,,,,,,,,
1720178085,118,0,4305.641113,4326.666504,4323.333496,4328.846191,4312.307617,4316.794922,4328.461426,4320.256348,4304.102539,4282.307617,4426.153809,4478.205078,4360,4385.641113,,,,,,,,,,,,,,,,,,,,,,,,,,,,,,,,,,,,,,,,,,,,,,,,,,,,,,,,,,,,,,,,,,,,,,
1720178085,119,0,4315.384766,4321.538574,4330.512695,4323.077148,4313.974121,4318.846191,4326.794922,4318.589844,4311.794922,4283.205078,4416.794922,4482.692383,4350,4382.436035,14.003451,15.274132,3.916934,2.572136,0.64083,5.997991,7.743246,2.34473,1.781493,0.457391,6.57791,10.219041,3.184903,2.467004,0.521007,4.497398,5.80184,1.600815,1.72989,0.593904,2.128018,3.821096,0.904222,1.684981,0.238535,0.289617,1.46265,0.07573,0.150237,0.083606,2.676972,4.185479,1.560271,1.332991,0.240917,2.415731,3.838505,1.765432,0.870692,0.192723,2.693523,4.840796,1.261584,1.241444,0.132616,2.312197,1.87286,1.013487,0.675643,0.197605,2.865618,3.369282,1.103755,0.771778,0.723427,7.029057,8.018457,2.845792,1.969847,0.450194,5.680835,8.901912,1.373306,1.025924,0.344671,5.51745,9.842482,2.261687,1.176949,0.472383
1720178085,120,0,4325.128418,4325.769043,4330.384766,4332.05127,4312.94873,4314.102539,4315.897461,4313.077148,4305.641113,4281.538574,4429.871582,4481.666504,4357.436035,4391.282227,,,,,,,,,,,,,,,,,,,,,,,,,,,,,,,,,,,,,,,,,,,,,,,,,,,,,,,,,,,,,,,,,,,,,,
1720178085,121,0,4312.436035,4328.461426,4319.358887,4339.358887,4311.153809,4310.641113,4308.205078,4308.846191,4297.05127,4278.077148,4437.94873,4480.128418,4369.230957,4396.922852,,,,,,,,,,,,,,,,,,,,,,,,,,,,,,,,,,,,,,,,,,,,,,,,,,,,,,,,,,,,,,,,,,,,,,
1720178085,122,0,4307.307617,4321.282227,4322.307617,4340.769043,4312.179688,4314.358887,4308.589844,4307.307617,4294.615234,4276.794922,4435.256348,4486.410156,4367.820313,4404.358887,,,,,,,,,,,,,,,,,,,,,,,,,,,,,,,,,,,,,,,,,,,,,,,,,,,,,,,,,,,,,,,,,,,,,,
1720178085,123,0,4313.077148,4323.461426,4325.384766,4339.615234,4313.333496,4312.563965,4306.538574,4303.077148,4295.769043,4283.717773,4421.666504,4480.128418,4359.615234,4405.641113,,,,,,,,,,,,,,,,,,,,,,,,,,,,,,,,,,,,,,,,,,,,,,,,,,,,,,,,,,,,,,,,,,,,,,
1720178085,124,0,4308.077148,4324.102539,4319.871582,4327.692383,4311.282227,4309.102539,4297.436035,4296.538574,4298.077148,4283.077148,4420.512695,4472.05127,4363.205078,4402.94873,,,,,,,,,,,,,,,,,,,,,,,,,,,,,,,,,,,,,,,,,,,,,,,,,,,,,,,,,,,,,,,,,,,,,,
1720178085,125,0,4311.410156,4313.461426,4334.615234,4328.077148,4308.589844,4310.256348,4295.512695,4295.769043,4302.94873,4276.282227,4432.179688,4480.641113,4372.820313,4405.128418,,,,,,,,,,,,,,,,,,,,,,,,,,,,,,,,,,,,,,,,,,,,,,,,,,,,,,,,,,,,,,,,,,,,,,
1720178085,126,0,4332.179688,4317.307617,4350.128418,4348.846191,4308.333496,4312.820313,4302.179688,4298.846191,4300.897461,4282.436035,4428.461426,4489.230957,4368.589844,4402.563965,,,,,,,,,,,,,,,,,,,,,,,,,,,,,,,,,,,,,,,,,,,,,,,,,,,,,,,,,,,,,,,,,,,,,,
1720178085,127,0,4336.538574,4333.974121,4341.794922,4352.307617,4311.282227,4314.871582,4308.077148,4302.563965,4291.922852,4280.256348,4431.922852,4490.897461,4367.692383,4407.05127,,,,,,,,,,,,,,,,,,,,,,,,,,,,,,,,,,,,,,,,,,,,,,,,,,,,,,,,,,,,,,,,,,,,,,
1720178085,0,0,4327.05127,4338.333496,4341.794922,4343.717773,4318.077148,4314.871582,4317.179688,4307.05127,4290.384766,4263.717773,4449.102539,4496.922852,4374.230957,4422.436035,,,,,,,,,,,,,,,,,,,,,,,,,,,,,,,,,,,,,,,,,,,,,,,,,,,,,,,,,,,,,,,,,,,,,,
1720178085,1,0,4327.307617,4326.922852,4352.563965,4340.769043,4322.436035,4313.589844,4328.461426,4312.820313,4293.846191,4267.05127,4442.820313,4501.410156,4369.743652,4419.230957,,,,,,,,,,,,,,,,,,,,,,,,,,,,,,,,,,,,,,,,,,,,,,,,,,,,,,,,,,,,,,,,,,,,,,
1720178085,2,0,4317.94873,4314.615234,4341.410156,4333.461426,4318.077148,4322.563965,4331.410156,4318.717773,4293.077148,4284.358887,4431.025879,4497.436035,4356.282227,4404.487305,,,,,,,,,,,,,,,,,,,,,,,,,,,,,,,,,,,,,,,,,,,,,,,,,,,,,,,,,,,,,,,,,,,,,,
1720178085,3,0,4299.871582,4313.077148,4321.538574,4325.512695,4314.358887,4321.666504,4325.897461,4321.538574,4292.692383,4276.153809,4433.589844,4486.922852,4347.820313,4396.794922,,,,,,,,,,,,,,,,,,,,,,,,,,,,,,,,,,,,,,,,,,,,,,,,,,,,,,,,,,,,,,,,,,,,,,
1720178085,4,0,4296.666504,4307.436035,4321.410156,4323.205078,4313.846191,4308.717773,4318.589844,4314.487305,4295.512695,4265.256348,4429.487305,4472.820313,4344.743652,4391.538574,,,,,,,,,,,,,,,,,,,,,,,,,,,,,,,,,,,,,,,,,,,,,,,,,,,,,,,,,,,,,,,,,,,,,,
1720178085,5,0,4300,4294.743652,4326.282227,4319.230957,4309.358887,4314.358887,4308.333496,4303.333496,4297.05127,4273.077148,4423.461426,4471.666504,4348.589844,4402.436035,,,,,,,,,,,,,,,,,,,,,,,,,,,,,,,,,,,,,,,,,,,,,,,,,,,,,,,,,,,,,,,,,,,,,,
1720178085,6,0,4300.512695,4299.102539,4317.05127,4321.282227,4305.641113,4316.025879,4298.077148,4296.922852,4296.794922,4273.846191,4416.282227,4474.615234,4352.563965,4409.230957,,,,,,,,,,,,,,,,,,,,,,,,,,,,,,,,,,,,,,,,,,,,,,,,,,,,,,,,,,,,,,,,,,,,,,
1720178085,7,0,4303.077148,4307.436035,4310.128418,4328.589844,4305.641113,4305.769043,4292.436035,4290.641113,4296.282227,4270,4417.692383,4465.256348,4348.589844,4396.410156,32.146137,20.171427,5.101613,2.551633,0.732124,6.421685,7.943231,2.426636,1.808723,0.48779,6.637295,11.199088,3.34698,2.2035,0.539441,4.79582,6.588096,1.677472,1.774218,0.577743,2.393879,3.563015,0.894351,1.769125,0.223241,0.312508,1.528123,0.096483,0.167569,0.085203,2.728826,4.693137,1.381673,1.292365,0.248909,2.297866,3.843055,1.529638,0.895723,0.196253,2.286221,4.543741,1.150401,1.14832,0.138707,2.637251,1.998505,1.115209,0.68792,0.175299,3.124298,3.592419,1.033216,0.789283,0.755761,7.673328,8.860229,2.720087,1.863131,0.459331,6.585539,8.791872,1.369372,0.97543,0.33989,7.065126,9.679409,2.152218,1.113014,0.465677
1720178085,8,0,4302.563965,4298.333496,4322.563965,4325.512695,4303.589844,4306.153809,4288.461426,4282.436035,4292.820313,4271.538574,4434.102539,4457.563965,4347.692383,4387.94873,,,,,,,,,,,,,,,,,,,,,,,,,,,,,,,,,,,,,,,,,,,,,,,,,,,,,,,,,,,,,,,,,,,,,,
1720178085,9,0,4297.820313,4300.897461,4330.256348,4318.205078,4305.384766,4307.436035,4283.846191,4278.333496,4286.153809,4275.897461,4430.512695,4460.769043,4351.153809,4383.461426,,,,,,,,,,,,,,,,,,,,,,,,,,,,,,,,,,,,,,,,,,,,,,,,,,,,,,,,,,,,,,,,,,,,,,
1720178085,10,0,4304.615234,4321.153809,4323.461426,4324.358887,4309.102539,4308.077148,4285.641113,4283.974121,4281.282227,4284.871582,4416.794922,4468.589844,4350.641113,4386.153809,,,,,,,,,,,,,,,,,,,,,,,,,,,,,,,,,,,,,,,,,,,,,,,,,,,,,,,,,,,,,,,,,,,,,,
1720178085,11,0,4314.102539,4322.820313,4328.461426,4342.436035,4303.589844,4312.05127,4299.358887,4292.94873,4280,4280.384766,4423.077148,4473.461426,4356.922852,4401.410156,,,,,,,,,,,,,,,,,,,,,,,,,,,,,,,,,,,,,,,,,,,,,,,,,,,,,,,,,,,,,,,,,,,,,,
1720178085,12,0,4310.256348,4310.897461,4341.666504,4352.307617,4303.205078,4311.538574,4312.436035,4298.846191,4278.717773,4272.05127,4433.461426,4481.922852,4365.769043,4409.743652,,,,,,,,,,,,,,,,,,,,,,,,,,,,,,,,,,,,,,,,,,,,,,,,,,,,,,,,,,,,,,,,,,,,,,
1720178085,13,0,4307.820313,4313.846191,4342.692383,4342.307617,4319.230957,4317.179688,4319.743652,4305.128418,4279.102539,4287.94873,4440.769043,4488.974121,4366.025879,4404.487305,,,,,,,,,,,,,,,,,,,,,,,,,,,,,,,,,,,,,,,,,,,,,,,,,,,,,,,,,,,,,,,,,,,,,,
1720178085,14,0,4316.922852,4323.974121,4342.436035,4338.333496,4328.333496,4326.282227,4332.307617,4314.230957,4286.666504,4302.05127,4446.282227,4493.333496,4368.717773,4405.641113,,,,,,,,,,,,,,,,,,,,,,,,,,,,,,,,,,,,,,,,,,,,,,,,,,,,,,,,,,,,,,,,,,,,,,
1720178085,15,0,4313.846191,4320,4344.871582,4342.307617,4325.641113,4318.461426,4341.922852,4323.333496,4293.974121,4291.794922,4445.641113,4496.410156,4372.692383,4411.794922,,,,,,,,,,,,,,,,,,,,,,,,,,,,,,,,,,,,,,,,,,,,,,,,,,,,,,,,,,,,,,,,,,,,,,
1720178085,16,0,4299.615234,4310.512695,4333.846191,4335.256348,4326.282227,4316.666504,4335,4322.692383,4294.615234,4288.333496,4441.538574,4494.871582,4367.692383,4402.94873,,,,,,,,,,,,,,,,,,,,,,,,,,,,,,,,,,,,,,,,,,,,,,,,,,,,,,,,,,,,,,,,,,,,,,
1720178085,17,0,4299.487305,4310.641113,4323.589844,4330,4324.102539,4322.436035,4322.563965,4315.897461,4296.922852,4294.615234,4433.846191,4489.487305,4359.871582,4394.743652,,,,,,,,,,,,,,,,,,,,,,,,,,,,,,,,,,,,,,,,,,,,,,,,,,,,,,,,,,,,,,,,,,,,,,
1720178085,18,0,4299.743652,4306.794922,4326.538574,4331.666504,4319.487305,4313.205078,4314.487305,4309.102539,4299.615234,4295.384766,4430.769043,4473.717773,4353.205078,4396.666504,,,,,,,,,,,,,,,,,,,,,,,,,,,,,,,,,,,,,,,,,,,,,,,,,,,,,,,,,,,,,,,,,,,,,,
1720178085,19,0,4288.333496,4299.871582,4318.205078,4326.794922,4318.077148,4308.461426,4306.538574,4302.94873,4295.128418,4294.871582,4438.077148,4460.769043,4352.436035,4393.589844,,,,,,,,,,,,,,,,,,,,,,,,,,,,,,,,,,,,,,,,,,,,,,,,,,,,,,,,,,,,,,,,,,,,,,
1720178085,20,0,4286.538574,4305.384766,4304.615234,4327.563965,4313.205078,4310.641113,4296.794922,4295,4293.333496,4295.256348,4436.538574,4461.666504,4355.256348,4385.128418,,,,,,,,,,,,,,,,,,,,,,,,,,,,,,,,,,,,,,,,,,,,,,,,,,,,,,,,,,,,,,,,,,,,,,
1720178085,21,0,4298.333496,4313.846191,4314.102539,4339.615234,4308.846191,4306.922852,4289.615234,4290.769043,4296.153809,4288.333496,4427.563965,4464.743652,4355.769043,4385.512695,,,,,,,,,,,,,,,,,,,,,,,,,,,,,,,,,,,,,,,,,,,,,,,,,,,,,,,,,,,,,,,,,,,,,,
1720178085,22,0,4307.820313,4318.461426,4330,4340.512695,4313.717773,4305.128418,4289.615234,4291.538574,4288.974121,4277.05127,4435.256348,4465.641113,4359.615234,4396.025879,,,,,,,,,,,,,,,,,,,,,,,,,,,,,,,,,,,,,,,,,,,,,,,,,,,,,,,,,,,,,,,,,,,,,,
1720178085,23,0,4309.615234,4323.461426,4331.410156,4338.461426,4322.692383,4309.487305,4296.025879,4290.641113,4278.846191,4283.461426,4445.897461,4467.820313,4368.717773,4401.025879,60.650776,27.118826,6.817817,2.404234,0.821488,6.543646,7.745383,2.387299,1.761611,0.511531,6.357102,11.271531,3.497934,1.88196,0.554282,4.857303,6.892143,1.739579,1.873276,0.570963,2.578748,3.265321,0.899309,1.71598,0.210505,0.324727,1.488366,0.119675,0.179721,0.083757,2.720421,5.37893,1.38431,1.198376,0.245602,2.149889,4.299695,1.43015,0.889237,0.194991,2.006569,4.301402,1.09364,1.042406,0.143635,2.854877,1.982494,1.111621,0.690836,0.16367,3.206359,3.48152,0.910795,0.788345,0.735687,7.943178,8.931371,2.671776,1.787762,0.47512,7.188715,8.085904,1.367153,0.955171,0.339776,8.858685,8.785028,2.029158,1.060048,0.466137
1720178085,24,0,4304.615234,4321.538574,4335.641113,4348.461426,4322.820313,4317.436035,4307.94873,4294.230957,4279.615234,4299.487305,4441.410156,4470.897461,4367.820313,4397.05127,,,,,,,,,,,,,,,,,,,,,,,,,,,,,,,,,,,,,,,,,,,,,,,,,,,,,,,,,,,,,,,,,,,,,,
1720178085,25,0,4300.384766,4316.666504,4346.666504,4347.820313,4319.358887,4320.384766,4321.922852,4306.922852,4288.974121,4298.974121,4434.871582,4480.512695,4357.05127,4397.179688,,,,,,,,,,,,,,,,,,,,,,,,,,,,,,,,,,,,,,,,,,,,,,,,,,,,,,,,,,,,,,,,,,,,,,
1720178085,26,0,4305.897461,4318.974121,4345.897461,4338.717773,4321.538574,4315.641113,4329.487305,4319.358887,4301.153809,4292.05127,4443.077148,4493.333496,4365.897461,4404.487305,,,,,,,,,,,,,,,,,,,,,,,,,,,,,,,,,,,,,,,,,,,,,,,,,,,,,,,,,,,,,,,,,,,,,,
1720178085,27,0,4314.615234,4324.615234,4339.358887,4344.230957,4323.333496,4314.743652,4330.897461,4319.871582,4308.589844,4303.205078,4460.256348,4498.717773,4383.461426,4412.05127,,,,,,,,,,,,,,,,,,,,,,,,,,,,,,,,,,,,,,,,,,,,,,,,,,,,,,,,,,,,,,,,,,,,,,
1720178085,28,0,4321.794922,4325.769043,4345.128418,4354.615234,4325.128418,4320.512695,4328.846191,4313.205078,4302.05127,4311.153809,4459.743652,4506.538574,4381.794922,4419.487305,,,,,,,,,,,,,,,,,,,,,,,,,,,,,,,,,,,,,,,,,,,,,,,,,,,,,,,,,,,,,,,,,,,,,,
1720178085,29,0,4328.077148,4326.282227,4360.256348,4356.538574,4326.410156,4315.384766,4314.102539,4305.128418,4291.922852,4300.384766,4446.282227,4508.461426,4380.897461,4426.922852,,,,,,,,,,,,,,,,,,,,,,,,,,,,,,,,,,,,,,,,,,,,,,,,,,,,,,,,,,,,,,,,,,,,,,
1720178085,30,0,4330.256348,4329.102539,4361.410156,4358.333496,4318.077148,4310.769043,4298.461426,4296.794922,4290.512695,4301.666504,4451.410156,4498.846191,4390.641113,4431.410156,,,,,,,,,,,,,,,,,,,,,,,,,,,,,,,,,,,,,,,,,,,,,,,,,,,,,,,,,,,,,,,,,,,,,,
1720178085,31,0,4330.256348,4323.717773,4347.94873,4349.487305,4312.563965,4319.358887,4298.974121,4293.077148,4284.358887,4302.307617,4464.871582,4495.897461,4393.077148,4438.974121,,,,,,,,,,,,,,,,,,,,,,,,,,,,,,,,,,,,,,,,,,,,,,,,,,,,,,,,,,,,,,,,,,,,,,
1720178085,32,0,4326.025879,4310.128418,4343.589844,4337.692383,4323.589844,4318.974121,4305.128418,4294.102539,4275.128418,4294.230957,4457.05127,4491.922852,4398.333496,4447.94873,,,,,,,,,,,,,,,,,,,,,,,,,,,,,,,,,,,,,,,,,,,,,,,,,,,,,,,,,,,,,,,,,,,,,,
1720178085,33,0,4315.641113,4306.282227,4342.94873,4340.769043,4329.743652,4314.487305,4305.641113,4299.743652,4284.358887,4307.692383,4460,4486.282227,4411.282227,4448.846191,,,,,,,,,,,,,,,,,,,,,,,,,,,,,,,,,,,,,,,,,,,,,,,,,,,,,,,,,,,,,,,,,,,,,,
1720178086,34,0,4316.153809,4312.820313,4330.128418,4335.641113,4321.922852,4313.205078,4301.794922,4302.692383,4301.153809,4320.256348,4465.256348,4480.897461,4405,4443.717773,,,,,,,,,,,,,,,,,,,,,,,,,,,,,,,,,,,,,,,,,,,,,,,,,,,,,,,,,,,,,,,,,,,,,,
1720178086,35,0,4329.102539,4310,4317.94873,4321.410156,4316.538574,4309.230957,4294.871582,4295.897461,4303.846191,4310.256348,4453.846191,4470.256348,4397.179688,4450.512695,,,,,,,,,,,,,,,,,,,,,,,,,,,,,,,,,,,,,,,,,,,,,,,,,,,,,,,,,,,,,,,,,,,,,,
1720178086,36,0,4332.436035,4300.128418,4318.461426,4322.692383,4311.666504,4306.025879,4292.94873,4292.436035,4304.230957,4310,4455.256348,4470,4407.94873,4459.230957,,,,,,,,,,,,,,,,,,,,,,,,,,,,,,,,,,,,,,,,,,,,,,,,,,,,,,,,,,,,,,,,,,,,,,
1720178086,37,0,4328.846191,4299.871582,4329.743652,4328.333496,4307.94873,4307.436035,4300.897461,4303.846191,4308.461426,4324.487305,4471.153809,4488.974121,4416.794922,4457.307617,,,,,,,,,,,,,,,,,,,,,,,,,,,,,,,,,,,,,,,,,,,,,,,,,,,,,,,,,,,,,,,,,,,,,,
1720178086,38,0,4332.436035,4295,4344.487305,4322.563965,4309.615234,4315.256348,4312.692383,4317.436035,4301.666504,4323.717773,4485.256348,4508.333496,4426.666504,4469.358887,,,,,,,,,,,,,,,,,,,,,,,,,,,,,,,,,,,,,,,,,,,,,,,,,,,,,,,,,,,,,,,,,,,,,,
1720178086,39,0,4331.922852,4296.025879,4348.333496,4328.846191,4307.94873,4319.358887,4323.077148,4318.974121,4290.641113,4316.538574,4476.922852,4514.487305,4433.077148,4481.538574,93.883102,34.596737,8.676298,2.200493,0.885723,6.340365,7.232503,2.303746,1.663996,0.521335,5.700289,10.367111,3.568105,1.582429,0.555413,4.60316,6.649062,1.833173,2.060203,0.572778,2.625701,2.904633,0.940143,1.553539,0.203142,0.318534,1.339454,0.148063,0.189124,0.080715,2.641533,6.163589,1.574301,1.101633,0.22942,1.983452,5.185246,1.463643,0.862782,0.188427,1.901644,4.136562,1.052548,0.964355,0.144094,2.90394,1.902181,1.004798,0.694142,0.166504,3.103738,3.12584,0.761035,0.76633,0.671767,7.797376,8.284984,2.601262,1.767006,0.486597,7.313032,7.073594,1.311558,0.976144,0.33977,10.4117,7.389722,1.84628,1.02734,0.465542
1720178086,40,0,4330.384766,4311.666504,4342.692383,4341.666504,4310.384766,4317.307617,4329.487305,4315.384766,4289.358887,4317.820313,4461.282227,4514.102539,4427.563965,4474.102539,,,,,,,,,,,,,,,,,,,,,,,,,,,,,,,,,,,,,,,,,,,,,,,,,,,,,,,,,,,,,,,,,,,,,,
1720178086,41,0,4334.615234,4309.871582,4342.436035,4339.743652,4320.769043,4321.410156,4328.333496,4317.05127,4292.820313,4323.461426,4472.307617,4514.230957,4430.384766,4474.615234,,,,,,,,,,,,,,,,,,,,,,,,,,,,,,,,,,,,,,,,,,,,,,,,,,,,,,,,,,,,,,,,,,,,,,
1720178086,42,0,4334.102539,4293.717773,4343.846191,4336.538574,4325.128418,4324.615234,4322.05127,4317.563965,4293.846191,4326.410156,4487.94873,4511.666504,4434.871582,4481.410156,,,,,,,,,,,,,,,,,,,,,,,,,,,,,,,,,,,,,,,,,,,,,,,,,,,,,,,,,,,,,,,,,,,,,,
1720178086,43,0,4337.436035,4302.692383,4344.615234,4340.897461,4325.641113,4317.692383,4313.846191,4311.025879,4292.307617,4330.897461,4484.743652,4508.974121,4431.538574,4478.461426,,,,,,,,,,,,,,,,,,,,,,,,,,,,,,,,,,,,,,,,,,,,,,,,,,,,,,,,,,,,,,,,,,,,,,
1720178086,44,0,4338.974121,4320.769043,4346.025879,4347.179688,4331.153809,4319.358887,4305.256348,4306.538574,4288.589844,4333.846191,4477.307617,4512.05127,4438.846191,4485.512695,,,,,,,,,,,,,,,,,,,,,,,,,,,,,,,,,,,,,,,,,,,,,,,,,,,,,,,,,,,,,,,,,,,,,,
1720178086,45,0,4330.384766,4307.05127,4341.410156,4343.077148,4333.589844,4321.025879,4297.179688,4305.128418,4287.94873,4327.436035,4481.282227,4510.128418,4444.743652,4483.461426,,,,,,,,,,,,,,,,,,,,,,,,,,,,,,,,,,,,,,,,,,,,,,,,,,,,,,,,,,,,,,,,,,,,,,
1720178086,46,0,4326.666504,4288.974121,4338.333496,4333.461426,4335.256348,4312.820313,4299.358887,4304.487305,4301.153809,4331.025879,4482.436035,4504.487305,4432.94873,4457.820313,,,,,,,,,,,,,,,,,,,,,,,,,,,,,,,,,,,,,,,,,,,,,,,,,,,,,,,,,,,,,,,,,,,,,,
1720178086,47,0,4320.641113,4293.333496,4336.922852,4330.128418,4343.077148,4320,4310.641113,4308.974121,4313.205078,4348.205078,4482.05127,4507.179688,4421.666504,4453.589844,,,,,,,,,,,,,,,,,,,,,,,,,,,,,,,,,,,,,,,,,,,,,,,,,,,,,,,,,,,,,,,,,,,,,,
1720178086,48,0,4308.974121,4294.743652,4323.461426,4333.077148,4341.538574,4327.05127,4313.077148,4314.871582,4310.256348,4348.589844,4477.179688,4500.769043,4413.974121,4457.692383,,,,,,,,,,,,,,,,,,,,,,,,,,,,,,,,,,,,,,,,,,,,,,,,,,,,,,,,,,,,,,,,,,,,,,
1720178086,49,0,4317.692383,4281.794922,4315.512695,4332.05127,4327.692383,4321.538574,4313.589844,4321.153809,4315.128418,4339.615234,4470.128418,4488.333496,4405.256348,4443.077148,,,,,,,,,,,,,,,,,,,,,,,,,,,,,,,,,,,,,,,,,,,,,,,,,,,,,,,,,,,,,,,,,,,,,,
1720178086,50,0,4325.641113,4272.820313,4325.641113,4320.641113,4323.077148,4321.282227,4323.846191,4327.436035,4330.256348,4343.461426,4477.94873,4489.743652,4404.102539,4436.025879,,,,,,,,,,,,,,,,,,,,,,,,,,,,,,,,,,,,,,,,,,,,,,,,,,,,,,,,,,,,,,,,,,,,,,
1720178086,51,0,4312.692383,4278.077148,4325.128418,4317.563965,4332.179688,4319.871582,4327.563965,4330,4325.128418,4348.589844,4478.846191,4487.436035,4403.461426,4435.512695,,,,,,,,,,,,,,,,,,,,,,,,,,,,,,,,,,,,,,,,,,,,,,,,,,,,,,,,,,,,,,,,,,,,,,
1720178086,52,0,4313.333496,4280.128418,4317.820313,4326.666504,4336.153809,4318.461426,4324.615234,4326.794922,4313.589844,4352.436035,4469.743652,4482.179688,4398.974121,4427.05127,,,,,,,,,,,,,,,,,,,,,,,,,,,,,,,,,,,,,,,,,,,,,,,,,,,,,,,,,,,,,,,,,,,,,,
1720178086,53,0,4326.922852,4283.717773,4330.256348,4337.820313,4335.512695,4323.717773,4328.974121,4319.615234,4317.436035,4356.538574,4477.05127,4493.974121,4402.94873,4432.820313,,,,,,,,,,,,,,,,,,,,,,,,,,,,,,,,,,,,,,,,,,,,,,,,,,,,,,,,,,,,,,,,,,,,,,
1720178086,54,0,4338.589844,4297.692383,4348.461426,4341.538574,4339.615234,4323.846191,4326.922852,4310,4311.922852,4357.436035,4482.179688,4502.563965,4415.384766,4449.487305,,,,,,,,,,,,,,,,,,,,,,,,,,,,,,,,,,,,,,,,,,,,,,,,,,,,,,,,,,,,,,,,,,,,,,
1720178086,55,0,4352.692383,4306.794922,4347.307617,4346.153809,4342.436035,4317.179688,4312.692383,4298.333496,4295.384766,4362.94873,4467.692383,4491.794922,4427.563965,4449.358887,122.088951,40.266853,10.108082,2.012695,0.911678,5.921058,6.625004,2.308306,1.5695,0.519264,4.807588,8.813253,3.54167,1.370677,0.544963,4.111477,6.033512,2.028215,2.339062,0.58171,2.564341,2.583058,1.042453,1.353261,0.202919,0.292262,1.121446,0.183504,0.197975,0.07842,2.523788,7.036791,1.912058,1.052707,0.204945,1.872365,6.31801,1.599181,0.844025,0.178625,1.988707,4.018315,1.037839,0.944528,0.139478,2.779587,1.848472,0.839096,0.710067,0.186926,2.881565,2.701923,0.63524,0.737428,0.589715,7.289285,7.262849,2.478009,1.810122,0.490629,6.928119,6.107998,1.22244,1.043241,0.340594,11.246014,5.838201,1.594329,1.033993,0.460224
1720178086,56,0,4361.922852,4308.974121,4337.563965,4358.461426,4340.256348,4320.128418,4302.563965,4294.871582,4290.641113,4366.922852,4468.205078,4485.512695,4428.077148,4451.410156,,,,,,,,,,,,,,,,,,,,,,,,,,,,,,,,,,,,,,,,,,,,,,,,,,,,,,,,,,,,,,,,,,,,,,
1720178086,57,0,4367.179688,4306.666504,4345.128418,4352.563965,4343.077148,4322.179688,4306.282227,4300.384766,4297.307617,4365,4479.743652,4485.512695,4420.256348,4455.128418,,,,,,,,,,,,,,,,,,,,,,,,,,,,,,,,,,,,,,,,,,,,,,,,,,,,,,,,,,,,,,,,,,,,,,
1720178086,58,0,4372.05127,4298.333496,4360.384766,4338.461426,4353.077148,4318.717773,4318.461426,4308.846191,4300.641113,4364.358887,4473.333496,4485.641113,4420.641113,4448.333496,,,,,,,,,,,,,,,,,,,,,,,,,,,,,,,,,,,,,,,,,,,,,,,,,,,,,,,,,,,,,,,,,,,,,,
1720178086,59,0,4362.563965,4296.025879,4357.05127,4345.897461,4360.384766,4324.487305,4329.615234,4320.641113,4299.743652,4365.897461,4468.974121,4496.794922,4427.179688,4447.436035,,,,,,,,,,,,,,,,,,,,,,,,,,,,,,,,,,,,,,,,,,,,,,,,,,,,,,,,,,,,,,,,,,,,,,
1720178086,60,0,4351.794922,4297.820313,4345.769043,4359.230957,4360.512695,4327.94873,4333.589844,4327.436035,4301.153809,4366.538574,4470.384766,4501.410156,4424.871582,4443.333496,,,,,,,,,,,,,,,,,,,,,,,,,,,,,,,,,,,,,,,,,,,,,,,,,,,,,,,,,,,,,,,,,,,,,,
1720178086,61,0,4360,4286.410156,4345.256348,4351.025879,4356.282227,4325.384766,4329.102539,4326.666504,4302.820313,4370.512695,4471.410156,4490.897461,4418.077148,4436.922852,,,,,,,,,,,,,,,,,,,,,,,,,,,,,,,,,,,,,,,,,,,,,,,,,,,,,,,,,,,,,,,,,,,,,,
1720178086,62,0,4364.102539,4278.077148,4348.589844,4345.512695,4360.384766,4325.897461,4325,4324.615234,4298.077148,4370.769043,4472.307617,4485.897461,4417.563965,4442.563965,,,,,,,,,,,,,,,,,,,,,,,,,,,,,,,,,,,,,,,,,,,,,,,,,,,,,,,,,,,,,,,,,,,,,,
1720178086,63,0,4358.461426,4281.794922,4342.820313,4352.94873,4369.615234,4326.794922,4319.871582,4322.05127,4290.897461,4363.589844,4462.692383,4482.692383,4414.358887,4443.846191,,,,,,,,,,,,,,,,,,,,,,,,,,,,,,,,,,,,,,,,,,,,,,,,,,,,,,,,,,,,,,,,,,,,,,
1720178086,64,0,4342.563965,4261.538574,4321.153809,4333.461426,4357.94873,4321.282227,4299.358887,4303.077148,4281.538574,4354.871582,4443.205078,4454.358887,4391.666504,4415.641113,,,,,,,,,,,,,,,,,,,,,,,,,,,,,,,,,,,,,,,,,,,,,,,,,,,,,,,,,,,,,,,,,,,,,,
1720178086,65,0,4299.615234,4214.615234,4279.358887,4285.769043,4325.769043,4311.282227,4266.025879,4268.589844,4264.358887,4341.282227,4414.743652,4395.384766,4343.974121,4365.384766,,,,,,,,,,,,,,,,,,,,,,,,,,,,,,,,,,,,,,,,,,,,,,,,,,,,,,,,,,,,,,,,,,,,,,
1720178086,66,0,4280.256348,4189.871582,4260.512695,4261.153809,4312.05127,4307.307617,4256.153809,4257.563965,4258.589844,4334.102539,4398.205078,4363.974121,4315.128418,4341.794922,,,,,,,,,,,,,,,,,,,,,,,,,,,,,,,,,,,,,,,,,,,,,,,,,,,,,,,,,,,,,,,,,,,,,,
1720178086,67,0,4320,4208.461426,4301.922852,4284.615234,4330.512695,4313.461426,4279.358887,4282.563965,4272.820313,4344.358887,4413.205078,4398.589844,4346.538574,4367.563965,,,,,,,,,,,,,,,,,,,,,,,,,,,,,,,,,,,,,,,,,,,,,,,,,,,,,,,,,,,,,,,,,,,,,,
1720178086,68,0,4357.563965,4244.487305,4343.461426,4321.153809,4350.641113,4319.615234,4298.717773,4305.128418,4285.512695,4360.256348,4437.820313,4440.769043,4392.820313,4404.102539,,,,,,,,,,,,,,,,,,,,,,,,,,,,,,,,,,,,,,,,,,,,,,,,,,,,,,,,,,,,,,,,,,,,,,
1720178086,69,0,4363.077148,4264.487305,4347.05127,4337.436035,4355.641113,4319.102539,4300.897461,4306.538574,4291.538574,4371.153809,4450.641113,4445.769043,4401.025879,4413.205078,,,,,,,,,,,,,,,,,,,,,,,,,,,,,,,,,,,,,,,,,,,,,,,,,,,,,,,,,,,,,,,,,,,,,,
1720178086,70,0,4365.384766,4265.897461,4346.794922,4343.461426,4355.769043,4317.94873,4297.563965,4304.871582,4292.820313,4374.102539,4451.282227,4442.820313,4392.94873,4410,,,,,,,,,,,,,,,,,,,,,,,,,,,,,,,,,,,,,,,,,,,,,,,,,,,,,,,,,,,,,,,,,,,,,,
1720178086,71,0,4370.897461,4265.641113,4352.94873,4350.384766,4362.436035,4314.615234,4297.94873,4305.128418,4294.487305,4376.666504,4442.05127,4445,4394.871582,4412.179688,135.811325,42.015591,10.576969,1.884068,0.893873,5.407452,6.168303,2.474796,1.516703,0.512225,3.884736,7.206613,3.42698,1.277286,0.532423,3.531117,5.360212,2.332812,2.647295,0.59224,2.439228,2.406342,1.205569,1.180475,0.209296,0.252073,0.900229,0.222576,0.205374,0.078714,2.414821,8.022569,2.280713,1.071335,0.17986,1.834218,7.414175,1.753458,0.852866,0.168681,2.171734,3.875436,1.069993,0.980646,0.131774,2.533722,1.865984,0.673993,0.739222,0.224486,2.552083,2.373618,0.565731,0.71773,0.52091,6.490129,6.38485,2.310459,1.896311,0.487541,6.108116,5.441981,1.152544,1.14496,0.345551,11.118056,4.487262,1.307942,1.086691,0.449148
1720178086,72,0,4358.205078,4258.589844,4348.974121,4345.128418,4367.307617,4320.128418,4305,4309.487305,4304.871582,4380.256348,4437.179688,4435.641113,4388.589844,4407.563965,,,,,,,,,,,,,,,,,,,,,,,,,,,,,,,,,,,,,,,,,,,,,,,,,,,,,,,,,,,,,,,,,,,,,,
1720178086,73,0,4334.230957,4239.743652,4335.769043,4330,4369.358887,4331.538574,4314.871582,4322.820313,4312.436035,4374.230957,4436.666504,4422.820313,4369.871582,4389.102539,,,,,,,,,,,,,,,,,,,,,,,,,,,,,,,,,,,,,,,,,,,,,,,,,,,,,,,,,,,,,,,,,,,,,,
1720178086,74,0,4328.717773,4226.538574,4328.205078,4327.436035,4376.666504,4328.461426,4323.205078,4328.333496,4312.94873,4368.717773,4420.769043,4410.128418,4354.615234,4369.102539,,,,,,,,,,,,,,,,,,,,,,,,,,,,,,,,,,,,,,,,,,,,,,,,,,,,,,,,,,,,,,,,,,,,,,
1720178086,75,0,4342.692383,4223.205078,4326.153809,4328.205078,4384.871582,4329.102539,4326.922852,4326.666504,4321.538574,4377.94873,4416.538574,4401.666504,4351.410156,4372.692383,,,,,,,,,,,,,,,,,,,,,,,,,,,,,,,,,,,,,,,,,,,,,,,,,,,,,,,,,,,,,,,,,,,,,,
1720178086,76,0,4341.538574,4219.871582,4328.461426,4322.307617,4381.922852,4330.641113,4320.128418,4329.358887,4325.769043,4387.307617,4433.846191,4404.358887,4362.179688,4382.94873,,,,,,,,,,,,,,,,,,,,,,,,,,,,,,,,,,,,,,,,,,,,,,,,,,,,,,,,,,,,,,,,,,,,,,
1720178086,77,0,4322.692383,4216.282227,4326.025879,4319.871582,4374.358887,4322.179688,4309.743652,4324.871582,4311.282227,4381.794922,4429.743652,4402.307617,4369.358887,4372.05127,,,,,,,,,,,,,,,,,,,,,,,,,,,,,,,,,,,,,,,,,,,,,,,,,,,,,,,,,,,,,,,,,,,,,,
1720178086,78,0,4324.743652,4216.282227,4323.077148,4327.307617,4376.666504,4323.846191,4305.769043,4315.256348,4303.461426,4375.641113,4417.820313,4394.102539,4363.205078,4362.692383,,,,,,,,,,,,,,,,,,,,,,,,,,,,,,,,,,,,,,,,,,,,,,,,,,,,,,,,,,,,,,,,,,,,,,
1720178086,79,0,4332.436035,4211.538574,4323.717773,4324.358887,4383.077148,4326.538574,4301.282227,4309.743652,4308.077148,4377.563965,4423.333496,4385.128418,4353.589844,4366.282227,,,,,,,,,,,,,,,,,,,,,,,,,,,,,,,,,,,,,,,,,,,,,,,,,,,,,,,,,,,,,,,,,,,,,,
1720178086,80,0,4325.384766,4204.743652,4322.563965,4313.077148,4386.153809,4320.641113,4299.358887,4308.461426,4306.025879,4381.538574,4423.717773,4380.384766,4351.282227,4364.615234,,,,,,,,,,,,,,,,,,,,,,,,,,,,,,,,,,,,,,,,,,,,,,,,,,,,,,,,,,,,,,,,,,,,,,
1720178086,81,0,4328.717773,4204.871582,4330.384766,4316.153809,4384.102539,4320.897461,4307.179688,4313.974121,4304.358887,4384.102539,4418.461426,4391.410156,4360.769043,4366.538574,,,,,,,,,,,,,,,,,,,,,,,,,,,,,,,,,,,,,,,,,,,,,,,,,,,,,,,,,,,,,,,,,,,,,,
1720178086,82,0,4340.256348,4216.794922,4346.538574,4328.974121,4381.410156,4325.256348,4316.410156,4323.589844,4308.205078,4382.05127,4428.846191,4410.128418,4374.102539,4380.641113,,,,,,,,,,,,,,,,,,,,,,,,,,,,,,,,,,,,,,,,,,,,,,,,,,,,,,,,,,,,,,,,,,,,,,
1720178086,83,0,4350,4231.666504,4368.589844,4337.307617,4381.025879,4322.05127,4323.333496,4329.358887,4308.717773,4379.487305,4440.641113,4420.769043,4379.871582,4389.358887,,,,,,,,,,,,,,,,,,,,,,,,,,,,,,,,,,,,,,,,,,,,,,,,,,,,,,,,,,,,,,,,,,,,,,
1720178086,84,0,4363.717773,4231.153809,4381.922852,4342.563965,4370.384766,4318.461426,4326.025879,4328.461426,4308.077148,4384.871582,4438.205078,4428.846191,4382.94873,4399.871582,,,,,,,,,,,,,,,,,,,,,,,,,,,,,,,,,,,,,,,,,,,,,,,,,,,,,,,,,,,,,,,,,,,,,,
1720178086,85,0,4365.256348,4220.641113,4371.153809,4343.717773,4354.358887,4315.128418,4317.94873,4324.615234,4307.436035,4389.230957,4433.333496,4430.512695,4385.641113,4403.461426,,,,,,,,,,,,,,,,,,,,,,,,,,,,,,,,,,,,,,,,,,,,,,,,,,,,,,,,,,,,,,,,,,,,,,
1720178086,86,0,4345.641113,4212.436035,4356.153809,4334.743652,4353.205078,4315.128418,4312.820313,4326.282227,4306.794922,4386.794922,4429.487305,4420,4375.384766,4382.05127,,,,,,,,,,,,,,,,,,,,,,,,,,,,,,,,,,,,,,,,,,,,,,,,,,,,,,,,,,,,,,,,,,,,,,
1720178086,87,0,4342.05127,4201.538574,4352.307617,4320.384766,4367.307617,4324.487305,4321.410156,4336.153809,4311.922852,4388.846191,4426.538574,4409.615234,4364.743652,4360.769043,129.86145,39.019661,9.791854,1.801101,0.831843,4.860766,6.0312,2.73883,1.497957,0.505032,3.081182,6.141579,3.239054,1.278841,0.524865,3.011564,4.936671,2.667896,2.872658,0.593403,2.306517,2.404711,1.39146,1.058867,0.218253,0.209502,0.736884,0.258215,0.207882,0.08232,2.318209,9.11679,2.549179,1.132466,0.16009,1.86546,8.228796,1.848008,0.881498,0.159814,2.362874,3.644654,1.157065,1.039013,0.124755,2.266573,1.927119,0.550544,0.763608,0.273431,2.225428,2.213701,0.55437,0.711121,0.487092,5.556715,6.110611,2.135044,1.976633,0.475067,5.152539,5.15174,1.131685,1.250231,0.353232,10.05843,3.599365,1.047152,1.167572,0.432059
1720178086,88,0,4353.589844,4180.384766,4350.512695,4315.769043,4377.820313,4326.666504,4330.384766,4344.743652,4324.230957,4392.563965,4425.512695,4395.641113,4360.128418,4351.538574,,,,,,,,,,,,,,,,,,,,,,,,,,,,,,,,,,,,,,,,,,,,,,,,,,,,,,,,,,,,,,,,,,,,,,
1720178086,89,0,4335.641113,4164.230957,4339.487305,4309.615234,4380.641113,4325.512695,4331.025879,4346.410156,4330.128418,4384.358887,4424.743652,4381.666504,4342.692383,4346.794922,,,,,,,,,,,,,,,,,,,,,,,,,,,,,,,,,,,,,,,,,,,,,,,,,,,,,,,,,,,,,,,,,,,,,,
1720178086,90,0,4307.820313,4166.153809,4327.05127,4299.487305,4383.077148,4329.102539,4326.025879,4345,4321.153809,4372.563965,4419.487305,4375.384766,4326.666504,4338.205078,,,,,,,,,,,,,,,,,,,,,,,,,,,,,,,,,,,,,,,,,,,,,,,,,,,,,,,,,,,,,,,,,,,,,,
1720178086,91,0,4309.871582,4171.538574,4323.846191,4297.307617,4384.102539,4326.922852,4312.692383,4332.563965,4302.179688,4367.692383,4407.307617,4363.461426,4323.589844,4321.922852,,,,,,,,,,,,,,,,,,,,,,,,,,,,,,,,,,,,,,,,,,,,,,,,,,,,,,,,,,,,,,,,,,,,,,
1720178086,92,0,4318.333496,4167.820313,4324.230957,4306.794922,4380.641113,4321.922852,4295.128418,4312.94873,4286.025879,4364.230957,4395,4342.820313,4314.743652,4310.512695,,,,,,,,,,,,,,,,,,,,,,,,,,,,,,,,,,,,,,,,,,,,,,,,,,,,,,,,,,,,,,,,,,,,,,
1720178086,93,0,4311.153809,4158.846191,4315.384766,4312.563965,4376.538574,4319.487305,4288.589844,4304.871582,4284.615234,4362.563965,4393.205078,4331.282227,4305.769043,4303.461426,,,,,,,,,,,,,,,,,,,,,,,,,,,,,,,,,,,,,,,,,,,,,,,,,,,,,,,,,,,,,,,,,,,,,,
1720178086,94,0,4308.205078,4154.615234,4308.205078,4302.179688,4378.974121,4318.846191,4288.717773,4308.589844,4290.641113,4369.871582,4400.128418,4333.077148,4311.666504,4300.256348,,,,,,,,,,,,,,,,,,,,,,,,,,,,,,,,,,,,,,,,,,,,,,,,,,,,,,,,,,,,,,,,,,,,,,
1720178086,95,0,4315.641113,4154.615234,4310.641113,4293.333496,4382.820313,4316.922852,4282.05127,4305.641113,4294.615234,4371.666504,4401.282227,4334.358887,4316.153809,4302.436035,,,,,,,,,,,,,,,,,,,,,,,,,,,,,,,,,,,,,,,,,,,,,,,,,,,,,,,,,,,,,,,,,,,,,,
1720178086,96,0,4311.410156,4153.846191,4304.743652,4297.179688,4375.769043,4310,4271.922852,4293.589844,4292.05127,4366.922852,4402.179688,4328.717773,4315.384766,4302.94873,,,,,,,,,,,,,,,,,,,,,,,,,,,,,,,,,,,,,,,,,,,,,,,,,,,,,,,,,,,,,,,,,,,,,,
1720178086,97,0,4300.256348,4146.410156,4301.922852,4298.589844,4370.897461,4305.769043,4269.871582,4287.179688,4282.692383,4367.820313,4406.794922,4320.769043,4314.743652,4296.410156,,,,,,,,,,,,,,,,,,,,,,,,,,,,,,,,,,,,,,,,,,,,,,,,,,,,,,,,,,,,,,,,,,,,,,
1720178086,98,0,4298.205078,4135.641113,4309.615234,4291.538574,4376.025879,4318.717773,4282.307617,4297.05127,4276.666504,4368.589844,4406.666504,4321.410156,4303.717773,4294.487305,,,,,,,,,,,,,,,,,,,,,,,,,,,,,,,,,,,,,,,,,,,,,,,,,,,,,,,,,,,,,,,,,,,,,,
1720178086,99,0,4304.230957,4134.743652,4310.512695,4292.307617,4379.743652,4326.794922,4308.974121,4319.487305,4284.743652,4361.282227,4403.589844,4332.436035,4289.230957,4291.025879,,,,,,,,,,,,,,,,,,,,,,,,,,,,,,,,,,,,,,,,,,,,,,,,,,,,,,,,,,,,,,,,,,,,,,
1720178086,100,0,4308.717773,4137.179688,4315.641113,4297.436035,4383.974121,4321.282227,4332.94873,4343.461426,4304.871582,4361.922852,4402.94873,4343.205078,4286.794922,4272.94873,,,,,,,,,,,,,,,,,,,,,,,,,,,,,,,,,,,,,,,,,,,,,,,,,,,,,,,,,,,,,,,,,,,,,,
1720178086,101,0,4301.410156,4130.128418,4319.102539,4288.077148,4390.128418,4324.358887,4336.025879,4354.871582,4320.769043,4376.922852,4405.512695,4343.589844,4281.922852,4263.077148,,,,,,,,,,,,,,,,,,,,,,,,,,,,,,,,,,,,,,,,,,,,,,,,,,,,,,,,,,,,,,,,,,,,,,
1720178086,102,0,4283.846191,4120.256348,4303.205078,4277.179688,4391.153809,4326.922852,4323.717773,4348.589844,4325,4378.461426,4407.820313,4333.589844,4267.179688,4268.077148,,,,,,,,,,,,,,,,,,,,,,,,,,,,,,,,,,,,,,,,,,,,,,,,,,,,,,,,,,,,,,,,,,,,,,
1720178086,103,0,4283.205078,4118.974121,4296.922852,4279.102539,4390.897461,4326.410156,4311.282227,4335.897461,4323.077148,4373.333496,4410.128418,4333.589844,4262.563965,4268.461426,106.440903,32.130939,8.000942,1.745166,0.736748,4.309011,6.219103,2.968235,1.494758,0.500919,2.459448,5.947691,3.004789,1.330469,0.526594,2.644067,4.91805,2.935505,2.927634,0.578604,2.164691,2.562285,1.52505,0.973659,0.226619,0.175263,0.667856,0.281147,0.202101,0.088293,2.240356,10.230851,2.636477,1.192539,0.14873,1.883098,8.656702,1.863438,0.908874,0.152676,2.498313,3.333155,1.281695,1.075446,0.122403,1.9921,1.961704,0.488664,0.7598,0.322496,1.882917,2.198418,0.596457,0.719486,0.490703,4.571301,6.636987,2.021126,2.022255,0.455178,4.261017,5.193495,1.187839,1.348258,0.363358,8.434407,3.300869,0.886176,1.269154,0.41204
1720178086,104,0,4302.05127,4124.615234,4313.846191,4293.077148,4397.179688,4328.205078,4304.358887,4328.333496,4320.512695,4378.717773,4407.436035,4341.410156,4263.333496,4260.769043,,,,,,,,,,,,,,,,,,,,,,,,,,,,,,,,,,,,,,,,,,,,,,,,,,,,,,,,,,,,,,,,,,,,,,
1720178086,105,0,4304.615234,4126.153809,4315.512695,4302.436035,4395.769043,4324.102539,4300,4324.487305,4315.641113,4382.94873,4398.717773,4330.128418,4247.179688,4250.512695,,,,,,,,,,,,,,,,,,,,,,,,,,,,,,,,,,,,,,,,,,,,,,,,,,,,,,,,,,,,,,,,,,,,,,
1720178086,106,0,4297.563965,4121.922852,4305.512695,4297.179688,4388.974121,4323.846191,4300.512695,4324.102539,4313.205078,4377.692383,4395.769043,4316.282227,4233.205078,4250.897461,,,,,,,,,,,,,,,,,,,,,,,,,,,,,,,,,,,,,,,,,,,,,,,,,,,,,,,,,,,,,,,,,,,,,,
1720178086,107,0,4307.307617,4122.05127,4318.077148,4291.153809,4388.717773,4324.487305,4305.512695,4324.743652,4309.487305,4366.282227,4404.487305,4329.871582,4243.589844,4260.128418,,,,,,,,,,,,,,,,,,,,,,,,,,,,,,,,,,,,,,,,,,,,,,,,,,,,,,,,,,,,,,,,,,,,,,
1720178086,108,0,4320.769043,4126.794922,4331.153809,4296.922852,4386.153809,4320.769043,4307.692383,4323.333496,4302.179688,4368.846191,4414.102539,4346.410156,4252.820313,4261.410156,,,,,,,,,,,,,,,,,,,,,,,,,,,,,,,,,,,,,,,,,,,,,,,,,,,,,,,,,,,,,,,,,,,,,,
1720178086,109,0,4316.025879,4124.615234,4325.256348,4298.205078,4379.487305,4319.743652,4310,4328.205078,4302.05127,4384.102539,4413.717773,4349.615234,4247.820313,4259.230957,,,,,,,,,,,,,,,,,,,,,,,,,,,,,,,,,,,,,,,,,,,,,,,,,,,,,,,,,,,,,,,,,,,,,,
1720178086,110,0,4307.307617,4116.538574,4324.230957,4284.230957,4374.102539,4319.871582,4314.230957,4336.666504,4303.846191,4380.512695,4413.205078,4353.077148,4242.563965,4262.179688,,,,,,,,,,,,,,,,,,,,,,,,,,,,,,,,,,,,,,,,,,,,,,,,,,,,,,,,,,,,,,,,,,,,,,
1720178086,111,0,4318.461426,4117.179688,4331.538574,4281.666504,4374.102539,4317.307617,4314.871582,4335.128418,4294.487305,4357.563965,4412.820313,4353.717773,4237.05127,4254.615234,,,,,,,,,,,,,,,,,,,,,,,,,,,,,,,,,,,,,,,,,,,,,,,,,,,,,,,,,,,,,,,,,,,,,,
1720178086,112,0,4333.717773,4125.128418,4327.94873,4297.692383,4376.282227,4319.102539,4311.538574,4329.358887,4283.461426,4353.974121,4405.897461,4348.077148,4230.897461,4238.205078,,,,,,,,,,,,,,,,,,,,,,,,,,,,,,,,,,,,,,,,,,,,,,,,,,,,,,,,,,,,,,,,,,,,,,
1720178086,113,0,4327.05127,4123.333496,4323.589844,4303.333496,4380.769043,4323.333496,4310.641113,4326.025879,4277.94873,4361.538574,4398.589844,4339.743652,4227.05127,4227.05127,,,,,,,,,,,,,,,,,,,,,,,,,,,,,,,,,,,,,,,,,,,,,,,,,,,,,,,,,,,,,,,,,,,,,,
1720178086,114,0,4307.05127,4108.077148,4327.436035,4293.461426,4386.410156,4323.846191,4311.153809,4319.871582,4278.589844,4351.666504,4398.333496,4331.282227,4217.94873,4218.077148,,,,,,,,,,,,,,,,,,,,,,,,,,,,,,,,,,,,,,,,,,,,,,,,,,,,,,,,,,,,,,,,,,,,,,
1720178086,115,0,4306.025879,4103.461426,4325.384766,4285.256348,4384.487305,4327.05127,4309.615234,4318.333496,4288.077148,4348.205078,4399.358887,4339.487305,4214.358887,4222.307617,,,,,,,,,,,,,,,,,,,,,,,,,,,,,,,,,,,,,,,,,,,,,,,,,,,,,,,,,,,,,,,,,,,,,,
1720178086,116,0,4312.94873,4115.256348,4319.743652,4288.077148,4375.641113,4325.769043,4306.538574,4320.769043,4295.641113,4357.179688,4396.538574,4351.794922,4227.307617,4230.128418,,,,,,,,,,,,,,,,,,,,,,,,,,,,,,,,,,,,,,,,,,,,,,,,,,,,,,,,,,,,,,,,,,,,,,
1720178086,117,0,4313.461426,4110.641113,4322.05127,4286.666504,4370.128418,4323.589844,4305.256348,4317.05127,4297.179688,4360,4401.410156,4346.025879,4231.025879,4224.615234,,,,,,,,,,,,,,,,,,,,,,,,,,,,,,,,,,,,,,,,,,,,,,,,,,,,,,,,,,,,,,,,,,,,,,
1720178086,118,0,4318.333496,4097.692383,4327.307617,4280.128418,4376.922852,4329.615234,4309.487305,4321.153809,4301.282227,4360,4402.692383,4341.794922,4220.256348,4216.410156,,,,,,,,,,,,,,,,,,,,,,,,,,,,,,,,,,,,,,,,,,,,,,,,,,,,,,,,,,,,,,,,,,,,,,
1720178086,119,0,4311.794922,4103.077148,4326.666504,4292.307617,4380.897461,4327.692383,4307.94873,4328.974121,4297.436035,4353.717773,4390.769043,4343.846191,4213.589844,4208.205078,73.813927,23.595972,5.77567,1.717842,0.631285,3.848361,6.696557,3.037608,1.499593,0.500139,2.075544,6.662561,2.742632,1.399746,0.539036,2.498487,5.317628,3.070033,2.792467,0.54941,2.104847,2.808134,1.552622,0.894076,0.2327,0.163055,0.689842,0.287274,0.187843,0.094801,2.204867,11.185802,2.574086,1.225182,0.145889,1.853382,8.746227,1.859142,0.921403,0.147551,2.668556,3.041412,1.405692,1.057741,0.125509,1.828052,1.912771,0.485044,0.71047,0.358208,1.549899,2.27005,0.692504,0.744277,0.514655,3.611119,7.939616,2.04792,2.042031,0.435134,3.637501,5.525287,1.353564,1.450939,0.378216,6.763408,3.640936,0.872925,1.398151,0.396145
1720178086,120,0,4297.563965,4110.897461,4327.692383,4302.563965,4375.769043,4322.307617,4297.563965,4320,4283.077148,4344.102539,4388.846191,4336.153809,4209.487305,4205.897461,,,,,,,,,,,,,,,,,,,,,,,,,,,,,,,,,,,,,,,,,,,,,,,,,,,,,,,,,,,,,,,,,,,,,,
1720178086,121,0,4299.615234,4106.538574,4326.794922,4284.743652,4376.282227,4325.384766,4295,4307.05127,4278.846191,4342.563965,4387.820313,4329.358887,4203.205078,4208.717773,,,,,,,,,,,,,,,,,,,,,,,,,,,,,,,,,,,,,,,,,,,,,,,,,,,,,,,,,,,,,,,,,,,,,,
1720178086,122,0,4303.974121,4103.974121,4321.538574,4275.641113,4381.538574,4326.538574,4299.230957,4306.794922,4278.974121,4338.717773,4371.410156,4333.717773,4202.05127,4209.230957,,,,,,,,,,,,,,,,,,,,,,,,,,,,,,,,,,,,,,,,,,,,,,,,,,,,,,,,,,,,,,,,,,,,,,
1720178086,123,0,4299.358887,4102.94873,4321.282227,4278.974121,4377.94873,4322.820313,4297.05127,4306.410156,4269.871582,4333.717773,4362.307617,4337.05127,4200.769043,4208.333496,,,,,,,,,,,,,,,,,,,,,,,,,,,,,,,,,,,,,,,,,,,,,,,,,,,,,,,,,,,,,,,,,,,,,,
1720178086,124,0,4308.333496,4094.102539,4324.230957,4266.538574,4366.025879,4320.256348,4287.563965,4297.692383,4267.820313,4340.128418,4362.820313,4329.871582,4196.538574,4212.563965,,,,,,,,,,,,,,,,,,,,,,,,,,,,,,,,,,,,,,,,,,,,,,,,,,,,,,,,,,,,,,,,,,,,,,
1720178086,125,0,4322.820313,4092.564209,4326.538574,4265.769043,4357.94873,4313.589844,4287.307617,4293.589844,4276.922852,4343.589844,4356.153809,4319.871582,4202.692383,4213.589844,,,,,,,,,,,,,,,,,,,,,,,,,,,,,,,,,,,,,,,,,,,,,,,,,,,,,,,,,,,,,,,,,,,,,,
1720178086,126,0,4317.179688,4101.538574,4326.922852,4284.230957,4356.666504,4316.410156,4294.358887,4297.820313,4283.461426,4340.769043,4352.05127,4321.282227,4207.820313,4203.461426,,,,,,,,,,,,,,,,,,,,,,,,,,,,,,,,,,,,,,,,,,,,,,,,,,,,,,,,,,,,,,,,,,,,,,
1720178086,127,0,4314.743652,4099.487305,4324.230957,4280.384766,4359.615234,4326.025879,4290.384766,4299.743652,4286.025879,4341.538574,4348.974121,4323.333496,4196.538574,4197.307617,,,,,,,,,,,,,,,,,,,,,,,,,,,,,,,,,,,,,,,,,,,,,,,,,,,,,,,,,,,,,,,,,,,,,,
1720178086,0,0,4324.358887,4092.692383,4320.512695,4275.384766,4366.282227,4321.282227,4282.94873,4299.102539,4289.615234,4336.410156,4341.922852,4314.871582,4186.282227,4201.410156,,,,,,,,,,,,,,,,,,,,,,,,,,,,,,,,,,,,,,,,,,,,,,,,,,,,,,,,,,,,,,,,,,,,,,
1720178086,1,0,4310.512695,4092.435791,4318.717773,4277.436035,4370.256348,4321.025879,4287.05127,4302.307617,4293.077148,4326.794922,4347.94873,4315.384766,4187.307617,4205.897461,,,,,,,,,,,,,,,,,,,,,,,,,,,,,,,,,,,,,,,,,,,,,,,,,,,,,,,,,,,,,,,,,,,,,,
1720178086,2,0,4280.769043,4079.871826,4307.436035,4259.487305,4368.846191,4322.179688,4295.384766,4310.769043,4303.077148,4324.358887,4356.538574,4320.641113,4181.666504,4190.512695,,,,,,,,,,,,,,,,,,,,,,,,,,,,,,,,,,,,,,,,,,,,,,,,,,,,,,,,,,,,,,,,,,,,,,
1720178086,3,0,4275.641113,4061.923096,4292.94873,4247.307617,4364.102539,4321.282227,4304.230957,4321.025879,4313.974121,4323.974121,4353.333496,4313.589844,4170,4173.717773,,,,,,,,,,,,,,,,,,,,,,,,,,,,,,,,,,,,,,,,,,,,,,,,,,,,,,,,,,,,,,,,,,,,,,
1720178086,4,0,4281.538574,4056.025635,4299.102539,4252.05127,4364.743652,4328.461426,4315.769043,4331.922852,4314.615234,4323.974121,4350.641113,4314.743652,4166.025879,4174.871582,,,,,,,,,,,,,,,,,,,,,,,,,,,,,,,,,,,,,,,,,,,,,,,,,,,,,,,,,,,,,,,,,,,,,,
1720178086,5,0,4265.641113,4048.718018,4302.692383,4248.974121,4368.589844,4327.692383,4317.692383,4330.384766,4312.563965,4323.846191,4351.153809,4323.205078,4163.333496,4164.743652,,,,,,,,,,,,,,,,,,,,,,,,,,,,,,,,,,,,,,,,,,,,,,,,,,,,,,,,,,,,,,,,,,,,,,
1720178086,6,0,4252.179688,4040.897461,4293.461426,4245,4366.282227,4322.692383,4308.077148,4317.563965,4313.846191,4322.563965,4350.769043,4317.94873,4159.487305,4151.282227,,,,,,,,,,,,,,,,,,,,,,,,,,,,,,,,,,,,,,,,,,,,,,,,,,,,,,,,,,,,,,,,,,,,,,
1720178086,7,0,4272.436035,4052.820557,4297.179688,4253.717773,4369.871582,4323.974121,4300,4309.871582,4309.230957,4321.922852,4348.077148,4311.794922,4158.333496,4157.307617,42.413361,16.025761,3.737973,1.745532,0.545219,3.643831,7.412091,2.904752,1.520232,0.499925,2.070101,8.036486,2.478286,1.486284,0.560448,2.597713,6.016909,3.064003,2.524783,0.514744,2.108072,3.048489,1.468506,0.802085,0.237006,0.17323,0.768251,0.277282,0.168668,0.10024,2.346768,11.779726,2.473999,1.232697,0.150048,1.856639,8.656696,1.922536,0.923853,0.146152,3.030989,2.920175,1.475872,0.99028,0.132483,1.783259,1.781835,0.520808,0.622112,0.371224,1.300431,2.397839,0.848842,0.787446,0.532687,3.120601,9.79362,2.276281,2.078584,0.426225,3.326727,6.128188,1.640449,1.583575,0.400552,5.469459,4.591739,1.007724,1.566539,0.391384
1720178086,8,0,4294.871582,4071.281982,4314.487305,4271.025879,4374.615234,4325.128418,4294.615234,4305.128418,4298.846191,4317.94873,4348.461426,4320.128418,4156.922852,4158.974121,,,,,,,,,,,,,,,,,,,,,,,,,,,,,,,,,,,,,,,,,,,,,,,,,,,,,,,,,,,,,,,,,,,,,,
1720178086,9,0,4289.230957,4080.769287,4327.692383,4282.436035,4365.769043,4321.666504,4294.358887,4298.589844,4294.102539,4312.820313,4350.769043,4328.205078,4155.641113,4146.922852,,,,,,,,,,,,,,,,,,,,,,,,,,,,,,,,,,,,,,,,,,,,,,,,,,,,,,,,,,,,,,,,,,,,,,
1720178086,10,0,4283.589844,4092.05127,4329.743652,4283.846191,4357.307617,4319.102539,4298.846191,4299.230957,4297.179688,4313.333496,4346.153809,4328.077148,4152.307617,4147.436035,,,,,,,,,,,,,,,,,,,,,,,,,,,,,,,,,,,,,,,,,,,,,,,,,,,,,,,,,,,,,,,,,,,,,,
1720178086,11,0,4293.589844,4099.743652,4328.461426,4284.487305,4359.743652,4320.384766,4301.538574,4306.025879,4299.743652,4310.512695,4343.589844,4327.436035,4142.436035,4145.641113,,,,,,,,,,,,,,,,,,,,,,,,,,,,,,,,,,,,,,,,,,,,,,,,,,,,,,,,,,,,,,,,,,,,,,
1720178086,12,0,4293.846191,4090,4325.769043,4282.179688,4360.256348,4324.102539,4299.230957,4305.641113,4298.461426,4299.615234,4339.871582,4323.205078,4131.794922,4122.563965,,,,,,,,,,,,,,,,,,,,,,,,,,,,,,,,,,,,,,,,,,,,,,,,,,,,,,,,,,,,,,,,,,,,,,
1720178086,13,0,4268.589844,4068.461426,4312.05127,4266.794922,4352.692383,4322.563965,4295.128418,4298.717773,4295.641113,4286.153809,4322.05127,4308.461426,4118.077148,4101.794922,,,,,,,,,,,,,,,,,,,,,,,,,,,,,,,,,,,,,,,,,,,,,,,,,,,,,,,,,,,,,,,,,,,,,,
1720178086,14,0,4240.512695,4050.897461,4290.384766,4251.410156,4351.794922,4318.205078,4295.897461,4295.769043,4293.846191,4275.384766,4311.666504,4289.743652,4101.794922,4083.974365,,,,,,,,,,,,,,,,,,,,,,,,,,,,,,,,,,,,,,,,,,,,,,,,,,,,,,,,,,,,,,,,,,,,,,
1720178086,15,0,4227.563965,4048.205078,4287.692383,4253.846191,4357.05127,4326.922852,4298.205078,4299.487305,4295.641113,4275.256348,4328.205078,4288.974121,4096.410156,4077.820557,,,,,,,,,,,,,,,,,,,,,,,,,,,,,,,,,,,,,,,,,,,,,,,,,,,,,,,,,,,,,,,,,,,,,,
1720178086,16,0,4220,4054.743652,4292.94873,4259.102539,4356.025879,4330.769043,4295.128418,4302.179688,4295.128418,4278.077148,4335.897461,4297.563965,4097.820313,4084.230713,,,,,,,,,,,,,,,,,,,,,,,,,,,,,,,,,,,,,,,,,,,,,,,,,,,,,,,,,,,,,,,,,,,,,,
1720178086,17,0,4223.461426,4058.974365,4288.717773,4253.205078,4349.743652,4322.94873,4292.436035,4298.717773,4293.077148,4276.922852,4326.410156,4296.282227,4101.025879,4081.666748,,,,,,,,,,,,,,,,,,,,,,,,,,,,,,,,,,,,,,,,,,,,,,,,,,,,,,,,,,,,,,,,,,,,,,
1720178086,18,0,4225.512695,4059.487061,4289.487305,4249.871582,4349.487305,4323.589844,4296.794922,4296.282227,4298.333496,4276.153809,4329.358887,4293.846191,4105.256348,4075.769287,,,,,,,,,,,,,,,,,,,,,,,,,,,,,,,,,,,,,,,,,,,,,,,,,,,,,,,,,,,,,,,,,,,,,,
1720178086,19,0,4207.820313,4062.179443,4290.256348,4250.641113,4358.974121,4325.897461,4298.077148,4294.230957,4302.307617,4273.717773,4324.487305,4285.897461,4097.563965,4061.153809,,,,,,,,,,,,,,,,,,,,,,,,,,,,,,,,,,,,,,,,,,,,,,,,,,,,,,,,,,,,,,,,,,,,,,
1720178086,20,0,4194.358887,4061.666748,4279.358887,4246.153809,4363.333496,4327.94873,4296.282227,4289.743652,4298.077148,4265.641113,4306.153809,4268.077148,4081.025635,4036.025635,,,,,,,,,,,,,,,,,,,,,,,,,,,,,,,,,,,,,,,,,,,,,,,,,,,,,,,,,,,,,,,,,,,,,,
1720178086,21,0,4198.461426,4052.820557,4276.025879,4249.487305,4360.384766,4332.179688,4300.897461,4291.025879,4293.333496,4257.692383,4297.05127,4258.974121,4074.102539,4023.333252,,,,,,,,,,,,,,,,,,,,,,,,,,,,,,,,,,,,,,,,,,,,,,,,,,,,,,,,,,,,,,,,,,,,,,
1720178086,22,0,4193.846191,4046.794922,4289.358887,4263.717773,4359.102539,4328.846191,4306.538574,4297.436035,4295,4260,4298.461426,4269.487305,4078.333252,4025.384521,,,,,,,,,,,,,,,,,,,,,,,,,,,,,,,,,,,,,,,,,,,,,,,,,,,,,,,,,,,,,,,,,,,,,,
1720178086,23,0,4177.436035,4051.281982,4291.794922,4260.512695,4359.743652,4322.94873,4306.025879,4296.538574,4293.461426,4260.641113,4307.94873,4283.846191,4084.743652,4031.923096,19.907787,11.219263,2.347281,1.839331,0.503153,3.727027,8.26244,2.61644,1.565548,0.496662,2.557366,9.62226,2.23312,1.593041,0.586092,2.916427,6.820027,2.961375,2.229426,0.486915,2.212812,3.225998,1.338392,0.713053,0.241073,0.198225,0.860134,0.258764,0.15042,0.103738,2.739258,11.892073,2.486196,1.238469,0.158776,1.993717,8.555394,2.153791,0.939393,0.150312,3.685812,3.105742,1.477048,0.911839,0.140174,1.902259,1.61894,0.578991,0.523519,0.360484,1.245486,2.570002,1.058074,0.847955,0.524571,3.466975,11.778144,2.674843,2.164889,0.437414,3.263062,6.954911,2.002214,1.752751,0.430698,4.872499,5.965459,1.227206,1.769768,0.400418
1720178086,24,0,4180,4054.871826,4285.128418,4243.205078,4355.769043,4326.282227,4304.358887,4293.333496,4290.897461,4254.871582,4319.487305,4294.102539,4091.281982,4045.897461,,,,,,,,,,,,,,,,,,,,,,,,,,,,,,,,,,,,,,,,,,,,,,,,,,,,,,,,,,,,,,,,,,,,,,
1720178086,25,0,4184.230957,4056.025635,4291.282227,4249.358887,4351.538574,4324.230957,4308.974121,4294.743652,4295.128418,4254.230957,4325.769043,4302.05127,4095,4051.923096,,,,,,,,,,,,,,,,,,,,,,,,,,,,,,,,,,,,,,,,,,,,,,,,,,,,,,,,,,,,,,,,,,,,,,
1720178086,26,0,4174.871582,4060.128174,4303.461426,4270.897461,4355,4324.230957,4319.487305,4299.871582,4297.820313,4257.307617,4326.922852,4302.820313,4095,4044.358887,,,,,,,,,,,,,,,,,,,,,,,,,,,,,,,,,,,,,,,,,,,,,,,,,,,,,,,,,,,,,,,,,,,,,,
1720178086,27,0,4170.897461,4057.820557,4301.282227,4269.230957,4364.358887,4337.307617,4326.282227,4303.589844,4295.897461,4250,4318.461426,4295,4088.333252,4037.179443,,,,,,,,,,,,,,,,,,,,,,,,,,,,,,,,,,,,,,,,,,,,,,,,,,,,,,,,,,,,,,,,,,,,,,
1720178086,28,0,4153.589844,4023.846191,4265.769043,4232.05127,4358.333496,4335.128418,4311.666504,4292.05127,4295.256348,4232.05127,4284.743652,4261.282227,4056.153809,4008.589844,,,,,,,,,,,,,,,,,,,,,,,,,,,,,,,,,,,,,,,,,,,,,,,,,,,,,,,,,,,,,,,,,,,,,,
1720178086,29,0,4094.358887,3962.94873,4206.153809,4178.974121,4325.128418,4322.563965,4275.769043,4262.179688,4288.333496,4212.179688,4250.897461,4201.025879,4000.256348,3953.076904,,,,,,,,,,,,,,,,,,,,,,,,,,,,,,,,,,,,,,,,,,,,,,,,,,,,,,,,,,,,,,,,,,,,,,
1720178086,30,0,4050.128174,3938.718018,4169.358887,4156.666504,4301.410156,4318.205078,4255,4238.717773,4274.102539,4195.256348,4246.282227,4166.025879,3976.281982,3921.666748,,,,,,,,,,,,,,,,,,,,,,,,,,,,,,,,,,,,,,,,,,,,,,,,,,,,,,,,,,,,,,,,,,,,,,
1720178086,31,0,4080.769287,3971.923096,4197.820313,4185.641113,4321.794922,4323.974121,4274.358887,4248.717773,4276.922852,4202.179688,4267.307617,4204.102539,4018.205078,3952.692383,,,,,,,,,,,,,,,,,,,,,,,,,,,,,,,,,,,,,,,,,,,,,,,,,,,,,,,,,,,,,,,,,,,,,,
1720178086,32,0,4123.589844,4009.615479,4242.94873,4220.641113,4349.743652,4332.94873,4307.692383,4278.589844,4295.641113,4228.461426,4299.871582,4262.179688,4069.230713,4002.435791,,,,,,,,,,,,,,,,,,,,,,,,,,,,,,,,,,,,,,,,,,,,,,,,,,,,,,,,,,,,,,,,,,,,,,
1720178086,33,0,4118.077148,4017.692383,4246.282227,4221.538574,4351.538574,4329.743652,4317.307617,4288.846191,4301.153809,4231.025879,4315.384766,4270,4076.153809,4011.410156,,,,,,,,,,,,,,,,,,,,,,,,,,,,,,,,,,,,,,,,,,,,,,,,,,,,,,,,,,,,,,,,,,,,,,
1720178087,34,0,4105.128418,4014.358887,4240.512695,4218.333496,4347.563965,4329.102539,4315.641113,4281.538574,4292.436035,4219.615234,4306.025879,4259.102539,4067.94873,4005.256348,,,,,,,,,,,,,,,,,,,,,,,,,,,,,,,,,,,,,,,,,,,,,,,,,,,,,,,,,,,,,,,,,,,,,,
1720178087,35,0,4113.461426,4021.410156,4253.461426,4234.358887,4350.641113,4335.512695,4322.307617,4286.922852,4290.769043,4222.05127,4293.205078,4268.205078,4073.974365,4013.076904,,,,,,,,,,,,,,,,,,,,,,,,,,,,,,,,,,,,,,,,,,,,,,,,,,,,,,,,,,,,,,,,,,,,,,
1720178087,36,0,4124.358887,4031.281982,4263.077148,4235.641113,4353.461426,4332.563965,4327.05127,4292.94873,4292.05127,4224.230957,4295.769043,4279.230957,4079.743652,4016.794922,,,,,,,,,,,,,,,,,,,,,,,,,,,,,,,,,,,,,,,,,,,,,,,,,,,,,,,,,,,,,,,,,,,,,,
1720178087,37,0,4131.410156,4036.923096,4263.974121,4225.128418,4355.897461,4330.384766,4326.538574,4285.128418,4283.974121,4218.589844,4306.153809,4284.615234,4084.487061,4017.94873,,,,,,,,,,,,,,,,,,,,,,,,,,,,,,,,,,,,,,,,,,,,,,,,,,,,,,,,,,,,,,,,,,,,,,
1720178087,38,0,4127.179688,4037.692383,4266.538574,4229.615234,4359.230957,4336.922852,4327.179688,4284.358887,4279.743652,4216.410156,4305.641113,4291.922852,4090.641113,4026.538574,,,,,,,,,,,,,,,,,,,,,,,,,,,,,,,,,,,,,,,,,,,,,,,,,,,,,,,,,,,,,,,,,,,,,,
1720178087,39,0,4110,4036.281982,4259.230957,4235.897461,4358.205078,4337.307617,4327.563965,4289.102539,4285.256348,4212.692383,4303.077148,4282.563965,4084.487061,4015.256348,8.467054,9.308343,1.705536,1.961402,0.51623,4.218952,9.100395,2.291831,1.626876,0.487156,3.522364,10.899907,2.006471,1.697904,0.607886,3.406176,7.513391,2.809124,1.998406,0.475066,2.37465,3.310791,1.244242,0.657526,0.245473,0.227322,0.931336,0.241147,0.137889,0.105205,3.371264,11.498529,2.692285,1.267011,0.169642,2.340019,8.503084,2.574114,0.989421,0.159848,4.615067,3.61762,1.404732,0.869791,0.145057,2.121507,1.481609,0.647817,0.446745,0.33261,1.46725,2.7616,1.279048,0.914668,0.486545,4.74937,13.336113,3.091036,2.28293,0.467408,3.312267,7.844463,2.349269,1.918479,0.463556,4.733192,7.399416,1.425958,1.970856,0.419145
1720178087,40,0,4107.820313,4036.281982,4249.230957,4239.230957,4356.922852,4335.256348,4326.666504,4282.179688,4291.410156,4210.641113,4298.717773,4267.05127,4074.230713,4001.410156,,,,,,,,,,,,,,,,,,,,,,,,,,,,,,,,,,,,,,,,,,,,,,,,,,,,,,,,,,,,,,,,,,,,,,
1720178087,41,0,4118.974121,4038.076904,4247.05127,4240.128418,4362.307617,4340.641113,4327.05127,4277.563965,4294.871582,4214.358887,4257.179688,4271.794922,4074.871826,4011.666748,,,,,,,,,,,,,,,,,,,,,,,,,,,,,,,,,,,,,,,,,,,,,,,,,,,,,,,,,,,,,,,,,,,,,,
1720178087,42,0,4111.153809,4038.974365,4240.384766,4231.922852,4364.615234,4341.794922,4325.641113,4282.563965,4298.333496,4208.333496,4198.461426,4270.512695,4076.025635,4012.179443,,,,,,,,,,,,,,,,,,,,,,,,,,,,,,,,,,,,,,,,,,,,,,,,,,,,,,,,,,,,,,,,,,,,,,
1720178087,43,0,4100.384766,4034.871826,4236.666504,4228.461426,4363.077148,4338.974121,4315.384766,4276.666504,4298.333496,4200.128418,4191.025879,4256.153809,4072.435791,4006.025635,,,,,,,,,,,,,,,,,,,,,,,,,,,,,,,,,,,,,,,,,,,,,,,,,,,,,,,,,,,,,,,,,,,,,,
1720178087,44,0,4105.641113,4034.102539,4242.94873,4232.179688,4364.230957,4336.794922,4307.436035,4263.846191,4295.641113,4202.692383,4202.436035,4257.692383,4072.307617,4011.410156,,,,,,,,,,,,,,,,,,,,,,,,,,,,,,,,,,,,,,,,,,,,,,,,,,,,,,,,,,,,,,,,,,,,,,
1720178087,45,0,4107.307617,4035.384521,4252.307617,4227.94873,4365.897461,4335.641113,4308.333496,4262.436035,4296.410156,4203.846191,4188.461426,4269.615234,4076.666748,4016.794922,,,,,,,,,,,,,,,,,,,,,,,,,,,,,,,,,,,,,,,,,,,,,,,,,,,,,,,,,,,,,,,,,,,,,,
1720178087,46,0,4109.487305,4034.615479,4263.333496,4231.410156,4357.307617,4337.563965,4310.128418,4265.384766,4293.461426,4201.282227,4186.922852,4275.512695,4084.743652,4027.435791,,,,,,,,,,,,,,,,,,,,,,,,,,,,,,,,,,,,,,,,,,,,,,,,,,,,,,,,,,,,,,,,,,,,,,
1720178087,47,0,4112.820313,4036.666748,4267.307617,4242.307617,4344.615234,4333.205078,4309.487305,4264.615234,4285,4199.871582,4192.692383,4286.153809,4091.794922,4031.666748,,,,,,,,,,,,,,,,,,,,,,,,,,,,,,,,,,,,,,,,,,,,,,,,,,,,,,,,,,,,,,,,,,,,,,
1720178087,48,0,4105.769043,4036.025635,4262.692383,4238.846191,4341.410156,4329.743652,4310.384766,4263.333496,4278.846191,4199.615234,4185.384766,4296.025879,4087.94873,4021.923096,,,,,,,,,,,,,,,,,,,,,,,,,,,,,,,,,,,,,,,,,,,,,,,,,,,,,,,,,,,,,,,,,,,,,,
1720178087,49,0,4104.871582,4033.589844,4262.05127,4234.743652,4342.307617,4332.692383,4310.641113,4263.717773,4275.769043,4195.897461,4182.307617,4295.512695,4078.718018,4023.974365,,,,,,,,,,,,,,,,,,,,,,,,,,,,,,,,,,,,,,,,,,,,,,,,,,,,,,,,,,,,,,,,,,,,,,
1720178087,50,0,4119.487305,4039.487061,4268.846191,4244.487305,4342.436035,4332.05127,4311.410156,4264.102539,4273.717773,4189.230957,4180.769043,4301.794922,4075.641113,4037.564209,,,,,,,,,,,,,,,,,,,,,,,,,,,,,,,,,,,,,,,,,,,,,,,,,,,,,,,,,,,,,,,,,,,,,,
1720178087,51,0,4127.820313,4045.641113,4270.897461,4252.563965,4342.436035,4328.589844,4315.128418,4264.871582,4273.333496,4186.025879,4167.307617,4310.256348,4075.128174,4034.102539,,,,,,,,,,,,,,,,,,,,,,,,,,,,,,,,,,,,,,,,,,,,,,,,,,,,,,,,,,,,,,,,,,,,,,
1720178087,52,0,4120.769043,4036.666748,4268.077148,4239.230957,4343.205078,4332.820313,4316.153809,4265.384766,4275.897461,4186.922852,4148.717773,4305.897461,4070.512939,4021.410156,,,,,,,,,,,,,,,,,,,,,,,,,,,,,,,,,,,,,,,,,,,,,,,,,,,,,,,,,,,,,,,,,,,,,,
1720178087,53,0,4112.563965,4018.461426,4265.641113,4221.666504,4343.205078,4332.307617,4312.563965,4265.897461,4278.846191,4184.615234,4130.512695,4298.846191,4064.743652,4019.102539,,,,,,,,,,,,,,,,,,,,,,,,,,,,,,,,,,,,,,,,,,,,,,,,,,,,,,,,,,,,,,,,,,,,,,
1720178087,54,0,4108.846191,4008.846191,4260.256348,4225.512695,4343.589844,4328.717773,4311.282227,4268.205078,4281.153809,4183.077148,4125,4302.820313,4065.897461,4028.076904,,,,,,,,,,,,,,,,,,,,,,,,,,,,,,,,,,,,,,,,,,,,,,,,,,,,,,,,,,,,,,,,,,,,,,
1720178087,55,0,4105.512695,4007.94873,4252.436035,4233.717773,4342.820313,4333.589844,4310.769043,4267.307617,4280.128418,4187.307617,4132.436035,4305.256348,4072.820557,4032.692383,5.259683,9.181936,1.554264,2.034994,0.578941,4.726908,9.756227,2.046962,1.673347,0.469999,4.773742,11.532946,1.806242,1.765154,0.617818,3.886555,7.920962,2.624808,1.853596,0.48081,2.516674,3.273245,1.219752,0.644655,0.248809,0.248434,0.966439,0.227929,0.132175,0.104906,4.104092,10.687563,3.046457,1.323902,0.17973,2.887186,8.449584,3.083848,1.070403,0.171981,5.632173,4.324839,1.249253,0.881664,0.145029,2.388167,1.41482,0.721641,0.408883,0.298133,1.995608,2.947826,1.470377,0.975487,0.427381,6.762952,14.010351,3.371103,2.378044,0.505816,3.317451,8.539186,2.592505,2.018147,0.49017,5.056854,8.494314,1.553511,2.12354,0.438848
1720178087,56,0,4103.717773,4010.769287,4250,4230.512695,4338.333496,4328.461426,4309.230957,4263.205078,4277.820313,4182.179688,4135,4302.436035,4078.076904,4030.641113,,,,,,,,,,,,,,,,,,,,,,,,,,,,,,,,,,,,,,,,,,,,,,,,,,,,,,,,,,,,,,,,,,,,,,
1720178087,57,0,4111.153809,4015.769287,4258.717773,4228.589844,4338.974121,4325.769043,4307.563965,4263.333496,4275,4175.641113,4140.256348,4309.102539,4078.333252,4045,,,,,,,,,,,,,,,,,,,,,,,,,,,,,,,,,,,,,,,,,,,,,,,,,,,,,,,,,,,,,,,,,,,,,,
1720178087,58,0,4115.769043,4016.281982,4259.871582,4230.897461,4340.128418,4331.282227,4299.615234,4258.589844,4267.05127,4181.538574,4136.794922,4310.512695,4074.871826,4060.256348,,,,,,,,,,,,,,,,,,,,,,,,,,,,,,,,,,,,,,,,,,,,,,,,,,,,,,,,,,,,,,,,,,,,,,
1720178087,59,0,4108.077148,4016.666748,4250.512695,4231.538574,4337.179688,4325.897461,4293.589844,4248.974121,4260.512695,4180,4118.077148,4304.487305,4073.974365,4050.769287,,,,,,,,,,,,,,,,,,,,,,,,,,,,,,,,,,,,,,,,,,,,,,,,,,,,,,,,,,,,,,,,,,,,,,
1720178087,60,0,4106.153809,4021.794922,4257.05127,4230,4335.384766,4324.743652,4303.589844,4255.384766,4262.307617,4163.461426,4121.025879,4317.05127,4077.820557,4047.435791,,,,,,,,,,,,,,,,,,,,,,,,,,,,,,,,,,,,,,,,,,,,,,,,,,,,,,,,,,,,,,,,,,,,,,
1720178087,61,0,4109.487305,4022.94873,4265.641113,4220.128418,4338.077148,4328.846191,4312.307617,4262.820313,4265.897461,4160.256348,4132.820313,4326.538574,4080.641113,4060.897461,,,,,,,,,,,,,,,,,,,,,,,,,,,,,,,,,,,,,,,,,,,,,,,,,,,,,,,,,,,,,,,,,,,,,,
1720178087,62,0,4100.769043,4019.358887,4255.256348,4218.205078,4341.922852,4328.717773,4308.333496,4256.410156,4264.230957,4171.922852,4117.94873,4311.282227,4080.641113,4058.076904,,,,,,,,,,,,,,,,,,,,,,,,,,,,,,,,,,,,,,,,,,,,,,,,,,,,,,,,,,,,,,,,,,,,,,
1720178087,63,0,4092.179443,4027.179443,4247.179688,4233.846191,4343.717773,4327.307617,4306.153809,4257.563965,4261.410156,4171.922852,4092.05127,4307.94873,4083.205078,4050.641113,,,,,,,,,,,,,,,,,,,,,,,,,,,,,,,,,,,,,,,,,,,,,,,,,,,,,,,,,,,,,,,,,,,,,,
1720178087,64,0,4105.641113,4042.94873,4259.230957,4236.153809,4343.205078,4327.05127,4310.769043,4265.128418,4261.538574,4172.05127,4086.410156,4329.102539,4094.230713,4066.666748,,,,,,,,,,,,,,,,,,,,,,,,,,,,,,,,,,,,,,,,,,,,,,,,,,,,,,,,,,,,,,,,,,,,,,
1720178087,65,0,4125.641113,4050.256348,4273.974121,4229.743652,4343.205078,4328.717773,4312.05127,4263.461426,4264.230957,4183.974121,4093.333252,4340.256348,4107.05127,4087.307617,,,,,,,,,,,,,,,,,,,,,,,,,,,,,,,,,,,,,,,,,,,,,,,,,,,,,,,,,,,,,,,,,,,,,,
1720178087,66,0,4133.717773,4056.538574,4287.94873,4239.871582,4343.461426,4328.846191,4311.282227,4263.333496,4268.205078,4188.077148,4098.077148,4345.384766,4119.871582,4100.897461,,,,,,,,,,,,,,,,,,,,,,,,,,,,,,,,,,,,,,,,,,,,,,,,,,,,,,,,,,,,,,,,,,,,,,
1720178087,67,0,4137.563965,4067.307617,4297.307617,4253.077148,4340,4323.333496,4309.358887,4267.94873,4268.589844,4183.077148,4099.358887,4351.153809,4126.410156,4107.307617,,,,,,,,,,,,,,,,,,,,,,,,,,,,,,,,,,,,,,,,,,,,,,,,,,,,,,,,,,,,,,,,,,,,,,
1720178087,68,0,4139.102539,4070.128174,4284.615234,4251.153809,4339.102539,4323.974121,4308.717773,4266.922852,4265.641113,4184.615234,4094.743652,4344.615234,4117.307617,4103.461426,,,,,,,,,,,,,,,,,,,,,,,,,,,,,,,,,,,,,,,,,,,,,,,,,,,,,,,,,,,,,,,,,,,,,,
1720178087,69,0,4131.410156,4062.05127,4275.641113,4237.05127,4340.128418,4333.077148,4308.461426,4267.307617,4265.128418,4183.974121,4091.538574,4342.179688,4105.897461,4099.487305,,,,,,,,,,,,,,,,,,,,,,,,,,,,,,,,,,,,,,,,,,,,,,,,,,,,,,,,,,,,,,,,,,,,,,
1720178087,70,0,4113.589844,4057.94873,4268.461426,4228.461426,4337.94873,4327.307617,4301.538574,4263.205078,4264.358887,4172.307617,4087.05127,4337.692383,4104.487305,4098.205078,,,,,,,,,,,,,,,,,,,,,,,,,,,,,,,,,,,,,,,,,,,,,,,,,,,,,,,,,,,,,,,,,,,,,,
1720178087,71,0,4110.384766,4058.718018,4249.230957,4230.769043,4339.102539,4318.717773,4293.333496,4254.358887,4258.974121,4167.179688,4087.307617,4324.615234,4105.769043,4096.794922,5.215153,9.648151,1.603748,2.012619,0.676208,5.333608,10.160197,1.983625,1.704064,0.449023,6.013183,11.58883,1.696923,1.791533,0.614629,4.30218,8.035058,2.449642,1.785638,0.500858,2.591921,3.110555,1.235029,0.666289,0.249905,0.260834,0.962261,0.213927,0.131747,0.103328,4.751804,9.624396,3.376312,1.399199,0.18731,3.526485,8.270212,3.50143,1.158651,0.183498,6.441588,4.963543,1.029922,0.927967,0.140139,2.598523,1.418114,0.796559,0.412862,0.266953,2.700587,3.204437,1.627856,1.061632,0.361387,8.877505,13.799168,3.497654,2.436815,0.542244,3.251537,8.844258,2.735315,2.041804,0.505148,5.207667,9.007419,1.705171,2.218638,0.452418
1720178087,72,0,4123.717773,4058.846191,4248.846191,4230.897461,4343.461426,4323.461426,4295.512695,4257.179688,4255,4168.717773,4101.538574,4323.077148,4104.615234,4094.871826,,,,,,,,,,,,,,,,,,,,,,,,,,,,,,,,,,,,,,,,,,,,,,,,,,,,,,,,,,,,,,,,,,,,,,
1720178087,73,0,4126.025879,4067.179443,4263.717773,4236.922852,4342.94873,4325.256348,4305.384766,4264.358887,4258.846191,4167.820313,4108.846191,4329.743652,4105.384766,4088.846191,,,,,,,,,,,,,,,,,,,,,,,,,,,,,,,,,,,,,,,,,,,,,,,,,,,,,,,,,,,,,,,,,,,,,,
1720178087,74,0,4127.436035,4074.358887,4265.769043,4246.666504,4340.897461,4323.717773,4308.717773,4264.487305,4264.358887,4169.615234,4108.205078,4337.563965,4108.589844,4096.410156,,,,,,,,,,,,,,,,,,,,,,,,,,,,,,,,,,,,,,,,,,,,,,,,,,,,,,,,,,,,,,,,,,,,,,
1720178087,75,0,4136.666504,4073.718018,4262.436035,4243.846191,4341.538574,4323.846191,4305.769043,4262.820313,4265.512695,4177.563965,4112.05127,4346.666504,4114.102539,4116.025879,,,,,,,,,,,,,,,,,,,,,,,,,,,,,,,,,,,,,,,,,,,,,,,,,,,,,,,,,,,,,,,,,,,,,,
1720178087,76,0,4140.256348,4076.410156,4265.128418,4232.563965,4343.333496,4325.256348,4306.410156,4262.05127,4265.641113,4176.794922,4125.769043,4350.512695,4122.307617,4121.153809,,,,,,,,,,,,,,,,,,,,,,,,,,,,,,,,,,,,,,,,,,,,,,,,,,,,,,,,,,,,,,,,,,,,,,
1720178087,77,0,4140.256348,4078.076904,4265.512695,4227.307617,4344.743652,4325.769043,4303.461426,4259.615234,4265.769043,4166.922852,4139.487305,4350.512695,4124.615234,4120,,,,,,,,,,,,,,,,,,,,,,,,,,,,,,,,,,,,,,,,,,,,,,,,,,,,,,,,,,,,,,,,,,,,,,
1720178087,78,0,4141.153809,4078.589844,4262.307617,4236.538574,4334.743652,4323.717773,4297.307617,4259.615234,4264.102539,4169.743652,4137.179688,4355.128418,4123.205078,4128.333496,,,,,,,,,,,,,,,,,,,,,,,,,,,,,,,,,,,,,,,,,,,,,,,,,,,,,,,,,,,,,,,,,,,,,,
1720178087,79,0,4142.05127,4086.153809,4262.692383,4248.589844,4326.794922,4321.794922,4300.897461,4261.794922,4263.974121,4181.794922,4135.641113,4365.128418,4131.025879,4142.307617,,,,,,,,,,,,,,,,,,,,,,,,,,,,,,,,,,,,,,,,,,,,,,,,,,,,,,,,,,,,,,,,,,,,,,
1720178087,80,0,4152.563965,4087.692383,4272.94873,4242.820313,4337.563965,4326.666504,4311.025879,4265,4266.410156,4187.05127,4145.512695,4378.974121,4138.974121,4161.153809,,,,,,,,,,,,,,,,,,,,,,,,,,,,,,,,,,,,,,,,,,,,,,,,,,,,,,,,,,,,,,,,,,,,,,
1720178087,81,0,4167.563965,4080.769287,4282.307617,4229.487305,4345.897461,4325.128418,4312.94873,4267.692383,4265.897461,4180.769043,4147.563965,4385.512695,4139.102539,4170.128418,,,,,,,,,,,,,,,,,,,,,,,,,,,,,,,,,,,,,,,,,,,,,,,,,,,,,,,,,,,,,,,,,,,,,,
1720178087,82,0,4174.871582,4093.974365,4281.025879,4240.897461,4340.897461,4317.436035,4306.666504,4262.179688,4259.102539,4170.512695,4146.922852,4383.077148,4147.307617,4173.846191,,,,,,,,,,,,,,,,,,,,,,,,,,,,,,,,,,,,,,,,,,,,,,,,,,,,,,,,,,,,,,,,,,,,,,
1720178087,83,0,4188.717773,4107.820313,4289.743652,4254.871582,4340.384766,4326.538574,4303.461426,4257.179688,4256.410156,4170,4164.102539,4391.794922,4158.717773,4183.974121,,,,,,,,,,,,,,,,,,,,,,,,,,,,,,,,,,,,,,,,,,,,,,,,,,,,,,,,,,,,,,,,,,,,,,
1720178087,84,0,4199.230957,4096.282227,4300.128418,4240.256348,4340.897461,4327.94873,4305.256348,4258.333496,4259.358887,4177.820313,4171.282227,4399.230957,4161.922852,4184.487305,,,,,,,,,,,,,,,,,,,,,,,,,,,,,,,,,,,,,,,,,,,,,,,,,,,,,,,,,,,,,,,,,,,,,,
1720178087,85,0,4207.820313,4087.435791,4296.410156,4241.282227,4335,4320.256348,4309.871582,4262.179688,4261.666504,4183.974121,4161.282227,4398.974121,4164.871582,4186.282227,,,,,,,,,,,,,,,,,,,,,,,,,,,,,,,,,,,,,,,,,,,,,,,,,,,,,,,,,,,,,,,,,,,,,,
1720178087,86,0,4225.897461,4091.025635,4299.487305,4264.487305,4337.94873,4325.384766,4313.205078,4264.871582,4262.307617,4180.897461,4161.153809,4406.153809,4169.358887,4202.436035,,,,,,,,,,,,,,,,,,,,,,,,,,,,,,,,,,,,,,,,,,,,,,,,,,,,,,,,,,,,,,,,,,,,,,
1720178087,87,0,4220.128418,4093.461426,4304.871582,4262.436035,4343.974121,4325.641113,4312.563965,4264.487305,4263.205078,4176.153809,4163.077148,4407.05127,4167.820313,4202.436035,5.477443,10.054241,1.736373,1.903162,0.791873,5.972776,10.314272,2.150084,1.742493,0.431531,6.933756,11.381901,1.745171,1.795984,0.605141,4.624498,7.943462,2.325364,1.77085,0.532092,2.606923,2.828328,1.245593,0.703827,0.249435,0.264652,0.913644,0.192681,0.133964,0.101244,5.137969,8.468329,3.501344,1.469707,0.192882,4.099673,7.845969,3.669138,1.220794,0.192811,6.774118,5.281325,0.803183,0.962944,0.13205,2.67764,1.458485,0.865277,0.447476,0.244811,3.73342,3.702247,1.786985,1.237808,0.305802,10.432297,13.075253,3.568867,2.47791,0.571515,3.050498,8.735984,2.848812,2.023932,0.509291,5.170476,8.934921,2.05232,2.273117,0.460134
1720178087,88,0,4198.205078,4092.05127,4297.820313,4242.179688,4342.179688,4324.102539,4312.307617,4265.641113,4264.743652,4174.102539,4160.512695,4403.589844,4167.692383,4191.025879,,,,,,,,,,,,,,,,,,,,,,,,,,,,,,,,,,,,,,,,,,,,,,,,,,,,,,,,,,,,,,,,,,,,,,
1720178087,89,0,4204.230957,4093.076904,4292.563965,4242.436035,4337.692383,4326.282227,4311.153809,4266.794922,4264.230957,4173.717773,4163.717773,4400.641113,4168.717773,4193.974121,,,,,,,,,,,,,,,,,,,,,,,,,,,,,,,,,,,,,,,,,,,,,,,,,,,,,,,,,,,,,,,,,,,,,,
1720178087,90,0,4219.871582,4102.05127,4293.717773,4251.153809,4335.256348,4322.563965,4309.871582,4264.615234,4262.692383,4174.743652,4167.692383,4392.94873,4167.563965,4204.102539,,,,,,,,,,,,,,,,,,,,,,,,,,,,,,,,,,,,,,,,,,,,,,,,,,,,,,,,,,,,,,,,,,,,,,
1720178087,91,0,4216.282227,4106.410156,4294.871582,4243.846191,4337.820313,4320.384766,4309.871582,4263.461426,4262.692383,4169.615234,4165.384766,4392.820313,4172.94873,4207.436035,,,,,,,,,,,,,,,,,,,,,,,,,,,,,,,,,,,,,,,,,,,,,,,,,,,,,,,,,,,,,,,,,,,,,,
1720178087,92,0,4215.897461,4098.974121,4294.358887,4243.846191,4343.589844,4321.025879,4310,4263.846191,4265.128418,4167.307617,4163.205078,4399.871582,4173.205078,4210,,,,,,,,,,,,,,,,,,,,,,,,,,,,,,,,,,,,,,,,,,,,,,,,,,,,,,,,,,,,,,,,,,,,,,
1720178087,93,0,4224.102539,4097.94873,4292.563965,4257.05127,4342.563965,4318.205078,4309.743652,4262.692383,4265.897461,4173.974121,4169.358887,4396.410156,4170.128418,4215.512695,,,,,,,,,,,,,,,,,,,,,,,,,,,,,,,,,,,,,,,,,,,,,,,,,,,,,,,,,,,,,,,,,,,,,,
1720178087,94,0,4231.025879,4115.641113,4297.820313,4265.256348,4336.666504,4321.153809,4309.230957,4263.333496,4260.384766,4170.769043,4182.05127,4398.077148,4182.563965,4231.282227,,,,,,,,,,,,,,,,,,,,,,,,,,,,,,,,,,,,,,,,,,,,,,,,,,,,,,,,,,,,,,,,,,,,,,
1720178087,95,0,4250.384766,4130.641113,4308.205078,4265.128418,4340.256348,4323.333496,4310.512695,4263.077148,4258.077148,4164.102539,4187.820313,4412.563965,4200.897461,4256.666504,,,,,,,,,,,,,,,,,,,,,,,,,,,,,,,,,,,,,,,,,,,,,,,,,,,,,,,,,,,,,,,,,,,,,,
1720178087,96,0,4284.615234,4135,4315.641113,4262.820313,4346.025879,4318.589844,4317.05127,4263.846191,4262.820313,4176.153809,4187.94873,4423.205078,4209.230957,4287.307617,,,,,,,,,,,,,,,,,,,,,,,,,,,,,,,,,,,,,,,,,,,,,,,,,,,,,,,,,,,,,,,,,,,,,,
1720178087,97,0,4330.384766,4145.769043,4334.487305,4272.94873,4342.563965,4323.589844,4324.743652,4273.461426,4265.512695,4189.230957,4205.256348,4442.692383,4222.179688,4336.922852,,,,,,,,,,,,,,,,,,,,,,,,,,,,,,,,,,,,,,,,,,,,,,,,,,,,,,,,,,,,,,,,,,,,,,
1720178087,98,0,4387.179688,4164.871582,4361.025879,4294.230957,4343.205078,4328.589844,4326.666504,4278.974121,4266.410156,4185.769043,4221.666504,4467.94873,4255.897461,4395.512695,,,,,,,,,,,,,,,,,,,,,,,,,,,,,,,,,,,,,,,,,,,,,,,,,,,,,,,,,,,,,,,,,,,,,,
1720178087,99,0,4440.769043,4183.461426,4375.512695,4319.871582,4352.692383,4326.025879,4331.282227,4280.512695,4273.333496,4183.205078,4225.512695,4483.205078,4290,4444.358887,,,,,,,,,,,,,,,,,,,,,,,,,,,,,,,,,,,,,,,,,,,,,,,,,,,,,,,,,,,,,,,,,,,,,,
1720178087,100,0,4469.615234,4195.384766,4390.641113,4341.282227,4350.512695,4325.384766,4338.205078,4285.512695,4279.358887,4187.820313,4236.538574,4503.333496,4302.563965,4482.94873,,,,,,,,,,,,,,,,,,,,,,,,,,,,,,,,,,,,,,,,,,,,,,,,,,,,,,,,,,,,,,,,,,,,,,
1720178087,101,0,4486.153809,4203.461426,4412.563965,4343.589844,4342.436035,4326.794922,4338.717773,4286.410156,4277.307617,4191.410156,4252.820313,4521.282227,4309.871582,4508.589844,,,,,,,,,,,,,,,,,,,,,,,,,,,,,,,,,,,,,,,,,,,,,,,,,,,,,,,,,,,,,,,,,,,,,,
1720178087,102,0,4507.692383,4213.461426,4419.230957,4338.077148,4347.05127,4327.307617,4339.102539,4284.358887,4274.871582,4190.897461,4267.820313,4522.307617,4327.692383,4529.743652,,,,,,,,,,,,,,,,,,,,,,,,,,,,,,,,,,,,,,,,,,,,,,,,,,,,,,,,,,,,,,,,,,,,,,
1720178087,103,0,4518.461426,4227.05127,4420.512695,4348.974121,4355.256348,4327.436035,4341.410156,4287.307617,4274.615234,4194.358887,4267.692383,4527.692383,4337.94873,4546.153809,5.41549,10.303354,1.975501,1.763001,0.90934,6.916083,10.280104,2.524716,1.817506,0.423889,7.283687,11.269309,2.02187,1.815629,0.599368,4.850393,7.764512,2.287944,1.790421,0.572269,2.604577,2.446909,1.2242,0.737162,0.248689,0.264854,0.815625,0.161545,0.136522,0.099213,5.158187,7.321426,3.343632,1.509176,0.198371,4.403814,7.131253,3.526974,1.23053,0.199901,6.4528,5.146289,0.626125,0.942074,0.123357,2.550371,1.503175,0.928526,0.494451,0.23208,4.984402,4.564265,2.019392,1.553411,0.27499,10.862105,12.374213,3.747644,2.533916,0.596404,2.96213,8.37223,3.051781,2.02376,0.508265,4.682298,8.499481,2.743988,2.315423,0.469814
1720178087,104,0,4509.102539,4239.871582,4428.589844,4356.410156,4357.563965,4328.333496,4342.05127,4293.589844,4276.282227,4197.94873,4253.589844,4539.615234,4337.94873,4550,,,,,,,,,,,,,,,,,,,,,,,,,,,,,,,,,,,,,,,,,,,,,,,,,,,,,,,,,,,,,,,,,,,,,,
1720178087,105,0,4513.846191,4232.563965,4430,4343.717773,4357.179688,4328.205078,4340.769043,4294.230957,4277.692383,4189.102539,4267.563965,4540.641113,4346.538574,4556.922852,,,,,,,,,,,,,,,,,,,,,,,,,,,,,,,,,,,,,,,,,,,,,,,,,,,,,,,,,,,,,,,,,,,,,,
1720178087,106,0,4538.717773,4218.205078,4430.512695,4347.05127,4352.05127,4327.05127,4338.077148,4288.461426,4275.769043,4185.641113,4286.538574,4543.333496,4353.974121,4570.641113,,,,,,,,,,,,,,,,,,,,,,,,,,,,,,,,,,,,,,,,,,,,,,,,,,,,,,,,,,,,,,,,,,,,,,
1720178087,107,0,4543.974121,4226.922852,4430.641113,4365.384766,4348.974121,4323.717773,4334.871582,4284.487305,4276.922852,4199.230957,4272.436035,4549.487305,4351.666504,4573.461426,,,,,,,,,,,,,,,,,,,,,,,,,,,,,,,,,,,,,,,,,,,,,,,,,,,,,,,,,,,,,,,,,,,,,,
1720178087,108,0,4527.05127,4236.922852,4418.333496,4359.743652,4348.717773,4328.333496,4336.538574,4288.205078,4276.794922,4203.589844,4266.538574,4542.05127,4343.717773,4570.512695,,,,,,,,,,,,,,,,,,,,,,,,,,,,,,,,,,,,,,,,,,,,,,,,,,,,,,,,,,,,,,,,,,,,,,
1720178087,109,0,4516.153809,4234.615234,4404.102539,4350.512695,4342.05127,4331.282227,4340.384766,4292.179688,4274.743652,4194.615234,4280.897461,4534.743652,4333.717773,4569.487305,,,,,,,,,,,,,,,,,,,,,,,,,,,,,,,,,,,,,,,,,,,,,,,,,,,,,,,,,,,,,,,,,,,,,,
1720178087,110,0,4526.538574,4241.794922,4415.512695,4353.205078,4344.871582,4322.692383,4345.128418,4292.436035,4281.410156,4198.717773,4284.871582,4542.692383,4344.102539,4576.025879,,,,,,,,,,,,,,,,,,,,,,,,,,,,,,,,,,,,,,,,,,,,,,,,,,,,,,,,,,,,,,,,,,,,,,
1720178087,111,0,4549.102539,4249.230957,4434.487305,4352.05127,4355.769043,4326.410156,4347.94873,4295.897461,4287.563965,4206.794922,4292.307617,4556.922852,4370.512695,4599.358887,,,,,,,,,,,,,,,,,,,,,,,,,,,,,,,,,,,,,,,,,,,,,,,,,,,,,,,,,,,,,,,,,,,,,,
1720178087,112,0,4556.410156,4255.512695,4431.922852,4369.102539,4348.589844,4329.615234,4340.769043,4294.871582,4282.436035,4204.102539,4295.384766,4563.589844,4368.717773,4612.94873,,,,,,,,,,,,,,,,,,,,,,,,,,,,,,,,,,,,,,,,,,,,,,,,,,,,,,,,,,,,,,,,,,,,,,
1720178087,113,0,4549.743652,4271.538574,4431.794922,4387.820313,4343.589844,4323.461426,4336.922852,4292.820313,4280.512695,4202.820313,4284.871582,4564.743652,4351.666504,4605.256348,,,,,,,,,,,,,,,,,,,,,,,,,,,,,,,,,,,,,,,,,,,,,,,,,,,,,,,,,,,,,,,,,,,,,,
1720178087,114,0,4539.487305,4270.256348,4437.179688,4374.102539,4355.256348,4329.358887,4347.436035,4298.589844,4285.384766,4207.563965,4292.692383,4561.410156,4363.974121,4597.692383,,,,,,,,,,,,,,,,,,,,,,,,,,,,,,,,,,,,,,,,,,,,,,,,,,,,,,,,,,,,,,,,,,,,,,
1720178087,115,0,4528.717773,4254.102539,4428.589844,4364.871582,4355,4332.05127,4350.128418,4301.666504,4290.128418,4216.282227,4304.230957,4555.769043,4381.153809,4599.230957,,,,,,,,,,,,,,,,,,,,,,,,,,,,,,,,,,,,,,,,,,,,,,,,,,,,,,,,,,,,,,,,,,,,,,
1720178087,116,0,4527.820313,4260.769043,4424.743652,4371.282227,4348.461426,4328.205078,4345.384766,4305.384766,4293.205078,4215.128418,4307.179688,4565.897461,4370.769043,4608.205078,,,,,,,,,,,,,,,,,,,,,,,,,,,,,,,,,,,,,,,,,,,,,,,,,,,,,,,,,,,,,,,,,,,,,,
1720178087,117,0,4542.94873,4281.410156,4432.05127,4369.230957,4355.512695,4328.846191,4343.589844,4301.538574,4285.128418,4202.179688,4303.589844,4564.487305,4363.205078,4604.871582,,,,,,,,,,,,,,,,,,,,,,,,,,,,,,,,,,,,,,,,,,,,,,,,,,,,,,,,,,,,,,,,,,,,,,
1720178087,118,0,4546.666504,4282.563965,4426.282227,4368.846191,4351.794922,4327.94873,4334.871582,4287.94873,4272.05127,4195.769043,4289.358887,4548.717773,4372.820313,4596.794922,,,,,,,,,,,,,,,,,,,,,,,,,,,,,,,,,,,,,,,,,,,,,,,,,,,,,,,,,,,,,,,,,,,,,,
1720178087,119,0,4527.179688,4273.589844,4414.230957,4373.205078,4336.025879,4327.179688,4325.769043,4285.897461,4275.769043,4200.128418,4296.922852,4564.615234,4372.179688,4612.563965,5.385458,10.471313,2.335186,1.650584,1.00707,8.212379,10.155116,3.023,1.945811,0.428147,7.035371,11.462677,2.536068,1.878711,0.603246,4.989412,7.600223,2.362073,1.839844,0.618916,2.637728,2.01758,1.17726,0.760367,0.249757,0.266268,0.672689,0.124588,0.13864,0.097806,4.831223,6.249684,2.957582,1.501335,0.206203,4.381456,6.195128,3.143311,1.181924,0.206164,5.584973,4.591146,0.535833,0.84827,0.116073,2.27982,1.55415,0.993456,0.539587,0.225813,6.397531,5.752696,2.361042,1.990129,0.274674,10.134905,12.12672,4.140474,2.625446,0.62291,3.159287,8.026741,3.407664,2.080374,0.508588,4.476317,8.092896,3.780113,2.359988,0.490219
1720178087,120,0,4518.205078,4279.615234,4415.897461,4365.512695,4340.769043,4329.743652,4327.179688,4288.333496,4277.692383,4204.358887,4317.05127,4574.871582,4369.102539,4622.436035,,,,,,,,,,,,,,,,,,,,,,,,,,,,,,,,,,,,,,,,,,,,,,,,,,,,,,,,,,,,,,,,,,,,,,
1720178087,121,0,4522.179688,4292.436035,4413.077148,4351.922852,4346.538574,4327.05127,4327.436035,4282.820313,4265.897461,4197.436035,4291.922852,4547.436035,4365.897461,4594.102539,,,,,,,,,,,,,,,,,,,,,,,,,,,,,,,,,,,,,,,,,,,,,,,,,,,,,,,,,,,,,,,,,,,,,,
1720178087,122,0,4488.974121,4265.769043,4383.974121,4320.512695,4314.871582,4321.538574,4312.179688,4271.666504,4259.102539,4177.436035,4258.333496,4506.153809,4339.102539,4556.922852,,,,,,,,,,,,,,,,,,,,,,,,,,,,,,,,,,,,,,,,,,,,,,,,,,,,,,,,,,,,,,,,,,,,,,
1720178087,123,0,4437.820313,4221.153809,4340.384766,4284.230957,4273.461426,4312.94873,4289.102539,4251.922852,4251.666504,4153.461426,4257.436035,4487.692383,4294.743652,4535.512695,,,,,,,,,,,,,,,,,,,,,,,,,,,,,,,,,,,,,,,,,,,,,,,,,,,,,,,,,,,,,,,,,,,,,,
1720178087,124,0,4441.282227,4235.128418,4332.179688,4293.461426,4274.615234,4307.94873,4281.410156,4240.769043,4242.05127,4150.512695,4266.282227,4492.05127,4292.692383,4533.974121,,,,,,,,,,,,,,,,,,,,,,,,,,,,,,,,,,,,,,,,,,,,,,,,,,,,,,,,,,,,,,,,,,,,,,
1720178087,125,0,4483.717773,4283.974121,4374.871582,4333.846191,4308.077148,4318.974121,4306.025879,4267.692383,4261.025879,4174.487305,4291.794922,4525.512695,4330.897461,4565.384766,,,,,,,,,,,,,,,,,,,,,,,,,,,,,,,,,,,,,,,,,,,,,,,,,,,,,,,,,,,,,,,,,,,,,,
1720178087,126,0,4502.820313,4308.333496,4409.743652,4362.179688,4330.384766,4324.487305,4331.922852,4292.820313,4285.897461,4191.153809,4325.769043,4553.974121,4358.717773,4593.589844,,,,,,,,,,,,,,,,,,,,,,,,,,,,,,,,,,,,,,,,,,,,,,,,,,,,,,,,,,,,,,,,,,,,,,
1720178087,127,0,4505.384766,4313.077148,4401.794922,4365.769043,4331.922852,4320.512695,4321.794922,4280.256348,4275.897461,4187.563965,4340.128418,4545.512695,4375.897461,4592.436035,,,,,,,,,,,,,,,,,,,,,,,,,,,,,,,,,,,,,,,,,,,,,,,,,,,,,,,,,,,,,,,,,,,,,,
1720178087,0,0,4499.358887,4308.717773,4384.871582,4354.102539,4326.153809,4324.102539,4306.410156,4269.487305,4261.025879,4185.512695,4342.307617,4538.077148,4386.794922,4594.743652,,,,,,,,,,,,,,,,,,,,,,,,,,,,,,,,,,,,,,,,,,,,,,,,,,,,,,,,,,,,,,,,,,,,,,
1720178087,1,0,4480.641113,4293.077148,4388.846191,4343.461426,4323.589844,4326.282227,4316.282227,4276.025879,4265.384766,4185.897461,4350.256348,4547.692383,4381.025879,4602.94873,,,,,,,,,,,,,,,,,,,,,,,,,,,,,,,,,,,,,,,,,,,,,,,,,,,,,,,,,,,,,,,,,,,,,,
1720178087,2,0,4482.436035,4288.974121,4399.615234,4354.615234,4325,4325.769043,4332.179688,4287.307617,4268.077148,4183.846191,4355.769043,4562.563965,4373.205078,4600.512695,,,,,,,,,,,,,,,,,,,,,,,,,,,,,,,,,,,,,,,,,,,,,,,,,,,,,,,,,,,,,,,,,,,,,,
1720178087,3,0,4495.769043,4302.692383,4398.205078,4373.461426,4328.333496,4328.461426,4336.025879,4298.846191,4272.05127,4191.794922,4350.897461,4564.230957,4371.666504,4591.153809,,,,,,,,,,,,,,,,,,,,,,,,,,,,,,,,,,,,,,,,,,,,,,,,,,,,,,,,,,,,,,,,,,,,,,
1720178087,4,0,4482.05127,4306.025879,4387.820313,4370.769043,4328.205078,4328.717773,4332.179688,4300.897461,4281.410156,4200.769043,4347.563965,4547.307617,4364.487305,4582.307617,,,,,,,,,,,,,,,,,,,,,,,,,,,,,,,,,,,,,,,,,,,,,,,,,,,,,,,,,,,,,,,,,,,,,,
1720178087,5,0,4468.205078,4300,4384.615234,4358.589844,4318.717773,4326.794922,4329.871582,4296.794922,4281.922852,4200.641113,4359.358887,4539.743652,4363.589844,4581.282227,,,,,,,,,,,,,,,,,,,,,,,,,,,,,,,,,,,,,,,,,,,,,,,,,,,,,,,,,,,,,,,,,,,,,,
1720178087,6,0,4477.820313,4299.102539,4388.461426,4353.974121,4310.256348,4328.077148,4325.128418,4292.692383,4272.179688,4197.436035,4373.077148,4537.307617,4370.897461,4586.025879,,,,,,,,,,,,,,,,,,,,,,,,,,,,,,,,,,,,,,,,,,,,,,,,,,,,,,,,,,,,,,,,,,,,,,
1720178087,7,0,4482.94873,4301.025879,4392.179688,4360.769043,4314.615234,4325.256348,4317.563965,4285.128418,4265.512695,4191.282227,4371.538574,4526.153809,4368.461426,4583.205078,6.615621,10.770782,2.791109,1.602393,1.061811,9.900013,9.951653,3.494706,2.098392,0.43976,6.680088,11.872751,3.162079,1.971676,0.610883,5.219049,7.466245,2.523827,1.913235,0.665308,2.743029,1.600887,1.122399,0.769151,0.251859,0.272163,0.505097,0.090183,0.13805,0.096709,4.272572,5.267117,2.460413,1.441792,0.215478,4.037033,5.148424,2.639663,1.089648,0.210957,4.397869,3.743215,0.525676,0.700293,0.110629,1.935797,1.614279,1.055281,0.575188,0.221999,7.791213,6.98523,2.755817,2.443436,0.300457,8.987106,12.341458,4.662689,2.726332,0.648906,4.002266,7.866873,3.847941,2.177579,0.510888,5.941329,8.109447,4.935129,2.392293,0.520694
1720178087,8,0,4469.615234,4294.358887,4390.641113,4356.025879,4313.974121,4321.922852,4311.922852,4278.589844,4263.717773,4186.153809,4373.205078,4528.077148,4366.794922,4589.743652,,,,,,,,,,,,,,,,,,,,,,,,,,,,,,,,,,,,,,,,,,,,,,,,,,,,,,,,,,,,,,,,,,,,,,
1720178087,9,0,4457.820313,4289.102539,4378.077148,4341.153809,4309.487305,4325.128418,4310.897461,4278.461426,4260.384766,4185,4373.717773,4542.179688,4361.794922,4598.205078,,,,,,,,,,,,,,,,,,,,,,,,,,,,,,,,,,,,,,,,,,,,,,,,,,,,,,,,,,,,,,,,,,,,,,
1720178087,10,0,4451.922852,4296.794922,4367.307617,4342.436035,4317.05127,4323.461426,4312.05127,4277.692383,4254.871582,4185.128418,4368.717773,4531.794922,4359.358887,4586.538574,,,,,,,,,,,,,,,,,,,,,,,,,,,,,,,,,,,,,,,,,,,,,,,,,,,,,,,,,,,,,,,,,,,,,,
1720178087,11,0,4449.743652,4294.871582,4370.769043,4350.897461,4319.102539,4322.563965,4312.692383,4280.384766,4252.179688,4185.897461,4374.358887,4525.128418,4359.615234,4578.461426,,,,,,,,,,,,,,,,,,,,,,,,,,,,,,,,,,,,,,,,,,,,,,,,,,,,,,,,,,,,,,,,,,,,,,
1720178087,12,0,4441.410156,4282.179688,4370.897461,4348.846191,4309.487305,4324.358887,4305.769043,4277.94873,4253.846191,4186.794922,4387.05127,4528.077148,4356.282227,4578.077148,,,,,,,,,,,,,,,,,,,,,,,,,,,,,,,,,,,,,,,,,,,,,,,,,,,,,,,,,,,,,,,,,,,,,,
1720178087,13,0,4426.282227,4275.384766,4354.230957,4336.538574,4308.461426,4323.974121,4295.897461,4266.666504,4257.307617,4190.641113,4397.307617,4518.077148,4362.307617,4576.153809,,,,,,,,,,,,,,,,,,,,,,,,,,,,,,,,,,,,,,,,,,,,,,,,,,,,,,,,,,,,,,,,,,,,,,
1720178087,14,0,4429.743652,4277.436035,4348.846191,4337.179688,4308.974121,4327.436035,4299.743652,4268.717773,4261.538574,4194.230957,4395.256348,4517.563965,4371.794922,4573.846191,,,,,,,,,,,,,,,,,,,,,,,,,,,,,,,,,,,,,,,,,,,,,,,,,,,,,,,,,,,,,,,,,,,,,,
1720178087,15,0,4436.153809,4286.922852,4358.589844,4350.128418,4299.358887,4323.205078,4307.94873,4276.025879,4256.025879,4188.589844,4381.153809,4524.871582,4371.153809,4564.743652,,,,,,,,,,,,,,,,,,,,,,,,,,,,,,,,,,,,,,,,,,,,,,,,,,,,,,,,,,,,,,,,,,,,,,
1720178087,16,0,4415.769043,4289.230957,4351.025879,4344.871582,4290,4318.205078,4307.563965,4274.230957,4245.897461,4183.205078,4378.461426,4515.256348,4371.922852,4554.871582,,,,,,,,,,,,,,,,,,,,,,,,,,,,,,,,,,,,,,,,,,,,,,,,,,,,,,,,,,,,,,,,,,,,,,
1720178087,17,0,4400.512695,4281.153809,4340.384766,4335,4289.871582,4326.025879,4310.641113,4277.05127,4252.692383,4186.922852,4379.358887,4510.641113,4366.538574,4549.743652,,,,,,,,,,,,,,,,,,,,,,,,,,,,,,,,,,,,,,,,,,,,,,,,,,,,,,,,,,,,,,,,,,,,,,
1720178087,18,0,4420,4277.179688,4349.230957,4345.384766,4294.615234,4326.410156,4312.563965,4281.922852,4261.153809,4187.436035,4380.256348,4525.512695,4346.922852,4546.153809,,,,,,,,,,,,,,,,,,,,,,,,,,,,,,,,,,,,,,,,,,,,,,,,,,,,,,,,,,,,,,,,,,,,,,
1720178087,19,0,4429.358887,4279.871582,4359.102539,4341.410156,4296.794922,4319.743652,4304.102539,4280,4254.871582,4185.897461,4401.538574,4524.230957,4361.922852,4548.077148,,,,,,,,,,,,,,,,,,,,,,,,,,,,,,,,,,,,,,,,,,,,,,,,,,,,,,,,,,,,,,,,,,,,,,
1720178087,20,0,4415.256348,4283.077148,4362.563965,4321.153809,4295.897461,4320.384766,4295.128418,4273.461426,4244.487305,4186.538574,4409.487305,4510.384766,4391.794922,4554.230957,,,,,,,,,,,,,,,,,,,,,,,,,,,,,,,,,,,,,,,,,,,,,,,,,,,,,,,,,,,,,,,,,,,,,,
1720178087,21,0,4407.692383,4296.025879,4357.179688,4345.512695,4294.615234,4320.897461,4293.333496,4265.897461,4242.563965,4182.436035,4400.256348,4512.692383,4383.589844,4551.282227,,,,,,,,,,,,,,,,,,,,,,,,,,,,,,,,,,,,,,,,,,,,,,,,,,,,,,,,,,,,,,,,,,,,,,
1720178087,22,0,4406.410156,4297.692383,4345.384766,4371.025879,4285.769043,4320.897461,4294.743652,4266.538574,4246.922852,4184.871582,4414.743652,4520.256348,4381.410156,4552.307617,,,,,,,,,,,,,,,,,,,,,,,,,,,,,,,,,,,,,,,,,,,,,,,,,,,,,,,,,,,,,,,,,,,,,,
1720178087,23,0,4408.974121,4284.358887,4347.307617,4352.05127,4277.307617,4319.871582,4293.717773,4269.871582,4243.589844,4190.897461,4428.205078,4520.256348,4395,4560.512695,10.419564,11.414784,3.27179,1.605782,1.061105,11.726399,9.531298,3.733,2.190174,0.450952,6.82471,12.194611,3.673329,2.029929,0.609785,5.645561,7.290826,2.660636,1.968876,0.699689,2.837974,1.27046,1.061575,0.755355,0.252258,0.277856,0.347219,0.064183,0.131574,0.095076,3.644161,4.403864,1.953809,1.329098,0.221033,3.501944,4.135226,2.112889,0.97228,0.209933,3.199426,2.806071,0.547328,0.53631,0.106087,1.699514,1.676258,1.094527,0.597062,0.218405,9.125248,7.877339,3.059757,2.756711,0.341823,8.318222,12.680279,5.076237,2.749806,0.660997,5.763749,7.920802,4.219634,2.242428,0.509814,10.708246,8.762462,5.887959,2.363636,0.54954
1720178087,24,0,4413.205078,4293.077148,4356.025879,4339.358887,4279.358887,4313.717773,4291.153809,4267.307617,4235.384766,4184.230957,4408.333496,4520.256348,4384.743652,4553.077148,,,,,,,,,,,,,,,,,,,,,,,,,,,,,,,,,,,,,,,,,,,,,,,,,,,,,,,,,,,,,,,,,,,,,,
1720178087,25,0,4408.974121,4296.410156,4363.717773,4326.794922,4280.641113,4316.282227,4295.256348,4273.846191,4236.282227,4181.538574,4410.512695,4527.94873,4369.358887,4545.128418,,,,,,,,,,,,,,,,,,,,,,,,,,,,,,,,,,,,,,,,,,,,,,,,,,,,,,,,,,,,,,,,,,,,,,
1720178087,26,0,4392.05127,4276.410156,4363.077148,4315.897461,4280,4321.410156,4297.563965,4279.487305,4239.230957,4183.589844,4424.743652,4515.512695,4367.94873,4535,,,,,,,,,,,,,,,,,,,,,,,,,,,,,,,,,,,,,,,,,,,,,,,,,,,,,,,,,,,,,,,,,,,,,,
1720178087,27,0,4366.794922,4271.025879,4327.307617,4336.666504,4282.05127,4319.743652,4287.307617,4271.794922,4233.846191,4175.641113,4406.538574,4487.692383,4355.897461,4507.563965,,,,,,,,,,,,,,,,,,,,,,,,,,,,,,,,,,,,,,,,,,,,,,,,,,,,,,,,,,,,,,,,,,,,,,
1720178087,28,0,4351.922852,4283.717773,4294.102539,4343.205078,4278.589844,4321.153809,4281.153809,4269.743652,4231.025879,4166.538574,4412.179688,4486.282227,4347.94873,4500.769043,,,,,,,,,,,,,,,,,,,,,,,,,,,,,,,,,,,,,,,,,,,,,,,,,,,,,,,,,,,,,,,,,,,,,,
1720178087,29,0,4360.384766,4277.820313,4323.717773,4316.538574,4276.666504,4321.025879,4287.820313,4275.128418,4235.897461,4165,4438.974121,4490.769043,4372.05127,4515.769043,,,,,,,,,,,,,,,,,,,,,,,,,,,,,,,,,,,,,,,,,,,,,,,,,,,,,,,,,,,,,,,,,,,,,,
1720178087,30,0,4382.179688,4260.641113,4357.94873,4312.692383,4278.077148,4320.256348,4293.717773,4283.205078,4240.384766,4172.179688,4429.743652,4488.589844,4385.384766,4519.102539,,,,,,,,,,,,,,,,,,,,,,,,,,,,,,,,,,,,,,,,,,,,,,,,,,,,,,,,,,,,,,,,,,,,,,
1720178087,31,0,4387.307617,4268.461426,4343.589844,4334.871582,4273.461426,4321.410156,4295.897461,4295.641113,4241.922852,4183.205078,4423.974121,4500.769043,4373.461426,4519.230957,,,,,,,,,,,,,,,,,,,,,,,,,,,,,,,,,,,,,,,,,,,,,,,,,,,,,,,,,,,,,,,,,,,,,,
1720178087,32,0,4373.717773,4286.410156,4340.256348,4337.94873,4270.128418,4317.307617,4297.05127,4299.230957,4244.358887,4187.94873,4453.461426,4517.05127,4379.487305,4533.077148,,,,,,,,,,,,,,,,,,,,,,,,,,,,,,,,,,,,,,,,,,,,,,,,,,,,,,,,,,,,,,,,,,,,,,
1720178087,33,0,4376.410156,4297.05127,4360.769043,4339.487305,4275.641113,4316.666504,4296.282227,4295.641113,4248.205078,4189.230957,4460.641113,4522.820313,4402.563965,4542.307617,,,,,,,,,,,,,,,,,,,,,,,,,,,,,,,,,,,,,,,,,,,,,,,,,,,,,,,,,,,,,,,,,,,,,,
1720178088,34,0,4386.794922,4305.128418,4352.820313,4356.282227,4278.461426,4322.820313,4296.282227,4296.410156,4250.769043,4197.436035,4449.230957,4525.641113,4409.615234,4539.487305,,,,,,,,,,,,,,,,,,,,,,,,,,,,,,,,,,,,,,,,,,,,,,,,,,,,,,,,,,,,,,,,,,,,,,
1720178088,35,0,4376.153809,4312.563965,4325.512695,4362.307617,4277.692383,4317.307617,4293.333496,4293.333496,4245.256348,4198.846191,4458.589844,4527.94873,4402.563965,4541.025879,,,,,,,,,,,,,,,,,,,,,,,,,,,,,,,,,,,,,,,,,,,,,,,,,,,,,,,,,,,,,,,,,,,,,,
1720178088,36,0,4361.282227,4310.897461,4325.769043,4355.769043,4280.641113,4309.358887,4280.641113,4285.897461,4234.743652,4189.743652,4457.436035,4521.794922,4398.461426,4540.641113,,,,,,,,,,,,,,,,,,,,,,,,,,,,,,,,,,,,,,,,,,,,,,,,,,,,,,,,,,,,,,,,,,,,,,
1720178088,37,0,4368.333496,4309.102539,4343.205078,4361.153809,4278.205078,4317.94873,4278.333496,4287.692383,4228.461426,4185.769043,4443.077148,4516.410156,4394.743652,4530.897461,,,,,,,,,,,,,,,,,,,,,,,,,,,,,,,,,,,,,,,,,,,,,,,,,,,,,,,,,,,,,,,,,,,,,,
1720178088,38,0,4373.333496,4306.410156,4342.179688,4367.692383,4275.128418,4322.436035,4296.025879,4298.461426,4235.897461,4186.410156,4452.307617,4522.307617,4394.358887,4525.897461,,,,,,,,,,,,,,,,,,,,,,,,,,,,,,,,,,,,,,,,,,,,,,,,,,,,,,,,,,,,,,,,,,,,,,
1720178088,39,0,4354.102539,4303.077148,4325.641113,4346.922852,4280,4321.410156,4305,4302.94873,4248.846191,4195.256348,4471.282227,4524.102539,4398.461426,4525.384766,17.724205,12.471928,3.690768,1.635825,1.014665,13.225466,8.752974,3.606597,2.167333,0.460632,7.907537,12.105453,3.85641,2.002471,0.595834,6.356609,7.040017,2.654743,1.982247,0.714707,2.872244,1.121331,1.0097,0.732362,0.252892,0.28341,0.234204,0.049835,0.118961,0.092319,3.138363,3.706319,1.485429,1.174544,0.220839,2.965357,3.291257,1.606392,0.851696,0.201666,2.208193,1.996428,0.553294,0.400841,0.10339,1.626646,1.738668,1.085612,0.611622,0.216804,10.311708,8.145525,3.145682,2.80309,0.387664,8.857964,12.717323,5.121741,2.625536,0.646767,8.472403,8.133507,4.366077,2.207825,0.500546,19.904026,9.958982,6.379732,2.237006,0.562085
1720178088,40,0,4339.487305,4311.025879,4315.384766,4338.717773,4278.846191,4322.692383,4297.692383,4298.077148,4245.641113,4198.333496,4459.102539,4513.205078,4386.410156,4508.461426,,,,,,,,,,,,,,,,,,,,,,,,,,,,,,,,,,,,,,,,,,,,,,,,,,,,,,,,,,,,,,,,,,,,,,
1720178088,41,0,4346.794922,4306.794922,4325.641113,4346.922852,4271.282227,4318.589844,4299.102539,4298.461426,4234.358887,4185.384766,4443.333496,4500.769043,4372.820313,4494.615234,,,,,,,,,,,,,,,,,,,,,,,,,,,,,,,,,,,,,,,,,,,,,,,,,,,,,,,,,,,,,,,,,,,,,,
1720178088,42,0,4348.205078,4299.615234,4324.230957,4349.743652,4270.384766,4322.179688,4306.538574,4305.256348,4231.538574,4181.025879,4454.102539,4496.153809,4375.769043,4499.102539,,,,,,,,,,,,,,,,,,,,,,,,,,,,,,,,,,,,,,,,,,,,,,,,,,,,,,,,,,,,,,,,,,,,,,
1720178088,43,0,4324.102539,4310.128418,4306.666504,4363.333496,4268.333496,4324.615234,4305,4305.641113,4237.563965,4190.897461,4458.461426,4495.641113,4379.102539,4494.743652,,,,,,,,,,,,,,,,,,,,,,,,,,,,,,,,,,,,,,,,,,,,,,,,,,,,,,,,,,,,,,,,,,,,,,
1720178088,44,0,4321.922852,4312.179688,4332.563965,4366.666504,4266.153809,4319.615234,4309.615234,4308.717773,4246.794922,4196.282227,4459.743652,4509.871582,4387.820313,4500.897461,,,,,,,,,,,,,,,,,,,,,,,,,,,,,,,,,,,,,,,,,,,,,,,,,,,,,,,,,,,,,,,,,,,,,,
1720178088,45,0,4347.563965,4314.615234,4355.897461,4356.666504,4268.974121,4320.384766,4311.794922,4315.512695,4251.666504,4196.794922,4470.256348,4525.769043,4395.512695,4517.692383,,,,,,,,,,,,,,,,,,,,,,,,,,,,,,,,,,,,,,,,,,,,,,,,,,,,,,,,,,,,,,,,,,,,,,
1720178088,46,0,4353.589844,4324.487305,4326.410156,4361.153809,4269.487305,4319.230957,4296.410156,4307.436035,4251.666504,4202.05127,4473.589844,4516.794922,4390.384766,4511.922852,,,,,,,,,,,,,,,,,,,,,,,,,,,,,,,,,,,,,,,,,,,,,,,,,,,,,,,,,,,,,,,,,,,,,,
1720178088,47,0,4341.282227,4325.769043,4311.025879,4378.461426,4269.615234,4315.256348,4288.333496,4295.128418,4249.358887,4202.307617,4467.94873,4507.307617,4389.871582,4505.128418,,,,,,,,,,,,,,,,,,,,,,,,,,,,,,,,,,,,,,,,,,,,,,,,,,,,,,,,,,,,,,,,,,,,,,
1720178088,48,0,4326.410156,4332.692383,4318.717773,4380.128418,4269.615234,4318.333496,4291.153809,4293.974121,4248.077148,4196.922852,4462.436035,4502.692383,4400,4511.410156,,,,,,,,,,,,,,,,,,,,,,,,,,,,,,,,,,,,,,,,,,,,,,,,,,,,,,,,,,,,,,,,,,,,,,
1720178088,49,0,4318.846191,4339.358887,4313.974121,4362.307617,4264.230957,4320.128418,4287.94873,4294.358887,4245.128418,4200.641113,4453.333496,4497.692383,4401.666504,4512.820313,,,,,,,,,,,,,,,,,,,,,,,,,,,,,,,,,,,,,,,,,,,,,,,,,,,,,,,,,,,,,,,,,,,,,,
1720178088,50,0,4319.871582,4326.794922,4317.436035,4357.820313,4262.05127,4324.615234,4293.461426,4293.974121,4241.282227,4208.589844,4448.461426,4508.205078,4396.922852,4513.589844,,,,,,,,,,,,,,,,,,,,,,,,,,,,,,,,,,,,,,,,,,,,,,,,,,,,,,,,,,,,,,,,,,,,,,
1720178088,51,0,4325.769043,4328.846191,4325,4378.589844,4267.436035,4331.538574,4305.512695,4298.589844,4237.94873,4205.641113,4461.153809,4516.666504,4396.666504,4514.871582,,,,,,,,,,,,,,,,,,,,,,,,,,,,,,,,,,,,,,,,,,,,,,,,,,,,,,,,,,,,,,,,,,,,,,
1720178088,52,0,4326.282227,4338.589844,4316.922852,4380,4266.410156,4325,4307.436035,4306.153809,4239.615234,4205.256348,4466.794922,4505.769043,4396.025879,4502.94873,,,,,,,,,,,,,,,,,,,,,,,,,,,,,,,,,,,,,,,,,,,,,,,,,,,,,,,,,,,,,,,,,,,,,,
1720178088,53,0,4306.410156,4317.307617,4313.077148,4343.846191,4261.410156,4321.794922,4309.615234,4312.563965,4250.897461,4215.897461,4461.282227,4498.717773,4402.179688,4493.717773,,,,,,,,,,,,,,,,,,,,,,,,,,,,,,,,,,,,,,,,,,,,,,,,,,,,,,,,,,,,,,,,,,,,,,
1720178088,54,0,4280.641113,4310.256348,4297.692383,4337.179688,4258.205078,4325.512695,4309.615234,4313.461426,4260.256348,4220.641113,4456.922852,4497.05127,4402.692383,4485.641113,,,,,,,,,,,,,,,,,,,,,,,,,,,,,,,,,,,,,,,,,,,,,,,,,,,,,,,,,,,,,,,,,,,,,,
1720178088,55,0,4282.94873,4335.384766,4280.128418,4364.487305,4259.871582,4319.871582,4298.333496,4307.94873,4261.282227,4224.871582,4457.94873,4485.256348,4394.615234,4476.282227,27.411016,13.785116,3.997929,1.682699,0.951093,14.076893,7.606855,3.156838,2.046001,0.475127,9.8965,11.474209,3.648698,1.895154,0.58076,7.374844,6.752235,2.474387,1.971016,0.716212,2.842059,1.210561,0.980645,0.725852,0.258933,0.2854,0.183015,0.046119,0.102914,0.088059,2.86113,3.191552,1.066267,1.003315,0.218394,2.622521,2.688277,1.133492,0.75037,0.18959,1.605922,1.455401,0.519114,0.326169,0.106347,1.892726,1.798243,1.021671,0.632116,0.218907,11.403352,7.732972,2.979648,2.56763,0.432624,10.64816,12.226821,4.724635,2.36018,0.605939,11.722376,8.426118,4.239028,2.075085,0.484761,32.080231,11.396093,6.378254,2.024256,0.550376
1720178088,56,0,4299.487305,4348.846191,4289.102539,4375.641113,4261.025879,4316.538574,4293.589844,4307.563965,4263.717773,4231.410156,4473.974121,4486.922852,4398.461426,4487.436035,,,,,,,,,,,,,,,,,,,,,,,,,,,,,,,,,,,,,,,,,,,,,,,,,,,,,,,,,,,,,,,,,,,,,,
1720178088,57,0,4299.487305,4338.846191,4306.282227,4367.563965,4251.922852,4315.256348,4296.794922,4312.436035,4264.358887,4230.384766,4479.230957,4496.538574,4402.820313,4494.743652,,,,,,,,,,,,,,,,,,,,,,,,,,,,,,,,,,,,,,,,,,,,,,,,,,,,,,,,,,,,,,,,,,,,,,
1720178088,58,0,4293.077148,4327.692383,4309.102539,4355.512695,4251.538574,4312.692383,4294.743652,4311.410156,4255.256348,4229.743652,4467.436035,4492.436035,4398.846191,4486.410156,,,,,,,,,,,,,,,,,,,,,,,,,,,,,,,,,,,,,,,,,,,,,,,,,,,,,,,,,,,,,,,,,,,,,,
1720178088,59,0,4282.94873,4337.563965,4289.358887,4366.666504,4262.307617,4315.512695,4293.589844,4309.358887,4249.358887,4226.666504,4468.974121,4490.128418,4399.871582,4491.025879,,,,,,,,,,,,,,,,,,,,,,,,,,,,,,,,,,,,,,,,,,,,,,,,,,,,,,,,,,,,,,,,,,,,,,
1720178088,60,0,4270.256348,4356.794922,4277.05127,4388.974121,4261.153809,4321.282227,4295.897461,4308.846191,4246.282227,4213.333496,4475,4491.410156,4398.333496,4497.179688,,,,,,,,,,,,,,,,,,,,,,,,,,,,,,,,,,,,,,,,,,,,,,,,,,,,,,,,,,,,,,,,,,,,,,
1720178088,61,0,4276.282227,4356.282227,4298.974121,4373.717773,4251.794922,4320.769043,4294.743652,4302.820313,4239.358887,4214.487305,4470.641113,4488.974121,4392.692383,4490.769043,,,,,,,,,,,,,,,,,,,,,,,,,,,,,,,,,,,,,,,,,,,,,,,,,,,,,,,,,,,,,,,,,,,,,,
1720178088,62,0,4294.102539,4342.05127,4313.846191,4352.05127,4251.153809,4318.717773,4292.179688,4295.641113,4240.128418,4232.563965,4472.820313,4494.743652,4402.307617,4500.512695,,,,,,,,,,,,,,,,,,,,,,,,,,,,,,,,,,,,,,,,,,,,,,,,,,,,,,,,,,,,,,,,,,,,,,
1720178088,63,0,4292.94873,4341.922852,4297.436035,4366.153809,4252.563965,4317.179688,4291.794922,4295.769043,4238.461426,4232.563965,4469.871582,4501.538574,4410,4511.025879,,,,,,,,,,,,,,,,,,,,,,,,,,,,,,,,,,,,,,,,,,,,,,,,,,,,,,,,,,,,,,,,,,,,,,
1720178088,64,0,4284.743652,4344.871582,4293.589844,4372.692383,4247.563965,4313.589844,4298.461426,4303.205078,4231.538574,4216.538574,4457.436035,4503.717773,4400.897461,4502.563965,,,,,,,,,,,,,,,,,,,,,,,,,,,,,,,,,,,,,,,,,,,,,,,,,,,,,,,,,,,,,,,,,,,,,,
1720178088,65,0,4283.846191,4342.820313,4298.846191,4363.846191,4244.615234,4319.358887,4303.974121,4313.589844,4238.589844,4214.230957,4471.025879,4504.743652,4392.179688,4498.717773,,,,,,,,,,,,,,,,,,,,,,,,,,,,,,,,,,,,,,,,,,,,,,,,,,,,,,,,,,,,,,,,,,,,,,
1720178088,66,0,4282.179688,4350.512695,4285.769043,4372.436035,4247.436035,4318.461426,4300.256348,4311.282227,4249.102539,4224.230957,4491.538574,4492.94873,4395,4492.563965,,,,,,,,,,,,,,,,,,,,,,,,,,,,,,,,,,,,,,,,,,,,,,,,,,,,,,,,,,,,,,,,,,,,,,
1720178088,67,0,4277.94873,4352.820313,4281.538574,4366.282227,4249.230957,4309.487305,4292.692383,4299.615234,4244.230957,4230.512695,4490.641113,4481.922852,4400.256348,4488.974121,,,,,,,,,,,,,,,,,,,,,,,,,,,,,,,,,,,,,,,,,,,,,,,,,,,,,,,,,,,,,,,,,,,,,,
1720178088,68,0,4278.077148,4343.077148,4291.025879,4351.794922,4246.922852,4310.641113,4286.025879,4297.179688,4242.820313,4230.897461,4483.974121,4488.077148,4397.692383,4492.94873,,,,,,,,,,,,,,,,,,,,,,,,,,,,,,,,,,,,,,,,,,,,,,,,,,,,,,,,,,,,,,,,,,,,,,
1720178088,69,0,4279.487305,4348.717773,4286.538574,4372.692383,4247.94873,4310.384766,4279.743652,4291.410156,4245.512695,4231.153809,4484.230957,4488.717773,4399.487305,4485.256348,,,,,,,,,,,,,,,,,,,,,,,,,,,,,,,,,,,,,,,,,,,,,,,,,,,,,,,,,,,,,,,,,,,,,,
1720178088,70,0,4274.743652,4372.563965,4274.615234,4379.871582,4257.05127,4310,4274.102539,4277.692383,4236.410156,4234.871582,4484.230957,4483.717773,4409.358887,4486.410156,,,,,,,,,,,,,,,,,,,,,,,,,,,,,,,,,,,,,,,,,,,,,,,,,,,,,,,,,,,,,,,,,,,,,,
1720178088,71,0,4278.589844,4372.307617,4289.358887,4357.179688,4261.922852,4312.692383,4275.256348,4278.717773,4230.384766,4237.436035,4481.666504,4490.897461,4416.794922,4503.461426,37.234692,14.999689,4.144896,1.764531,0.902949,14.074686,6.291933,2.555202,1.897263,0.502357,12.216995,10.424314,3.143554,1.780378,0.592155,8.596768,6.523511,2.167892,1.982987,0.721191,2.744841,1.507242,0.986391,0.759341,0.274099,0.285638,0.186025,0.049869,0.087943,0.082528,2.804336,2.831976,0.725572,0.849029,0.220906,2.545273,2.343441,0.731373,0.686065,0.180506,1.320331,1.215998,0.457476,0.320599,0.119331,2.271766,1.855432,0.917664,0.668937,0.22358,12.213261,6.848275,2.647115,2.154499,0.478152,13.017519,11.261717,3.996335,2.041476,0.55229,14.615887,8.779479,3.895192,1.91837,0.474789,44.337337,12.7402,5.990462,1.789732,0.517814
1720178088,72,0,4287.692383,4349.743652,4300.256348,4358.205078,4253.333496,4312.692383,4286.025879,4295.256348,4233.974121,4231.922852,4480,4496.282227,4414.615234,4502.179688,,,,,,,,,,,,,,,,,,,,,,,,,,,,,,,,,,,,,,,,,,,,,,,,,,,,,,,,,,,,,,,,,,,,,,
1720178088,73,0,4283.077148,4343.974121,4283.717773,4367.692383,4244.487305,4314.230957,4297.692383,4307.179688,4236.410156,4233.461426,4476.922852,4490.897461,4408.077148,4488.589844,,,,,,,,,,,,,,,,,,,,,,,,,,,,,,,,,,,,,,,,,,,,,,,,,,,,,,,,,,,,,,,,,,,,,,
1720178088,74,0,4273.589844,4347.179688,4277.692383,4354.871582,4245.128418,4316.538574,4297.563965,4304.102539,4233.846191,4244.102539,4468.974121,4481.666504,4403.974121,4491.794922,,,,,,,,,,,,,,,,,,,,,,,,,,,,,,,,,,,,,,,,,,,,,,,,,,,,,,,,,,,,,,,,,,,,,,
1720178088,75,0,4278.461426,4349.743652,4283.205078,4353.333496,4251.025879,4317.05127,4289.230957,4296.922852,4233.205078,4241.922852,4469.615234,4476.666504,4402.307617,4496.666504,,,,,,,,,,,,,,,,,,,,,,,,,,,,,,,,,,,,,,,,,,,,,,,,,,,,,,,,,,,,,,,,,,,,,,
1720178088,76,0,4291.282227,4355.384766,4278.077148,4360.512695,4250.897461,4316.153809,4282.05127,4290.128418,4230.512695,4230.897461,4469.871582,4472.94873,4398.589844,4486.538574,,,,,,,,,,,,,,,,,,,,,,,,,,,,,,,,,,,,,,,,,,,,,,,,,,,,,,,,,,,,,,,,,,,,,,
1720178088,77,0,4297.436035,4356.666504,4277.563965,4353.846191,4246.794922,4310.897461,4276.538574,4282.05127,4220.128418,4229.102539,4461.282227,4464.743652,4392.563965,4481.410156,,,,,,,,,,,,,,,,,,,,,,,,,,,,,,,,,,,,,,,,,,,,,,,,,,,,,,,,,,,,,,,,,,,,,,
1720178088,78,0,4300.769043,4355.512695,4285.384766,4358.974121,4249.230957,4309.230957,4278.077148,4279.615234,4213.205078,4229.230957,4463.205078,4463.461426,4396.025879,4487.307617,,,,,,,,,,,,,,,,,,,,,,,,,,,,,,,,,,,,,,,,,,,,,,,,,,,,,,,,,,,,,,,,,,,,,,
1720178088,79,0,4312.820313,4366.538574,4290.256348,4361.538574,4252.436035,4318.077148,4281.282227,4288.333496,4219.230957,4231.153809,4471.410156,4474.358887,4403.461426,4493.461426,,,,,,,,,,,,,,,,,,,,,,,,,,,,,,,,,,,,,,,,,,,,,,,,,,,,,,,,,,,,,,,,,,,,,,
1720178088,80,0,4332.563965,4377.820313,4301.410156,4351.153809,4247.307617,4315,4280.384766,4294.615234,4230.384766,4241.153809,4464.230957,4481.666504,4407.307617,4491.538574,,,,,,,,,,,,,,,,,,,,,,,,,,,,,,,,,,,,,,,,,,,,,,,,,,,,,,,,,,,,,,,,,,,,,,
1720178088,81,0,4333.205078,4372.436035,4307.563965,4363.205078,4243.205078,4309.358887,4284.358887,4292.563965,4234.615234,4247.563965,4471.794922,4488.077148,4422.692383,4492.563965,,,,,,,,,,,,,,,,,,,,,,,,,,,,,,,,,,,,,,,,,,,,,,,,,,,,,,,,,,,,,,,,,,,,,,
1720178088,82,0,4311.666504,4365.897461,4301.153809,4375.769043,4248.974121,4316.282227,4290.641113,4294.871582,4235.384766,4249.358887,4485,4496.922852,4434.487305,4501.922852,,,,,,,,,,,,,,,,,,,,,,,,,,,,,,,,,,,,,,,,,,,,,,,,,,,,,,,,,,,,,,,,,,,,,,
1720178088,83,0,4296.666504,4367.05127,4288.717773,4357.179688,4252.05127,4318.717773,4290.641113,4296.538574,4234.102539,4250.512695,4467.436035,4484.743652,4416.410156,4488.461426,,,,,,,,,,,,,,,,,,,,,,,,,,,,,,,,,,,,,,,,,,,,,,,,,,,,,,,,,,,,,,,,,,,,,,
1720178088,84,0,4286.794922,4367.94873,4267.94873,4346.794922,4248.333496,4317.179688,4291.025879,4295.256348,4233.717773,4249.358887,4451.794922,4465.128418,4393.461426,4465.512695,,,,,,,,,,,,,,,,,,,,,,,,,,,,,,,,,,,,,,,,,,,,,,,,,,,,,,,,,,,,,,,,,,,,,,
1720178088,85,0,4276.025879,4354.102539,4258.974121,4349.871582,4248.589844,4313.846191,4292.179688,4297.563965,4240.641113,4249.358887,4460,4463.717773,4394.615234,4468.077148,,,,,,,,,,,,,,,,,,,,,,,,,,,,,,,,,,,,,,,,,,,,,,,,,,,,,,,,,,,,,,,,,,,,,,
1720178088,86,0,4275.128418,4338.461426,4259.230957,4331.410156,4250.769043,4311.922852,4286.794922,4299.871582,4243.974121,4250.256348,4471.153809,4465,4404.871582,4477.179688,,,,,,,,,,,,,,,,,,,,,,,,,,,,,,,,,,,,,,,,,,,,,,,,,,,,,,,,,,,,,,,,,,,,,,
1720178088,87,0,4278.461426,4348.589844,4253.077148,4326.922852,4248.205078,4314.615234,4280.512695,4297.563965,4233.461426,4249.230957,4472.179688,4460.128418,4401.794922,4470.897461,44.106754,15.72222,4.146337,1.913833,0.88971,13.092422,5.176793,2.031726,1.802833,0.543491,14.008038,9.290561,2.563146,1.75609,0.656969,9.653152,6.487242,1.854848,2.05367,0.750494,2.731235,1.901306,1.029017,0.835446,0.29607,0.285555,0.221921,0.058826,0.0782,0.076526,2.929772,2.595747,0.507798,0.743193,0.233685,2.719888,2.208188,0.450781,0.671146,0.179775,1.317644,1.193976,0.403093,0.369423,0.143172,2.838227,1.912745,0.811102,0.723279,0.227639,12.641364,5.870095,2.277647,1.732075,0.526645,14.878914,10.188491,3.218925,1.799225,0.505018,16.388577,9.226574,3.508795,1.830435,0.483646,52.486542,13.752975,5.440132,1.617976,0.475704
1720178088,88,0,4284.102539,4361.538574,4265.512695,4351.794922,4244.358887,4316.538574,4281.538574,4294.102539,4228.077148,4252.692383,4455.769043,4460.512695,4396.410156,4463.846191,,,,,,,,,,,,,,,,,,,,,,,,,,,,,,,,,,,,,,,,,,,,,,,,,,,,,,,,,,,,,,,,,,,,,,
1720178088,89,0,4297.307617,4371.794922,4294.871582,4368.205078,4248.717773,4316.922852,4285.769043,4297.436035,4235.769043,4267.436035,4451.025879,4473.717773,4407.307617,4475.769043,,,,,,,,,,,,,,,,,,,,,,,,,,,,,,,,,,,,,,,,,,,,,,,,,,,,,,,,,,,,,,,,,,,,,,
1720178088,90,0,4306.666504,4388.974121,4290.384766,4371.025879,4250.769043,4317.820313,4278.846191,4292.563965,4226.666504,4263.077148,4472.436035,4483.205078,4416.666504,4490.512695,,,,,,,,,,,,,,,,,,,,,,,,,,,,,,,,,,,,,,,,,,,,,,,,,,,,,,,,,,,,,,,,,,,,,,
1720178088,91,0,4284.487305,4356.922852,4253.974121,4328.974121,4225.384766,4309.358887,4248.077148,4259.615234,4192.307617,4230.384766,4453.205078,4444.871582,4382.820313,4460.512695,,,,,,,,,,,,,,,,,,,,,,,,,,,,,,,,,,,,,,,,,,,,,,,,,,,,,,,,,,,,,,,,,,,,,,
1720178088,92,0,4236.538574,4289.871582,4217.94873,4262.563965,4184.615234,4293.461426,4210.256348,4217.179688,4163.589844,4211.922852,4387.820313,4372.307617,4323.205078,4400.128418,,,,,,,,,,,,,,,,,,,,,,,,,,,,,,,,,,,,,,,,,,,,,,,,,,,,,,,,,,,,,,,,,,,,,,
1720178088,93,0,4226.922852,4292.692383,4208.077148,4275.641113,4179.615234,4300,4211.922852,4217.179688,4168.461426,4231.025879,4388.974121,4368.461426,4322.94873,4398.333496,,,,,,,,,,,,,,,,,,,,,,,,,,,,,,,,,,,,,,,,,,,,,,,,,,,,,,,,,,,,,,,,,,,,,,
1720178088,94,0,4266.666504,4350.384766,4240.641113,4335.512695,4211.153809,4312.94873,4255.256348,4262.820313,4199.102539,4255.769043,4448.077148,4439.871582,4383.333496,4452.692383,,,,,,,,,,,,,,,,,,,,,,,,,,,,,,,,,,,,,,,,,,,,,,,,,,,,,,,,,,,,,,,,,,,,,,
1720178088,95,0,4305.641113,4370,4281.410156,4347.820313,4231.282227,4310.641113,4290.384766,4300.641113,4224.487305,4265.384766,4476.538574,4484.487305,4421.153809,4484.871582,,,,,,,,,,,,,,,,,,,,,,,,,,,,,,,,,,,,,,,,,,,,,,,,,,,,,,,,,,,,,,,,,,,,,,
1720178088,96,0,4301.025879,4369.358887,4283.846191,4344.871582,4231.666504,4311.282227,4297.307617,4309.358887,4233.077148,4268.333496,4468.333496,4484.615234,4414.358887,4483.846191,,,,,,,,,,,,,,,,,,,,,,,,,,,,,,,,,,,,,,,,,,,,,,,,,,,,,,,,,,,,,,,,,,,,,,
1720178088,97,0,4286.794922,4383.717773,4283.077148,4347.820313,4232.307617,4314.230957,4296.922852,4312.94873,4236.282227,4258.717773,4466.410156,4491.153809,4410.769043,4482.179688,,,,,,,,,,,,,,,,,,,,,,,,,,,,,,,,,,,,,,,,,,,,,,,,,,,,,,,,,,,,,,,,,,,,,,
1720178088,98,0,4316.410156,4385.641113,4310.641113,4345,4235.256348,4314.102539,4295.769043,4316.025879,4239.743652,4248.333496,4482.563965,4508.974121,4425.256348,4498.461426,,,,,,,,,,,,,,,,,,,,,,,,,,,,,,,,,,,,,,,,,,,,,,,,,,,,,,,,,,,,,,,,,,,,,,
1720178088,99,0,4333.333496,4385.512695,4308.077148,4367.563965,4235.897461,4313.333496,4286.922852,4303.461426,4232.563965,4247.563965,4488.077148,4509.102539,4432.692383,4512.179688,,,,,,,,,,,,,,,,,,,,,,,,,,,,,,,,,,,,,,,,,,,,,,,,,,,,,,,,,,,,,,,,,,,,,,
1720178088,100,0,4307.94873,4396.794922,4278.846191,4384.615234,4235,4309.102539,4275.384766,4291.153809,4222.05127,4243.333496,4480.128418,4496.794922,4437.05127,4505.641113,,,,,,,,,,,,,,,,,,,,,,,,,,,,,,,,,,,,,,,,,,,,,,,,,,,,,,,,,,,,,,,,,,,,,,
1720178088,101,0,4298.589844,4395.128418,4280.769043,4361.922852,4232.820313,4306.538574,4268.333496,4293.846191,4215.256348,4241.666504,4472.563965,4493.077148,4440.769043,4497.692383,,,,,,,,,,,,,,,,,,,,,,,,,,,,,,,,,,,,,,,,,,,,,,,,,,,,,,,,,,,,,,,,,,,,,,
1720178088,102,0,4307.436035,4389.615234,4283.205078,4347.179688,4233.205078,4307.05127,4261.666504,4282.307617,4199.871582,4243.205078,4464.743652,4482.179688,4428.333496,4495.256348,,,,,,,,,,,,,,,,,,,,,,,,,,,,,,,,,,,,,,,,,,,,,,,,,,,,,,,,,,,,,,,,,,,,,,
1720178088,103,0,4301.410156,4387.436035,4275.256348,4343.846191,4234.743652,4308.333496,4256.538574,4263.974121,4184.487305,4243.589844,4456.666504,4467.179688,4418.205078,4493.974121,45.441761,15.518471,4.015336,2.116681,0.90712,11.531808,4.509141,1.723383,1.780375,0.595204,14.421225,8.288412,2.128312,1.866576,0.78109,10.212221,6.629782,1.603821,2.150882,0.821802,2.690121,2.240467,1.087118,0.922789,0.316533,0.281492,0.268665,0.071837,0.075646,0.07131,3.092757,2.458217,0.430978,0.700332,0.255293,2.999612,2.198188,0.30777,0.705244,0.188224,1.398813,1.282929,0.382598,0.446681,0.173852,3.214209,1.958072,0.734203,0.779416,0.228921,12.574997,5.104186,1.974952,1.428501,0.576278,15.531266,9.302688,2.646417,1.703925,0.475465,16.567842,9.648659,3.228944,1.833352,0.513933,54.316383,14.188623,4.911732,1.535747,0.435786
1720178088,104,0,4296.025879,4380.128418,4281.922852,4337.179688,4234.230957,4312.820313,4260.512695,4268.974121,4180.128418,4245.384766,4455.769043,4470.512695,4423.077148,4494.487305,,,,,,,,,,,,,,,,,,,,,,,,,,,,,,,,,,,,,,,,,,,,,,,,,,,,,,,,,,,,,,,,,,,,,,
1720178088,105,0,4291.794922,4380.641113,4267.563965,4353.077148,4232.692383,4310.384766,4258.846191,4271.922852,4171.794922,4247.94873,4455.128418,4465.384766,4418.333496,4481.153809,,,,,,,,,,,,,,,,,,,,,,,,,,,,,,,,,,,,,,,,,,,,,,,,,,,,,,,,,,,,,,,,,,,,,,
1720178088,106,0,4281.922852,4382.563965,4257.436035,4359.487305,4229.743652,4300.256348,4251.282227,4260.641113,4165.641113,4249.871582,4451.153809,4447.179688,4412.05127,4467.692383,,,,,,,,,,,,,,,,,,,,,,,,,,,,,,,,,,,,,,,,,,,,,,,,,,,,,,,,,,,,,,,,,,,,,,
1720178088,107,0,4295.512695,4378.974121,4286.922852,4346.410156,4229.871582,4305,4256.794922,4265.897461,4181.282227,4270.897461,4462.563965,4460.128418,4419.358887,4484.230957,,,,,,,,,,,,,,,,,,,,,,,,,,,,,,,,,,,,,,,,,,,,,,,,,,,,,,,,,,,,,,,,,,,,,,
1720178088,108,0,4301.922852,4384.615234,4282.436035,4341.666504,4231.538574,4310.641113,4267.692383,4284.358887,4202.692383,4297.692383,4466.153809,4482.563965,4419.743652,4499.102539,,,,,,,,,,,,,,,,,,,,,,,,,,,,,,,,,,,,,,,,,,,,,,,,,,,,,,,,,,,,,,,,,,,,,,
1720178088,109,0,4284.743652,4382.692383,4255.384766,4331.922852,4229.743652,4309.487305,4272.179688,4293.589844,4211.922852,4296.410156,4449.230957,4474.615234,4412.820313,4485.384766,,,,,,,,,,,,,,,,,,,,,,,,,,,,,,,,,,,,,,,,,,,,,,,,,,,,,,,,,,,,,,,,,,,,,,
1720178088,110,0,4282.307617,4373.205078,4264.230957,4333.974121,4229.615234,4313.846191,4275.256348,4293.974121,4216.282227,4294.615234,4447.436035,4464.615234,4408.974121,4478.461426,,,,,,,,,,,,,,,,,,,,,,,,,,,,,,,,,,,,,,,,,,,,,,,,,,,,,,,,,,,,,,,,,,,,,,
1720178088,111,0,4277.307617,4376.922852,4259.230957,4340.256348,4231.410156,4312.820313,4271.666504,4286.410156,4216.538574,4305.512695,4461.410156,4457.563965,4402.94873,4479.487305,,,,,,,,,,,,,,,,,,,,,,,,,,,,,,,,,,,,,,,,,,,,,,,,,,,,,,,,,,,,,,,,,,,,,,
1720178088,112,0,4268.846191,4369.230957,4238.461426,4321.410156,4225.769043,4311.666504,4265,4281.410156,4216.153809,4301.794922,4460.769043,4446.153809,4399.358887,4465.256348,,,,,,,,,,,,,,,,,,,,,,,,,,,,,,,,,,,,,,,,,,,,,,,,,,,,,,,,,,,,,,,,,,,,,,
1720178088,113,0,4275.769043,4353.461426,4243.974121,4312.436035,4218.846191,4311.666504,4264.102539,4282.307617,4215.256348,4292.05127,4448.333496,4446.153809,4398.846191,4457.692383,,,,,,,,,,,,,,,,,,,,,,,,,,,,,,,,,,,,,,,,,,,,,,,,,,,,,,,,,,,,,,,,,,,,,,
1720178088,114,0,4278.974121,4359.743652,4255,4322.94873,4221.666504,4304.871582,4256.666504,4271.794922,4208.461426,4297.436035,4451.282227,4446.538574,4395.641113,4471.282227,,,,,,,,,,,,,,,,,,,,,,,,,,,,,,,,,,,,,,,,,,,,,,,,,,,,,,,,,,,,,,,,,,,,,,
1720178088,115,0,4268.205078,4375.128418,4248.461426,4322.820313,4223.846191,4301.794922,4244.615234,4261.025879,4201.666504,4305.641113,4465.384766,4439.871582,4401.794922,4484.615234,,,,,,,,,,,,,,,,,,,,,,,,,,,,,,,,,,,,,,,,,,,,,,,,,,,,,,,,,,,,,,,,,,,,,,
1720178088,116,0,4267.94873,4386.282227,4241.153809,4329.358887,4219.615234,4303.461426,4244.871582,4262.563965,4201.282227,4306.282227,4462.179688,4440.256348,4410.641113,4478.717773,,,,,,,,,,,,,,,,,,,,,,,,,,,,,,,,,,,,,,,,,,,,,,,,,,,,,,,,,,,,,,,,,,,,,,
1720178088,117,0,4284.871582,4378.461426,4255.512695,4340.512695,4216.794922,4304.358887,4247.179688,4262.94873,4203.077148,4310.769043,4449.487305,4442.94873,4408.974121,4472.692383,,,,,,,,,,,,,,,,,,,,,,,,,,,,,,,,,,,,,,,,,,,,,,,,,,,,,,,,,,,,,,,,,,,,,,
1720178088,118,0,4286.794922,4360,4261.666504,4324.358887,4216.025879,4304.102539,4245.384766,4258.461426,4197.436035,4312.179688,4455.641113,4438.461426,4400.512695,4477.307617,,,,,,,,,,,,,,,,,,,,,,,,,,,,,,,,,,,,,,,,,,,,,,,,,,,,,,,,,,,,,,,,,,,,,,
1720178088,119,0,4267.05127,4366.282227,4239.358887,4303.205078,4214.230957,4302.179688,4254.615234,4264.743652,4187.94873,4304.871582,4456.153809,4435.897461,4383.461426,4462.692383,40.985386,14.256549,3.789938,2.312854,0.931589,9.310111,4.285376,1.645087,1.789726,0.653698,13.376683,7.442641,1.96273,2.081393,0.939283,9.975647,6.775691,1.428336,2.217386,0.939324,2.761921,2.407742,1.138682,0.974923,0.326037,0.272685,0.313672,0.088213,0.079306,0.068187,3.192244,2.46233,0.502004,0.723231,0.277644,3.256881,2.306852,0.315409,0.788421,0.201869,1.530945,1.475448,0.438798,0.529053,0.204753,3.422194,1.960235,0.704604,0.819808,0.228216,11.773174,4.679261,1.774307,1.2797,0.627535,14.546125,8.752324,2.401379,1.751247,0.467235,15.04357,9.869603,3.091288,1.8756,0.55983,48.650654,13.954,4.453692,1.50949,0.41035
1720178088,120,0,4246.410156,4379.615234,4228.461426,4302.179688,4213.205078,4301.153809,4271.153809,4281.282227,4194.487305,4304.358887,4443.077148,4442.94873,4380.128418,4443.974121,,,,,,,,,,,,,,,,,,,,,,,,,,,,,,,,,,,,,,,,,,,,,,,,,,,,,,,,,,,,,,,,,,,,,,
1720178088,121,0,4247.692383,4369.487305,4245.769043,4310.384766,4213.589844,4308.717773,4274.230957,4290.256348,4209.487305,4312.436035,4458.974121,4454.743652,4396.410156,4462.05127,,,,,,,,,,,,,,,,,,,,,,,,,,,,,,,,,,,,,,,,,,,,,,,,,,,,,,,,,,,,,,,,,,,,,,
1720178088,122,0,4267.05127,4358.974121,4252.692383,4317.94873,4215.769043,4307.05127,4260.897461,4280,4208.461426,4311.794922,4468.589844,4446.153809,4388.846191,4468.974121,,,,,,,,,,,,,,,,,,,,,,,,,,,,,,,,,,,,,,,,,,,,,,,,,,,,,,,,,,,,,,,,,,,,,,
1720178088,123,0,4260.897461,4373.333496,4231.153809,4323.461426,4219.358887,4295.384766,4247.436035,4263.077148,4199.358887,4308.974121,4433.974121,4418.333496,4359.871582,4436.922852,,,,,,,,,,,,,,,,,,,,,,,,,,,,,,,,,,,,,,,,,,,,,,,,,,,,,,,,,,,,,,,,,,,,,,
1720178088,124,0,4248.846191,4378.333496,4221.410156,4327.436035,4218.205078,4303.846191,4248.589844,4262.692383,4203.589844,4317.94873,4423.461426,4412.692383,4363.077148,4436.282227,,,,,,,,,,,,,,,,,,,,,,,,,,,,,,,,,,,,,,,,,,,,,,,,,,,,,,,,,,,,,,,,,,,,,,
1720178088,125,0,4260.769043,4362.563965,4236.410156,4318.461426,4216.410156,4314.743652,4259.487305,4273.974121,4211.794922,4323.717773,4449.230957,4427.05127,4382.307617,4466.666504,,,,,,,,,,,,,,,,,,,,,,,,,,,,,,,,,,,,,,,,,,,,,,,,,,,,,,,,,,,,,,,,,,,,,,
1720178088,126,0,4268.717773,4362.436035,4255.641113,4311.922852,4222.179688,4308.846191,4266.025879,4279.743652,4214.743652,4326.410156,4454.743652,4440.384766,4384.358887,4469.871582,,,,,,,,,,,,,,,,,,,,,,,,,,,,,,,,,,,,,,,,,,,,,,,,,,,,,,,,,,,,,,,,,,,,,,
1720178088,127,0,4264.743652,4380.769043,4256.538574,4329.871582,4220.769043,4305.512695,4264.487305,4277.94873,4218.077148,4336.282227,4451.025879,4452.307617,4388.974121,4462.820313,,,,,,,,,,,,,,,,,,,,,,,,,,,,,,,,,,,,,,,,,,,,,,,,,,,,,,,,,,,,,,,,,,,,,,
1720178088,0,0,4277.179688,4386.794922,4256.666504,4351.153809,4215.384766,4304.743652,4262.307617,4276.153809,4221.025879,4342.436035,4463.846191,4461.794922,4400.641113,4475.641113,,,,,,,,,,,,,,,,,,,,,,,,,,,,,,,,,,,,,,,,,,,,,,,,,,,,,,,,,,,,,,,,,,,,,,
1720178088,1,0,4289.615234,4390.256348,4270.256348,4356.794922,4223.077148,4303.461426,4262.820313,4276.153809,4217.563965,4348.589844,4475.641113,4466.794922,4407.94873,4490.256348,,,,,,,,,,,,,,,,,,,,,,,,,,,,,,,,,,,,,,,,,,,,,,,,,,,,,,,,,,,,,,,,,,,,,,
1720178088,2,0,4284.615234,4397.179688,4283.333496,4349.487305,4227.692383,4305.512695,4268.205078,4277.563965,4215.897461,4361.666504,4470.897461,4472.436035,4412.820313,4491.666504,,,,,,,,,,,,,,,,,,,,,,,,,,,,,,,,,,,,,,,,,,,,,,,,,,,,,,,,,,,,,,,,,,,,,,
1720178088,3,0,4286.794922,4385.256348,4281.666504,4341.794922,4217.436035,4304.487305,4276.025879,4284.230957,4223.077148,4370.641113,4465.897461,4479.871582,4419.358887,4493.717773,,,,,,,,,,,,,,,,,,,,,,,,,,,,,,,,,,,,,,,,,,,,,,,,,,,,,,,,,,,,,,,,,,,,,,
1720178088,4,0,4280.256348,4368.974121,4264.615234,4336.282227,4210.256348,4305.512695,4278.846191,4292.436035,4233.717773,4370.897461,4473.461426,4485.256348,4420.128418,4498.846191,,,,,,,,,,,,,,,,,,,,,,,,,,,,,,,,,,,,,,,,,,,,,,,,,,,,,,,,,,,,,,,,,,,,,,
1720178088,5,0,4261.794922,4366.794922,4259.615234,4327.436035,4214.743652,4306.282227,4280.384766,4296.153809,4239.230957,4372.179688,4474.358887,4484.102539,4416.666504,4499.358887,,,,,,,,,,,,,,,,,,,,,,,,,,,,,,,,,,,,,,,,,,,,,,,,,,,,,,,,,,,,,,,,,,,,,,
1720178088,6,0,4269.487305,4378.846191,4264.487305,4335.256348,4219.615234,4298.589844,4280.512695,4293.974121,4238.333496,4374.871582,4462.179688,4475.128418,4419.615234,4496.410156,,,,,,,,,,,,,,,,,,,,,,,,,,,,,,,,,,,,,,,,,,,,,,,,,,,,,,,,,,,,,,,,,,,,,,
1720178088,7,0,4290.128418,4395.384766,4266.153809,4353.077148,4219.102539,4301.794922,4278.077148,4293.974121,4234.615234,4375.512695,4466.153809,4473.717773,4425.769043,4497.179688,32.448002,12.099582,3.566656,2.437945,0.941594,7.44235,4.251106,1.739979,1.79633,0.719319,11.2317,6.582241,2.127472,2.328904,1.088532,9.126409,6.643703,1.347361,2.250219,1.090068,2.686685,2.361852,1.164335,0.964737,0.320674,0.250439,0.349743,0.10368,0.087538,0.068161,3.078064,2.713664,0.708746,0.821179,0.292509,3.302685,2.65866,0.499014,0.935998,0.217987,1.585662,1.968525,0.60429,0.608299,0.230787,3.300127,1.928887,0.722945,0.846343,0.229414,10.371251,4.527195,1.686176,1.240412,0.691773,12.661628,8.449094,2.51115,1.908567,0.486583,12.865892,9.645553,3.051672,1.902819,0.616103,38.772911,13.006778,4.019946,1.493091,0.416552
1720178088,8,0,4287.692383,4397.05127,4269.487305,4340.897461,4218.846191,4309.358887,4276.025879,4294.358887,4232.307617,4371.538574,4472.179688,4475.897461,4421.538574,4493.205078,,,,,,,,,,,,,,,,,,,,,,,,,,,,,,,,,,,,,,,,,,,,,,,,,,,,,,,,,,,,,,,,,,,,,,
1720178088,9,0,4270.384766,4394.615234,4266.153809,4332.563965,4223.077148,4304.487305,4275.897461,4293.846191,4233.461426,4368.333496,4455.128418,4466.538574,4407.820313,4480.769043,,,,,,,,,,,,,,,,,,,,,,,,,,,,,,,,,,,,,,,,,,,,,,,,,,,,,,,,,,,,,,,,,,,,,,
1720178088,10,0,4273.333496,4397.94873,4263.974121,4355.128418,4228.717773,4301.666504,4274.102539,4292.820313,4237.563965,4372.05127,4453.974121,4456.666504,4400.641113,4480.384766,,,,,,,,,,,,,,,,,,,,,,,,,,,,,,,,,,,,,,,,,,,,,,,,,,,,,,,,,,,,,,,,,,,,,,
1720178088,11,0,4283.717773,4402.05127,4262.179688,4360.512695,4230.384766,4304.230957,4270.128418,4286.922852,4230.641113,4372.307617,4468.846191,4455.128418,4400.384766,4486.410156,,,,,,,,,,,,,,,,,,,,,,,,,,,,,,,,,,,,,,,,,,,,,,,,,,,,,,,,,,,,,,,,,,,,,,
1720178088,12,0,4276.025879,4397.820313,4255.128418,4336.025879,4227.692383,4304.615234,4264.358887,4277.820313,4218.717773,4362.94873,4458.077148,4452.692383,4398.077148,4478.461426,,,,,,,,,,,,,,,,,,,,,,,,,,,,,,,,,,,,,,,,,,,,,,,,,,,,,,,,,,,,,,,,,,,,,,
1720178088,13,0,4266.153809,4386.282227,4247.563965,4328.077148,4219.871582,4301.538574,4253.846191,4266.282227,4213.846191,4354.358887,4438.461426,4442.94873,4388.077148,4463.333496,,,,,,,,,,,,,,,,,,,,,,,,,,,,,,,,,,,,,,,,,,,,,,,,,,,,,,,,,,,,,,,,,,,,,,
1720178088,14,0,4262.563965,4382.94873,4243.589844,4329.615234,4216.666504,4299.743652,4246.153809,4256.666504,4207.692383,4350.641113,4441.794922,4434.487305,4378.589844,4456.410156,,,,,,,,,,,,,,,,,,,,,,,,,,,,,,,,,,,,,,,,,,,,,,,,,,,,,,,,,,,,,,,,,,,,,,
1720178088,15,0,4270.641113,4378.461426,4254.358887,4315.128418,4219.615234,4303.589844,4251.538574,4256.922852,4203.077148,4351.922852,4452.563965,4442.05127,4383.333496,4461.153809,,,,,,,,,,,,,,,,,,,,,,,,,,,,,,,,,,,,,,,,,,,,,,,,,,,,,,,,,,,,,,,,,,,,,,
1720178088,16,0,4285.256348,4365,4262.692383,4314.487305,4217.820313,4305.897461,4260.512695,4263.333496,4208.461426,4354.487305,4444.743652,4450.256348,4387.307617,4467.563965,,,,,,,,,,,,,,,,,,,,,,,,,,,,,,,,,,,,,,,,,,,,,,,,,,,,,,,,,,,,,,,,,,,,,,
1720178088,17,0,4272.94873,4369.743652,4238.589844,4328.077148,4215.769043,4302.179688,4262.436035,4269.871582,4216.666504,4345.512695,4437.05127,4439.615234,4378.717773,4461.666504,,,,,,,,,,,,,,,,,,,,,,,,,,,,,,,,,,,,,,,,,,,,,,,,,,,,,,,,,,,,,,,,,,,,,,
1720178088,18,0,4245.897461,4384.102539,4220.897461,4318.974121,4215.897461,4302.94873,4263.205078,4278.205078,4224.487305,4339.358887,4449.487305,4437.307617,4375.512695,4457.94873,,,,,,,,,,,,,,,,,,,,,,,,,,,,,,,,,,,,,,,,,,,,,,,,,,,,,,,,,,,,,,,,,,,,,,
