Timestamp,EEG.Counter,EEG.Interpolated,EEG.AF3,EEG.F7,EEG.F3,EEG.FC5,EEG.T7,EEG.P7,EEG.O1,EEG.O2,EEG.P8,EEG.T8,EEG.FC6,EEG.F4,EEG.F8,EEG.AF4,POW.AF3.Theta,POW.AF3.Alpha,POW.AF3.BetaL,POW.AF3.BetaH,POW.AF3.Gamma,POW.F7.Theta,POW.F7.Alpha,POW.F7.BetaL,POW.F7.BetaH,POW.F7.Gamma,POW.F3.Theta,POW.F3.Alpha,POW.F3.BetaL,POW.F3.BetaH,POW.F3.Gamma,POW.FC5.Theta,POW.FC5.Alpha,POW.FC5.BetaL,POW.FC5.BetaH,POW.FC5.Gamma,POW.T7.Theta,POW.T7.Alpha,POW.T7.BetaL,POW.T7.BetaH,POW.T7.Gamma,POW.P7.Theta,POW.P7.Alpha,POW.P7.BetaL,POW.P7.BetaH,POW.P7.Gamma,POW.O1.Theta,POW.O1.Alpha,POW.O1.BetaL,POW.O1.BetaH,POW.O1.Gamma,POW.O2.Theta,POW.O2.Alpha,POW.O2.BetaL,POW.O2.BetaH,POW.O2.Gamma,POW.P8.Theta,POW.P8.Alpha,POW.P8.BetaL,POW.P8.BetaH,POW.P8.Gamma,POW.T8.Theta,POW.T8.Alpha,POW.T8.BetaL,POW.T8.BetaH,POW.T8.Gamma,POW.FC6.Theta,POW.FC6.Alpha,POW.FC6.BetaL,POW.FC6.BetaH,POW.FC6.Gamma,POW.F4.Theta,POW.F4.Alpha,POW.F4.BetaL,POW.F4.BetaH,POW.F4.Gamma,POW.F8.Theta,POW.F8.Alpha,POW.F8.BetaL,POW.F8.BetaH,POW.F8.Gamma,POW.AF4.Theta,POW.AF4.Alpha,POW.AF4.BetaL,POW.AF4.BetaH,POW.AF4.Gamma
1720076858,36,0,4302.692383,4339.102539,4299.615234,4328.717773,4375.256348,4377.179688,4399.615234,4508.846191,4355.641113,4307.563965,4255,4427.563965,4294.358887,4179.358887,,,,,,,,,,,,,,,,,,,,,,,,,,,,,,,,,,,,,,,,,,,,,,,,,,,,,,,,,,,,,,,,,,,,,,
1720076858,37,0,4309.358887,4344.743652,4305.384766,4333.077148,4374.871582,4371.410156,4404.358887,4526.282227,4375.641113,4318.717773,4267.563965,4438.333496,4289.615234,4191.153809,,,,,,,,,,,,,,,,,,,,,,,,,,,,,,,,,,,,,,,,,,,,,,,,,,,,,,,,,,,,,,,,,,,,,,
1720076858,38,0,4328.846191,4363.077148,4312.05127,4344.871582,4372.563965,4369.230957,4406.538574,4518.461426,4385.769043,4323.461426,4293.333496,4452.563965,4311.538574,4219.615234,,,,,,,,,,,,,,,,,,,,,,,,,,,,,,,,,,,,,,,,,,,,,,,,,,,,,,,,,,,,,,,,,,,,,,
1720076858,39,0,4321.410156,4358.589844,4310.769043,4345.897461,4372.307617,4366.410156,4402.436035,4513.077148,4358.846191,4319.230957,4278.717773,4447.692383,4307.179688,4218.205078,,,,,,,,,,,,,,,,,,,,,,,,,,,,,,,,,,,,,,,,,,,,,,,,,,,,,,,,,,,,,,,,,,,,,,
1720076858,40,0,4307.563965,4344.230957,4301.282227,4341.666504,4376.282227,4359.743652,4397.820313,4512.307617,4331.666504,4319.358887,4264.102539,4429.871582,4286.538574,4204.615234,,,,,,,,,,,,,,,,,,,,,,,,,,,,,,,,,,,,,,,,,,,,,,,,,,,,,,,,,,,,,,,,,,,,,,
1720076858,41,0,4319.358887,4347.94873,4301.025879,4341.922852,4381.025879,4361.410156,4397.692383,4497.94873,4322.94873,4314.615234,4274.102539,4420.512695,4297.05127,4209.487305,,,,,,,,,,,,,,,,,,,,,,,,,,,,,,,,,,,,,,,,,,,,,,,,,,,,,,,,,,,,,,,,,,,,,,
1720076858,42,0,4331.410156,4362.692383,4313.589844,4349.102539,4387.05127,4372.692383,4397.94873,4491.922852,4308.333496,4304.615234,4270.512695,4428.461426,4311.282227,4213.717773,,,,,,,,,,,,,,,,,,,,,,,,,,,,,,,,,,,,,,,,,,,,,,,,,,,,,,,,,,,,,,,,,,,,,,
1720076858,43,0,4327.820313,4373.589844,4317.307617,4357.05127,4389.358887,4374.743652,4395.769043,4490,4300.512695,4307.179688,4254.743652,4436.410156,4298.205078,4207.05127,4.778631,1.570542,1.620292,1.908834,0.341447,1.617612,1.20865,0.895863,1.232829,0.377628,0.893446,1.281628,1.654308,1.933371,0.352648,1.620319,1.052672,1.378636,0.850686,0.58376,7.199443,1.918176,2.069841,1.130911,0.252876,0.763023,1.069841,1.508809,1.629821,0.126365,1.015859,0.987826,0.620623,0.723918,0.16256,1.253763,1.28193,0.982781,1.641191,0.533386,0.975742,1.631428,2.436599,2.859306,0.534189,0.348542,0.411981,0.173804,0.338434,0.182526,1.016435,3.208148,1.45326,3.421256,0.872661,1.544005,2.835699,2.675698,3.954278,1.66014,1.844973,2.318728,1.357795,3.050584,0.761426,8.377809,2.923341,2.663765,3.843455,0.931022
1720076858,44,0,4323.205078,4367.94873,4309.871582,4349.487305,4382.820313,4365.384766,4394.358887,4486.922852,4317.436035,4317.179688,4264.487305,4437.94873,4294.871582,4211.282227,,,,,,,,,,,,,,,,,,,,,,,,,,,,,,,,,,,,,,,,,,,,,,,,,,,,,,,,,,,,,,,,,,,,,,
1720076858,45,0,4315,4350.384766,4299.102539,4330.641113,4374.743652,4360.897461,4394.102539,4491.538574,4337.563965,4320.384766,4273.205078,4432.563965,4301.025879,4215.384766,,,,,,,,,,,,,,,,,,,,,,,,,,,,,,,,,,,,,,,,,,,,,,,,,,,,,,,,,,,,,,,,,,,,,,
1720076858,46,0,4300.128418,4340.256348,4287.179688,4326.794922,4374.358887,4368.333496,4400.512695,4501.794922,4353.846191,4319.230957,4255.641113,4430,4285,4202.05127,,,,,,,,,,,,,,,,,,,,,,,,,,,,,,,,,,,,,,,,,,,,,,,,,,,,,,,,,,,,,,,,,,,,,,
1720076859,47,0,4294.743652,4339.102539,4284.743652,4336.538574,4375.256348,4378.846191,4412.307617,4503.717773,4363.589844,4321.666504,4245.512695,4426.922852,4268.974121,4188.974121,,,,,,,,,,,,,,,,,,,,,,,,,,,,,,,,,,,,,,,,,,,,,,,,,,,,,,,,,,,,,,,,,,,,,,
1720076859,48,0,4296.025879,4341.025879,4293.077148,4340.256348,4379.358887,4384.487305,4413.333496,4497.94873,4354.230957,4318.974121,4259.487305,4420.641113,4283.333496,4193.846191,,,,,,,,,,,,,,,,,,,,,,,,,,,,,,,,,,,,,,,,,,,,,,,,,,,,,,,,,,,,,,,,,,,,,,
1720076859,49,0,4292.307617,4348.333496,4292.05127,4331.666504,4387.820313,4382.05127,4399.871582,4488.974121,4341.282227,4313.077148,4264.102539,4423.077148,4298.205078,4203.461426,,,,,,,,,,,,,,,,,,,,,,,,,,,,,,,,,,,,,,,,,,,,,,,,,,,,,,,,,,,,,,,,,,,,,,
1720076859,50,0,4296.538574,4362.94873,4292.692383,4335.512695,4390,4371.666504,4387.179688,4482.692383,4342.94873,4319.871582,4250.512695,4431.282227,4289.743652,4205.641113,,,,,,,,,,,,,,,,,,,,,,,,,,,,,,,,,,,,,,,,,,,,,,,,,,,,,,,,,,,,,,,,,,,,,,
1720076859,51,0,4307.436035,4366.025879,4304.487305,4352.820313,4385.897461,4360.128418,4380.256348,4476.666504,4338.333496,4325.897461,4256.282227,4432.179688,4287.692383,4210.769043,,,,,,,,,,,,,,,,,,,,,,,,,,,,,,,,,,,,,,,,,,,,,,,,,,,,,,,,,,,,,,,,,,,,,,
1720076859,52,0,4310.769043,4361.538574,4314.487305,4358.205078,4381.794922,4356.538574,4384.358887,4475.897461,4325.384766,4317.179688,4276.025879,4432.692383,4303.846191,4221.025879,,,,,,,,,,,,,,,,,,,,,,,,,,,,,,,,,,,,,,,,,,,,,,,,,,,,,,,,,,,,,,,,,,,,,,
1720076859,53,0,4320.256348,4371.538574,4331.538574,4358.205078,4381.794922,4363.589844,4402.563965,4495.641113,4327.05127,4317.307617,4293.974121,4461.794922,4315.128418,4235.512695,,,,,,,,,,,,,,,,,,,,,,,,,,,,,,,,,,,,,,,,,,,,,,,,,,,,,,,,,,,,,,,,,,,,,,
1720076859,54,0,4335.641113,4387.05127,4344.487305,4367.436035,4387.05127,4372.820313,4411.922852,4494.871582,4332.179688,4325.641113,4291.922852,4483.205078,4308.589844,4244.487305,,,,,,,,,,,,,,,,,,,,,,,,,,,,,,,,,,,,,,,,,,,,,,,,,,,,,,,,,,,,,,,,,,,,,,
1720076859,55,0,4334.615234,4389.102539,4335.512695,4372.692383,4398.461426,4383.589844,4409.743652,4476.410156,4329.743652,4320.512695,4275.769043,4460.897461,4309.871582,4240.769043,,,,,,,,,,,,,,,,,,,,,,,,,,,,,,,,,,,,,,,,,,,,,,,,,,,,,,,,,,,,,,,,,,,,,,
1720076859,56,0,4323.333496,4377.820313,4323.846191,4366.410156,4400.769043,4390.769043,4411.794922,4487.563965,4336.922852,4317.94873,4271.153809,4437.179688,4313.461426,4234.487305,,,,,,,,,,,,,,,,,,,,,,,,,,,,,,,,,,,,,,,,,,,,,,,,,,,,,,,,,,,,,,,,,,,,,,
1720076859,57,0,4319.615234,4365.384766,4318.333496,4359.615234,4384.487305,4381.410156,4406.922852,4491.922852,4357.179688,4326.282227,4266.282227,4438.077148,4293.846191,4231.410156,,,,,,,,,,,,,,,,,,,,,,,,,,,,,,,,,,,,,,,,,,,,,,,,,,,,,,,,,,,,,,,,,,,,,,
1720076859,58,0,4321.794922,4363.974121,4317.179688,4356.025879,4378.077148,4370.384766,4399.102539,4484.230957,4368.461426,4329.358887,4272.436035,4452.307617,4290,4235.897461,,,,,,,,,,,,,,,,,,,,,,,,,,,,,,,,,,,,,,,,,,,,,,,,,,,,,,,,,,,,,,,,,,,,,,
1720076859,59,0,4333.717773,4378.205078,4328.974121,4365,4389.743652,4373.974121,4405.897461,4491.025879,4362.307617,4326.794922,4293.077148,4467.94873,4318.333496,4249.102539,5.091603,1.801797,2.07637,2.174126,0.355317,1.48221,1.249717,1.241735,1.442715,0.373783,1.11978,1.5597,1.993405,1.960191,0.365152,1.654274,0.968255,1.758776,0.907213,0.614324,7.669253,2.10682,2.01873,1.113949,0.26075,0.765794,1.376706,1.630494,1.805194,0.109981,1.144013,1.003846,0.594924,0.838099,0.159578,0.90204,1.213412,0.887988,1.487307,0.543609,0.957585,1.62303,3.077575,2.793533,0.585369,0.319085,0.381452,0.156083,0.384506,0.189956,1.335265,3.012766,1.414286,3.135404,0.794095,2.025891,2.952922,2.371005,3.93453,1.623676,2.381058,2.189921,1.333274,3.00207,0.719607,6.201314,2.690501,2.322145,3.874966,0.932274
1720076859,60,0,4351.410156,4386.410156,4341.666504,4377.692383,4394.487305,4380.384766,4416.025879,4489.871582,4351.282227,4322.820313,4297.179688,4476.025879,4327.692383,4260,,,,,,,,,,,,,,,,,,,,,,,,,,,,,,,,,,,,,,,,,,,,,,,,,,,,,,,,,,,,,,,,,,,,,,
1720076859,61,0,4357.179688,4376.922852,4339.615234,4369.743652,4390.384766,4382.94873,4417.94873,4478.461426,4335.256348,4314.358887,4289.230957,4476.538574,4306.922852,4256.410156,,,,,,,,,,,,,,,,,,,,,,,,,,,,,,,,,,,,,,,,,,,,,,,,,,,,,,,,,,,,,,,,,,,,,,
1720076859,62,0,4348.461426,4374.230957,4336.794922,4354.358887,4393.333496,4384.743652,4418.077148,4471.666504,4313.846191,4308.077148,4285.769043,4466.922852,4301.025879,4250,,,,,,,,,,,,,,,,,,,,,,,,,,,,,,,,,,,,,,,,,,,,,,,,,,,,,,,,,,,,,,,,,,,,,,
1720076859,63,0,4345.128418,4384.358887,4336.666504,4354.230957,4398.974121,4382.307617,4414.615234,4461.282227,4313.846191,4313.589844,4284.358887,4446.153809,4323.333496,4255.384766,,,,,,,,,,,,,,,,,,,,,,,,,,,,,,,,,,,,,,,,,,,,,,,,,,,,,,,,,,,,,,,,,,,,,,
1720076859,64,0,4354.230957,4390.641113,4332.05127,4363.589844,4397.436035,4378.461426,4409.871582,4461.153809,4342.820313,4326.025879,4294.743652,4454.102539,4332.692383,4261.666504,,,,,,,,,,,,,,,,,,,,,,,,,,,,,,,,,,,,,,,,,,,,,,,,,,,,,,,,,,,,,,,,,,,,,,
1720076859,65,0,4353.846191,4385.769043,4321.922852,4362.820313,4396.282227,4377.820313,4406.794922,4473.333496,4363.205078,4332.94873,4302.820313,4476.025879,4310.256348,4251.666504,,,,,,,,,,,,,,,,,,,,,,,,,,,,,,,,,,,,,,,,,,,,,,,,,,,,,,,,,,,,,,,,,,,,,,
1720076859,66,0,4338.205078,4373.717773,4310.128418,4351.538574,4394.102539,4373.205078,4395.769043,4461.410156,4356.794922,4325.256348,4280.641113,4439.871582,4297.563965,4233.717773,,,,,,,,,,,,,,,,,,,,,,,,,,,,,,,,,,,,,,,,,,,,,,,,,,,,,,,,,,,,,,,,,,,,,,
1720076859,67,0,4338.205078,4367.436035,4315.641113,4353.717773,4393.846191,4371.538574,4393.846191,4458.333496,4351.153809,4321.153809,4261.538574,4418.974121,4305,4231.794922,,,,,,,,,,,,,,,,,,,,,,,,,,,,,,,,,,,,,,,,,,,,,,,,,,,,,,,,,,,,,,,,,,,,,,
1720076859,68,0,4357.820313,4376.410156,4331.538574,4364.230957,4400.641113,4379.230957,4408.333496,4473.077148,4361.410156,4328.333496,4271.922852,4461.922852,4303.717773,4242.563965,,,,,,,,,,,,,,,,,,,,,,,,,,,,,,,,,,,,,,,,,,,,,,,,,,,,,,,,,,,,,,,,,,,,,,
1720076859,69,0,4356.410156,4382.179688,4328.589844,4353.461426,4401.794922,4382.820313,4415,4470.897461,4370.256348,4332.563965,4273.846191,4472.179688,4291.410156,4244.743652,,,,,,,,,,,,,,,,,,,,,,,,,,,,,,,,,,,,,,,,,,,,,,,,,,,,,,,,,,,,,,,,,,,,,,
1720076859,70,0,4341.538574,4379.102539,4315.769043,4343.205078,4394.615234,4379.871582,4412.05127,4468.461426,4361.025879,4331.538574,4258.974121,4439.487305,4287.692383,4235.769043,,,,,,,,,,,,,,,,,,,,,,,,,,,,,,,,,,,,,,,,,,,,,,,,,,,,,,,,,,,,,,,,,,,,,,
1720076859,71,0,4349.871582,4382.692383,4320.256348,4360.256348,4395.769043,4379.871582,4412.563965,4469.871582,4345.256348,4322.820313,4266.153809,4433.974121,4300.256348,4235.128418,,,,,,,,,,,,,,,,,,,,,,,,,,,,,,,,,,,,,,,,,,,,,,,,,,,,,,,,,,,,,,,,,,,,,,
1720076859,72,0,4366.282227,4389.102539,4338.333496,4377.563965,4410,4384.743652,4417.436035,4468.717773,4343.461426,4317.179688,4299.358887,4459.615234,4321.153809,4255.769043,,,,,,,,,,,,,,,,,,,,,,,,,,,,,,,,,,,,,,,,,,,,,,,,,,,,,,,,,,,,,,,,,,,,,,
1720076859,73,0,4368.077148,4390.512695,4341.282227,4377.179688,4412.436035,4386.538574,4417.179688,4463.333496,4338.974121,4320.384766,4302.563965,4476.922852,4317.94873,4263.717773,,,,,,,,,,,,,,,,,,,,,,,,,,,,,,,,,,,,,,,,,,,,,,,,,,,,,,,,,,,,,,,,,,,,,,
1720076859,74,0,4364.743652,4386.025879,4327.307617,4366.794922,4397.692383,4379.871582,4405.769043,4450.641113,4321.410156,4317.179688,4274.743652,4456.153809,4293.717773,4243.461426,,,,,,,,,,,,,,,,,,,,,,,,,,,,,,,,,,,,,,,,,,,,,,,,,,,,,,,,,,,,,,,,,,,,,,
1720076859,75,0,4364.743652,4379.743652,4326.538574,4356.922852,4397.436035,4380.512695,4399.358887,4448.974121,4323.077148,4314.102539,4272.820313,4439.230957,4292.436035,4241.922852,5.717308,1.984884,2.55755,2.402149,0.385318,1.410215,1.279481,1.663752,1.63504,0.375383,1.468908,1.776015,2.347621,1.958937,0.381687,1.676648,0.892622,2.13886,1.025252,0.653207,7.009785,2.01715,1.822988,1.022515,0.26149,0.828771,1.618857,1.846577,1.915775,0.10274,1.199535,0.935394,0.590974,0.972992,0.169261,0.70008,1.083025,0.789912,1.354267,0.561653,0.927899,1.649243,4.033824,2.992973,0.624643,0.27264,0.354668,0.180472,0.449777,0.199877,1.759902,2.597713,1.516782,2.882412,0.782956,2.607635,2.799763,2.06883,3.859921,1.61304,3.140835,1.892869,1.420199,2.871325,0.743046,5.249822,2.440163,2.177148,3.877767,1.001937
1720076859,76,0,4370.384766,4383.333496,4338.846191,4359.743652,4407.307617,4392.05127,4409.871582,4464.871582,4344.487305,4320,4278.205078,4467.94873,4300.384766,4259.615234,,,,,,,,,,,,,,,,,,,,,,,,,,,,,,,,,,,,,,,,,,,,,,,,,,,,,,,,,,,,,,,,,,,,,,
1720076859,77,0,4376.794922,4390,4332.94873,4361.922852,4404.487305,4390.512695,4415.769043,4467.94873,4344.615234,4318.461426,4265,4471.666504,4294.230957,4253.846191,,,,,,,,,,,,,,,,,,,,,,,,,,,,,,,,,,,,,,,,,,,,,,,,,,,,,,,,,,,,,,,,,,,,,,
1720076859,78,0,4361.025879,4373.461426,4314.102539,4349.615234,4400.897461,4382.820313,4410.384766,4458.846191,4334.615234,4313.717773,4264.615234,4433.077148,4291.025879,4234.615234,,,,,,,,,,,,,,,,,,,,,,,,,,,,,,,,,,,,,,,,,,,,,,,,,,,,,,,,,,,,,,,,,,,,,,
1720076859,79,0,4348.333496,4361.153809,4315.641113,4348.717773,4408.717773,4391.666504,4415,4461.153809,4352.820313,4322.820313,4279.358887,4435.769043,4299.871582,4236.794922,,,,,,,,,,,,,,,,,,,,,,,,,,,,,,,,,,,,,,,,,,,,,,,,,,,,,,,,,,,,,,,,,,,,,,
1720076859,80,0,4367.307617,4380.641113,4326.666504,4362.563965,4409.102539,4402.820313,4420.128418,4458.333496,4371.282227,4328.589844,4286.538574,4450.897461,4302.179688,4246.410156,,,,,,,,,,,,,,,,,,,,,,,,,,,,,,,,,,,,,,,,,,,,,,,,,,,,,,,,,,,,,,,,,,,,,,
1720076859,81,0,4370.256348,4378.846191,4317.692383,4358.333496,4399.358887,4394.871582,4408.461426,4458.846191,4360.128418,4326.794922,4275.256348,4437.307617,4284.615234,4239.358887,,,,,,,,,,,,,,,,,,,,,,,,,,,,,,,,,,,,,,,,,,,,,,,,,,,,,,,,,,,,,,,,,,,,,,
1720076859,82,0,4354.871582,4354.230957,4305.769043,4343.717773,4401.666504,4382.692383,4400.897461,4462.179688,4350.769043,4331.025879,4253.461426,4440.128418,4270.769043,4229.358887,,,,,,,,,,,,,,,,,,,,,,,,,,,,,,,,,,,,,,,,,,,,,,,,,,,,,,,,,,,,,,,,,,,,,,
1720076859,83,0,4367.692383,4363.077148,4313.461426,4348.077148,4408.589844,4380.641113,4408.205078,4458.333496,4357.307617,4328.846191,4250.512695,4449.743652,4279.743652,4233.333496,,,,,,,,,,,,,,,,,,,,,,,,,,,,,,,,,,,,,,,,,,,,,,,,,,,,,,,,,,,,,,,,,,,,,,
1720076859,84,0,4389.358887,4389.615234,4330.128418,4364.102539,4407.820313,4383.589844,4412.820313,4471.282227,4351.025879,4321.282227,4269.102539,4459.743652,4292.820313,4241.153809,,,,,,,,,,,,,,,,,,,,,,,,,,,,,,,,,,,,,,,,,,,,,,,,,,,,,,,,,,,,,,,,,,,,,,
1720076859,85,0,4387.307617,4392.179688,4333.717773,4369.871582,4406.794922,4384.743652,4412.05127,4473.205078,4339.487305,4323.974121,4274.102539,4469.743652,4291.410156,4237.05127,,,,,,,,,,,,,,,,,,,,,,,,,,,,,,,,,,,,,,,,,,,,,,,,,,,,,,,,,,,,,,,,,,,,,,
1720076859,86,0,4390,4384.743652,4329.871582,4367.820313,4410.641113,4386.282227,4415.256348,4456.794922,4345.384766,4332.05127,4276.794922,4456.922852,4291.922852,4243.717773,,,,,,,,,,,,,,,,,,,,,,,,,,,,,,,,,,,,,,,,,,,,,,,,,,,,,,,,,,,,,,,,,,,,,,
1720076859,87,0,4395.512695,4381.538574,4326.794922,4362.94873,4412.820313,4393.589844,4412.563965,4450.384766,4349.358887,4327.179688,4282.692383,4435.897461,4293.589844,4253.205078,,,,,,,,,,,,,,,,,,,,,,,,,,,,,,,,,,,,,,,,,,,,,,,,,,,,,,,,,,,,,,,,,,,,,,
1720076859,88,0,4386.153809,4381.410156,4320,4357.94873,4411.922852,4398.077148,4401.538574,4443.205078,4342.307617,4314.871582,4269.615234,4429.230957,4290.384766,4242.05127,,,,,,,,,,,,,,,,,,,,,,,,,,,,,,,,,,,,,,,,,,,,,,,,,,,,,,,,,,,,,,,,,,,,,,
1720076859,89,0,4385.256348,4384.358887,4320,4362.820313,4415.256348,4398.589844,4404.102539,4442.820313,4346.153809,4320.512695,4263.717773,4439.871582,4293.077148,4238.589844,,,,,,,,,,,,,,,,,,,,,,,,,,,,,,,,,,,,,,,,,,,,,,,,,,,,,,,,,,,,,,,,,,,,,,
1720076859,90,0,4393.205078,4375.256348,4321.410156,4367.820313,4416.282227,4396.025879,4413.846191,4459.615234,4361.538574,4335.641113,4272.94873,4452.307617,4292.307617,4244.743652,,,,,,,,,,,,,,,,,,,,,,,,,,,,,,,,,,,,,,,,,,,,,,,,,,,,,,,,,,,,,,,,,,,,,,
1720076859,91,0,4396.025879,4374.743652,4324.743652,4365.512695,4411.410156,4391.153809,4415.384766,4469.743652,4376.922852,4335.256348,4281.538574,4463.589844,4297.05127,4248.333496,6.897835,2.142211,2.915256,2.512032,0.422895,1.416717,1.343998,2.022215,1.756057,0.382225,1.986752,1.931537,2.597907,1.89109,0.3996,1.724395,0.876847,2.410788,1.170763,0.692809,5.477487,1.692342,1.52731,0.88802,0.254026,0.914322,1.733339,2.044831,1.924809,0.104876,1.184052,0.82031,0.614463,1.089342,0.189215,0.625001,0.919018,0.704214,1.286695,0.582244,0.970227,1.861296,5.206274,3.555422,0.651245,0.225344,0.321383,0.241781,0.529996,0.209431,2.27365,2.064099,1.658791,2.706541,0.821913,3.255481,2.417916,1.759673,3.733584,1.636227,3.935976,1.520284,1.480052,2.685801,0.816804,5.254286,2.142445,2.095946,3.818641,1.123297
1720076859,92,0,4401.922852,4393.077148,4339.102539,4369.358887,4411.410156,4393.589844,4416.922852,4472.94873,4386.538574,4330.384766,4294.358887,4472.179688,4316.025879,4266.538574,,,,,,,,,,,,,,,,,,,,,,,,,,,,,,,,,,,,,,,,,,,,,,,,,,,,,,,,,,,,,,,,,,,,,,
1720076859,93,0,4413.589844,4399.358887,4351.538574,4379.871582,4422.820313,4396.282227,4414.615234,4475,4373.974121,4335,4294.871582,4482.436035,4317.179688,4280,,,,,,,,,,,,,,,,,,,,,,,,,,,,,,,,,,,,,,,,,,,,,,,,,,,,,,,,,,,,,,,,,,,,,,
1720076859,94,0,4418.333496,4396.794922,4350.769043,4385.769043,4430.384766,4392.05127,4399.487305,4447.820313,4346.538574,4329.358887,4278.846191,4478.205078,4302.179688,4262.179688,,,,,,,,,,,,,,,,,,,,,,,,,,,,,,,,,,,,,,,,,,,,,,,,,,,,,,,,,,,,,,,,,,,,,,
1720076859,95,0,4402.307617,4393.846191,4336.025879,4372.692383,4418.589844,4390.641113,4390.128418,4425.384766,4333.846191,4316.666504,4274.871582,4442.563965,4297.94873,4242.563965,,,,,,,,,,,,,,,,,,,,,,,,,,,,,,,,,,,,,,,,,,,,,,,,,,,,,,,,,,,,,,,,,,,,,,
1720076859,96,0,4380.769043,4379.743652,4313.846191,4352.307617,4407.05127,4395.897461,4399.487305,4438.589844,4341.922852,4318.589844,4263.589844,4413.077148,4286.794922,4234.358887,,,,,,,,,,,,,,,,,,,,,,,,,,,,,,,,,,,,,,,,,,,,,,,,,,,,,,,,,,,,,,,,,,,,,,
1720076859,97,0,4385.512695,4368.846191,4312.05127,4359.615234,4412.692383,4401.025879,4413.974121,4453.846191,4361.666504,4330.384766,4251.922852,4421.410156,4273.717773,4233.077148,,,,,,,,,,,,,,,,,,,,,,,,,,,,,,,,,,,,,,,,,,,,,,,,,,,,,,,,,,,,,,,,,,,,,,
1720076859,98,0,4406.922852,4376.410156,4332.179688,4378.846191,4417.692383,4404.102539,4421.153809,4464.615234,4380,4335,4278.461426,4452.692383,4287.307617,4247.307617,,,,,,,,,,,,,,,,,,,,,,,,,,,,,,,,,,,,,,,,,,,,,,,,,,,,,,,,,,,,,,,,,,,,,,
1720076859,99,0,4408.846191,4384.358887,4334.102539,4368.589844,4410.128418,4394.871582,4412.692383,4461.794922,4376.922852,4328.974121,4288.717773,4465.769043,4292.820313,4259.230957,,,,,,,,,,,,,,,,,,,,,,,,,,,,,,,,,,,,,,,,,,,,,,,,,,,,,,,,,,,,,,,,,,,,,,
1720076859,100,0,4407.179688,4392.179688,4331.025879,4360.641113,4415.641113,4383.717773,4400.128418,4447.179688,4359.871582,4327.692383,4273.974121,4461.410156,4290.256348,4263.333496,,,,,,,,,,,,,,,,,,,,,,,,,,,,,,,,,,,,,,,,,,,,,,,,,,,,,,,,,,,,,,,,,,,,,,
1720076859,101,0,4416.794922,4404.487305,4340.769043,4377.436035,4428.077148,4390,4396.025879,4438.589844,4353.846191,4333.077148,4284.743652,4456.666504,4310.512695,4264.871582,,,,,,,,,,,,,,,,,,,,,,,,,,,,,,,,,,,,,,,,,,,,,,,,,,,,,,,,,,,,,,,,,,,,,,
1720076859,102,0,4409.743652,4396.025879,4327.179688,4370.512695,4420.128418,4398.333496,4397.563965,4431.538574,4354.230957,4331.153809,4278.589844,4438.461426,4302.692383,4250.256348,,,,,,,,,,,,,,,,,,,,,,,,,,,,,,,,,,,,,,,,,,,,,,,,,,,,,,,,,,,,,,,,,,,,,,
1720076859,103,0,4385.128418,4373.974121,4302.563965,4346.410156,4414.487305,4402.179688,4405.128418,4430,4352.692383,4322.436035,4242.179688,4418.077148,4267.436035,4231.922852,,,,,,,,,,,,,,,,,,,,,,,,,,,,,,,,,,,,,,,,,,,,,,,,,,,,,,,,,,,,,,,,,,,,,,
1720076859,104,0,4379.615234,4372.820313,4308.205078,4356.794922,4423.461426,4406.410156,4416.282227,4442.820313,4361.282227,4325.641113,4242.307617,4426.922852,4269.487305,4231.666504,,,,,,,,,,,,,,,,,,,,,,,,,,,,,,,,,,,,,,,,,,,,,,,,,,,,,,,,,,,,,,,,,,,,,,
1720076859,105,0,4397.94873,4387.05127,4325.128418,4377.179688,4421.025879,4403.205078,4420.128418,4451.025879,4369.102539,4333.589844,4272.307617,4448.717773,4282.179688,4240.128418,,,,,,,,,,,,,,,,,,,,,,,,,,,,,,,,,,,,,,,,,,,,,,,,,,,,,,,,,,,,,,,,,,,,,,
1720076859,106,0,4415.769043,4397.05127,4331.666504,4372.820313,4418.974121,4394.871582,4414.487305,4441.153809,4354.487305,4326.153809,4285.256348,4444.871582,4277.307617,4250.256348,,,,,,,,,,,,,,,,,,,,,,,,,,,,,,,,,,,,,,,,,,,,,,,,,,,,,,,,,,,,,,,,,,,,,,
1720076859,107,0,4420.769043,4406.922852,4339.743652,4370.512695,4431.538574,4387.692383,4401.025879,4427.179688,4338.461426,4320.769043,4279.743652,4442.692383,4289.615234,4259.871582,8.681359,2.300354,3.051453,2.439198,0.459789,1.511501,1.464265,2.209893,1.757614,0.394363,2.638905,2.054233,2.682936,1.730612,0.41569,1.815594,0.944594,2.492547,1.288226,0.720188,3.580477,1.244664,1.208464,0.754544,0.241406,0.995766,1.703064,2.143603,1.822812,0.114124,1.106486,0.709783,0.673963,1.15966,0.212768,0.619319,0.776218,0.644874,1.288889,0.594892,1.096687,2.440472,6.469424,4.395659,0.662235,0.19028,0.292897,0.334758,0.611319,0.214518,2.782989,1.568898,1.734346,2.602409,0.881256,3.838206,1.932638,1.454635,3.552737,1.680636,4.548482,1.188437,1.433094,2.457107,0.915428,5.345474,1.87311,2.009876,3.636288,1.250334
1720076859,108,0,4415.897461,4413.974121,4339.871582,4385.512695,4432.179688,4381.153809,4386.538574,4410.897461,4338.461426,4326.282227,4262.179688,4453.846191,4303.077148,4257.692383,,,,,,,,,,,,,,,,,,,,,,,,,,,,,,,,,,,,,,,,,,,,,,,,,,,,,,,,,,,,,,,,,,,,,,
1720076859,109,0,4409.871582,4403.333496,4328.461426,4386.666504,4423.205078,4386.922852,4391.794922,4399.358887,4342.692383,4326.282227,4249.615234,4433.205078,4287.94873,4247.563965,,,,,,,,,,,,,,,,,,,,,,,,,,,,,,,,,,,,,,,,,,,,,,,,,,,,,,,,,,,,,,,,,,,,,,
1720076859,110,0,4408.717773,4393.589844,4322.692383,4371.282227,4427.820313,4406.794922,4414.230957,4420,4355.256348,4327.436035,4253.333496,4411.153809,4273.589844,4240,,,,,,,,,,,,,,,,,,,,,,,,,,,,,,,,,,,,,,,,,,,,,,,,,,,,,,,,,,,,,,,,,,,,,,
1720076859,111,0,4403.589844,4394.230957,4321.282227,4369.487305,4432.307617,4418.461426,4431.153809,4448.589844,4378.077148,4333.461426,4263.205078,4432.179688,4278.077148,4236.922852,,,,,,,,,,,,,,,,,,,,,,,,,,,,,,,,,,,,,,,,,,,,,,,,,,,,,,,,,,,,,,,,,,,,,,
1720076859,112,0,4391.025879,4383.461426,4318.846191,4375.128418,4426.794922,4419.487305,4438.717773,4452.307617,4386.282227,4330.384766,4276.410156,4450,4284.743652,4238.333496,,,,,,,,,,,,,,,,,,,,,,,,,,,,,,,,,,,,,,,,,,,,,,,,,,,,,,,,,,,,,,,,,,,,,,
1720076859,113,0,4396.538574,4379.487305,4321.282227,4368.974121,4424.102539,4415.384766,4433.846191,4447.436035,4376.282227,4326.794922,4278.461426,4440.897461,4281.025879,4247.820313,,,,,,,,,,,,,,,,,,,,,,,,,,,,,,,,,,,,,,,,,,,,,,,,,,,,,,,,,,,,,,,,,,,,,,
1720076859,114,0,4417.436035,4403.077148,4326.538574,4366.922852,4425.769043,4404.743652,4420.256348,4440.256348,4370.384766,4330.512695,4271.666504,4432.692383,4281.025879,4253.461426,,,,,,,,,,,,,,,,,,,,,,,,,,,,,,,,,,,,,,,,,,,,,,,,,,,,,,,,,,,,,,,,,,,,,,
1720076859,115,0,4414.615234,4415.128418,4324.871582,4371.153809,4423.333496,4394.615234,4412.05127,4434.871582,4368.589844,4329.871582,4262.436035,4434.487305,4283.205078,4243.846191,,,,,,,,,,,,,,,,,,,,,,,,,,,,,,,,,,,,,,,,,,,,,,,,,,,,,,,,,,,,,,,,,,,,,,
1720076859,116,0,4399.871582,4402.563965,4319.487305,4363.717773,4421.282227,4391.538574,4409.230957,4434.102539,4361.282227,4324.743652,4257.692383,4435.897461,4280.384766,4235.641113,,,,,,,,,,,,,,,,,,,,,,,,,,,,,,,,,,,,,,,,,,,,,,,,,,,,,,,,,,,,,,,,,,,,,,
1720076859,117,0,4405.641113,4398.333496,4324.871582,4368.333496,4427.436035,4399.871582,4414.743652,4427.820313,4358.589844,4323.589844,4272.94873,4436.922852,4290.256348,4244.358887,,,,,,,,,,,,,,,,,,,,,,,,,,,,,,,,,,,,,,,,,,,,,,,,,,,,,,,,,,,,,,,,,,,,,,
1720076859,118,0,4413.717773,4401.410156,4331.794922,4382.179688,4432.436035,4412.05127,4428.846191,4439.358887,4369.615234,4337.94873,4277.692383,4443.461426,4294.102539,4249.358887,,,,,,,,,,,,,,,,,,,,,,,,,,,,,,,,,,,,,,,,,,,,,,,,,,,,,,,,,,,,,,,,,,,,,,
1720076859,119,0,4408.717773,4398.205078,4324.230957,4369.358887,4426.794922,4416.025879,4433.461426,4449.487305,4383.974121,4350.769043,4252.307617,4448.974121,4269.871582,4233.717773,,,,,,,,,,,,,,,,,,,,,,,,,,,,,,,,,,,,,,,,,,,,,,,,,,,,,,,,,,,,,,,,,,,,,,
1720076859,120,0,4414.230957,4406.410156,4322.692383,4363.333496,4426.282227,4411.922852,4425,4429.871582,4383.333496,4340.897461,4260.128418,4449.615234,4274.615234,4235.897461,,,,,,,,,,,,,,,,,,,,,,,,,,,,,,,,,,,,,,,,,,,,,,,,,,,,,,,,,,,,,,,,,,,,,,
1720076859,121,0,4420.256348,4419.615234,4334.102539,4384.230957,4435.897461,4402.179688,4414.102539,4417.179688,4359.487305,4328.461426,4291.410156,4441.410156,4302.05127,4256.538574,,,,,,,,,,,,,,,,,,,,,,,,,,,,,,,,,,,,,,,,,,,,,,,,,,,,,,,,,,,,,,,,,,,,,,
1720076859,122,0,4405,4411.666504,4322.307617,4376.282227,4432.820313,4380.897461,4393.333496,4402.307617,4328.077148,4315.641113,4257.05127,4415.384766,4274.743652,4238.717773,,,,,,,,,,,,,,,,,,,,,,,,,,,,,,,,,,,,,,,,,,,,,,,,,,,,,,,,,,,,,,,,,,,,,,
1720076859,123,0,4381.025879,4386.025879,4292.820313,4341.410156,4420.256348,4364.102539,4373.717773,4385.384766,4318.077148,4305.897461,4215.641113,4391.922852,4241.410156,4202.94873,10.566681,2.459105,2.953267,2.183631,0.491487,1.628689,1.619992,2.196136,1.635028,0.412978,3.334132,2.166817,2.621953,1.501219,0.428195,1.935174,1.080417,2.363864,1.331639,0.725201,1.893989,0.809333,0.940094,0.652327,0.228713,1.037929,1.56233,2.122277,1.635836,0.126847,0.993172,0.647953,0.773015,1.17831,0.232345,0.633775,0.716377,0.622341,1.339144,0.589311,1.32649,3.459455,7.638703,5.251206,0.655973,0.17621,0.286176,0.440437,0.675067,0.213073,3.205961,1.256372,1.704015,2.545412,0.935653,4.317273,1.485364,1.206854,3.342256,1.727394,4.820767,0.998882,1.288771,2.201451,1.012408,5.331902,1.750551,1.883493,3.310156,1.327824
1720076859,124,0,4372.820313,4377.436035,4288.846191,4344.358887,4421.410156,4375.512695,4385.897461,4400.512695,4339.102539,4321.153809,4241.282227,4396.282227,4263.846191,4206.025879,,,,,,,,,,,,,,,,,,,,,,,,,,,,,,,,,,,,,,,,,,,,,,,,,,,,,,,,,,,,,,,,,,,,,,
1720076859,125,0,4392.820313,4400.769043,4311.922852,4373.077148,4433.589844,4401.410156,4417.820313,4423.205078,4367.05127,4334.871582,4278.461426,4424.615234,4296.538574,4236.922852,,,,,,,,,,,,,,,,,,,,,,,,,,,,,,,,,,,,,,,,,,,,,,,,,,,,,,,,,,,,,,,,,,,,,,
1720076859,126,0,4413.205078,4415.256348,4328.974121,4375.128418,4434.615234,4414.358887,4435.769043,4433.333496,4373.717773,4329.102539,4283.461426,4449.358887,4297.436035,4252.307617,,,,,,,,,,,,,,,,,,,,,,,,,,,,,,,,,,,,,,,,,,,,,,,,,,,,,,,,,,,,,,,,,,,,,,
1720076859,127,0,4410.384766,4404.102539,4322.94873,4367.05127,4427.179688,4407.820313,4427.436035,4428.077148,4367.307617,4328.589844,4268.717773,4440,4283.205078,4244.102539,,,,,,,,,,,,,,,,,,,,,,,,,,,,,,,,,,,,,,,,,,,,,,,,,,,,,,,,,,,,,,,,,,,,,,
1720076859,0,0,4409.743652,4407.307617,4316.153809,4376.153809,4427.436035,4397.05127,4414.102539,4415.384766,4365.641113,4334.487305,4269.871582,4432.05127,4289.230957,4247.05127,,,,,,,,,,,,,,,,,,,,,,,,,,,,,,,,,,,,,,,,,,,,,,,,,,,,,,,,,,,,,,,,,,,,,,
1720076859,1,0,4426.025879,4425.128418,4331.282227,4387.94873,4431.666504,4393.461426,4410.897461,4406.410156,4354.230957,4329.743652,4285.128418,4452.820313,4305.128418,4267.307617,,,,,,,,,,,,,,,,,,,,,,,,,,,,,,,,,,,,,,,,,,,,,,,,,,,,,,,,,,,,,,,,,,,,,,
1720076859,2,0,4441.666504,4428.589844,4348.461426,4393.461426,4431.410156,4391.282227,4411.666504,4405.128418,4339.871582,4326.153809,4282.692383,4462.692383,4302.94873,4275.512695,,,,,,,,,,,,,,,,,,,,,,,,,,,,,,,,,,,,,,,,,,,,,,,,,,,,,,,,,,,,,,,,,,,,,,
1720076859,3,0,4439.358887,4426.153809,4343.846191,4394.743652,4427.436035,4393.974121,4417.820313,4417.179688,4350,4333.589844,4272.820313,4457.179688,4293.717773,4270.769043,,,,,,,,,,,,,,,,,,,,,,,,,,,,,,,,,,,,,,,,,,,,,,,,,,,,,,,,,,,,,,,,,,,,,,
1720076859,4,0,4427.179688,4426.922852,4335.384766,4387.692383,4428.846191,4405.128418,4425.256348,4426.666504,4368.717773,4336.410156,4274.871582,4464.743652,4296.922852,4267.179688,,,,,,,,,,,,,,,,,,,,,,,,,,,,,,,,,,,,,,,,,,,,,,,,,,,,,,,,,,,,,,,,,,,,,,
1720076859,5,0,4419.487305,4417.563965,4338.589844,4379.743652,4432.179688,4414.358887,4429.102539,4428.846191,4375.256348,4329.871582,4280.769043,4472.05127,4297.179688,4262.307617,,,,,,,,,,,,,,,,,,,,,,,,,,,,,,,,,,,,,,,,,,,,,,,,,,,,,,,,,,,,,,,,,,,,,,
1720076859,6,0,4415.512695,4401.153809,4336.794922,4374.102539,4427.563965,4413.846191,4429.743652,4432.436035,4382.05127,4325.256348,4284.871582,4455.641113,4292.563965,4251.922852,,,,,,,,,,,,,,,,,,,,,,,,,,,,,,,,,,,,,,,,,,,,,,,,,,,,,,,,,,,,,,,,,,,,,,
1720076859,7,0,4409.487305,4396.538574,4328.077148,4371.538574,4422.692383,4407.563965,4423.205078,4423.461426,4385.769043,4331.410156,4278.846191,4440.128418,4289.230957,4245.897461,,,,,,,,,,,,,,,,,,,,,,,,,,,,,,,,,,,,,,,,,,,,,,,,,,,,,,,,,,,,,,,,,,,,,,
1720076859,8,0,4406.025879,4404.615234,4325.641113,4376.922852,4422.820313,4398.333496,4414.358887,4403.974121,4371.922852,4334.615234,4271.538574,4439.230957,4287.94873,4252.563965,,,,,,,,,,,,,,,,,,,,,,,,,,,,,,,,,,,,,,,,,,,,,,,,,,,,,,,,,,,,,,,,,,,,,,
1720076859,9,0,4413.717773,4415.256348,4335,4378.589844,4422.692383,4398.077148,4418.717773,4407.436035,4354.230957,4328.205078,4286.025879,4444.743652,4299.487305,4265.769043,,,,,,,,,,,,,,,,,,,,,,,,,,,,,,,,,,,,,,,,,,,,,,,,,,,,,,,,,,,,,,,,,,,,,,
1720076859,10,0,4431.153809,4427.692383,4350.384766,4382.94873,4429.487305,4412.692383,4430.769043,4376.922852,4351.410156,4335.384766,4287.179688,4448.974121,4304.743652,4265.128418,,,,,,,,,,,,,,,,,,,,,,,,,,,,,,,,,,,,,,,,,,,,,,,,,,,,,,,,,,,,,,,,,,,,,,
1720076859,11,0,4438.974121,4439.102539,4348.974121,4400.256348,4442.94873,4421.282227,4432.307617,4279.358887,4361.025879,4348.333496,4262.692383,4431.666504,4301.794922,4253.461426,11.867957,2.589161,2.701457,1.826142,0.518875,1.739398,1.767007,2.030169,1.447173,0.439153,3.929603,2.263811,2.475712,1.275687,0.437607,2.050856,1.238206,2.063464,1.284497,0.708836,0.780337,0.483483,0.752219,0.588773,0.220724,1.012875,1.363005,1.991331,1.422649,0.139253,0.872643,0.638633,0.909941,1.177192,0.242341,0.648793,0.771712,0.635873,1.426475,0.560651,1.623675,4.798321,8.486506,5.814409,0.633949,0.183047,0.311177,0.534011,0.704742,0.207041,3.446971,1.161574,1.587715,2.518517,0.970393,4.599273,1.17538,1.137333,3.166553,1.760331,4.696413,0.972512,1.116349,1.943537,1.08447,5.157397,1.804149,1.723741,2.88257,1.318066
1720076859,12,0,4427.563965,4428.974121,4332.820313,4394.230957,4442.563965,4415.256348,4428.205078,4240.897461,4372.436035,4345,4261.282227,4402.820313,4306.794922,4255.256348,,,,,,,,,,,,,,,,,,,,,,,,,,,,,,,,,,,,,,,,,,,,,,,,,,,,,,,,,,,,,,,,,,,,,,
1720076859,13,0,4418.846191,4411.922852,4329.230957,4381.025879,4429.487305,4414.102539,4429.102539,4273.461426,4387.436035,4338.333496,4263.333496,4400.641113,4299.615234,4255.897461,,,,,,,,,,,,,,,,,,,,,,,,,,,,,,,,,,,,,,,,,,,,,,,,,,,,,,,,,,,,,,,,,,,,,,
1720076859,14,0,4426.025879,4419.743652,4337.820313,4391.410156,4427.94873,4418.846191,4432.820313,4276.666504,4402.179688,4340.256348,4246.538574,4416.025879,4287.820313,4245.384766,,,,,,,,,,,,,,,,,,,,,,,,,,,,,,,,,,,,,,,,,,,,,,,,,,,,,,,,,,,,,,,,,,,,,,
1720076859,15,0,4429.102539,4433.974121,4340.512695,4386.666504,4437.820313,4416.922852,4431.666504,4265.641113,4393.589844,4338.846191,4257.692383,4414.615234,4301.153809,4252.94873,,,,,,,,,,,,,,,,,,,,,,,,,,,,,,,,,,,,,,,,,,,,,,,,,,,,,,,,,,,,,,,,,,,,,,
1720076859,16,0,4423.205078,4426.538574,4336.538574,4371.025879,4443.461426,4416.538574,4426.794922,4266.410156,4371.794922,4331.410156,4274.487305,4399.487305,4311.282227,4268.333496,,,,,,,,,,,,,,,,,,,,,,,,,,,,,,,,,,,,,,,,,,,,,,,,,,,,,,,,,,,,,,,,,,,,,,
1720076859,17,0,4414.230957,4412.820313,4329.743652,4375.256348,4445.512695,4423.077148,4425.384766,4260.256348,4362.563965,4328.333496,4249.487305,4397.692383,4291.153809,4255.512695,,,,,,,,,,,,,,,,,,,,,,,,,,,,,,,,,,,,,,,,,,,,,,,,,,,,,,,,,,,,,,,,,,,,,,
1720076859,18,0,4408.205078,4412.436035,4324.871582,4377.94873,4443.974121,4426.538574,4427.179688,4264.358887,4364.487305,4328.589844,4236.410156,4411.153809,4280.641113,4237.820313,,,,,,,,,,,,,,,,,,,,,,,,,,,,,,,,,,,,,,,,,,,,,,,,,,,,,,,,,,,,,,,,,,,,,,
1720076859,19,0,4412.563965,4413.589844,4325.256348,4373.205078,4442.563965,4426.153809,4427.436035,4278.077148,4375.769043,4331.153809,4257.820313,4414.487305,4298.717773,4250.769043,,,,,,,,,,,,,,,,,,,,,,,,,,,,,,,,,,,,,,,,,,,,,,,,,,,,,,,,,,,,,,,,,,,,,,
1720076859,20,0,4412.692383,4414.743652,4323.846191,4379.615234,4446.666504,4426.025879,4428.846191,4283.717773,4399.615234,4335.128418,4274.615234,4401.153809,4312.307617,4267.563965,,,,,,,,,,,,,,,,,,,,,,,,,,,,,,,,,,,,,,,,,,,,,,,,,,,,,,,,,,,,,,,,,,,,,,
1720076859,21,0,4408.717773,4421.282227,4323.461426,4383.333496,4445.897461,4422.94873,4432.692383,4296.153809,4415.384766,4343.589844,4272.179688,4404.358887,4302.563965,4263.333496,,,,,,,,,,,,,,,,,,,,,,,,,,,,,,,,,,,,,,,,,,,,,,,,,,,,,,,,,,,,,,,,,,,,,,
1720076859,22,0,4420.384766,4428.589844,4328.846191,4381.666504,4440.641113,4416.922852,4433.205078,4296.666504,4405,4346.794922,4249.102539,4421.666504,4289.487305,4254.743652,,,,,,,,,,,,,,,,,,,,,,,,,,,,,,,,,,,,,,,,,,,,,,,,,,,,,,,,,,,,,,,,,,,,,,
1720076859,23,0,4426.922852,4426.282227,4331.282227,4379.743652,4448.589844,4417.692383,4429.102539,4275.769043,4376.922852,4335.641113,4238.461426,4414.230957,4290.256348,4252.820313,,,,,,,,,,,,,,,,,,,,,,,,,,,,,,,,,,,,,,,,,,,,,,,,,,,,,,,,,,,,,,,,,,,,,,
1720076859,24,0,4415.641113,4413.333496,4325.256348,4376.666504,4457.94873,4425.769043,4427.05127,4267.307617,4353.974121,4323.205078,4260.897461,4394.615234,4290.512695,4250.769043,,,,,,,,,,,,,,,,,,,,,,,,,,,,,,,,,,,,,,,,,,,,,,,,,,,,,,,,,,,,,,,,,,,,,,
1720076859,25,0,4408.333496,4405.512695,4314.358887,4374.358887,4450.128418,4428.717773,4423.846191,4267.692383,4354.871582,4322.05127,4254.358887,4388.846191,4277.563965,4241.922852,,,,,,,,,,,,,,,,,,,,,,,,,,,,,,,,,,,,,,,,,,,,,,,,,,,,,,,,,,,,,,,,,,,,,,
1720076859,26,0,4404.615234,4412.179688,4310.128418,4364.615234,4449.358887,4420.512695,4416.410156,4272.94873,4368.461426,4334.487305,4224.358887,4389.871582,4275.384766,4241.282227,,,,,,,,,,,,,,,,,,,,,,,,,,,,,,,,,,,,,,,,,,,,,,,,,,,,,,,,,,,,,,,,,,,,,,
1720076859,27,0,4402.692383,4426.922852,4316.538574,4369.871582,4454.615234,4412.307617,4417.94873,4284.487305,4378.205078,4337.820313,4242.05127,4393.717773,4290.641113,4251.666504,12.082969,2.665515,2.411277,1.496422,0.546705,1.771482,1.861976,1.800543,1.295555,0.472945,4.255485,2.323071,2.302215,1.139309,0.447199,2.108778,1.364426,1.674712,1.164524,0.686177,0.270217,0.290936,0.62531,0.549501,0.220662,0.925218,1.149247,1.785832,1.262928,0.148986,0.766571,0.657016,1.057814,1.232034,0.240608,0.736838,0.948464,0.683782,1.578105,0.51179,1.929879,6.14179,8.811184,5.905472,0.600466,0.203275,0.36368,0.59886,0.695889,0.201245,3.438051,1.20586,1.432542,2.523759,0.98615,4.604079,1.040311,1.325755,3.105561,1.770946,4.206175,1.047767,0.996516,1.713222,1.120612,4.843618,1.944814,1.562289,2.443976,1.219028
1720076859,28,0,4411.025879,4427.436035,4322.307617,4386.153809,4442.820313,4409.230957,4431.922852,4297.820313,4388.205078,4325.512695,4275,4405,4296.794922,4260.512695,,,,,,,,,,,,,,,,,,,,,,,,,,,,,,,,,,,,,,,,,,,,,,,,,,,,,,,,,,,,,,,,,,,,,,
1720076859,29,0,4419.615234,4420,4322.820313,4379.102539,4434.102539,4413.846191,4444.871582,4313.589844,4398.846191,4322.563965,4266.282227,4423.717773,4295.256348,4267.563965,,,,,,,,,,,,,,,,,,,,,,,,,,,,,,,,,,,,,,,,,,,,,,,,,,,,,,,,,,,,,,,,,,,,,,
1720076859,30,0,4417.94873,4423.846191,4321.282227,4373.205078,4442.179688,4425.384766,4448.205078,4313.846191,4402.436035,4328.205078,4246.794922,4422.179688,4295.641113,4263.077148,,,,,,,,,,,,,,,,,,,,,,,,,,,,,,,,,,,,,,,,,,,,,,,,,,,,,,,,,,,,,,,,,,,,,,
1720076859,31,0,4409.871582,4419.871582,4315.641113,4379.743652,4452.179688,4432.692383,4442.307617,4297.563965,4391.025879,4318.205078,4243.717773,4400.512695,4288.333496,4248.077148,,,,,,,,,,,,,,,,,,,,,,,,,,,,,,,,,,,,,,,,,,,,,,,,,,,,,,,,,,,,,,,,,,,,,,
1720076859,32,0,4401.282227,4406.025879,4306.538574,4371.538574,4456.538574,4429.230957,4429.615234,4283.846191,4373.589844,4306.538574,4244.871582,4390,4281.410156,4245.128418,,,,,,,,,,,,,,,,,,,,,,,,,,,,,,,,,,,,,,,,,,,,,,,,,,,,,,,,,,,,,,,,,,,,,,
1720076859,33,0,4403.717773,4413.717773,4305.769043,4364.743652,4456.794922,4423.589844,4417.436035,4277.436035,4368.974121,4316.025879,4240.512695,4398.846191,4277.563965,4249.102539,,,,,,,,,,,,,,,,,,,,,,,,,,,,,,,,,,,,,,,,,,,,,,,,,,,,,,,,,,,,,,,,,,,,,,
1720076859,34,0,4415.512695,4429.743652,4314.487305,4379.358887,4457.692383,4420.769043,4415.512695,4280.512695,4374.487305,4326.922852,4245.512695,4406.666504,4277.820313,4249.615234,,,,,,,,,,,,,,,,,,,,,,,,,,,,,,,,,,,,,,,,,,,,,,,,,,,,,,,,,,,,,,,,,,,,,,
1720076859,35,0,4418.846191,4420,4322.307617,4386.794922,4456.153809,4412.94873,4422.179688,4294.615234,4373.717773,4327.179688,4266.025879,4408.461426,4296.922852,4259.358887,,,,,,,,,,,,,,,,,,,,,,,,,,,,,,,,,,,,,,,,,,,,,,,,,,,,,,,,,,,,,,,,,,,,,,
1720076859,36,0,4423.205078,4415.769043,4329.102539,4382.820313,4452.179688,4405.512695,4431.666504,4298.205078,4380.128418,4326.794922,4278.589844,4420.256348,4318.846191,4276.538574,,,,,,,,,,,,,,,,,,,,,,,,,,,,,,,,,,,,,,,,,,,,,,,,,,,,,,,,,,,,,,,,,,,,,,
1720076859,37,0,4436.666504,4437.307617,4334.487305,4387.94873,4454.615234,4415,4440.897461,4300.384766,4395.384766,4327.94873,4282.05127,4434.358887,4322.05127,4288.974121,,,,,,,,,,,,,,,,,,,,,,,,,,,,,,,,,,,,,,,,,,,,,,,,,,,,,,,,,,,,,,,,,,,,,,
1720076859,38,0,4433.205078,4439.487305,4330.641113,4387.436035,4455.384766,4430.512695,4446.666504,4318.846191,4391.794922,4327.179688,4281.410156,4435.641113,4313.205078,4291.538574,,,,,,,,,,,,,,,,,,,,,,,,,,,,,,,,,,,,,,,,,,,,,,,,,,,,,,,,,,,,,,,,,,,,,,
1720076859,39,0,4409.615234,4416.666504,4318.846191,4375.769043,4452.05127,4431.666504,4444.358887,4314.615234,4378.846191,4324.487305,4266.410156,4417.94873,4303.846191,4274.743652,,,,,,,,,,,,,,,,,,,,,,,,,,,,,,,,,,,,,,,,,,,,,,,,,,,,,,,,,,,,,,,,,,,,,,
1720076859,40,0,4403.717773,4414.871582,4318.077148,4378.589844,4455.641113,4426.666504,4441.794922,4304.358887,4383.846191,4324.230957,4260,4412.307617,4303.077148,4268.974121,,,,,,,,,,,,,,,,,,,,,,,,,,,,,,,,,,,,,,,,,,,,,,,,,,,,,,,,,,,,,,,,,,,,,,
1720076859,41,0,4418.461426,4429.871582,4326.282227,4390.128418,4457.820313,4427.692383,4442.307617,4320.256348,4396.922852,4322.563965,4273.077148,4433.974121,4306.794922,4284.487305,,,,,,,,,,,,,,,,,,,,,,,,,,,,,,,,,,,,,,,,,,,,,,,,,,,,,,,,,,,,,,,,,,,,,,
1720076859,42,0,4425,4433.205078,4327.307617,4391.410156,4455,4425.128418,4441.666504,4329.102539,4401.794922,4320.384766,4280.384766,4438.974121,4312.436035,4289.358887,,,,,,,,,,,,,,,,,,,,,,,,,,,,,,,,,,,,,,,,,,,,,,,,,,,,,,,,,,,,,,,,,,,,,,
1720076859,43,0,4425.384766,4425.384766,4328.717773,4394.743652,4455.769043,4424.615234,4444.615234,4327.692383,4405.384766,4326.922852,4275.128418,4434.102539,4315.128418,4287.94873,10.99142,2.692839,2.175183,1.299072,0.577203,1.677855,1.897063,1.59232,1.260436,0.511542,4.200933,2.319043,2.130625,1.134931,0.46121,2.078614,1.43195,1.309828,1.006626,0.676238,0.153428,0.196263,0.517387,0.512529,0.22846,0.835522,0.955385,1.562035,1.233521,0.155038,0.743867,0.678725,1.176251,1.427754,0.228984,1.334468,1.306101,0.793792,1.860776,0.458249,2.215163,7.081202,8.492042,5.585365,0.559612,0.236495,0.427377,0.632941,0.659929,0.200462,3.224322,1.264534,1.289946,2.569821,1.002046,4.401901,1.079129,1.744153,3.194937,1.753026,3.543444,1.133425,0.980126,1.53289,1.12641,4.399653,2.051895,1.444554,2.08652,1.062474
1720076859,44,0,4420.897461,4414.487305,4329.102539,4390.384766,4455.897461,4427.436035,4443.974121,4325.384766,4406.666504,4332.563965,4269.743652,4440,4303.846191,4281.666504,,,,,,,,,,,,,,,,,,,,,,,,,,,,,,,,,,,,,,,,,,,,,,,,,,,,,,,,,,,,,,,,,,,,,,
1720076859,45,0,4411.282227,4411.153809,4326.282227,4372.05127,4455,4422.179688,4431.666504,4311.794922,4393.077148,4326.025879,4267.179688,4440.641113,4290,4263.717773,,,,,,,,,,,,,,,,,,,,,,,,,,,,,,,,,,,,,,,,,,,,,,,,,,,,,,,,,,,,,,,,,,,,,,
1720076859,46,0,4413.077148,4416.282227,4328.077148,4371.410156,4455.641113,4418.589844,4426.025879,4304.358887,4370.384766,4321.153809,4259.358887,4431.922852,4294.358887,4256.282227,,,,,,,,,,,,,,,,,,,,,,,,,,,,,,,,,,,,,,,,,,,,,,,,,,,,,,,,,,,,,,,,,,,,,,
1720076860,47,0,4420.512695,4418.974121,4328.846191,4383.846191,4458.461426,4427.05127,4436.025879,4316.025879,4363.846191,4328.589844,4251.410156,4426.410156,4298.846191,4259.102539,,,,,,,,,,,,,,,,,,,,,,,,,,,,,,,,,,,,,,,,,,,,,,,,,,,,,,,,,,,,,,,,,,,,,,
1720076860,48,0,4410.769043,4417.436035,4321.922852,4380,4460.256348,4429.871582,4436.282227,4311.538574,4378.974121,4328.205078,4258.974121,4416.922852,4295,4246.282227,,,,,,,,,,,,,,,,,,,,,,,,,,,,,,,,,,,,,,,,,,,,,,,,,,,,,,,,,,,,,,,,,,,,,,
1720076860,49,0,4399.487305,4414.102539,4319.743652,4374.615234,4455.128418,4422.563965,4429.871582,4307.436035,4393.461426,4324.102539,4273.589844,4415.256348,4304.230957,4238.461426,,,,,,,,,,,,,,,,,,,,,,,,,,,,,,,,,,,,,,,,,,,,,,,,,,,,,,,,,,,,,,,,,,,,,,
1720076860,50,0,4405.641113,4415,4325.128418,4380.641113,4453.461426,4420.769043,4437.05127,4327.563965,4405.384766,4333.717773,4279.871582,4437.820313,4312.563965,4257.563965,,,,,,,,,,,,,,,,,,,,,,,,,,,,,,,,,,,,,,,,,,,,,,,,,,,,,,,,,,,,,,,,,,,,,,
1720076860,51,0,4417.307617,4425.256348,4331.794922,4386.794922,4457.94873,4420,4446.025879,4337.94873,4418.717773,4336.794922,4288.077148,4455.512695,4314.615234,4274.615234,,,,,,,,,,,,,,,,,,,,,,,,,,,,,,,,,,,,,,,,,,,,,,,,,,,,,,,,,,,,,,,,,,,,,,
1720076860,52,0,4424.743652,4432.179688,4343.589844,4396.153809,4455.384766,4412.05127,4445.256348,4335.769043,4410.897461,4330.769043,4295,4457.436035,4321.666504,4274.358887,,,,,,,,,,,,,,,,,,,,,,,,,,,,,,,,,,,,,,,,,,,,,,,,,,,,,,,,,,,,,,,,,,,,,,
1720076860,53,0,4426.025879,4427.692383,4345.256348,4400.897461,4451.666504,4408.974121,4437.05127,4325.512695,4381.666504,4329.230957,4282.563965,4445.897461,4320.897461,4267.94873,,,,,,,,,,,,,,,,,,,,,,,,,,,,,,,,,,,,,,,,,,,,,,,,,,,,,,,,,,,,,,,,,,,,,,
1720076860,54,0,4419.358887,4425.769043,4333.589844,4389.615234,4457.436035,4416.666504,4426.666504,4314.487305,4366.794922,4327.692383,4265.641113,4427.692383,4307.307617,4261.153809,,,,,,,,,,,,,,,,,,,,,,,,,,,,,,,,,,,,,,,,,,,,,,,,,,,,,,,,,,,,,,,,,,,,,,
1720076860,55,0,4408.461426,4426.153809,4327.436035,4376.025879,4461.794922,4427.307617,4426.410156,4315.256348,4373.974121,4321.282227,4253.205078,4419.487305,4292.436035,4252.563965,,,,,,,,,,,,,,,,,,,,,,,,,,,,,,,,,,,,,,,,,,,,,,,,,,,,,,,,,,,,,,,,,,,,,,
1720076860,56,0,4407.436035,4426.922852,4331.025879,4383.461426,4464.102539,4435.641113,4440.128418,4322.436035,4385.256348,4323.077148,4248.846191,4423.589844,4292.563965,4248.589844,,,,,,,,,,,,,,,,,,,,,,,,,,,,,,,,,,,,,,,,,,,,,,,,,,,,,,,,,,,,,,,,,,,,,,
1720076860,57,0,4413.846191,4426.153809,4332.820313,4399.615234,4463.717773,4439.102539,4446.153809,4327.307617,4399.102539,4331.666504,4260,4424.230957,4301.282227,4248.461426,,,,,,,,,,,,,,,,,,,,,,,,,,,,,,,,,,,,,,,,,,,,,,,,,,,,,,,,,,,,,,,,,,,,,,
1720076860,58,0,4412.94873,4417.820313,4332.94873,4394.615234,4452.436035,4430.769043,4442.692383,4331.153809,4420.769043,4336.025879,4265.769043,4429.358887,4296.922852,4258.333496,,,,,,,,,,,,,,,,,,,,,,,,,,,,,,,,,,,,,,,,,,,,,,,,,,,,,,,,,,,,,,,,,,,,,,
1720076860,59,0,4416.666504,4424.487305,4346.282227,4390.512695,4449.743652,4417.563965,4446.410156,4342.307617,4431.538574,4336.538574,4272.820313,4456.410156,4301.666504,4295.641113,8.911119,2.68773,2.039797,1.270428,0.60559,1.482534,1.89188,1.460818,1.366644,0.548439,3.793918,2.234554,1.967009,1.249423,0.480379,1.962225,1.445748,1.069506,0.854307,0.68843,0.164936,0.14648,0.409781,0.465566,0.240756,0.773449,0.79177,1.381072,1.367187,0.157703,0.803477,0.693072,1.238805,1.798868,0.212019,3.066844,2.019371,1.036036,2.334503,0.427262,2.433863,7.287339,7.526618,5.130583,0.515097,0.277596,0.483471,0.644652,0.619992,0.207155,2.853596,1.248176,1.193513,2.655521,1.047017,4.138539,1.268499,2.28323,3.406495,1.699437,2.815089,1.154912,1.072799,1.422027,1.117232,3.851446,2.04769,1.400111,1.878765,0.899148
1720076860,60,0,4421.025879,4435.769043,4349.102539,4396.153809,4456.538574,4411.794922,4440.769043,4339.871582,4406.025879,4323.974121,4282.436035,4457.94873,4323.589844,4318.333496,,,,,,,,,,,,,,,,,,,,,,,,,,,,,,,,,,,,,,,,,,,,,,,,,,,,,,,,,,,,,,,,,,,,,,
1720076860,61,0,4402.307617,4415.769043,4322.179688,4377.179688,4454.102539,4410,4419.487305,4317.563965,4367.179688,4308.846191,4271.153809,4422.436035,4318.333496,4299.230957,,,,,,,,,,,,,,,,,,,,,,,,,,,,,,,,,,,,,,,,,,,,,,,,,,,,,,,,,,,,,,,,,,,,,,
1720076860,62,0,4379.743652,4394.743652,4304.871582,4360.128418,4451.794922,4415.384766,4415.512695,4310.897461,4365.769043,4317.05127,4254.615234,4415.897461,4288.846191,4287.820313,,,,,,,,,,,,,,,,,,,,,,,,,,,,,,,,,,,,,,,,,,,,,,,,,,,,,,,,,,,,,,,,,,,,,,
1720076860,63,0,4386.538574,4406.410156,4315,4374.615234,4458.846191,4429.871582,4428.717773,4322.179688,4390.769043,4333.461426,4258.717773,4437.307617,4290,4297.563965,,,,,,,,,,,,,,,,,,,,,,,,,,,,,,,,,,,,,,,,,,,,,,,,,,,,,,,,,,,,,,,,,,,,,,
1720076860,64,0,4407.94873,4424.358887,4324.615234,4388.974121,4465.897461,4436.153809,4433.589844,4326.410156,4400.256348,4335.384766,4275,4436.666504,4324.358887,4305.769043,,,,,,,,,,,,,,,,,,,,,,,,,,,,,,,,,,,,,,,,,,,,,,,,,,,,,,,,,,,,,,,,,,,,,,
1720076860,65,0,4418.974121,4429.102539,4329.230957,4392.820313,4466.025879,4429.743652,4437.436035,4323.333496,4398.974121,4337.436035,4283.205078,4434.487305,4340.256348,4317.563965,,,,,,,,,,,,,,,,,,,,,,,,,,,,,,,,,,,,,,,,,,,,,,,,,,,,,,,,,,,,,,,,,,,,,,
1720076860,66,0,4419.230957,4430.512695,4338.589844,4397.179688,4455,4418.974121,4442.436035,4326.794922,4404.871582,4346.666504,4282.94873,4453.717773,4327.05127,4329.487305,,,,,,,,,,,,,,,,,,,,,,,,,,,,,,,,,,,,,,,,,,,,,,,,,,,,,,,,,,,,,,,,,,,,,,
1720076860,67,0,4414.230957,4424.871582,4335,4388.333496,4446.025879,4411.922852,4434.230957,4332.820313,4405.256348,4343.846191,4281.025879,4458.974121,4322.436035,4326.153809,,,,,,,,,,,,,,,,,,,,,,,,,,,,,,,,,,,,,,,,,,,,,,,,,,,,,,,,,,,,,,,,,,,,,,
1720076860,68,0,4407.307617,4415.384766,4322.436035,4377.820313,4454.487305,4416.153809,4424.102539,4335.384766,4402.307617,4334.871582,4283.846191,4447.179688,4327.436035,4314.615234,,,,,,,,,,,,,,,,,,,,,,,,,,,,,,,,,,,,,,,,,,,,,,,,,,,,,,,,,,,,,,,,,,,,,,
1720076860,69,0,4401.153809,4413.461426,4321.410156,4387.94873,4463.846191,4428.205078,4432.436035,4335.769043,4408.846191,4333.461426,4283.589844,4443.461426,4313.846191,4307.179688,,,,,,,,,,,,,,,,,,,,,,,,,,,,,,,,,,,,,,,,,,,,,,,,,,,,,,,,,,,,,,,,,,,,,,
1720076860,70,0,4395.128418,4406.410156,4321.410156,4387.94873,4461.025879,4437.436035,4442.307617,4336.153809,4409.487305,4330.897461,4276.666504,4446.153809,4307.692383,4308.589844,,,,,,,,,,,,,,,,,,,,,,,,,,,,,,,,,,,,,,,,,,,,,,,,,,,,,,,,,,,,,,,,,,,,,,
1720076860,71,0,4395.512695,4399.871582,4320,4372.05127,4461.153809,4440.384766,4443.717773,4337.307617,4399.230957,4325.769043,4281.922852,4449.487305,4324.871582,4315.641113,,,,,,,,,,,,,,,,,,,,,,,,,,,,,,,,,,,,,,,,,,,,,,,,,,,,,,,,,,,,,,,,,,,,,,
1720076860,72,0,4401.922852,4409.358887,4326.666504,4375.769043,4463.077148,4436.410156,4444.871582,4340.512695,4395.641113,4326.410156,4279.871582,4455.512695,4320.128418,4314.230957,,,,,,,,,,,,,,,,,,,,,,,,,,,,,,,,,,,,,,,,,,,,,,,,,,,,,,,,,,,,,,,,,,,,,,
1720076860,73,0,4400.128418,4412.436035,4322.436035,4382.179688,4455.897461,4421.410156,4438.974121,4343.333496,4398.333496,4325.641113,4257.94873,4449.743652,4299.615234,4303.717773,,,,,,,,,,,,,,,,,,,,,,,,,,,,,,,,,,,,,,,,,,,,,,,,,,,,,,,,,,,,,,,,,,,,,,
1720076860,74,0,4386.794922,4395.641113,4302.820313,4369.871582,4447.436035,4411.282227,4428.077148,4340.769043,4404.871582,4321.025879,4242.436035,4428.589844,4294.230957,4290.769043,,,,,,,,,,,,,,,,,,,,,,,,,,,,,,,,,,,,,,,,,,,,,,,,,,,,,,,,,,,,,,,,,,,,,,
1720076860,75,0,4374.102539,4384.102539,4291.282227,4354.615234,4447.307617,4416.153809,4428.077148,4334.871582,4413.205078,4319.615234,4245.384766,4420.512695,4284.487305,4282.05127,6.395752,2.694502,2.012404,1.372517,0.623239,1.209031,1.877464,1.418582,1.56564,0.576562,3.144714,2.086343,1.808006,1.419644,0.499061,1.775668,1.426695,0.997181,0.738567,0.716273,0.194525,0.118627,0.314821,0.41131,0.252365,0.779135,0.657176,1.302636,1.623425,0.157726,0.957664,0.709747,1.246967,2.282984,0.194572,6.821556,3.227178,1.477966,2.977519,0.44207,2.535538,6.71902,6.121254,4.865232,0.469673,0.320447,0.522156,0.64413,0.599458,0.220484,2.502087,1.158632,1.161909,2.75247,1.137607,4.073705,1.565763,2.802351,3.655458,1.603285,2.206421,1.101634,1.243864,1.385133,1.103159,3.360458,1.943175,1.460602,1.827032,0.77203
1720076860,76,0,4376.794922,4389.102539,4293.717773,4354.102539,4456.538574,4429.358887,4434.871582,4330.897461,4415.384766,4321.538574,4256.538574,4424.871582,4283.077148,4286.410156,,,,,,,,,,,,,,,,,,,,,,,,,,,,,,,,,,,,,,,,,,,,,,,,,,,,,,,,,,,,,,,,,,,,,,
1720076860,77,0,4390,4398.717773,4308.077148,4365.128418,4464.615234,4442.179688,4433.717773,4327.307617,4413.205078,4326.794922,4254.487305,4420.384766,4300.897461,4291.025879,,,,,,,,,,,,,,,,,,,,,,,,,,,,,,,,,,,,,,,,,,,,,,,,,,,,,,,,,,,,,,,,,,,,,,
1720076860,78,0,4398.717773,4404.230957,4324.230957,4377.563965,4462.563965,4442.179688,4429.615234,4322.307617,4407.820313,4329.743652,4249.743652,4416.153809,4305.256348,4286.794922,,,,,,,,,,,,,,,,,,,,,,,,,,,,,,,,,,,,,,,,,,,,,,,,,,,,,,,,,,,,,,,,,,,,,,
1720076860,79,0,4403.846191,4401.282227,4324.230957,4387.436035,4456.410156,4431.025879,4430.128418,4326.666504,4394.743652,4324.230957,4265.256348,4431.794922,4302.179688,4290.641113,,,,,,,,,,,,,,,,,,,,,,,,,,,,,,,,,,,,,,,,,,,,,,,,,,,,,,,,,,,,,,,,,,,,,,
1720076860,80,0,4401.282227,4393.205078,4315.769043,4379.615234,4448.461426,4423.077148,4434.230957,4343.461426,4388.974121,4322.820313,4276.025879,4446.794922,4305.128418,4299.358887,,,,,,,,,,,,,,,,,,,,,,,,,,,,,,,,,,,,,,,,,,,,,,,,,,,,,,,,,,,,,,,,,,,,,,
1720076860,81,0,4390.128418,4389.358887,4313.974121,4359.743652,4446.025879,4426.025879,4441.666504,4350.769043,4400.641113,4328.589844,4265.512695,4439.871582,4302.692383,4295.897461,,,,,,,,,,,,,,,,,,,,,,,,,,,,,,,,,,,,,,,,,,,,,,,,,,,,,,,,,,,,,,,,,,,,,,
1720076860,82,0,4394.358887,4396.538574,4317.307617,4356.666504,4453.461426,4428.333496,4445.128418,4344.487305,4410.769043,4331.153809,4267.692383,4430,4303.846191,4295.384766,,,,,,,,,,,,,,,,,,,,,,,,,,,,,,,,,,,,,,,,,,,,,,,,,,,,,,,,,,,,,,,,,,,,,,
1720076860,83,0,4415.384766,4410,4327.692383,4380,4461.025879,4427.563965,4442.179688,4341.794922,4408.077148,4328.974121,4279.230957,4445.128418,4313.974121,4308.589844,,,,,,,,,,,,,,,,,,,,,,,,,,,,,,,,,,,,,,,,,,,,,,,,,,,,,,,,,,,,,,,,,,,,,,
1720076860,84,0,4425,4415.256348,4341.666504,4396.794922,4462.820313,4429.871582,4442.05127,4340.512695,4398.846191,4325.384766,4268.077148,4465.897461,4314.230957,4315.512695,,,,,,,,,,,,,,,,,,,,,,,,,,,,,,,,,,,,,,,,,,,,,,,,,,,,,,,,,,,,,,,,,,,,,,
1720076860,85,0,4427.179688,4414.487305,4349.487305,4398.205078,4461.025879,4429.358887,4445.128418,4336.794922,4387.94873,4325.256348,4263.333496,4460.769043,4307.94873,4314.487305,,,,,,,,,,,,,,,,,,,,,,,,,,,,,,,,,,,,,,,,,,,,,,,,,,,,,,,,,,,,,,,,,,,,,,
1720076860,86,0,4429.615234,4421.025879,4349.358887,4401.153809,4460.128418,4425.384766,4440.512695,4341.410156,4379.102539,4326.153809,4280.256348,4450.769043,4312.307617,4315.769043,,,,,,,,,,,,,,,,,,,,,,,,,,,,,,,,,,,,,,,,,,,,,,,,,,,,,,,,,,,,,,,,,,,,,,
1720076860,87,0,4414.743652,4416.153809,4337.436035,4390,4459.871582,4425.384766,4435.512695,4346.922852,4378.205078,4323.974121,4279.487305,4454.487305,4320.256348,4310.384766,,,,,,,,,,,,,,,,,,,,,,,,,,,,,,,,,,,,,,,,,,,,,,,,,,,,,,,,,,,,,,,,,,,,,,
1720076860,88,0,4395.512695,4395.256348,4319.743652,4372.94873,4460.256348,4433.333496,4439.487305,4345.897461,4391.538574,4323.589844,4264.487305,4445.128418,4313.974121,4297.820313,,,,,,,,,,,,,,,,,,,,,,,,,,,,,,,,,,,,,,,,,,,,,,,,,,,,,,,,,,,,,,,,,,,,,,
1720076860,89,0,4389.230957,4387.05127,4308.077148,4366.538574,4461.025879,4436.794922,4438.461426,4340.512695,4409.487305,4328.589844,4260.512695,4416.025879,4294.615234,4289.230957,,,,,,,,,,,,,,,,,,,,,,,,,,,,,,,,,,,,,,,,,,,,,,,,,,,,,,,,,,,,,,,,,,,,,,
1720076860,90,0,4389.615234,4393.205078,4305.384766,4362.94873,4459.230957,4436.922852,4430.897461,4328.974121,4410.256348,4330.128418,4260.897461,4408.589844,4292.692383,4291.153809,,,,,,,,,,,,,,,,,,,,,,,,,,,,,,,,,,,,,,,,,,,,,,,,,,,,,,,,,,,,,,,,,,,,,,
1720076860,91,0,4403.589844,4405,4321.410156,4372.692383,4460.256348,4442.05127,4434.743652,4330.641113,4399.871582,4332.179688,4265.128418,4439.230957,4316.922852,4307.436035,4.127221,2.724232,2.023725,1.519992,0.621618,0.947079,1.863526,1.417311,1.760728,0.59113,2.44894,1.897453,1.610679,1.559197,0.506461,1.558018,1.392808,1.05773,0.671851,0.740073,0.229996,0.114199,0.247817,0.363397,0.257675,0.824822,0.545679,1.344601,1.911695,0.155971,1.137218,0.740071,1.229798,2.737744,0.179878,11.853888,4.868526,2.124504,3.662371,0.505608,2.51208,5.615376,4.661756,4.992351,0.424991,0.359673,0.551858,0.635949,0.6097,0.2359,2.230705,1.048454,1.198228,2.808974,1.259225,4.23166,1.884959,3.13385,3.828094,1.46083,1.784865,1.011092,1.423316,1.400504,1.081475,3.15017,1.769312,1.619808,1.87854,0.696247
1720076860,92,0,4426.025879,4418.846191,4346.538574,4394.358887,4459.487305,4439.358887,4438.461426,4342.05127,4396.153809,4331.922852,4285.384766,4463.846191,4337.05127,4329.230957,,,,,,,,,,,,,,,,,,,,,,,,,,,,,,,,,,,,,,,,,,,,,,,,,,,,,,,,,,,,,,,,,,,,,,
1720076860,93,0,4429.358887,4424.743652,4349.358887,4400.641113,4448.974121,4421.025879,4430.641113,4345.384766,4398.077148,4325.128418,4299.358887,4464.743652,4338.333496,4335.256348,,,,,,,,,,,,,,,,,,,,,,,,,,,,,,,,,,,,,,,,,,,,,,,,,,,,,,,,,,,,,,,,,,,,,,
1720076860,94,0,4416.538574,4422.05127,4340.897461,4390.641113,4435.512695,4408.589844,4431.282227,4358.589844,4399.487305,4328.461426,4294.743652,4464.871582,4338.077148,4329.358887,,,,,,,,,,,,,,,,,,,,,,,,,,,,,,,,,,,,,,,,,,,,,,,,,,,,,,,,,,,,,,,,,,,,,,
1720076860,95,0,4408.589844,4415.769043,4337.436035,4381.922852,4439.615234,4418.846191,4443.077148,4364.615234,4407.05127,4333.974121,4286.794922,4467.436035,4337.05127,4325.897461,,,,,,,,,,,,,,,,,,,,,,,,,,,,,,,,,,,,,,,,,,,,,,,,,,,,,,,,,,,,,,,,,,,,,,
1720076860,96,0,4402.94873,4408.717773,4329.487305,4377.05127,4457.563965,4433.846191,4447.179688,4349.615234,4414.358887,4332.179688,4274.230957,4453.077148,4321.410156,4315.384766,,,,,,,,,,,,,,,,,,,,,,,,,,,,,,,,,,,,,,,,,,,,,,,,,,,,,,,,,,,,,,,,,,,,,,
1720076860,97,0,4392.563965,4403.205078,4319.358887,4376.153809,4460.384766,4433.589844,4435.384766,4334.743652,4397.436035,4326.922852,4251.282227,4424.871582,4295.769043,4294.230957,,,,,,,,,,,,,,,,,,,,,,,,,,,,,,,,,,,,,,,,,,,,,,,,,,,,,,,,,,,,,,,,,,,,,,
1720076860,98,0,4377.94873,4400.512695,4306.282227,4372.692383,4448.077148,4420.769043,4419.358887,4318.077148,4367.179688,4317.563965,4232.307617,4403.717773,4277.436035,4276.666504,,,,,,,,,,,,,,,,,,,,,,,,,,,,,,,,,,,,,,,,,,,,,,,,,,,,,,,,,,,,,,,,,,,,,,
1720076860,99,0,4373.205078,4396.282227,4303.205078,4370.512695,4439.102539,4412.563965,4420.769043,4313.589844,4367.05127,4314.358887,4242.94873,4412.05127,4288.846191,4284.102539,,,,,,,,,,,,,,,,,,,,,,,,,,,,,,,,,,,,,,,,,,,,,,,,,,,,,,,,,,,,,,,,,,,,,,
1720076860,100,0,4387.820313,4392.05127,4327.307617,4378.974121,4435.256348,4405.384766,4430.512695,4345.641113,4398.461426,4325.897461,4276.025879,4445.256348,4323.205078,4316.025879,,,,,,,,,,,,,,,,,,,,,,,,,,,,,,,,,,,,,,,,,,,,,,,,,,,,,,,,,,,,,,,,,,,,,,
1720076860,101,0,4399.102539,4396.410156,4343.333496,4389.871582,4428.461426,4385.641113,4428.846191,4372.820313,4419.871582,4332.692383,4287.692383,4468.077148,4339.743652,4337.820313,,,,,,,,,,,,,,,,,,,,,,,,,,,,,,,,,,,,,,,,,,,,,,,,,,,,,,,,,,,,,,,,,,,,,,
1720076860,102,0,4384.871582,4404.102539,4326.410156,4380.641113,4425.128418,4370.128418,4426.025879,4367.94873,4420.641113,4325.256348,4271.538574,4462.436035,4323.717773,4328.846191,,,,,,,,,,,,,,,,,,,,,,,,,,,,,,,,,,,,,,,,,,,,,,,,,,,,,,,,,,,,,,,,,,,,,,
1720076860,103,0,4364.743652,4397.436035,4309.871582,4359.230957,4432.692383,4373.333496,4430.769043,4364.487305,4416.282227,4324.358887,4257.563965,4438.333496,4310.641113,4307.94873,,,,,,,,,,,,,,,,,,,,,,,,,,,,,,,,,,,,,,,,,,,,,,,,,,,,,,,,,,,,,,,,,,,,,,
1720076860,104,0,4366.025879,4384.871582,4310,4361.794922,4443.846191,4386.282227,4433.846191,4358.717773,4407.436035,4328.077148,4253.333496,4416.794922,4315.769043,4298.974121,,,,,,,,,,,,,,,,,,,,,,,,,,,,,,,,,,,,,,,,,,,,,,,,,,,,,,,,,,,,,,,,,,,,,,
1720076860,105,0,4377.563965,4392.94873,4313.461426,4380.384766,4452.179688,4392.307617,4432.820313,4345.256348,4395.769043,4325.769043,4251.282227,4418.461426,4314.871582,4302.436035,,,,,,,,,,,,,,,,,,,,,,,,,,,,,,,,,,,,,,,,,,,,,,,,,,,,,,,,,,,,,,,,,,,,,,
1720076860,106,0,4380.641113,4411.538574,4324.102539,4386.025879,4456.922852,4389.358887,4431.410156,4341.794922,4390.897461,4328.077148,4259.615234,4436.282227,4311.025879,4310.384766,,,,,,,,,,,,,,,,,,,,,,,,,,,,,,,,,,,,,,,,,,,,,,,,,,,,,,,,,,,,,,,,,,,,,,
1720076860,107,0,4385.512695,4424.358887,4339.487305,4394.615234,4458.846191,4382.820313,4428.717773,4341.025879,4398.717773,4333.205078,4278.077148,4448.846191,4327.563965,4324.615234,2.451898,2.763372,2.022962,1.641678,0.596603,0.730195,1.851146,1.420501,1.859909,0.591696,1.825439,1.713481,1.390489,1.621846,0.492702,1.329144,1.363702,1.18432,0.658502,0.738761,0.259973,0.126622,0.216432,0.337766,0.253071,0.88742,0.461587,1.444299,2.136501,0.152736,1.284181,0.787198,1.22167,3.013179,0.169554,17.571268,6.624549,2.890633,4.201327,0.59616,2.357099,4.311043,3.542646,5.479517,0.384202,0.391831,0.585621,0.619202,0.644865,0.24811,2.140952,1.028789,1.310328,2.778479,1.367633,4.615374,2.162051,3.202712,3.848168,1.282059,1.587173,0.984855,1.561789,1.442771,1.04408,3.619076,1.614449,1.857557,1.969724,0.660097
1720076860,108,0,4394.871582,4429.102539,4346.538574,4410,4454.358887,4370.641113,4426.794922,4348.077148,4409.102539,4334.487305,4296.153809,4459.743652,4349.358887,4341.282227,,,,,,,,,,,,,,,,,,,,,,,,,,,,,,,,,,,,,,,,,,,,,,,,,,,,,,,,,,,,,,,,,,,,,,
1720076860,109,0,4386.025879,4418.077148,4337.692383,4393.333496,4445,4352.05127,4425.512695,4365.128418,4412.94873,4334.230957,4293.205078,4467.307617,4337.179688,4337.820313,,,,,,,,,,,,,,,,,,,,,,,,,,,,,,,,,,,,,,,,,,,,,,,,,,,,,,,,,,,,,,,,,,,,,,
1720076860,110,0,4361.794922,4404.871582,4328.589844,4368.205078,4438.205078,4342.94873,4427.692383,4373.205078,4410.128418,4335,4266.410156,4461.025879,4311.538574,4315.897461,,,,,,,,,,,,,,,,,,,,,,,,,,,,,,,,,,,,,,,,,,,,,,,,,,,,,,,,,,,,,,,,,,,,,,
1720076860,111,0,4355,4402.692383,4330.128418,4378.333496,4437.692383,4353.717773,4433.589844,4368.589844,4403.461426,4330.897461,4248.333496,4442.94873,4306.410156,4302.05127,,,,,,,,,,,,,,,,,,,,,,,,,,,,,,,,,,,,,,,,,,,,,,,,,,,,,,,,,,,,,,,,,,,,,,
1720076860,112,0,4360.256348,4401.538574,4331.794922,4387.692383,4443.589844,4364.230957,4434.871582,4363.974121,4396.922852,4325.128418,4247.307617,4427.692383,4303.846191,4298.077148,,,,,,,,,,,,,,,,,,,,,,,,,,,,,,,,,,,,,,,,,,,,,,,,,,,,,,,,,,,,,,,,,,,,,,
1720076860,113,0,4363.974121,4408.333496,4337.436035,4387.307617,4449.615234,4365.384766,4434.102539,4362.820313,4395.897461,4324.871582,4258.589844,4437.563965,4305.128418,4305,,,,,,,,,,,,,,,,,,,,,,,,,,,,,,,,,,,,,,,,,,,,,,,,,,,,,,,,,,,,,,,,,,,,,,
1720076860,114,0,4372.05127,4419.230957,4345.512695,4398.846191,4447.307617,4362.179688,4433.461426,4357.436035,4392.563965,4320.769043,4279.230957,4454.871582,4320.128418,4321.538574,,,,,,,,,,,,,,,,,,,,,,,,,,,,,,,,,,,,,,,,,,,,,,,,,,,,,,,,,,,,,,,,,,,,,,
1720076860,115,0,4372.05127,4407.692383,4341.538574,4397.692383,4437.05127,4351.025879,4425.769043,4352.692383,4384.743652,4315.512695,4281.666504,4450.256348,4327.563965,4324.102539,,,,,,,,,,,,,,,,,,,,,,,,,,,,,,,,,,,,,,,,,,,,,,,,,,,,,,,,,,,,,,,,,,,,,,
1720076860,116,0,4361.666504,4396.922852,4330.897461,4376.153809,4436.538574,4338.974121,4414.743652,4359.615234,4394.871582,4321.025879,4266.153809,4445.384766,4320.512695,4316.666504,,,,,,,,,,,,,,,,,,,,,,,,,,,,,,,,,,,,,,,,,,,,,,,,,,,,,,,,,,,,,,,,,,,,,,
1720076860,117,0,4351.922852,4401.153809,4318.205078,4365.256348,4443.077148,4336.410156,4411.282227,4370.256348,4415.256348,4329.487305,4259.358887,4447.94873,4310.769043,4310.897461,,,,,,,,,,,,,,,,,,,,,,,,,,,,,,,,,,,,,,,,,,,,,,,,,,,,,,,,,,,,,,,,,,,,,,
1720076860,118,0,4333.077148,4383.589844,4301.282227,4358.974121,4438.461426,4344.743652,4416.794922,4369.871582,4418.333496,4326.794922,4256.666504,4429.615234,4297.179688,4294.230957,,,,,,,,,,,,,,,,,,,,,,,,,,,,,,,,,,,,,,,,,,,,,,,,,,,,,,,,,,,,,,,,,,,,,,
1720076860,119,0,4324.102539,4370.256348,4302.179688,4356.025879,4437.179688,4360.512695,4425.384766,4373.846191,4411.282227,4321.666504,4250.641113,4415.897461,4289.230957,4283.974121,,,,,,,,,,,,,,,,,,,,,,,,,,,,,,,,,,,,,,,,,,,,,,,,,,,,,,,,,,,,,,,,,,,,,,
1720076860,120,0,4346.794922,4397.436035,4320.641113,4377.307617,4447.436035,4367.94873,4432.307617,4376.538574,4407.563965,4323.846191,4251.538574,4432.820313,4297.05127,4300.512695,,,,,,,,,,,,,,,,,,,,,,,,,,,,,,,,,,,,,,,,,,,,,,,,,,,,,,,,,,,,,,,,,,,,,,
1720076860,121,0,4374.487305,4419.615234,4334.615234,4400.769043,4449.615234,4361.025879,4433.077148,4359.871582,4398.461426,4325.512695,4257.820313,4446.025879,4300.897461,4315.256348,,,,,,,,,,,,,,,,,,,,,,,,,,,,,,,,,,,,,,,,,,,,,,,,,,,,,,,,,,,,,,,,,,,,,,
1720076860,122,0,4381.666504,4413.717773,4342.820313,4400.256348,4441.794922,4355.769043,4430.769043,4359.743652,4379.358887,4321.538574,4265.256348,4451.922852,4300.256348,4311.025879,,,,,,,,,,,,,,,,,,,,,,,,,,,,,,,,,,,,,,,,,,,,,,,,,,,,,,,,,,,,,,,,,,,,,,
1720076860,123,0,4380,4414.615234,4343.077148,4393.974121,4436.794922,4345.897461,4428.846191,4373.205078,4370.256348,4315.256348,4271.794922,4456.282227,4307.692383,4305.897461,1.552731,2.758153,1.994129,1.729859,0.550716,0.616368,1.82025,1.420742,1.830218,0.58109,1.391612,1.572223,1.202401,1.635616,0.455209,1.134217,1.345722,1.306604,0.719212,0.703518,0.281985,0.144066,0.220894,0.344414,0.238787,0.893888,0.413705,1.543196,2.244327,0.148211,1.314734,0.849717,1.244517,3.020243,0.164132,21.640814,8.008153,3.598938,4.43283,0.676592,2.108989,3.106038,2.985411,6.075161,0.352378,0.416702,0.632931,0.587761,0.684412,0.2531,2.201046,1.19094,1.521338,2.652423,1.41205,4.960771,2.361937,3.099062,3.728653,1.097521,1.63229,1.105467,1.666928,1.512195,0.987071,4.87361,1.539191,2.175562,2.066116,0.640065
1720076860,124,0,4374.743652,4422.05127,4335.128418,4387.94873,4434.871582,4326.282227,4422.436035,4373.461426,4389.743652,4319.230957,4274.871582,4452.436035,4310.897461,4305.769043,,,,,,,,,,,,,,,,,,,,,,,,,,,,,,,,,,,,,,,,,,,,,,,,,,,,,,,,,,,,,,,,,,,,,,
1720076860,125,0,4361.794922,4407.563965,4323.589844,4374.871582,4437.692383,4323.205078,4412.692383,4374.871582,4413.077148,4332.563965,4266.410156,4443.333496,4296.922852,4293.974121,,,,,,,,,,,,,,,,,,,,,,,,,,,,,,,,,,,,,,,,,,,,,,,,,,,,,,,,,,,,,,,,,,,,,,
1720076860,126,0,4345,4385.641113,4308.846191,4364.358887,4443.205078,4339.487305,4408.717773,4373.205078,4409.871582,4328.333496,4248.717773,4425.641113,4279.743652,4267.05127,,,,,,,,,,,,,,,,,,,,,,,,,,,,,,,,,,,,,,,,,,,,,,,,,,,,,,,,,,,,,,,,,,,,,,
1720076860,127,0,4335.641113,4387.307617,4304.487305,4369.871582,4444.358887,4354.743652,4418.333496,4364.102539,4392.820313,4310.641113,4245.128418,4417.179688,4275.256348,4260.769043,,,,,,,,,,,,,,,,,,,,,,,,,,,,,,,,,,,,,,,,,,,,,,,,,,,,,,,,,,,,,,,,,,,,,,
1720076860,0,0,4355.256348,4407.94873,4323.589844,4386.922852,4447.307617,4367.179688,4430.512695,4362.820313,4380.128418,4306.410156,4252.692383,4434.102539,4283.461426,4291.153809,,,,,,,,,,,,,,,,,,,,,,,,,,,,,,,,,,,,,,,,,,,,,,,,,,,,,,,,,,,,,,,,,,,,,,
1720076860,1,0,4373.205078,4416.282227,4340,4393.974121,4447.692383,4370.897461,4431.153809,4362.692383,4371.282227,4315.256348,4242.05127,4441.282227,4291.025879,4307.307617,,,,,,,,,,,,,,,,,,,,,,,,,,,,,,,,,,,,,,,,,,,,,,,,,,,,,,,,,,,,,,,,,,,,,,
1720076860,2,0,4361.282227,4412.05127,4336.538574,4388.077148,4435.384766,4355,4423.974121,4356.794922,4370.128418,4320.512695,4233.333496,4432.436035,4289.871582,4299.615234,,,,,,,,,,,,,,,,,,,,,,,,,,,,,,,,,,,,,,,,,,,,,,,,,,,,,,,,,,,,,,,,,,,,,,
1720076860,3,0,4352.307617,4413.205078,4331.794922,4382.307617,4429.743652,4338.333496,4415,4363.717773,4376.153809,4321.282227,4251.282227,4439.358887,4292.436035,4309.358887,,,,,,,,,,,,,,,,,,,,,,,,,,,,,,,,,,,,,,,,,,,,,,,,,,,,,,,,,,,,,,,,,,,,,,
1720076860,4,0,4352.563965,4409.358887,4328.589844,4380.512695,4435.769043,4340.128418,4409.487305,4370.256348,4385.128418,4324.102539,4263.333496,4442.692383,4295.769043,4320,,,,,,,,,,,,,,,,,,,,,,,,,,,,,,,,,,,,,,,,,,,,,,,,,,,,,,,,,,,,,,,,,,,,,,
1720076860,5,0,4341.538574,4396.666504,4317.436035,4374.871582,4440,4351.922852,4409.102539,4367.307617,4396.282227,4326.922852,4255.128418,4429.487305,4293.974121,4306.538574,,,,,,,,,,,,,,,,,,,,,,,,,,,,,,,,,,,,,,,,,,,,,,,,,,,,,,,,,,,,,,,,,,,,,,
1720076860,6,0,4326.282227,4387.179688,4302.05127,4363.077148,4441.282227,4360.256348,4411.153809,4369.230957,4400,4322.179688,4251.282227,4422.820313,4291.410156,4296.153809,,,,,,,,,,,,,,,,,,,,,,,,,,,,,,,,,,,,,,,,,,,,,,,,,,,,,,,,,,,,,,,,,,,,,,
1720076860,7,0,4324.358887,4386.282227,4298.974121,4358.205078,4444.487305,4365,4414.358887,4364.487305,4397.436035,4315.641113,4247.820313,4421.922852,4283.974121,4297.307617,,,,,,,,,,,,,,,,,,,,,,,,,,,,,,,,,,,,,,,,,,,,,,,,,,,,,,,,,,,,,,,,,,,,,,
1720076860,8,0,4334.487305,4395.512695,4312.05127,4369.358887,4445.384766,4371.794922,4425,4365.512695,4399.358887,4321.794922,4247.692383,4430.128418,4281.794922,4301.282227,,,,,,,,,,,,,,,,,,,,,,,,,,,,,,,,,,,,,,,,,,,,,,,,,,,,,,,,,,,,,,,,,,,,,,
1720076860,9,0,4350.384766,4413.077148,4327.179688,4387.05127,4443.077148,4374.358887,4440.769043,4382.05127,4405.769043,4328.974121,4266.025879,4450.512695,4298.589844,4316.666504,,,,,,,,,,,,,,,,,,,,,,,,,,,,,,,,,,,,,,,,,,,,,,,,,,,,,,,,,,,,,,,,,,,,,,
1720076860,10,0,4366.410156,4426.666504,4341.794922,4397.692383,4441.794922,4367.436035,4445,4394.102539,4411.282227,4325.769043,4287.307617,4465.384766,4321.153809,4334.487305,,,,,,,,,,,,,,,,,,,,,,,,,,,,,,,,,,,,,,,,,,,,,,,,,,,,,,,,,,,,,,,,,,,,,,
1720076860,11,0,4371.922852,4426.666504,4347.179688,4397.05127,4438.461426,4353.846191,4433.333496,4395.128418,4412.692383,4324.358887,4292.307617,4468.846191,4327.307617,4338.846191,1.245014,2.668176,1.943539,1.824699,0.492645,0.613713,1.764495,1.416539,1.706671,0.563476,1.181291,1.502059,1.092658,1.673526,0.401381,1.00645,1.338422,1.369864,0.891435,0.64227,0.317665,0.160146,0.265997,0.385748,0.218587,0.83724,0.395844,1.639084,2.237216,0.143135,1.216629,0.906398,1.271591,2.75459,0.163382,23.136654,8.56825,4.075572,4.298463,0.710546,1.806994,2.175683,2.965082,6.4732,0.33355,0.435752,0.693711,0.537926,0.704306,0.248988,2.375905,1.548311,1.83639,2.499942,1.357255,5.070724,2.484504,2.996485,3.567466,0.946894,1.892144,1.394388,1.76428,1.643188,0.913455,6.456434,1.554945,2.56659,2.190123,0.613779
1720076860,12,0,4369.743652,4417.563965,4332.94873,4389.102539,4440.256348,4348.717773,4417.94873,4388.846191,4411.282227,4325.769043,4281.538574,4463.974121,4319.102539,4331.922852,,,,,,,,,,,,,,,,,,,,,,,,,,,,,,,,,,,,,,,,,,,,,,,,,,,,,,,,,,,,,,,,,,,,,,
1720076860,13,0,4367.179688,4412.307617,4324.358887,4391.025879,4445.512695,4359.358887,4415.512695,4382.94873,4409.102539,4327.05127,4271.153809,4457.820313,4305.769043,4323.974121,,,,,,,,,,,,,,,,,,,,,,,,,,,,,,,,,,,,,,,,,,,,,,,,,,,,,,,,,,,,,,,,,,,,,,
1720076860,14,0,4368.077148,4416.922852,4335.641113,4401.410156,4445,4371.538574,4423.974121,4375.769043,4400.641113,4326.666504,4267.692383,4449.487305,4299.615234,4321.282227,,,,,,,,,,,,,,,,,,,,,,,,,,,,,,,,,,,,,,,,,,,,,,,,,,,,,,,,,,,,,,,,,,,,,,
1720076860,15,0,4372.436035,4418.974121,4342.05127,4397.179688,4445,4374.102539,4428.077148,4365.641113,4388.077148,4320.512695,4259.615234,4438.077148,4302.692383,4321.922852,,,,,,,,,,,,,,,,,,,,,,,,,,,,,,,,,,,,,,,,,,,,,,,,,,,,,,,,,,,,,,,,,,,,,,
1720076860,16,0,4377.307617,4417.436035,4338.333496,4388.589844,4448.077148,4369.871582,4426.410156,4365.512695,4383.077148,4315.128418,4251.153809,4442.179688,4304.102539,4321.794922,,,,,,,,,,,,,,,,,,,,,,,,,,,,,,,,,,,,,,,,,,,,,,,,,,,,,,,,,,,,,,,,,,,,,,
1720076860,17,0,4380.384766,4419.871582,4342.05127,4390,4443.205078,4363.846191,4427.179688,4379.230957,4391.153809,4320,4268.589844,4465.769043,4315,4332.436035,,,,,,,,,,,,,,,,,,,,,,,,,,,,,,,,,,,,,,,,,,,,,,,,,,,,,,,,,,,,,,,,,,,,,,
1720076860,18,0,4375.128418,4418.846191,4344.743652,4390,4429.743652,4358.077148,4429.487305,4387.563965,4407.307617,4326.666504,4294.487305,4476.666504,4325.641113,4349.102539,,,,,,,,,,,,,,,,,,,,,,,,,,,,,,,,,,,,,,,,,,,,,,,,,,,,,,,,,,,,,,,,,,,,,,
1720076860,19,0,4352.692383,4407.307617,4321.538574,4378.717773,4425,4358.077148,4421.666504,4388.589844,4417.692383,4327.94873,4282.05127,4457.307617,4313.974121,4334.743652,,,,,,,,,,,,,,,,,,,,,,,,,,,,,,,,,,,,,,,,,,,,,,,,,,,,,,,,,,,,,,,,,,,,,,
1720076860,20,0,4322.307617,4392.307617,4296.410156,4362.820313,4429.743652,4367.94873,4411.025879,4386.025879,4415.384766,4326.153809,4252.94873,4429.615234,4295.256348,4297.94873,,,,,,,,,,,,,,,,,,,,,,,,,,,,,,,,,,,,,,,,,,,,,,,,,,,,,,,,,,,,,,,,,,,,,,
1720076860,21,0,4317.179688,4388.846191,4298.077148,4360.128418,4432.692383,4382.563965,4415.384766,4367.563965,4413.333496,4319.743652,4244.102539,4420.128418,4282.307617,4288.077148,,,,,,,,,,,,,,,,,,,,,,,,,,,,,,,,,,,,,,,,,,,,,,,,,,,,,,,,,,,,,,,,,,,,,,
1720076860,22,0,4335.384766,4393.717773,4306.410156,4370.641113,4437.94873,4395.128418,4426.794922,4363.717773,4407.820313,4318.974121,4241.794922,4427.692383,4274.615234,4295,,,,,,,,,,,,,,,,,,,,,,,,,,,,,,,,,,,,,,,,,,,,,,,,,,,,,,,,,,,,,,,,,,,,,,
1720076860,23,0,4352.563965,4403.974121,4312.563965,4381.153809,4446.282227,4398.974121,4428.205078,4375.512695,4389.615234,4324.102539,4248.717773,4430.384766,4287.94873,4300.256348,,,,,,,,,,,,,,,,,,,,,,,,,,,,,,,,,,,,,,,,,,,,,,,,,,,,,,,,,,,,,,,,,,,,,,
1720076860,24,0,4373.717773,4415.641113,4329.743652,4386.666504,4449.102539,4392.307617,4426.922852,4371.538574,4378.717773,4322.179688,4268.205078,4439.230957,4314.487305,4318.974121,,,,,,,,,,,,,,,,,,,,,,,,,,,,,,,,,,,,,,,,,,,,,,,,,,,,,,,,,,,,,,,,,,,,,,
1720076860,25,0,4388.974121,4416.282227,4342.436035,4386.922852,4442.05127,4378.589844,4427.692383,4378.077148,4388.846191,4320.512695,4276.410156,4466.794922,4321.666504,4332.179688,,,,,,,,,,,,,,,,,,,,,,,,,,,,,,,,,,,,,,,,,,,,,,,,,,,,,,,,,,,,,,,,,,,,,,
1720076860,26,0,4389.615234,4411.153809,4337.692383,4381.025879,4430.769043,4369.358887,4425.512695,4390,4407.692383,4327.307617,4265.641113,4470.641113,4315.512695,4326.410156,,,,,,,,,,,,,,,,,,,,,,,,,,,,,,,,,,,,,,,,,,,,,,,,,,,,,,,,,,,,,,,,,,,,,,
1720076860,27,0,4392.820313,4415,4336.025879,4380.769043,4426.282227,4374.102539,4424.358887,4383.205078,4420.256348,4330.384766,4270.641113,4448.846191,4317.94873,4319.615234,1.248278,2.505548,1.882685,1.991957,0.434379,0.735537,1.708728,1.406156,1.572208,0.541349,1.157758,1.512825,1.089772,1.821306,0.344552,0.966362,1.339062,1.363155,1.210465,0.571565,0.377395,0.177669,0.355015,0.458462,0.197784,0.736491,0.395846,1.756642,2.181103,0.139564,0.998668,0.930941,1.276145,2.295069,0.166405,21.095676,8.086973,4.221698,3.869874,0.678644,1.489912,1.574672,3.298725,6.484425,0.327091,0.448021,0.754136,0.473913,0.6888,0.236103,2.535283,2.021127,2.20908,2.445056,1.2035,4.775433,2.543895,3.028757,3.504721,0.850389,2.230256,1.789246,1.863805,1.883641,0.831546,8.025905,1.6222,2.975362,2.408618,0.570558
1720076860,28,0,4399.487305,4419.230957,4341.538574,4391.025879,4428.974121,4382.94873,4428.333496,4379.743652,4417.692383,4322.307617,4279.615234,4453.205078,4313.846191,4312.692383,,,,,,,,,,,,,,,,,,,,,,,,,,,,,,,,,,,,,,,,,,,,,,,,,,,,,,,,,,,,,,,,,,,,,,
1720076860,29,0,4399.487305,4412.436035,4342.692383,4394.230957,4435,4385.897461,4437.94873,4385,4404.743652,4314.871582,4267.94873,4476.282227,4301.025879,4304.230957,,,,,,,,,,,,,,,,,,,,,,,,,,,,,,,,,,,,,,,,,,,,,,,,,,,,,,,,,,,,,,,,,,,,,,
1720076860,30,0,4399.102539,4412.820313,4340.384766,4394.102539,4438.205078,4384.358887,4441.538574,4376.922852,4396.666504,4313.974121,4274.230957,4461.666504,4310.384766,4310.769043,,,,,,,,,,,,,,,,,,,,,,,,,,,,,,,,,,,,,,,,,,,,,,,,,,,,,,,,,,,,,,,,,,,,,,
1720076860,31,0,4400,4417.563965,4339.615234,4397.307617,4440.512695,4383.077148,4434.871582,4379.102539,4396.153809,4319.358887,4278.717773,4452.307617,4321.025879,4313.077148,,,,,,,,,,,,,,,,,,,,,,,,,,,,,,,,,,,,,,,,,,,,,,,,,,,,,,,,,,,,,,,,,,,,,,
1720076860,32,0,4391.410156,4407.563965,4337.94873,4386.922852,4442.820313,4383.205078,4427.05127,4387.692383,4389.230957,4323.077148,4252.563965,4478.717773,4299.358887,4290.641113,,,,,,,,,,,,,,,,,,,,,,,,,,,,,,,,,,,,,,,,,,,,,,,,,,,,,,,,,,,,,,,,,,,,,,
1720076860,33,0,4381.794922,4398.846191,4330.641113,4367.94873,4440.641113,4386.794922,4425,4373.461426,4385.897461,4323.974121,4246.025879,4478.717773,4282.179688,4272.05127,,,,,,,,,,,,,,,,,,,,,,,,,,,,,,,,,,,,,,,,,,,,,,,,,,,,,,,,,,,,,,,,,,,,,,
1720076860,34,0,4377.563965,4402.307617,4324.102539,4369.743652,4439.102539,4395.384766,4425.641113,4369.487305,4403.974121,4331.538574,4263.974121,4454.487305,4290.769043,4270.256348,,,,,,,,,,,,,,,,,,,,,,,,,,,,,,,,,,,,,,,,,,,,,,,,,,,,,,,,,,,,,,,,,,,,,,
1720076860,35,0,4368.077148,4399.743652,4316.153809,4377.692383,4437.820313,4398.077148,4421.538574,4372.94873,4421.025879,4337.179688,4257.179688,4435.769043,4297.94873,4263.205078,,,,,,,,,,,,,,,,,,,,,,,,,,,,,,,,,,,,,,,,,,,,,,,,,,,,,,,,,,,,,,,,,,,,,,
1720076860,36,0,4359.743652,4389.102539,4311.153809,4370.769043,4433.589844,4392.94873,4418.846191,4366.538574,4415.256348,4339.615234,4248.846191,4423.717773,4303.333496,4255.384766,,,,,,,,,,,,,,,,,,,,,,,,,,,,,,,,,,,,,,,,,,,,,,,,,,,,,,,,,,,,,,,,,,,,,,
1720076860,37,0,4368.333496,4395.897461,4323.846191,4372.307617,4430.128418,4387.94873,4424.615234,4370,4409.615234,4342.307617,4270.641113,4434.102539,4312.94873,4274.871582,,,,,,,,,,,,,,,,,,,,,,,,,,,,,,,,,,,,,,,,,,,,,,,,,,,,,,,,,,,,,,,,,,,,,,
1720076860,38,0,4385.384766,4409.615234,4339.743652,4384.615234,4428.333496,4384.615234,4433.077148,4380.897461,4415,4338.974121,4277.179688,4468.974121,4315.897461,4283.333496,,,,,,,,,,,,,,,,,,,,,,,,,,,,,,,,,,,,,,,,,,,,,,,,,,,,,,,,,,,,,,,,,,,,,,
1720076860,39,0,4389.487305,4411.410156,4341.153809,4389.871582,4430.128418,4382.94873,4431.282227,4378.717773,4399.102539,4331.282227,4274.230957,4481.666504,4327.692383,4268.717773,,,,,,,,,,,,,,,,,,,,,,,,,,,,,,,,,,,,,,,,,,,,,,,,,,,,,,,,,,,,,,,,,,,,,,
1720076860,40,0,4388.333496,4419.615234,4340,4389.487305,4439.615234,4388.974121,4425.384766,4362.307617,4364.615234,4316.410156,4284.743652,4464.358887,4347.05127,4275.769043,,,,,,,,,,,,,,,,,,,,,,,,,,,,,,,,,,,,,,,,,,,,,,,,,,,,,,,,,,,,,,,,,,,,,,
1720076860,41,0,4390,4431.410156,4342.05127,4396.794922,4449.871582,4405.256348,4429.358887,4360,4361.025879,4298.717773,4279.102539,4458.461426,4335.128418,4279.102539,,,,,,,,,,,,,,,,,,,,,,,,,,,,,,,,,,,,,,,,,,,,,,,,,,,,,,,,,,,,,,,,,,,,,,
1720076860,42,0,4380.256348,4415.512695,4328.461426,4396.538574,4446.025879,4414.102539,4431.410156,4367.436035,4387.820313,4294.102539,4257.692383,4447.436035,4304.102539,4246.794922,,,,,,,,,,,,,,,,,,,,,,,,,,,,,,,,,,,,,,,,,,,,,,,,,,,,,,,,,,,,,,,,,,,,,,
1720076860,43,0,4365.384766,4387.179688,4306.922852,4376.410156,4436.153809,4406.922852,4423.974121,4364.871582,4405.256348,4299.487305,4244.230957,4426.538574,4298.461426,4229.358887,1.404573,2.338029,1.827889,2.286669,0.387518,0.945784,1.695548,1.38892,1.519577,0.516436,1.274719,1.600642,1.19153,2.126929,0.298534,1.011137,1.353355,1.318928,1.671138,0.508269,0.478609,0.209983,0.484789,0.554952,0.180825,0.656661,0.407065,1.919781,2.179171,0.139914,0.746934,0.915035,1.265536,1.774939,0.172082,16.524622,6.740148,4.062354,3.311814,0.58813,1.226798,1.299947,3.725497,6.120484,0.32812,0.453705,0.793231,0.408876,0.638917,0.217559,2.612386,2.487274,2.541541,2.596755,0.990779,4.091328,2.570292,3.210562,3.648693,0.802078,2.512463,2.176585,1.946007,2.258141,0.753294,8.908155,1.683851,3.311606,2.780322,0.518906
1720076860,44,0,4367.179688,4391.538574,4309.102539,4367.436035,4432.563965,4398.461426,4420,4366.282227,4409.615234,4304.615234,4242.05127,4428.589844,4312.307617,4243.974121,,,,,,,,,,,,,,,,,,,,,,,,,,,,,,,,,,,,,,,,,,,,,,,,,,,,,,,,,,,,,,,,,,,,,,
1720076860,45,0,4378.717773,4407.820313,4327.563965,4379.230957,4432.307617,4395.128418,4425.641113,4375.384766,4417.436035,4308.974121,4253.333496,4443.846191,4321.666504,4242.563965,,,,,,,,,,,,,,,,,,,,,,,,,,,,,,,,,,,,,,,,,,,,,,,,,,,,,,,,,,,,,,,,,,,,,,
1720076860,46,0,4390,4408.846191,4338.205078,4386.666504,4430.769043,4392.692383,4428.846191,4377.563965,4419.871582,4304.358887,4285.256348,4447.436035,4332.94873,4243.077148,,,,,,,,,,,,,,,,,,,,,,,,,,,,,,,,,,,,,,,,,,,,,,,,,,,,,,,,,,,,,,,,,,,,,,
1720076861,47,0,4399.487305,4406.794922,4344.230957,4385.769043,4427.563965,4391.922852,4426.666504,4377.563965,4409.743652,4298.717773,4293.717773,4458.077148,4340.512695,4267.436035,,,,,,,,,,,,,,,,,,,,,,,,,,,,,,,,,,,,,,,,,,,,,,,,,,,,,,,,,,,,,,,,,,,,,,
1720076861,48,0,4395.512695,4407.436035,4345.384766,4385.641113,4429.358887,4394.743652,4426.922852,4382.563965,4398.717773,4308.846191,4265.256348,4474.230957,4330.641113,4267.94873,,,,,,,,,,,,,,,,,,,,,,,,,,,,,,,,,,,,,,,,,,,,,,,,,,,,,,,,,,,,,,,,,,,,,,
1720076861,49,0,4386.282227,4409.743652,4334.102539,4383.205078,4438.205078,4400.769043,4426.794922,4374.358887,4399.487305,4312.179688,4259.487305,4465,4327.692383,4242.307617,,,,,,,,,,,,,,,,,,,,,,,,,,,,,,,,,,,,,,,,,,,,,,,,,,,,,,,,,,,,,,,,,,,,,,
1720076861,50,0,4398.205078,4415.641113,4335.769043,4392.05127,4445.384766,4410.384766,4431.282227,4375.384766,4413.077148,4307.179688,4286.666504,4457.05127,4343.205078,4247.179688,,,,,,,,,,,,,,,,,,,,,,,,,,,,,,,,,,,,,,,,,,,,,,,,,,,,,,,,,,,,,,,,,,,,,,
1720076861,51,0,4407.563965,4416.794922,4347.436035,4402.436035,4445.128418,4408.846191,4436.538574,4386.794922,4417.563965,4315.512695,4293.205078,4462.563965,4336.153809,4271.153809,,,,,,,,,,,,,,,,,,,,,,,,,,,,,,,,,,,,,,,,,,,,,,,,,,,,,,,,,,,,,,,,,,,,,,
1720076861,52,0,4390,4406.666504,4336.025879,4384.230957,4436.538574,4395.128418,4426.538574,4368.974121,4401.922852,4314.615234,4273.333496,4443.974121,4324.102539,4257.94873,,,,,,,,,,,,,,,,,,,,,,,,,,,,,,,,,,,,,,,,,,,,,,,,,,,,,,,,,,,,,,,,,,,,,,
1720076861,53,0,4381.282227,4400.897461,4323.077148,4369.102539,4427.05127,4391.153809,4414.615234,4354.358887,4385.384766,4296.282227,4261.922852,4428.461426,4339.487305,4237.94873,,,,,,,,,,,,,,,,,,,,,,,,,,,,,,,,,,,,,,,,,,,,,,,,,,,,,,,,,,,,,,,,,,,,,,
1720076861,54,0,4391.922852,4405.384766,4328.846191,4382.692383,4428.846191,4399.487305,4413.717773,4356.410156,4378.205078,4295.512695,4259.358887,4437.436035,4336.922852,4243.205078,,,,,,,,,,,,,,,,,,,,,,,,,,,,,,,,,,,,,,,,,,,,,,,,,,,,,,,,,,,,,,,,,,,,,,
1720076861,55,0,4388.333496,4400.897461,4327.563965,4383.077148,4442.563965,4409.743652,4412.692383,4351.538574,4373.461426,4305.512695,4259.871582,4427.563965,4312.563965,4239.487305,,,,,,,,,,,,,,,,,,,,,,,,,,,,,,,,,,,,,,,,,,,,,,,,,,,,,,,,,,,,,,,,,,,,,,
1720076861,56,0,4371.922852,4384.487305,4314.230957,4363.333496,4443.974121,4414.102539,4410.384766,4352.94873,4376.153809,4301.794922,4258.461426,4412.563965,4302.820313,4216.282227,,,,,,,,,,,,,,,,,,,,,,,,,,,,,,,,,,,,,,,,,,,,,,,,,,,,,,,,,,,,,,,,,,,,,,
1720076861,57,0,4367.05127,4374.615234,4307.436035,4362.94873,4431.538574,4408.461426,4410.641113,4363.717773,4387.05127,4301.666504,4249.743652,4420.641113,4306.794922,4215.512695,,,,,,,,,,,,,,,,,,,,,,,,,,,,,,,,,,,,,,,,,,,,,,,,,,,,,,,,,,,,,,,,,,,,,,
1720076861,58,0,4379.358887,4382.563965,4314.230957,4380,4432.436035,4402.436035,4410.256348,4364.358887,4399.102539,4310.769043,4254.102539,4433.589844,4312.563965,4242.820313,,,,,,,,,,,,,,,,,,,,,,,,,,,,,,,,,,,,,,,,,,,,,,,,,,,,,,,,,,,,,,,,,,,,,,
1720076861,59,0,4400.512695,4401.794922,4329.743652,4389.102539,4442.436035,4401.794922,4417.436035,4366.922852,4411.410156,4313.205078,4279.230957,4444.487305,4330.512695,4260.256348,1.705307,2.349824,1.802065,2.713161,0.357288,1.208202,1.770607,1.365646,1.600281,0.489574,1.483237,1.792582,1.370655,2.566667,0.271261,1.121032,1.41005,1.277838,2.20161,0.462041,0.603995,0.262328,0.644546,0.661259,0.16887,0.644083,0.434147,2.112276,2.313894,0.145058,0.527036,0.864871,1.265932,1.331197,0.178497,10.806999,4.944963,3.696642,2.795277,0.468169,1.060404,1.260573,4.028863,5.527365,0.329988,0.45151,0.803406,0.35992,0.570528,0.19845,2.613219,2.838242,2.743991,2.964313,0.777988,3.270893,2.606485,3.428772,4.013201,0.7787,2.662074,2.461613,1.989233,2.736965,0.687508,8.813683,1.735721,3.490051,3.304906,0.473503
1720076861,60,0,4411.153809,4419.358887,4336.153809,4391.922852,4442.307617,4401.025879,4424.102539,4372.436035,4413.589844,4311.794922,4292.820313,4442.820313,4349.358887,4256.922852,,,,,,,,,,,,,,,,,,,,,,,,,,,,,,,,,,,,,,,,,,,,,,,,,,,,,,,,,,,,,,,,,,,,,,
1720076861,61,0,4404.487305,4414.743652,4328.589844,4392.94873,4439.487305,4400.384766,4415.512695,4357.307617,4399.358887,4312.436035,4276.922852,4434.615234,4330.384766,4250,,,,,,,,,,,,,,,,,,,,,,,,,,,,,,,,,,,,,,,,,,,,,,,,,,,,,,,,,,,,,,,,,,,,,,
1720076861,62,0,4395.641113,4396.922852,4323.461426,4384.615234,4443.077148,4404.102539,4412.692383,4350.641113,4381.922852,4305.384766,4265.769043,4440.128418,4307.692383,4247.820313,,,,,,,,,,,,,,,,,,,,,,,,,,,,,,,,,,,,,,,,,,,,,,,,,,,,,,,,,,,,,,,,,,,,,,
1720076861,63,0,4393.077148,4396.153809,4319.230957,4375.641113,4445.897461,4410.128418,4424.615234,4363.077148,4378.846191,4296.153809,4263.974121,4437.05127,4320.512695,4245.641113,,,,,,,,,,,,,,,,,,,,,,,,,,,,,,,,,,,,,,,,,,,,,,,,,,,,,,,,,,,,,,,,,,,,,,
1720076861,64,0,4392.307617,4405.897461,4315.769043,4374.871582,4441.282227,4412.179688,4430.641113,4375.384766,4401.538574,4301.922852,4273.461426,4427.05127,4341.410156,4255,,,,,,,,,,,,,,,,,,,,,,,,,,,,,,,,,,,,,,,,,,,,,,,,,,,,,,,,,,,,,,,,,,,,,,
1720076861,65,0,4396.666504,4402.820313,4324.487305,4384.358887,4435.256348,4406.794922,4429.102539,4387.692383,4430,4312.692383,4300.641113,4442.436035,4344.743652,4266.025879,,,,,,,,,,,,,,,,,,,,,,,,,,,,,,,,,,,,,,,,,,,,,,,,,,,,,,,,,,,,,,,,,,,,,,
1720076861,66,0,4407.307617,4402.179688,4337.05127,4398.717773,4432.05127,4399.615234,4427.307617,4384.358887,4430.641113,4313.205078,4304.743652,4458.589844,4344.102539,4268.846191,,,,,,,,,,,,,,,,,,,,,,,,,,,,,,,,,,,,,,,,,,,,,,,,,,,,,,,,,,,,,,,,,,,,,,
1720076861,67,0,4406.410156,4408.461426,4336.282227,4396.282227,4436.922852,4402.820313,4417.94873,4365,4404.487305,4312.307617,4287.436035,4448.461426,4350,4281.153809,,,,,,,,,,,,,,,,,,,,,,,,,,,,,,,,,,,,,,,,,,,,,,,,,,,,,,,,,,,,,,,,,,,,,,
1720076861,68,0,4389.615234,4401.410156,4320.384766,4372.820313,4445.256348,4411.153809,4401.410156,4345.641113,4371.410156,4308.333496,4274.743652,4428.461426,4333.461426,4276.410156,,,,,,,,,,,,,,,,,,,,,,,,,,,,,,,,,,,,,,,,,,,,,,,,,,,,,,,,,,,,,,,,,,,,,,
1720076861,69,0,4373.077148,4387.307617,4301.410156,4357.307617,4442.307617,4415.897461,4397.692383,4337.692383,4353.846191,4297.563965,4262.563965,4403.846191,4311.025879,4244.743652,,,,,,,,,,,,,,,,,,,,,,,,,,,,,,,,,,,,,,,,,,,,,,,,,,,,,,,,,,,,,,,,,,,,,,
1720076861,70,0,4363.717773,4378.589844,4293.974121,4359.487305,4433.205078,4417.307617,4408.333496,4346.794922,4377.307617,4301.666504,4248.461426,4398.077148,4308.717773,4232.307617,,,,,,,,,,,,,,,,,,,,,,,,,,,,,,,,,,,,,,,,,,,,,,,,,,,,,,,,,,,,,,,,,,,,,,
1720076861,71,0,4361.922852,4372.05127,4293.461426,4359.102539,4435,4413.846191,4412.692383,4362.692383,4423.589844,4316.410156,4243.589844,4417.563965,4306.153809,4235.256348,,,,,,,,,,,,,,,,,,,,,,,,,,,,,,,,,,,,,,,,,,,,,,,,,,,,,,,,,,,,,,,,,,,,,,
1720076861,72,0,4374.871582,4379.102539,4299.615234,4362.820313,4441.538574,4407.179688,4412.436035,4373.205078,4445.641113,4319.615234,4263.205078,4422.179688,4307.179688,4233.461426,,,,,,,,,,,,,,,,,,,,,,,,,,,,,,,,,,,,,,,,,,,,,,,,,,,,,,,,,,,,,,,,,,,,,,
1720076861,73,0,4404.487305,4410.512695,4323.589844,4390.897461,4435.384766,4404.487305,4425.897461,4386.794922,4450.384766,4325.384766,4302.563965,4437.94873,4329.743652,4261.025879,,,,,,,,,,,,,,,,,,,,,,,,,,,,,,,,,,,,,,,,,,,,,,,,,,,,,,,,,,,,,,,,,,,,,,
1720076861,74,0,4416.666504,4423.333496,4335.384766,4408.846191,4426.666504,4402.307617,4430.769043,4386.794922,4446.410156,4328.974121,4309.358887,4458.974121,4351.666504,4289.102539,,,,,,,,,,,,,,,,,,,,,,,,,,,,,,,,,,,,,,,,,,,,,,,,,,,,,,,,,,,,,,,,,,,,,,
1720076861,75,0,4389.358887,4386.153809,4311.410156,4377.94873,4425.641113,4393.461426,4406.153809,4354.230957,4404.358887,4306.538574,4266.025879,4433.589844,4331.922852,4266.153809,2.278319,2.761467,1.821368,3.203864,0.341317,1.46318,1.958964,1.350004,1.798195,0.462482,1.777636,2.130425,1.584436,3.045367,0.262834,1.286813,1.552237,1.277121,2.680375,0.433079,0.723594,0.327512,0.823921,0.756407,0.160276,0.697204,0.484821,2.295545,2.584404,0.153129,0.415191,0.795015,1.303874,1.040308,0.183272,5.790718,3.20233,3.266011,2.413441,0.353878,1.050294,1.33924,4.150131,4.895649,0.328682,0.456397,0.8064,0.334698,0.504874,0.182984,2.594878,3.018136,2.789754,3.447649,0.618863,2.671342,2.665476,3.545079,4.511917,0.759613,2.672769,2.624831,1.995921,3.231617,0.637943,7.834347,1.834228,3.469187,3.893652,0.447726
1720076861,76,0,4354.743652,4350.256348,4286.282227,4337.692383,4427.94873,4394.102539,4387.94873,4332.563965,4345,4287.692383,4236.922852,4400.384766,4297.94873,4239.358887,,,,,,,,,,,,,,,,,,,,,,,,,,,,,,,,,,,,,,,,,,,,,,,,,,,,,,,,,,,,,,,,,,,,,,
1720076861,77,0,4353.461426,4355.128418,4286.153809,4337.94873,4432.307617,4409.102539,4398.461426,4334.615234,4333.077148,4296.153809,4245.769043,4407.436035,4294.615234,4242.179688,,,,,,,,,,,,,,,,,,,,,,,,,,,,,,,,,,,,,,,,,,,,,,,,,,,,,,,,,,,,,,,,,,,,,,
1720076861,78,0,4372.179688,4370.512695,4294.743652,4354.102539,4430.897461,4415.256348,4410,4341.410156,4368.974121,4306.410156,4255.384766,4418.205078,4309.871582,4246.410156,,,,,,,,,,,,,,,,,,,,,,,,,,,,,,,,,,,,,,,,,,,,,,,,,,,,,,,,,,,,,,,,,,,,,,
1720076861,79,0,4376.538574,4369.871582,4298.974121,4361.025879,4426.538574,4408.717773,4409.102539,4358.077148,4401.282227,4312.05127,4263.205078,4412.563965,4322.692383,4248.974121,,,,,,,,,,,,,,,,,,,,,,,,,,,,,,,,,,,,,,,,,,,,,,,,,,,,,,,,,,,,,,,,,,,,,,
1720076861,80,0,4381.282227,4375,4305.641113,4369.615234,4432.820313,4406.025879,4409.871582,4368.717773,4423.846191,4318.974121,4282.307617,4423.461426,4334.615234,4262.94873,,,,,,,,,,,,,,,,,,,,,,,,,,,,,,,,,,,,,,,,,,,,,,,,,,,,,,,,,,,,,,,,,,,,,,
1720076861,81,0,4400.384766,4396.025879,4323.846191,4383.461426,4444.230957,4414.230957,4415.769043,4374.487305,4443.333496,4321.153809,4306.794922,4452.179688,4352.307617,4281.410156,,,,,,,,,,,,,,,,,,,,,,,,,,,,,,,,,,,,,,,,,,,,,,,,,,,,,,,,,,,,,,,,,,,,,,
1720076861,82,0,4414.102539,4412.820313,4340.897461,4395.128418,4442.820313,4415.897461,4416.666504,4381.410156,4439.487305,4317.436035,4315.128418,4463.205078,4361.794922,4291.922852,,,,,,,,,,,,,,,,,,,,,,,,,,,,,,,,,,,,,,,,,,,,,,,,,,,,,,,,,,,,,,,,,,,,,,
1720076861,83,0,4419.615234,4415.512695,4340.384766,4402.179688,4436.666504,4409.615234,4418.974121,4375.128418,4418.846191,4319.230957,4300,4457.94873,4356.410156,4292.307617,,,,,,,,,,,,,,,,,,,,,,,,,,,,,,,,,,,,,,,,,,,,,,,,,,,,,,,,,,,,,,,,,,,,,,
1720076861,84,0,4420.128418,4408.461426,4335.128418,4395.897461,4441.025879,4417.436035,4425.641113,4366.538574,4398.717773,4322.563965,4291.922852,4460.384766,4348.333496,4286.922852,,,,,,,,,,,,,,,,,,,,,,,,,,,,,,,,,,,,,,,,,,,,,,,,,,,,,,,,,,,,,,,,,,,,,,
1720076861,85,0,4405.384766,4400,4330.256348,4380.256348,4446.922852,4431.666504,4423.333496,4369.615234,4382.307617,4320.769043,4295.512695,4465.897461,4340.641113,4282.692383,,,,,,,,,,,,,,,,,,,,,,,,,,,,,,,,,,,,,,,,,,,,,,,,,,,,,,,,,,,,,,,,,,,,,,
1720076861,86,0,4389.743652,4397.436035,4316.282227,4378.077148,4445.384766,4429.487305,4413.974121,4365.384766,4385.769043,4324.615234,4285.384766,4451.794922,4337.436035,4279.102539,,,,,,,,,,,,,,,,,,,,,,,,,,,,,,,,,,,,,,,,,,,,,,,,,,,,,,,,,,,,,,,,,,,,,,
1720076861,87,0,4390.769043,4392.307617,4309.102539,4382.179688,4437.94873,4419.615234,4412.179688,4360.512695,4414.743652,4334.230957,4280.512695,4430.897461,4339.487305,4275,,,,,,,,,,,,,,,,,,,,,,,,,,,,,,,,,,,,,,,,,,,,,,,,,,,,,,,,,,,,,,,,,,,,,,
1720076861,88,0,4385.769043,4378.077148,4310.256348,4368.717773,4430.384766,4416.666504,4412.179688,4368.846191,4435.256348,4337.05127,4287.692383,4421.538574,4333.461426,4267.436035,,,,,,,,,,,,,,,,,,,,,,,,,,,,,,,,,,,,,,,,,,,,,,,,,,,,,,,,,,,,,,,,,,,,,,
1720076861,89,0,4373.589844,4371.666504,4304.487305,4351.153809,4429.358887,4414.230957,4408.846191,4367.05127,4434.743652,4336.153809,4280.769043,4427.94873,4321.666504,4262.692383,,,,,,,,,,,,,,,,,,,,,,,,,,,,,,,,,,,,,,,,,,,,,,,,,,,,,,,,,,,,,,,,,,,,,,
1720076861,90,0,4385.512695,4387.05127,4313.205078,4360.897461,4437.436035,4412.563965,4413.717773,4368.077148,4423.974121,4335.256348,4284.487305,4451.922852,4334.487305,4279.871582,,,,,,,,,,,,,,,,,,,,,,,,,,,,,,,,,,,,,,,,,,,,,,,,,,,,,,,,,,,,,,,,,,,,,,
1720076861,91,0,4408.846191,4407.436035,4340.641113,4389.743652,4443.846191,4413.077148,4418.205078,4371.025879,4402.436035,4326.538574,4313.974121,4470.641113,4365.512695,4303.589844,3.199436,3.664416,1.875278,3.643715,0.334607,1.674986,2.250405,1.362395,2.037494,0.43975,2.12615,2.614285,1.780104,3.436667,0.268052,1.47596,1.803095,1.340118,2.984856,0.417056,0.794151,0.384604,1.007203,0.816782,0.153091,0.774213,0.557813,2.418545,2.900429,0.160357,0.414416,0.717499,1.39377,0.902491,0.184992,2.556715,1.890388,2.851421,2.161484,0.271063,1.13703,1.50531,4.085482,4.386464,0.32554,0.503703,0.857073,0.328002,0.461414,0.172966,2.603297,3.04467,2.71266,3.895157,0.543315,2.497194,2.76041,3.488007,4.986539,0.740888,2.590488,2.710286,1.973721,3.636127,0.604744,6.333333,2.040771,3.277216,4.405557,0.451914
1720076861,92,0,4416.025879,4410.897461,4354.487305,4402.179688,4443.077148,4411.922852,4413.717773,4359.871582,4384.102539,4321.025879,4322.563965,4481.153809,4373.846191,4309.230957,,,,,,,,,,,,,,,,,,,,,,,,,,,,,,,,,,,,,,,,,,,,,,,,,,,,,,,,,,,,,,,,,,,,,,
1720076861,93,0,4411.153809,4404.871582,4351.794922,4395.256348,4448.846191,4418.333496,4416.153809,4363.717773,4381.282227,4328.205078,4307.563965,4492.179688,4353.077148,4301.282227,,,,,,,,,,,,,,,,,,,,,,,,,,,,,,,,,,,,,,,,,,,,,,,,,,,,,,,,,,,,,,,,,,,,,,
1720076861,94,0,4401.282227,4398.846191,4342.179688,4385.769043,4458.846191,4428.589844,4421.794922,4372.94873,4376.794922,4326.153809,4306.025879,4477.820313,4335.384766,4286.282227,,,,,,,,,,,,,,,,,,,,,,,,,,,,,,,,,,,,,,,,,,,,,,,,,,,,,,,,,,,,,,,,,,,,,,
1720076861,95,0,4393.077148,4391.794922,4332.436035,4382.692383,4452.94873,4431.282227,4421.282227,4370.256348,4372.05127,4317.307617,4304.871582,4453.461426,4340.897461,4275.128418,,,,,,,,,,,,,,,,,,,,,,,,,,,,,,,,,,,,,,,,,,,,,,,,,,,,,,,,,,,,,,,,,,,,,,
1720076861,96,0,4397.563965,4388.846191,4333.205078,4382.179688,4440.512695,4430.897461,4427.563965,4375,4387.820313,4320,4293.717773,4464.102539,4343.333496,4281.794922,,,,,,,,,,,,,,,,,,,,,,,,,,,,,,,,,,,,,,,,,,,,,,,,,,,,,,,,,,,,,,,,,,,,,,
1720076861,97,0,4407.436035,4396.794922,4340.641113,4385.641113,4445,4432.179688,4436.282227,4384.871582,4410.641113,4327.820313,4296.153809,4484.230957,4331.025879,4291.282227,,,,,,,,,,,,,,,,,,,,,,,,,,,,,,,,,,,,,,,,,,,,,,,,,,,,,,,,,,,,,,,,,,,,,,
1720076861,98,0,4413.461426,4406.410156,4346.794922,4394.102539,4450.641113,4428.589844,4433.461426,4381.410156,4415.897461,4329.230957,4309.230957,4475,4340.641113,4291.025879,,,,,,,,,,,,,,,,,,,,,,,,,,,,,,,,,,,,,,,,,,,,,,,,,,,,,,,,,,,,,,,,,,,,,,
1720076861,99,0,4416.410156,4404.102539,4346.153809,4392.307617,4437.563965,4418.717773,4427.307617,4370.256348,4412.05127,4328.846191,4302.307617,4467.820313,4348.589844,4292.05127,,,,,,,,,,,,,,,,,,,,,,,,,,,,,,,,,,,,,,,,,,,,,,,,,,,,,,,,,,,,,,,,,,,,,,
1720076861,100,0,4418.205078,4398.077148,4338.461426,4376.153809,4424.358887,4413.461426,4422.563965,4360,4412.179688,4327.563965,4284.615234,4476.794922,4331.410156,4292.94873,,,,,,,,,,,,,,,,,,,,,,,,,,,,,,,,,,,,,,,,,,,,,,,,,,,,,,,,,,,,,,,,,,,,,,
1720076861,101,0,4417.179688,4394.743652,4333.717773,4370.128418,4432.820313,4420.384766,4416.410156,4362.307617,4415.897461,4327.820313,4295.641113,4475.641113,4335,4295,,,,,,,,,,,,,,,,,,,,,,,,,,,,,,,,,,,,,,,,,,,,,,,,,,,,,,,,,,,,,,,,,,,,,,
1720076861,102,0,4410.128418,4390.641113,4332.179688,4379.615234,4439.871582,4427.820313,4415,4368.717773,4418.589844,4330.897461,4317.820313,4467.94873,4352.307617,4297.307617,,,,,,,,,,,,,,,,,,,,,,,,,,,,,,,,,,,,,,,,,,,,,,,,,,,,,,,,,,,,,,,,,,,,,,
1720076861,103,0,4406.282227,4390.256348,4327.820313,4382.94873,4430.256348,4425.897461,4414.487305,4350.769043,4416.410156,4330.384766,4300.512695,4462.436035,4332.94873,4287.307617,,,,,,,,,,,,,,,,,,,,,,,,,,,,,,,,,,,,,,,,,,,,,,,,,,,,,,,,,,,,,,,,,,,,,,
1720076861,104,0,4417.436035,4393.589844,4329.230957,4386.794922,4432.436035,4426.025879,4412.94873,4341.410156,4405.384766,4326.282227,4271.410156,4451.153809,4314.615234,4279.102539,,,,,,,,,,,,,,,,,,,,,,,,,,,,,,,,,,,,,,,,,,,,,,,,,,,,,,,,,,,,,,,,,,,,,,
1720076861,105,0,4430.384766,4403.461426,4338.077148,4392.563965,4450.128418,4423.717773,4409.358887,4346.794922,4390,4324.230957,4276.410156,4442.307617,4330.384766,4289.615234,,,,,,,,,,,,,,,,,,,,,,,,,,,,,,,,,,,,,,,,,,,,,,,,,,,,,,,,,,,,,,,,,,,,,,
1720076861,106,0,4432.563965,4413.461426,4337.692383,4382.436035,4448.077148,4411.410156,4405.641113,4333.589844,4381.282227,4325,4286.282227,4448.077148,4335.256348,4298.589844,,,,,,,,,,,,,,,,,,,,,,,,,,,,,,,,,,,,,,,,,,,,,,,,,,,,,,,,,,,,,,,,,,,,,,
1720076861,107,0,4425.897461,4408.077148,4327.692383,4373.461426,4429.871582,4410.769043,4406.794922,4331.922852,4386.538574,4327.563965,4278.077148,4453.333496,4321.282227,4293.205078,4.388986,4.893978,1.953508,3.9288,0.333944,1.823222,2.583807,1.427385,2.235896,0.430125,2.480171,3.173009,1.934947,3.643078,0.279672,1.664347,2.128336,1.477785,3.05708,0.411213,0.787124,0.410693,1.173421,0.824623,0.147377,0.81098,0.641196,2.424524,3.119361,0.1635,0.494317,0.652648,1.526297,0.863036,0.184708,1.199508,1.151679,2.502745,1.995422,0.227406,1.313056,1.7723,3.949429,4.178267,0.327146,0.625941,1.000945,0.334541,0.455344,0.168521,2.638649,3.012066,2.633634,4.194324,0.552824,2.722734,2.908594,3.365383,5.278855,0.726952,2.496647,2.806501,1.960363,3.882511,0.587673,4.778577,2.389921,3.022104,4.71584,0.488808
1720076861,108,0,4416.410156,4400.641113,4320.128418,4380.897461,4426.410156,4423.846191,4413.077148,4348.333496,4401.153809,4325.512695,4277.94873,4445.641113,4316.538574,4287.820313,,,,,,,,,,,,,,,,,,,,,,,,,,,,,,,,,,,,,,,,,,,,,,,,,,,,,,,,,,,,,,,,,,,,,,
1720076861,109,0,4411.922852,4407.94873,4320,4389.487305,4427.179688,4429.487305,4422.05127,4357.563965,4415,4324.871582,4290.384766,4443.461426,4327.692383,4287.692383,,,,,,,,,,,,,,,,,,,,,,,,,,,,,,,,,,,,,,,,,,,,,,,,,,,,,,,,,,,,,,,,,,,,,,
1720076861,110,0,4411.922852,4410.769043,4320.769043,4390.256348,4416.666504,4427.563965,4425.256348,4358.461426,4422.820313,4334.230957,4291.538574,4451.794922,4333.717773,4295.384766,,,,,,,,,,,,,,,,,,,,,,,,,,,,,,,,,,,,,,,,,,,,,,,,,,,,,,,,,,,,,,,,,,,,,,
1720076861,111,0,4402.436035,4392.563965,4311.282227,4378.846191,4406.282227,4425.897461,4415.384766,4348.461426,4417.563965,4336.666504,4265.512695,4447.94873,4310,4293.077148,,,,,,,,,,,,,,,,,,,,,,,,,,,,,,,,,,,,,,,,,,,,,,,,,,,,,,,,,,,,,,,,,,,,,,
1720076861,112,0,4397.307617,4394.230957,4309.743652,4366.794922,4411.282227,4426.025879,4406.794922,4341.410156,4411.025879,4328.333496,4258.077148,4441.025879,4306.025879,4288.461426,,,,,,,,,,,,,,,,,,,,,,,,,,,,,,,,,,,,,,,,,,,,,,,,,,,,,,,,,,,,,,,,,,,,,,
1720076861,113,0,4409.743652,4412.307617,4323.077148,4370.769043,4416.794922,4426.153809,4416.410156,4352.820313,4410.256348,4327.820313,4292.563965,4450.641113,4341.282227,4307.05127,,,,,,,,,,,,,,,,,,,,,,,,,,,,,,,,,,,,,,,,,,,,,,,,,,,,,,,,,,,,,,,,,,,,,,
1720076861,114,0,4413.717773,4403.589844,4323.846191,4382.692383,4408.589844,4428.846191,4425.128418,4346.666504,4391.794922,4330.512695,4302.820313,4456.153809,4345.897461,4319.615234,,,,,,,,,,,,,,,,,,,,,,,,,,,,,,,,,,,,,,,,,,,,,,,,,,,,,,,,,,,,,,,,,,,,,,
1720076861,115,0,4415.128418,4395.769043,4322.820313,4390,4411.282227,4439.102539,4426.794922,4329.871582,4373.461426,4331.153809,4279.871582,4451.666504,4319.102539,4319.102539,,,,,,,,,,,,,,,,,,,,,,,,,,,,,,,,,,,,,,,,,,,,,,,,,,,,,,,,,,,,,,,,,,,,,,
1720076861,116,0,4427.820313,4411.282227,4333.846191,4392.436035,4425.384766,4448.717773,4436.282227,4348.717773,4390.897461,4336.282227,4275.384766,4457.94873,4318.205078,4323.717773,,,,,,,,,,,,,,,,,,,,,,,,,,,,,,,,,,,,,,,,,,,,,,,,,,,,,,,,,,,,,,,,,,,,,,
1720076861,117,0,4436.666504,4417.94873,4333.846191,4395.256348,4430.128418,4447.692383,4437.692383,4361.922852,4415,4337.179688,4277.820313,4461.922852,4327.820313,4322.436035,,,,,,,,,,,,,,,,,,,,,,,,,,,,,,,,,,,,,,,,,,,,,,,,,,,,,,,,,,,,,,,,,,,,,,
1720076861,118,0,4437.05127,4407.436035,4329.358887,4397.563965,4427.563965,4443.846191,4428.846191,4347.820313,4415.641113,4333.205078,4272.94873,4456.410156,4324.743652,4320.128418,,,,,,,,,,,,,,,,,,,,,,,,,,,,,,,,,,,,,,,,,,,,,,,,,,,,,,,,,,,,,,,,,,,,,,
1720076861,119,0,4436.153809,4406.538574,4333.589844,4388.717773,4426.410156,4440.512695,4427.179688,4340.769043,4413.077148,4336.153809,4282.436035,4460.384766,4326.153809,4329.487305,,,,,,,,,,,,,,,,,,,,,,,,,,,,,,,,,,,,,,,,,,,,,,,,,,,,,,,,,,,,,,,,,,,,,,
1720076861,120,0,4430.769043,4406.025879,4325,4372.307617,4419.743652,4432.692383,4430.128418,4342.179688,4414.358887,4336.282227,4284.487305,4460.641113,4324.230957,4330.769043,,,,,,,,,,,,,,,,,,,,,,,,,,,,,,,,,,,,,,,,,,,,,,,,,,,,,,,,,,,,,,,,,,,,,,
1720076861,121,0,4421.025879,4396.666504,4309.230957,4367.94873,4414.615234,4427.179688,4426.282227,4343.077148,4405.256348,4326.025879,4266.025879,4444.102539,4312.820313,4317.820313,,,,,,,,,,,,,,,,,,,,,,,,,,,,,,,,,,,,,,,,,,,,,,,,,,,,,,,,,,,,,,,,,,,,,,
1720076861,122,0,4420.512695,4396.025879,4311.666504,4376.025879,4422.436035,4430.256348,4424.358887,4340.769043,4394.871582,4324.487305,4254.102539,4433.717773,4305.256348,4311.922852,,,,,,,,,,,,,,,,,,,,,,,,,,,,,,,,,,,,,,,,,,,,,,,,,,,,,,,,,,,,,,,,,,,,,,
1720076861,123,0,4418.846191,4393.717773,4317.692383,4375.384766,4427.179688,4437.05127,4428.717773,4341.153809,4397.179688,4333.846191,4258.974121,4439.487305,4306.025879,4318.077148,5.576108,6.097302,2.097694,4.00829,0.340078,1.918237,2.902259,1.599414,2.346226,0.441964,2.762746,3.692473,2.094547,3.632758,0.292113,1.815763,2.478429,1.718476,2.928141,0.419133,0.707785,0.408209,1.305176,0.77628,0.145945,0.776264,0.725017,2.286408,3.125144,0.161625,0.611206,0.624051,1.64122,0.860713,0.185738,1.05978,0.864871,2.251395,1.893777,0.214246,1.506567,2.140328,4.095956,4.466432,0.339989,0.831406,1.233468,0.354971,0.496766,0.167987,2.679886,3.008065,2.705209,4.315368,0.62704,3.17135,3.106227,3.404778,5.294737,0.721231,2.426916,2.963768,2.030466,3.955692,0.589658,3.578087,2.827006,2.852254,4.766113,0.550394
1720076861,124,0,4415.641113,4390.128418,4315.512695,4377.05127,4426.153809,4442.179688,4427.94873,4349.230957,4412.436035,4338.589844,4267.820313,4443.461426,4309.230957,4329.358887,,,,,,,,,,,,,,,,,,,,,,,,,,,,,,,,,,,,,,,,,,,,,,,,,,,,,,,,,,,,,,,,,,,,,,
1720076861,125,0,4427.179688,4401.025879,4319.358887,4390.897461,4424.743652,4442.692383,4425.641113,4354.871582,4426.282227,4336.666504,4260.641113,4449.230957,4308.333496,4341.282227,,,,,,,,,,,,,,,,,,,,,,,,,,,,,,,,,,,,,,,,,,,,,,,,,,,,,,,,,,,,,,,,,,,,,,
1720076861,126,0,4441.538574,4411.666504,4337.94873,4398.846191,4423.333496,4443.333496,4432.307617,4355.897461,4425.256348,4339.743652,4264.871582,4473.205078,4318.974121,4355.512695,,,,,,,,,,,,,,,,,,,,,,,,,,,,,,,,,,,,,,,,,,,,,,,,,,,,,,,,,,,,,,,,,,,,,,
1720076861,127,0,4446.153809,4410.256348,4349.871582,4395.641113,4423.974121,4447.179688,4445.128418,4360.256348,4417.94873,4344.615234,4297.94873,4487.820313,4335.897461,4368.333496,,,,,,,,,,,,,,,,,,,,,,,,,,,,,,,,,,,,,,,,,,,,,,,,,,,,,,,,,,,,,,,,,,,,,,
1720076861,0,0,4447.436035,4412.307617,4342.94873,4395.769043,4419.743652,4446.153809,4446.794922,4359.743652,4408.077148,4335.256348,4297.307617,4479.358887,4325.641113,4362.692383,,,,,,,,,,,,,,,,,,,,,,,,,,,,,,,,,,,,,,,,,,,,,,,,,,,,,,,,,,,,,,,,,,,,,,
1720076861,1,0,4444.358887,4411.922852,4336.794922,4390.897461,4413.205078,4444.358887,4437.563965,4357.692383,4396.153809,4325,4261.153809,4475.256348,4304.743652,4348.333496,,,,,,,,,,,,,,,,,,,,,,,,,,,,,,,,,,,,,,,,,,,,,,,,,,,,,,,,,,,,,,,,,,,,,,
1720076861,2,0,4432.94873,4398.717773,4328.077148,4374.487305,4411.794922,4444.358887,4430.641113,4364.871582,4394.102539,4330.512695,4257.05127,4467.820313,4306.410156,4345.769043,,,,,,,,,,,,,,,,,,,,,,,,,,,,,,,,,,,,,,,,,,,,,,,,,,,,,,,,,,,,,,,,,,,,,,
1720076861,3,0,4437.563965,4397.05127,4320.897461,4372.307617,4405.897461,4445,4426.538574,4361.666504,4405.384766,4335.769043,4269.230957,4447.436035,4308.589844,4340.897461,,,,,,,,,,,,,,,,,,,,,,,,,,,,,,,,,,,,,,,,,,,,,,,,,,,,,,,,,,,,,,,,,,,,,,
1720076861,4,0,4450.769043,4403.846191,4331.922852,4384.358887,4396.922852,4452.563965,4429.743652,4364.358887,4421.666504,4336.666504,4266.666504,4447.692383,4297.563965,4333.461426,,,,,,,,,,,,,,,,,,,,,,,,,,,,,,,,,,,,,,,,,,,,,,,,,,,,,,,,,,,,,,,,,,,,,,
1720076861,5,0,4439.358887,4403.077148,4334.743652,4384.487305,4393.717773,4455.128418,4433.974121,4378.205078,4432.563965,4345.256348,4263.846191,4464.230957,4293.589844,4329.615234,,,,,,,,,,,,,,,,,,,,,,,,,,,,,,,,,,,,,,,,,,,,,,,,,,,,,,,,,,,,,,,,,,,,,,
1720076861,6,0,4431.153809,4408.717773,4321.538574,4379.615234,4392.563965,4444.487305,4425.512695,4367.05127,4428.974121,4350.256348,4260.897461,4459.743652,4302.179688,4327.307617,,,,,,,,,,,,,,,,,,,,,,,,,,,,,,,,,,,,,,,,,,,,,,,,,,,,,,,,,,,,,,,,,,,,,,
1720076861,7,0,4442.05127,4412.94873,4331.282227,4382.820313,4393.205078,4438.717773,4420.641113,4354.871582,4410.641113,4343.846191,4270.384766,4459.230957,4313.589844,4333.461426,,,,,,,,,,,,,,,,,,,,,,,,,,,,,,,,,,,,,,,,,,,,,,,,,,,,,,,,,,,,,,,,,,,,,,
1720076861,8,0,4445.512695,4411.410156,4349.102539,4389.871582,4396.538574,4446.794922,4427.692383,4359.615234,4392.179688,4336.794922,4276.666504,4472.692383,4311.153809,4333.589844,,,,,,,,,,,,,,,,,,,,,,,,,,,,,,,,,,,,,,,,,,,,,,,,,,,,,,,,,,,,,,,,,,,,,,
1720076861,9,0,4444.871582,4422.05127,4348.589844,4397.563965,4402.436035,4453.077148,4431.666504,4360.384766,4380.128418,4330,4267.179688,4468.333496,4303.974121,4327.436035,,,,,,,,,,,,,,,,,,,,,,,,,,,,,,,,,,,,,,,,,,,,,,,,,,,,,,,,,,,,,,,,,,,,,,
1720076861,10,0,4447.05127,4426.538574,4349.358887,4403.333496,4409.615234,4451.282227,4429.358887,4359.487305,4376.666504,4327.563965,4267.94873,4460.512695,4308.205078,4328.589844,,,,,,,,,,,,,,,,,,,,,,,,,,,,,,,,,,,,,,,,,,,,,,,,,,,,,,,,,,,,,,,,,,,,,,
1720076861,11,0,4436.153809,4417.179688,4352.692383,4399.615234,4406.922852,4444.871582,4429.358887,4362.307617,4390.256348,4338.846191,4280.641113,4470,4311.025879,4332.307617,6.437109,6.901132,2.356493,3.887739,0.355264,1.974822,3.17694,1.909517,2.361835,0.477475,2.917746,4.066433,2.332237,3.433981,0.30316,1.899261,2.816714,2.083526,2.692202,0.445497,0.592663,0.415596,1.378982,0.680375,0.153568,0.677954,0.804993,2.010126,2.882674,0.156553,0.752186,0.673492,1.666053,0.853426,0.190929,1.26844,0.851191,2.130626,1.853955,0.216683,1.740476,2.618533,4.895758,5.325629,0.366151,1.090359,1.496133,0.392528,0.583829,0.169033,2.711663,3.07723,3.049004,4.289499,0.737692,3.633679,3.357361,3.833349,5.011064,0.723257,2.44607,3.173222,2.260798,3.877417,0.618607,2.923136,3.242241,2.899232,4.570065,0.620292
1720076861,12,0,4429.743652,4422.436035,4354.743652,4398.205078,4396.922852,4439.615234,4429.871582,4366.538574,4414.358887,4351.282227,4287.820313,4484.358887,4313.974121,4339.102539,,,,,,,,,,,,,,,,,,,,,,,,,,,,,,,,,,,,,,,,,,,,,,,,,,,,,,,,,,,,,,,,,,,,,,
1720076861,13,0,4438.717773,4434.615234,4360.897461,4405.641113,4396.538574,4439.871582,4427.179688,4373.846191,4429.487305,4352.05127,4292.307617,4492.94873,4328.974121,4351.922852,,,,,,,,,,,,,,,,,,,,,,,,,,,,,,,,,,,,,,,,,,,,,,,,,,,,,,,,,,,,,,,,,,,,,,
1720076861,14,0,4432.820313,4425.128418,4359.487305,4406.666504,4396.666504,4442.563965,4431.538574,4375.512695,4431.666504,4348.846191,4297.692383,4494.743652,4339.487305,4353.461426,,,,,,,,,,,,,,,,,,,,,,,,,,,,,,,,,,,,,,,,,,,,,,,,,,,,,,,,,,,,,,,,,,,,,,
1720076861,15,0,4417.436035,4414.615234,4351.538574,4397.94873,4388.974121,4451.666504,4442.05127,4372.05127,4427.563965,4342.307617,4295.641113,4492.94873,4331.666504,4343.205078,,,,,,,,,,,,,,,,,,,,,,,,,,,,,,,,,,,,,,,,,,,,,,,,,,,,,,,,,,,,,,,,,,,,,,
1720076861,16,0,4414.230957,4415.897461,4352.692383,4393.846191,4386.538574,4462.94873,4447.563965,4383.589844,4413.333496,4331.666504,4289.871582,4493.205078,4317.692383,4339.230957,,,,,,,,,,,,,,,,,,,,,,,,,,,,,,,,,,,,,,,,,,,,,,,,,,,,,,,,,,,,,,,,,,,,,,
1720076861,17,0,4413.077148,4414.871582,4355.256348,4396.153809,4390.769043,4463.333496,4445.256348,4385.769043,4398.077148,4333.333496,4278.974121,4484.743652,4310.256348,4332.436035,,,,,,,,,,,,,,,,,,,,,,,,,,,,,,,,,,,,,,,,,,,,,,,,,,,,,,,,,,,,,,,,,,,,,,
1720076861,18,0,4413.974121,4419.230957,4352.94873,4399.871582,4397.05127,4455.128418,4441.282227,4373.333496,4395.256348,4342.94873,4272.94873,4474.102539,4314.230957,4327.820313,,,,,,,,,,,,,,,,,,,,,,,,,,,,,,,,,,,,,,,,,,,,,,,,,,,,,,,,,,,,,,,,,,,,,,
1720076861,19,0,4418.974121,4423.589844,4359.871582,4402.563965,4400.769043,4448.333496,4431.410156,4369.615234,4391.538574,4335.512695,4280.897461,4482.179688,4320.384766,4337.436035,,,,,,,,,,,,,,,,,,,,,,,,,,,,,,,,,,,,,,,,,,,,,,,,,,,,,,,,,,,,,,,,,,,,,,
1720076861,20,0,4415.769043,4418.333496,4362.307617,4395.384766,4398.333496,4441.025879,4411.153809,4357.820313,4386.025879,4326.922852,4281.794922,4481.025879,4318.205078,4337.436035,,,,,,,,,,,,,,,,,,,,,,,,,,,,,,,,,,,,,,,,,,,,,,,,,,,,,,,,,,,,,,,,,,,,,,
1720076861,21,0,4412.94873,4415.256348,4356.025879,4393.333496,4404.487305,4436.794922,4402.05127,4346.794922,4392.307617,4339.871582,4277.179688,4470.512695,4319.615234,4333.333496,,,,,,,,,,,,,,,,,,,,,,,,,,,,,,,,,,,,,,,,,,,,,,,,,,,,,,,,,,,,,,,,,,,,,,
1720076861,22,0,4416.282227,4418.333496,4352.692383,4402.436035,4410,4442.692383,4414.487305,4357.563965,4401.410156,4347.179688,4277.820313,4480.641113,4321.794922,4336.794922,,,,,,,,,,,,,,,,,,,,,,,,,,,,,,,,,,,,,,,,,,,,,,,,,,,,,,,,,,,,,,,,,,,,,,
1720076861,23,0,4413.717773,4415.897461,4354.871582,4397.05127,4400.128418,4449.615234,4431.794922,4377.179688,4403.205078,4341.666504,4279.487305,4491.282227,4313.589844,4332.692383,,,,,,,,,,,,,,,,,,,,,,,,,,,,,,,,,,,,,,,,,,,,,,,,,,,,,,,,,,,,,,,,,,,,,,
1720076861,24,0,4408.974121,4410.128418,4357.307617,4387.436035,4399.358887,4452.692383,4445.897461,4391.922852,4414.871582,4343.461426,4279.871582,4488.077148,4309.102539,4326.025879,,,,,,,,,,,,,,,,,,,,,,,,,,,,,,,,,,,,,,,,,,,,,,,,,,,,,,,,,,,,,,,,,,,,,,
1720076861,25,0,4407.94873,4410.512695,4353.974121,4393.333496,4407.307617,4457.436035,4458.205078,4400.897461,4429.102539,4344.358887,4286.922852,4487.563965,4313.461426,4326.922852,,,,,,,,,,,,,,,,,,,,,,,,,,,,,,,,,,,,,,,,,,,,,,,,,,,,,,,,,,,,,,,,,,,,,,
1720076861,26,0,4409.358887,4411.922852,4358.333496,4397.94873,4403.589844,4458.589844,4461.410156,4403.846191,4421.410156,4340.384766,4295.256348,4492.94873,4313.461426,4326.538574,,,,,,,,,,,,,,,,,,,,,,,,,,,,,,,,,,,,,,,,,,,,,,,,,,,,,,,,,,,,,,,,,,,,,,
1720076861,27,0,4410.512695,4412.307617,4367.94873,4392.563965,4402.692383,4447.94873,4445.384766,4395.897461,4406.282227,4342.692383,4288.589844,4493.974121,4308.077148,4324.102539,6.737206,7.099722,2.7519,3.600976,0.378577,2.000731,3.402517,2.347522,2.292067,0.528884,2.929126,4.263104,2.681244,3.103397,0.312902,1.900458,3.140018,2.564942,2.447569,0.487716,0.524151,0.490438,1.381107,0.559904,0.173692,0.58167,0.874563,1.668271,2.455712,0.151347,0.918813,0.819059,1.587149,0.828639,0.200147,1.447664,0.989673,2.156182,1.867995,0.226151,1.944592,3.167672,6.467461,6.598123,0.401479,1.338134,1.70239,0.446553,0.693608,0.169696,2.722089,3.210495,3.641176,4.164501,0.861172,3.991415,3.692918,4.675627,4.466154,0.72682,2.505611,3.376096,2.654766,3.680771,0.67947,2.725811,3.54833,3.183129,4.1793,0.677405
1720076861,28,0,4413.077148,4415.641113,4361.922852,4395.256348,4412.563965,4438.077148,4422.820313,4374.615234,4394.743652,4345.512695,4274.487305,4488.333496,4308.077148,4321.538574,,,,,,,,,,,,,,,,,,,,,,,,,,,,,,,,,,,,,,,,,,,,,,,,,,,,,,,,,,,,,,,,,,,,,,
1720076861,29,0,4413.717773,4419.102539,4351.922852,4401.538574,4416.153809,4447.179688,4415.897461,4360.512695,4379.358887,4341.922852,4273.846191,4475.769043,4313.846191,4318.205078,,,,,,,,,,,,,,,,,,,,,,,,,,,,,,,,,,,,,,,,,,,,,,,,,,,,,,,,,,,,,,,,,,,,,,
1720076861,30,0,4406.794922,4414.358887,4353.077148,4397.563965,4409.102539,4457.563965,4423.205078,4369.358887,4373.333496,4342.05127,4277.692383,4467.94873,4310.256348,4316.666504,,,,,,,,,,,,,,,,,,,,,,,,,,,,,,,,,,,,,,,,,,,,,,,,,,,,,,,,,,,,,,,,,,,,,,
1720076861,31,0,4401.282227,4411.794922,4354.487305,4398.205078,4401.666504,4451.025879,4434.615234,4379.230957,4394.871582,4347.94873,4279.615234,4480.128418,4308.589844,4323.717773,,,,,,,,,,,,,,,,,,,,,,,,,,,,,,,,,,,,,,,,,,,,,,,,,,,,,,,,,,,,,,,,,,,,,,
1720076861,32,0,4405.897461,4416.794922,4354.487305,4402.820313,4397.307617,4444.743652,4443.333496,4389.871582,4424.230957,4353.846191,4285.769043,4494.871582,4316.666504,4328.077148,,,,,,,,,,,,,,,,,,,,,,,,,,,,,,,,,,,,,,,,,,,,,,,,,,,,,,,,,,,,,,,,,,,,,,
1720076861,33,0,4403.461426,4407.436035,4356.153809,4393.717773,4381.922852,4445.897461,4441.794922,4400.897461,4426.666504,4351.410156,4284.487305,4490.128418,4311.282227,4320.128418,,,,,,,,,,,,,,,,,,,,,,,,,,,,,,,,,,,,,,,,,,,,,,,,,,,,,,,,,,,,,,,,,,,,,,
1720076861,34,0,4387.563965,4393.205078,4347.692383,4377.179688,4356.794922,4442.94873,4428.333496,4386.666504,4407.307617,4341.922852,4267.436035,4474.358887,4288.974121,4305.769043,,,,,,,,,,,,,,,,,,,,,,,,,,,,,,,,,,,,,,,,,,,,,,,,,,,,,,,,,,,,,,,,,,,,,,
1720076861,35,0,4382.436035,4396.282227,4342.179688,4378.846191,4353.974121,4444.871582,4421.794922,4377.563965,4396.794922,4340.128418,4247.692383,4475.897461,4278.974121,4302.179688,,,,,,,,,,,,,,,,,,,,,,,,,,,,,,,,,,,,,,,,,,,,,,,,,,,,,,,,,,,,,,,,,,,,,,
1720076861,36,0,4391.282227,4404.102539,4351.794922,4393.846191,4366.666504,4458.333496,4434.743652,4390.769043,4401.666504,4343.333496,4250.897461,4489.487305,4293.205078,4310,,,,,,,,,,,,,,,,,,,,,,,,,,,,,,,,,,,,,,,,,,,,,,,,,,,,,,,,,,,,,,,,,,,,,,
1720076861,37,0,4393.077148,4406.922852,4356.666504,4395.641113,4354.102539,4470.769043,4444.358887,4395.641113,4403.589844,4342.05127,4277.05127,4488.846191,4307.692383,4316.410156,,,,,,,,,,,,,,,,,,,,,,,,,,,,,,,,,,,,,,,,,,,,,,,,,,,,,,,,,,,,,,,,,,,,,,
1720076861,38,0,4386.794922,4410.512695,4360.256348,4396.922852,4337.94873,4472.179688,4448.077148,4396.153809,4402.307617,4341.538574,4293.717773,4491.666504,4313.077148,4324.230957,,,,,,,,,,,,,,,,,,,,,,,,,,,,,,,,,,,,,,,,,,,,,,,,,,,,,,,,,,,,,,,,,,,,,,
1720076861,39,0,4392.94873,4413.974121,4376.794922,4407.94873,4344.230957,4466.794922,4457.94873,4404.615234,4411.025879,4350.128418,4294.615234,4511.025879,4323.717773,4342.05127,,,,,,,,,,,,,,,,,,,,,,,,,,,,,,,,,,,,,,,,,,,,,,,,,,,,,,,,,,,,,,,,,,,,,,
1720076861,40,0,4412.307617,4424.358887,4391.538574,4414.230957,4349.871582,4456.153809,4460.128418,4401.666504,4416.922852,4358.461426,4301.794922,4521.666504,4334.358887,4358.589844,,,,,,,,,,,,,,,,,,,,,,,,,,,,,,,,,,,,,,,,,,,,,,,,,,,,,,,,,,,,,,,,,,,,,,
1720076861,41,0,4415.128418,4435.897461,4392.820313,4415.384766,4348.461426,4446.153809,4441.666504,4396.410156,4404.743652,4355.769043,4315.769043,4522.692383,4330.769043,4364.230957,,,,,,,,,,,,,,,,,,,,,,,,,,,,,,,,,,,,,,,,,,,,,,,,,,,,,,,,,,,,,,,,,,,,,,
1720076861,42,0,4396.922852,4422.820313,4383.333496,4412.179688,4348.717773,4444.743652,4429.615234,4399.615234,4397.05127,4353.717773,4315.256348,4523.461426,4323.846191,4356.538574,,,,,,,,,,,,,,,,,,,,,,,,,,,,,,,,,,,,,,,,,,,,,,,,,,,,,,,,,,,,,,,,,,,,,,
1720076861,43,0,4390.641113,4405.512695,4366.538574,4401.410156,4350.769043,4453.717773,4439.230957,4395.769043,4407.05127,4358.589844,4305.128418,4514.102539,4329.743652,4347.179688,6.382447,6.68387,3.242662,3.199718,0.403504,1.990999,3.550573,2.844718,2.153091,0.57931,2.79755,4.288119,3.109734,2.702159,0.320232,1.812118,3.428905,3.104326,2.251363,0.531981,0.592143,0.677454,1.312264,0.439122,0.204574,0.517987,0.92406,1.352972,1.953262,0.147897,1.097326,1.030351,1.446612,0.792437,0.209359,1.578965,1.236997,2.283234,1.91354,0.240924,2.107346,3.685903,8.556924,7.921996,0.434857,1.495701,1.767895,0.508057,0.792449,0.169224,2.696001,3.344049,4.294769,3.966724,0.977995,4.160517,4.076026,5.706192,3.753412,0.721349,2.582974,3.475348,3.109735,3.391387,0.763022,2.793294,3.694751,3.591282,3.662678,0.700346
1720076861,44,0,4399.358887,4408.589844,4357.692383,4395.641113,4356.794922,4467.563965,4446.666504,4401.153809,4417.179688,4358.846191,4299.487305,4498.461426,4325.512695,4340.384766,,,,,,,,,,,,,,,,,,,,,,,,,,,,,,,,,,,,,,,,,,,,,,,,,,,,,,,,,,,,,,,,,,,,,,
1720076861,45,0,4402.692383,4413.461426,4358.589844,4406.410156,4361.410156,4475.641113,4446.666504,4413.333496,4423.077148,4350.512695,4295.384766,4493.846191,4308.077148,4331.025879,,,,,,,,,,,,,,,,,,,,,,,,,,,,,,,,,,,,,,,,,,,,,,,,,,,,,,,,,,,,,,,,,,,,,,
1720076861,46,0,4403.589844,4409.358887,4357.692383,4407.692383,4359.487305,4472.692383,4447.05127,4407.307617,4425.384766,4350.512695,4287.307617,4499.743652,4301.153809,4322.692383,,,,,,,,,,,,,,,,,,,,,,,,,,,,,,,,,,,,,,,,,,,,,,,,,,,,,,,,,,,,,,,,,,,,,,
1720076862,47,0,4415.256348,4410,4364.102539,4399.358887,4361.025879,4462.179688,4445.384766,4402.307617,4416.410156,4359.358887,4289.487305,4506.153809,4310.641113,4331.153809,,,,,,,,,,,,,,,,,,,,,,,,,,,,,,,,,,,,,,,,,,,,,,,,,,,,,,,,,,,,,,,,,,,,,,
1720076862,48,0,4429.615234,4416.410156,4372.436035,4404.615234,4365.641113,4456.794922,4444.487305,4405.769043,4405,4360,4293.589844,4510.512695,4314.871582,4343.846191,,,,,,,,,,,,,,,,,,,,,,,,,,,,,,,,,,,,,,,,,,,,,,,,,,,,,,,,,,,,,,,,,,,,,,
1720076862,49,0,4430,4415.256348,4364.487305,4406.666504,4360.512695,4457.692383,4443.717773,4406.410156,4399.615234,4355.897461,4284.102539,4506.922852,4301.153809,4334.487305,,,,,,,,,,,,,,,,,,,,,,,,,,,,,,,,,,,,,,,,,,,,,,,,,,,,,,,,,,,,,,,,,,,,,,
1720076862,50,0,4424.102539,4412.820313,4354.487305,4402.05127,4360.897461,4456.538574,4442.692383,4404.871582,4400.897461,4355,4284.743652,4495.384766,4297.820313,4323.974121,,,,,,,,,,,,,,,,,,,,,,,,,,,,,,,,,,,,,,,,,,,,,,,,,,,,,,,,,,,,,,,,,,,,,,
1720076862,51,0,4433.846191,4414.615234,4361.666504,4412.94873,4365,4460,4440.897461,4410.512695,4410.128418,4357.179688,4301.538574,4496.025879,4316.153809,4336.282227,,,,,,,,,,,,,,,,,,,,,,,,,,,,,,,,,,,,,,,,,,,,,,,,,,,,,,,,,,,,,,,,,,,,,,
1720076862,52,0,4442.05127,4415.384766,4363.717773,4418.846191,4349.871582,4460.256348,4429.230957,4404.358887,4407.179688,4356.410156,4301.282227,4500,4322.307617,4343.205078,,,,,,,,,,,,,,,,,,,,,,,,,,,,,,,,,,,,,,,,,,,,,,,,,,,,,,,,,,,,,,,,,,,,,,
1720076862,53,0,4429.358887,4409.871582,4346.666504,4397.179688,4335.128418,4443.077148,4406.025879,4377.820313,4384.487305,4353.717773,4279.230957,4479.615234,4293.974121,4321.538574,,,,,,,,,,,,,,,,,,,,,,,,,,,,,,,,,,,,,,,,,,,,,,,,,,,,,,,,,,,,,,,,,,,,,,
1720076862,54,0,4428.974121,4406.538574,4339.871582,4387.179688,4342.563965,4425.641113,4400,4371.282227,4374.743652,4357.94873,4264.230957,4466.666504,4273.205078,4305.897461,,,,,,,,,,,,,,,,,,,,,,,,,,,,,,,,,,,,,,,,,,,,,,,,,,,,,,,,,,,,,,,,,,,,,,
1720076862,55,0,4448.077148,4412.820313,4352.436035,4402.05127,4351.538574,4429.615234,4418.077148,4395.256348,4390.641113,4366.025879,4274.615234,4492.692383,4299.230957,4324.230957,,,,,,,,,,,,,,,,,,,,,,,,,,,,,,,,,,,,,,,,,,,,,,,,,,,,,,,,,,,,,,,,,,,,,,
1720076862,56,0,4449.358887,4410.128418,4359.871582,4404.358887,4360,4444.230957,4432.820313,4413.077148,4407.307617,4366.666504,4293.461426,4507.179688,4322.820313,4338.077148,,,,,,,,,,,,,,,,,,,,,,,,,,,,,,,,,,,,,,,,,,,,,,,,,,,,,,,,,,,,,,,,,,,,,,
1720076862,57,0,4441.282227,4399.743652,4353.077148,4396.538574,4375,4456.282227,4436.666504,4417.563965,4413.846191,4367.05127,4288.846191,4494.230957,4304.487305,4329.615234,,,,,,,,,,,,,,,,,,,,,,,,,,,,,,,,,,,,,,,,,,,,,,,,,,,,,,,,,,,,,,,,,,,,,,
1720076862,58,0,4443.205078,4399.743652,4343.846191,4392.692383,4383.589844,4468.333496,4434.487305,4423.077148,4414.871582,4368.077148,4279.487305,4488.717773,4291.666504,4321.922852,,,,,,,,,,,,,,,,,,,,,,,,,,,,,,,,,,,,,,,,,,,,,,,,,,,,,,,,,,,,,,,,,,,,,,
1720076862,59,0,4446.794922,4406.794922,4337.820313,4396.282227,4384.487305,4477.179688,4429.358887,4409.487305,4407.820313,4360,4282.94873,4493.846191,4304.230957,4323.974121,5.513892,5.85252,3.7066,2.734235,0.42053,1.930875,3.580773,3.269987,1.952548,0.610036,2.530814,4.173847,3.516514,2.278603,0.32291,1.641315,3.649389,3.5845,2.09355,0.559487,0.895967,0.973056,1.206135,0.337062,0.238969,0.512273,0.941054,1.112046,1.485468,0.146179,1.250549,1.26273,1.319787,0.765329,0.213228,1.636356,1.529673,2.456579,1.945199,0.258802,2.165767,4.059382,10.68954,8.861684,0.452794,1.503843,1.644816,0.564017,0.849709,0.16799,2.599656,3.427579,4.760824,3.699616,1.067611,4.089385,4.423267,6.575854,2.998311,0.696375,2.617749,3.418487,3.463222,3.029802,0.844478,2.868263,3.717071,3.938679,3.091733,0.676052
1720076862,60,0,4456.153809,4412.820313,4346.666504,4407.05127,4384.230957,4476.153809,4429.358887,4393.717773,4397.179688,4358.205078,4281.794922,4510.128418,4304.871582,4334.487305,,,,,,,,,,,,,,,,,,,,,,,,,,,,,,,,,,,,,,,,,,,,,,,,,,,,,,,,,,,,,,,,,,,,,,
1720076862,61,0,4477.563965,4418.846191,4370.769043,4419.487305,4382.94873,4462.563965,4432.436035,4407.820313,4377.820313,4362.436035,4299.358887,4525.128418,4315.256348,4352.563965,,,,,,,,,,,,,,,,,,,,,,,,,,,,,,,,,,,,,,,,,,,,,,,,,,,,,,,,,,,,,,,,,,,,,,
1720076862,62,0,4494.743652,4422.179688,4381.282227,4428.333496,4381.538574,4445.897461,4427.692383,4411.153809,4354.871582,4351.922852,4322.820313,4524.487305,4335.384766,4361.153809,,,,,,,,,,,,,,,,,,,,,,,,,,,,,,,,,,,,,,,,,,,,,,,,,,,,,,,,,,,,,,,,,,,,,,
1720076862,63,0,4489.487305,4413.846191,4371.538574,4426.538574,4381.794922,4439.615234,4421.025879,4401.794922,4354.871582,4342.436035,4303.333496,4525.641113,4322.94873,4353.717773,,,,,,,,,,,,,,,,,,,,,,,,,,,,,,,,,,,,,,,,,,,,,,,,,,,,,,,,,,,,,,,,,,,,,,
1720076862,64,0,4480.897461,4408.333496,4365.897461,4419.871582,4381.282227,4444.743652,4426.153809,4410,4385.897461,4354.487305,4286.538574,4528.846191,4312.692383,4345.897461,,,,,,,,,,,,,,,,,,,,,,,,,,,,,,,,,,,,,,,,,,,,,,,,,,,,,,,,,,,,,,,,,,,,,,
1720076862,65,0,4478.461426,4404.743652,4364.871582,4416.282227,4381.538574,4451.666504,4425.512695,4416.153809,4412.563965,4367.692383,4306.282227,4515.384766,4324.102539,4338.589844,,,,,,,,,,,,,,,,,,,,,,,,,,,,,,,,,,,,,,,,,,,,,,,,,,,,,,,,,,,,,,,,,,,,,,
1720076862,66,0,4464.487305,4391.538574,4347.307617,4406.666504,4382.692383,4456.666504,4416.025879,4413.589844,4412.436035,4368.461426,4304.230957,4499.358887,4317.307617,4326.153809,,,,,,,,,,,,,,,,,,,,,,,,,,,,,,,,,,,,,,,,,,,,,,,,,,,,,,,,,,,,,,,,,,,,,,
1720076862,67,0,4458.717773,4386.794922,4332.692383,4396.025879,4382.820313,4462.692383,4419.615234,4415.512695,4411.410156,4366.410156,4286.666504,4500.897461,4304.871582,4321.922852,,,,,,,,,,,,,,,,,,,,,,,,,,,,,,,,,,,,,,,,,,,,,,,,,,,,,,,,,,,,,,,,,,,,,,
