Timestamp,EEG.Counter,EEG.Interpolated,EEG.AF3,EEG.F7,EEG.F3,EEG.FC5,EEG.T7,EEG.P7,EEG.O1,EEG.O2,EEG.P8,EEG.T8,EEG.FC6,EEG.F4,EEG.F8,EEG.AF4,POW.AF3.Theta,POW.AF3.Alpha,POW.AF3.BetaL,POW.AF3.BetaH,POW.AF3.Gamma,POW.F7.Theta,POW.F7.Alpha,POW.F7.BetaL,POW.F7.BetaH,POW.F7.Gamma,POW.F3.Theta,POW.F3.Alpha,POW.F3.BetaL,POW.F3.BetaH,POW.F3.Gamma,POW.FC5.Theta,POW.FC5.Alpha,POW.FC5.BetaL,POW.FC5.BetaH,POW.FC5.Gamma,POW.T7.Theta,POW.T7.Alpha,POW.T7.BetaL,POW.T7.BetaH,POW.T7.Gamma,POW.P7.Theta,POW.P7.Alpha,POW.P7.BetaL,POW.P7.BetaH,POW.P7.Gamma,POW.O1.Theta,POW.O1.Alpha,POW.O1.BetaL,POW.O1.BetaH,POW.O1.Gamma,POW.O2.Theta,POW.O2.Alpha,POW.O2.BetaL,POW.O2.BetaH,POW.O2.Gamma,POW.P8.Theta,POW.P8.Alpha,POW.P8.BetaL,POW.P8.BetaH,POW.P8.Gamma,POW.T8.Theta,POW.T8.Alpha,POW.T8.BetaL,POW.T8.BetaH,POW.T8.Gamma,POW.FC6.Theta,POW.FC6.Alpha,POW.FC6.BetaL,POW.FC6.BetaH,POW.FC6.Gamma,POW.F4.Theta,POW.F4.Alpha,POW.F4.BetaL,POW.F4.BetaH,POW.F4.Gamma,POW.F8.Theta,POW.F8.Alpha,POW.F8.BetaL,POW.F8.BetaH,POW.F8.Gamma,POW.AF4.Theta,POW.AF4.Alpha,POW.AF4.BetaL,POW.AF4.BetaH,POW.AF4.Gamma
1720416074,71,0,4233.077148,4276.282227,4315.641113,4347.436035,4282.820313,4323.974121,4309.743652,4295.512695,4283.846191,4275.512695,4491.282227,4498.974121,4331.538574,4135.384766,,,,,,,,,,,,,,,,,,,,,,,,,,,,,,,,,,,,,,,,,,,,,,,,,,,,,,,,,,,,,,,,,,,,,,
1720416074,72,0,4230.897461,4287.05127,4313.974121,4348.974121,4277.179688,4316.025879,4310.641113,4306.794922,4291.282227,4279.487305,4477.436035,4498.589844,4340,4125.897461,,,,,,,,,,,,,,,,,,,,,,,,,,,,,,,,,,,,,,,,,,,,,,,,,,,,,,,,,,,,,,,,,,,,,,
1720416074,73,0,4230.512695,4277.692383,4315.641113,4335.128418,4275.641113,4315.128418,4305.384766,4307.179688,4293.077148,4293.589844,4458.205078,4492.94873,4327.05127,4099.487305,,,,,,,,,,,,,,,,,,,,,,,,,,,,,,,,,,,,,,,,,,,,,,,,,,,,,,,,,,,,,,,,,,,,,,
1720416074,74,0,4234.230957,4275,4316.282227,4341.282227,4278.077148,4317.820313,4302.820313,4297.05127,4283.717773,4292.563965,4473.846191,4485.384766,4320.641113,4093.974365,,,,,,,,,,,,,,,,,,,,,,,,,,,,,,,,,,,,,,,,,,,,,,,,,,,,,,,,,,,,,,,,,,,,,,
1720416074,75,0,4234.871582,4283.589844,4320.897461,4348.974121,4269.102539,4316.153809,4306.794922,4295.512695,4278.333496,4278.077148,4482.179688,4498.333496,4328.461426,4103.974121,,,,,,,,,,,,,,,,,,,,,,,,,,,,,,,,,,,,,,,,,,,,,,,,,,,,,,,,,,,,,,,,,,,,,,
1720416074,76,0,4231.538574,4284.743652,4315.384766,4341.153809,4262.179688,4315.128418,4305.641113,4297.820313,4285.512695,4272.563965,4465.256348,4506.025879,4323.205078,4090.897461,,,,,,,,,,,,,,,,,,,,,,,,,,,,,,,,,,,,,,,,,,,,,,,,,,,,,,,,,,,,,,,,,,,,,,
1720416074,77,0,4232.820313,4274.230957,4305.256348,4332.692383,4278.461426,4319.102539,4304.230957,4295.256348,4290.256348,4275.128418,4465,4480.897461,4308.333496,4072.05127,,,,,,,,,,,,,,,,,,,,,,,,,,,,,,,,,,,,,,,,,,,,,,,,,,,,,,,,,,,,,,,,,,,,,,
1720416074,78,0,4244.102539,4280,4313.846191,4345,4283.333496,4319.487305,4307.563965,4293.846191,4283.717773,4273.717773,4479.358887,4470.256348,4310.256348,4066.794922,,,,,,,,,,,,,,,,,,,,,,,,,,,,,,,,,,,,,,,,,,,,,,,,,,,,,,,,,,,,,,,,,,,,,,
1720416074,79,0,4258.461426,4298.717773,4327.820313,4368.205078,4266.922852,4318.205078,4309.102539,4296.794922,4279.487305,4270.641113,4483.717773,4497.307617,4328.205078,4074.230713,0.455153,0.700807,0.219156,0.690644,0.312085,0.367611,0.985843,0.175574,0.828339,0.887116,0.688394,0.981802,0.296544,1.206653,0.520358,0.627426,0.502544,0.343562,3.002307,1.037779,0.525424,0.492505,0.534342,0.303261,0.240421,0.290147,0.207012,0.10352,0.192705,0.23727,0.243877,0.243995,0.115546,0.356318,0.179157,0.692662,0.52113,0.243258,0.356361,0.233343,0.572581,1.264238,0.722935,0.385333,0.254254,0.496252,0.683768,0.627556,0.327583,0.758186,0.748638,0.691215,0.552037,0.920536,0.49901,1.629714,1.03158,0.338948,1.552835,0.659824,0.43625,0.71213,0.390813,0.422226,0.464316,72.980911,10.037311,1.191998,1.428657,0.609915
1720416074,80,0,4264.615234,4297.307617,4325.384766,4365,4272.563965,4322.307617,4306.922852,4294.230957,4282.05127,4266.410156,4479.487305,4507.179688,4334.230957,4075.512939,,,,,,,,,,,,,,,,,,,,,,,,,,,,,,,,,,,,,,,,,,,,,,,,,,,,,,,,,,,,,,,,,,,,,,
1720416074,81,0,4263.974121,4287.05127,4316.410156,4339.743652,4285.897461,4322.563965,4303.205078,4286.410156,4278.077148,4261.153809,4482.692383,4484.230957,4330.769043,4064.871826,,,,,,,,,,,,,,,,,,,,,,,,,,,,,,,,,,,,,,,,,,,,,,,,,,,,,,,,,,,,,,,,,,,,,,
1720416074,82,0,4261.025879,4282.94873,4316.666504,4325.641113,4271.922852,4311.922852,4299.358887,4285.256348,4274.102539,4266.410156,4476.282227,4485.256348,4327.179688,4052.94873,,,,,,,,,,,,,,,,,,,,,,,,,,,,,,,,,,,,,,,,,,,,,,,,,,,,,,,,,,,,,,,,,,,,,,
1720416074,83,0,4265.897461,4278.589844,4326.666504,4340.897461,4257.307617,4303.974121,4303.974121,4297.307617,4284.102539,4280.256348,4457.05127,4515.256348,4327.820313,4055.128174,,,,,,,,,,,,,,,,,,,,,,,,,,,,,,,,,,,,,,,,,,,,,,,,,,,,,,,,,,,,,,,,,,,,,,
1720416074,84,0,4276.538574,4287.94873,4331.922852,4364.230957,4261.666504,4307.94873,4311.922852,4306.538574,4288.333496,4279.358887,4462.563965,4523.717773,4332.692383,4072.564209,,,,,,,,,,,,,,,,,,,,,,,,,,,,,,,,,,,,,,,,,,,,,,,,,,,,,,,,,,,,,,,,,,,,,,
1720416074,85,0,4276.282227,4299.871582,4331.153809,4357.692383,4265.256348,4311.410156,4311.153809,4305.384766,4282.05127,4269.743652,4482.563965,4508.077148,4338.077148,4068.333252,,,,,,,,,,,,,,,,,,,,,,,,,,,,,,,,,,,,,,,,,,,,,,,,,,,,,,,,,,,,,,,,,,,,,,
1720416074,86,0,4272.563965,4282.692383,4324.487305,4334.230957,4263.205078,4311.666504,4306.666504,4298.333496,4276.922852,4266.666504,4469.102539,4492.179688,4329.743652,4033.846191,,,,,,,,,,,,,,,,,,,,,,,,,,,,,,,,,,,,,,,,,,,,,,,,,,,,,,,,,,,,,,,,,,,,,,
1720416074,87,0,4270.641113,4264.487305,4307.692383,4332.05127,4263.589844,4310.897461,4297.179688,4281.410156,4265.512695,4254.102539,4450.256348,4472.563965,4307.05127,4017.05127,,,,,,,,,,,,,,,,,,,,,,,,,,,,,,,,,,,,,,,,,,,,,,,,,,,,,,,,,,,,,,,,,,,,,,
1720416074,88,0,4271.922852,4275,4305.512695,4345.897461,4266.922852,4310.769043,4291.410156,4271.666504,4258.205078,4249.230957,4458.205078,4469.230957,4310.256348,4046.153809,,,,,,,,,,,,,,,,,,,,,,,,,,,,,,,,,,,,,,,,,,,,,,,,,,,,,,,,,,,,,,,,,,,,,,
1720416074,89,0,4277.94873,4291.025879,4316.538574,4351.025879,4267.692383,4308.974121,4295.897461,4281.025879,4270.128418,4270.512695,4465.256348,4489.102539,4327.563965,4055.641113,,,,,,,,,,,,,,,,,,,,,,,,,,,,,,,,,,,,,,,,,,,,,,,,,,,,,,,,,,,,,,,,,,,,,,
1720416074,90,0,4282.692383,4292.692383,4314.487305,4353.333496,4256.538574,4302.307617,4296.538574,4289.358887,4282.94873,4285.128418,4472.436035,4490.769043,4331.025879,4017.94873,,,,,,,,,,,,,,,,,,,,,,,,,,,,,,,,,,,,,,,,,,,,,,,,,,,,,,,,,,,,,,,,,,,,,,
1720416074,91,0,4282.692383,4283.717773,4308.077148,4353.717773,4252.820313,4293.974121,4290.256348,4290,4278.717773,4276.666504,4484.871582,4476.666504,4332.820313,4014.230713,,,,,,,,,,,,,,,,,,,,,,,,,,,,,,,,,,,,,,,,,,,,,,,,,,,,,,,,,,,,,,,,,,,,,,
1720416074,92,0,4278.461426,4279.871582,4305.641113,4346.025879,4260.897461,4292.179688,4291.025879,4291.282227,4275.256348,4275.897461,4479.487305,4485.769043,4329.487305,4036.538574,,,,,,,,,,,,,,,,,,,,,,,,,,,,,,,,,,,,,,,,,,,,,,,,,,,,,,,,,,,,,,,,,,,,,,
1720416074,93,0,4284.871582,4288.974121,4308.974121,4344.487305,4253.333496,4303.974121,4301.538574,4297.05127,4280.641113,4279.871582,4466.666504,4497.692383,4328.077148,4030.256348,,,,,,,,,,,,,,,,,,,,,,,,,,,,,,,,,,,,,,,,,,,,,,,,,,,,,,,,,,,,,,,,,,,,,,
1720416074,94,0,4289.487305,4288.846191,4310.128418,4345.128418,4242.692383,4311.794922,4303.077148,4296.794922,4277.820313,4270.897461,4465.769043,4488.846191,4326.538574,4022.179443,,,,,,,,,,,,,,,,,,,,,,,,,,,,,,,,,,,,,,,,,,,,,,,,,,,,,,,,,,,,,,,,,,,,,,
1720416074,95,0,4284.487305,4273.846191,4302.307617,4333.461426,4254.871582,4303.846191,4295.641113,4288.205078,4265.897461,4262.94873,4466.410156,4474.743652,4318.333496,4008.718018,0.476578,0.557631,0.24073,0.60008,0.344688,0.367837,0.786103,0.224265,0.729064,0.962055,0.663555,0.801643,0.366024,1.036906,0.560223,0.613921,0.45661,0.389661,2.567427,1.111171,0.516644,0.422778,0.58476,0.327816,0.258583,0.274137,0.186706,0.125687,0.170481,0.241804,0.265974,0.202522,0.161567,0.298414,0.186615,0.576773,0.446317,0.213646,0.293207,0.248959,0.463951,1.205038,0.607589,0.3466,0.257858,0.453049,0.769749,0.609838,0.303199,0.777378,0.710472,0.650545,0.681918,0.903911,0.564901,1.528065,0.829226,0.328429,1.28185,0.762243,0.512437,0.654945,0.472898,0.374075,0.512746,87.313477,15.074473,2.079052,1.705563,0.875168
1720416074,96,0,4285.897461,4281.794922,4300.384766,4335.897461,4264.871582,4295.128418,4296.922852,4285.769043,4260.384766,4258.333496,4468.589844,4470.769043,4318.461426,3987.94873,,,,,,,,,,,,,,,,,,,,,,,,,,,,,,,,,,,,,,,,,,,,,,,,,,,,,,,,,,,,,,,,,,,,,,
1720416074,97,0,4293.461426,4297.820313,4310,4350.512695,4257.692383,4293.717773,4301.025879,4289.871582,4266.922852,4269.230957,4470.641113,4486.153809,4321.410156,3993.461426,,,,,,,,,,,,,,,,,,,,,,,,,,,,,,,,,,,,,,,,,,,,,,,,,,,,,,,,,,,,,,,,,,,,,,
1720416074,98,0,4293.974121,4285.897461,4310.769043,4337.05127,4258.333496,4295.897461,4296.538574,4285.384766,4270.769043,4277.563965,4465.512695,4484.743652,4312.307617,3988.589844,,,,,,,,,,,,,,,,,,,,,,,,,,,,,,,,,,,,,,,,,,,,,,,,,,,,,,,,,,,,,,,,,,,,,,
1720416074,99,0,4292.563965,4274.487305,4302.820313,4323.974121,4267.05127,4302.94873,4292.436035,4278.846191,4265.769043,4261.666504,4461.410156,4463.077148,4306.153809,3953.076904,,,,,,,,,,,,,,,,,,,,,,,,,,,,,,,,,,,,,,,,,,,,,,,,,,,,,,,,,,,,,,,,,,,,,,
1720416074,100,0,4295.256348,4279.743652,4303.846191,4335.641113,4262.436035,4307.179688,4291.153809,4277.436035,4261.922852,4246.922852,4459.487305,4460.512695,4311.922852,3942.05127,,,,,,,,,,,,,,,,,,,,,,,,,,,,,,,,,,,,,,,,,,,,,,,,,,,,,,,,,,,,,,,,,,,,,,
1720416074,101,0,4286.282227,4274.487305,4297.179688,4326.410156,4249.358887,4296.282227,4282.05127,4266.410156,4261.282227,4252.563965,4452.307617,4457.179688,4303.205078,3937.05127,,,,,,,,,,,,,,,,,,,,,,,,,,,,,,,,,,,,,,,,,,,,,,,,,,,,,,,,,,,,,,,,,,,,,,
1720416074,102,0,4281.794922,4264.743652,4285.384766,4310.512695,4241.922852,4285.512695,4274.871582,4259.230957,4261.025879,4259.743652,4453.205078,4445.256348,4289.743652,3930.641113,,,,,,,,,,,,,,,,,,,,,,,,,,,,,,,,,,,,,,,,,,,,,,,,,,,,,,,,,,,,,,,,,,,,,,
1720416074,103,0,4295,4274.102539,4290.384766,4324.871582,4241.538574,4287.179688,4281.153809,4271.025879,4260.897461,4258.333496,4468.461426,4455.769043,4298.974121,3960.641113,,,,,,,,,,,,,,,,,,,,,,,,,,,,,,,,,,,,,,,,,,,,,,,,,,,,,,,,,,,,,,,,,,,,,,
1720416074,104,0,4301.153809,4283.589844,4296.153809,4332.820313,4252.94873,4291.794922,4286.666504,4279.358887,4260.128418,4258.205078,4467.307617,4470.897461,4306.922852,3986.281982,,,,,,,,,,,,,,,,,,,,,,,,,,,,,,,,,,,,,,,,,,,,,,,,,,,,,,,,,,,,,,,,,,,,,,
1720416074,105,0,4298.205078,4276.666504,4292.563965,4323.077148,4262.692383,4290.897461,4285.128418,4278.589844,4261.282227,4260.256348,4453.974121,4458.461426,4297.05127,4007.692383,,,,,,,,,,,,,,,,,,,,,,,,,,,,,,,,,,,,,,,,,,,,,,,,,,,,,,,,,,,,,,,,,,,,,,
1720416074,106,0,4297.179688,4266.794922,4288.205078,4322.94873,4253.974121,4286.282227,4283.205078,4273.974121,4261.538574,4263.077148,4450.512695,4451.666504,4289.487305,4064.615479,,,,,,,,,,,,,,,,,,,,,,,,,,,,,,,,,,,,,,,,,,,,,,,,,,,,,,,,,,,,,,,,,,,,,,
1720416074,107,0,4301.282227,4265.128418,4287.436035,4321.538574,4244.230957,4287.94873,4283.461426,4268.205078,4254.615234,4260.897461,4457.307617,4460.641113,4301.282227,4124.487305,,,,,,,,,,,,,,,,,,,,,,,,,,,,,,,,,,,,,,,,,,,,,,,,,,,,,,,,,,,,,,,,,,,,,,
1720416074,108,0,4307.436035,4267.820313,4285.897461,4312.179688,4252.436035,4290.641113,4283.717773,4266.538574,4247.94873,4262.820313,4462.05127,4458.589844,4306.922852,4170.256348,,,,,,,,,,,,,,,,,,,,,,,,,,,,,,,,,,,,,,,,,,,,,,,,,,,,,,,,,,,,,,,,,,,,,,
1720416074,109,0,4305.897461,4262.820313,4278.846191,4306.025879,4262.94873,4281.282227,4281.025879,4263.846191,4244.871582,4261.282227,4454.102539,4445.769043,4291.666504,4217.94873,,,,,,,,,,,,,,,,,,,,,,,,,,,,,,,,,,,,,,,,,,,,,,,,,,,,,,,,,,,,,,,,,,,,,,
1720416074,110,0,4308.205078,4264.487305,4281.025879,4313.717773,4262.820313,4276.025879,4285.128418,4265.128418,4246.666504,4247.179688,4459.102539,4447.563965,4293.717773,4276.922852,,,,,,,,,,,,,,,,,,,,,,,,,,,,,,,,,,,,,,,,,,,,,,,,,,,,,,,,,,,,,,,,,,,,,,
1720416074,111,0,4323.846191,4279.230957,4297.05127,4325.769043,4265.384766,4291.410156,4299.102539,4279.487305,4260.256348,4258.846191,4485.128418,4472.05127,4310.641113,4335.384766,0.499062,0.462959,0.263819,0.50622,0.370811,0.415795,0.609199,0.277487,0.621791,1.004258,0.606234,0.6914,0.458169,0.872914,0.592818,0.594414,0.465501,0.436799,2.016128,1.141459,0.498016,0.390358,0.624392,0.346491,0.287213,0.247366,0.169427,0.168754,0.148257,0.240697,0.293221,0.170949,0.213052,0.244173,0.199237,0.436557,0.370984,0.188907,0.246371,0.265506,0.339501,1.1021,0.460766,0.335762,0.268583,0.394176,0.877955,0.583737,0.314945,0.784759,0.664654,0.639807,0.795272,0.931664,0.677163,1.382526,0.692452,0.337677,1.002913,0.860168,0.586388,0.647962,0.55582,0.372923,0.566697,105.521393,22.735653,3.560609,2.195484,1.279963
1720416074,112,0,4323.077148,4276.666504,4299.743652,4319.102539,4266.666504,4298.333496,4298.974121,4281.282227,4268.461426,4276.282227,4481.666504,4472.820313,4308.589844,4350.769043,,,,,,,,,,,,,,,,,,,,,,,,,,,,,,,,,,,,,,,,,,,,,,,,,,,,,,,,,,,,,,,,,,,,,,
1720416074,113,0,4307.436035,4262.05127,4278.717773,4305.641113,4258.205078,4286.153809,4282.179688,4264.102539,4259.102539,4262.307617,4449.102539,4440.641113,4303.717773,4336.922852,,,,,,,,,,,,,,,,,,,,,,,,,,,,,,,,,,,,,,,,,,,,,,,,,,,,,,,,,,,,,,,,,,,,,,
1720416074,114,0,4304.615234,4260.128418,4262.563965,4301.538574,4254.487305,4278.974121,4275.128418,4257.820313,4256.794922,4259.743652,4444.487305,4426.666504,4303.461426,4350.384766,,,,,,,,,,,,,,,,,,,,,,,,,,,,,,,,,,,,,,,,,,,,,,,,,,,,,,,,,,,,,,,,,,,,,,
1720416074,115,0,4305.641113,4264.102539,4263.077148,4296.922852,4260.256348,4280.256348,4280.641113,4264.871582,4266.025879,4271.922852,4456.410156,4440.897461,4287.179688,4375.897461,,,,,,,,,,,,,,,,,,,,,,,,,,,,,,,,,,,,,,,,,,,,,,,,,,,,,,,,,,,,,,,,,,,,,,
1720416074,116,0,4314.615234,4270.641113,4276.794922,4302.563965,4266.922852,4285.512695,4287.692383,4273.077148,4266.282227,4267.179688,4465.128418,4456.282227,4288.333496,4394.230957,,,,,,,,,,,,,,,,,,,,,,,,,,,,,,,,,,,,,,,,,,,,,,,,,,,,,,,,,,,,,,,,,,,,,,
1720416074,117,0,4331.794922,4280.384766,4294.743652,4321.282227,4273.717773,4292.692383,4296.153809,4280.897461,4262.94873,4270.897461,4478.205078,4465.128418,4322.692383,4405.256348,,,,,,,,,,,,,,,,,,,,,,,,,,,,,,,,,,,,,,,,,,,,,,,,,,,,,,,,,,,,,,,,,,,,,,
1720416074,118,0,4332.05127,4281.794922,4292.436035,4324.743652,4282.820313,4290.256348,4293.974121,4280.128418,4263.333496,4286.025879,4490.769043,4466.025879,4336.282227,4406.410156,,,,,,,,,,,,,,,,,,,,,,,,,,,,,,,,,,,,,,,,,,,,,,,,,,,,,,,,,,,,,,,,,,,,,,
1720416074,119,0,4332.692383,4282.05127,4288.333496,4323.461426,4279.358887,4282.05127,4285.769043,4280.512695,4265.256348,4287.563965,4494.487305,4466.538574,4328.205078,4427.307617,,,,,,,,,,,,,,,,,,,,,,,,,,,,,,,,,,,,,,,,,,,,,,,,,,,,,,,,,,,,,,,,,,,,,,
1720416074,120,0,4339.743652,4283.333496,4292.94873,4331.025879,4268.461426,4281.794922,4282.436035,4281.538574,4265.897461,4282.692383,4481.282227,4473.077148,4325.384766,4446.794922,,,,,,,,,,,,,,,,,,,,,,,,,,,,,,,,,,,,,,,,,,,,,,,,,,,,,,,,,,,,,,,,,,,,,,
1720416074,121,0,4332.05127,4276.410156,4287.05127,4325.641113,4265.384766,4279.102539,4278.077148,4270.256348,4261.025879,4276.666504,4465.641113,4465.897461,4319.230957,4429.743652,,,,,,,,,,,,,,,,,,,,,,,,,,,,,,,,,,,,,,,,,,,,,,,,,,,,,,,,,,,,,,,,,,,,,,
1720416074,122,0,4333.717773,4281.538574,4289.871582,4329.230957,4263.333496,4275,4280.384766,4267.179688,4262.563965,4276.666504,4478.717773,4462.692383,4318.974121,4432.563965,,,,,,,,,,,,,,,,,,,,,,,,,,,,,,,,,,,,,,,,,,,,,,,,,,,,,,,,,,,,,,,,,,,,,,
1720416074,123,0,4351.282227,4291.282227,4303.077148,4343.461426,4265.384766,4283.077148,4291.666504,4281.666504,4272.179688,4292.820313,4498.717773,4483.974121,4328.333496,4461.282227,,,,,,,,,,,,,,,,,,,,,,,,,,,,,,,,,,,,,,,,,,,,,,,,,,,,,,,,,,,,,,,,,,,,,,
1720416074,124,0,4350.512695,4284.487305,4292.436035,4335.641113,4272.563965,4288.717773,4295.256348,4285.256348,4271.282227,4295.769043,4494.230957,4488.717773,4326.922852,4456.922852,,,,,,,,,,,,,,,,,,,,,,,,,,,,,,,,,,,,,,,,,,,,,,,,,,,,,,,,,,,,,,,,,,,,,,
1720416074,125,0,4334.487305,4273.461426,4274.743652,4317.307617,4277.05127,4286.666504,4293.589844,4277.94873,4263.717773,4281.282227,4487.436035,4462.94873,4322.05127,4435.897461,,,,,,,,,,,,,,,,,,,,,,,,,,,,,,,,,,,,,,,,,,,,,,,,,,,,,,,,,,,,,,,,,,,,,,
1720416074,126,0,4328.205078,4267.05127,4278.333496,4314.358887,4270.128418,4291.794922,4290.128418,4275.128418,4262.820313,4273.589844,4481.794922,4445.128418,4319.230957,4433.589844,,,,,,,,,,,,,,,,,,,,,,,,,,,,,,,,,,,,,,,,,,,,,,,,,,,,,,,,,,,,,,,,,,,,,,
1720416074,127,0,4331.538574,4265.641113,4280.384766,4320.512695,4264.743652,4298.717773,4286.922852,4275.897461,4264.743652,4273.589844,4471.282227,4453.589844,4306.153809,4434.230957,0.533006,0.425826,0.273187,0.424377,0.38637,0.481362,0.485142,0.325813,0.527251,1.007424,0.534237,0.634006,0.55107,0.733276,0.623613,0.533676,0.532014,0.466017,1.501684,1.111163,0.465221,0.385435,0.661138,0.359568,0.322708,0.221244,0.158585,0.225665,0.129907,0.237461,0.332828,0.157848,0.260443,0.200218,0.212873,0.326461,0.318782,0.195571,0.22321,0.276715,0.241661,0.96288,0.338189,0.347177,0.280899,0.350541,0.97507,0.560241,0.361996,0.781749,0.616159,0.657206,0.852928,0.995487,0.824802,1.24447,0.64226,0.393441,0.766361,0.937563,0.623238,0.685892,0.626003,0.415387,0.613809,123.847908,30.569498,5.322717,2.759051,1.747924
1720416074,0,0,4339.871582,4271.666504,4277.307617,4326.025879,4275.512695,4290.641113,4286.282227,4280.512695,4267.436035,4278.333496,4478.974121,4465.897461,4306.282227,4442.179688,,,,,,,,,,,,,,,,,,,,,,,,,,,,,,,,,,,,,,,,,,,,,,,,,,,,,,,,,,,,,,,,,,,,,,
1720416074,1,0,4338.589844,4275,4277.563965,4327.436035,4278.717773,4278.717773,4282.05127,4276.282227,4266.153809,4276.922852,4485.897461,4456.153809,4324.230957,4447.820313,,,,,,,,,,,,,,,,,,,,,,,,,,,,,,,,,,,,,,,,,,,,,,,,,,,,,,,,,,,,,,,,,,,,,,
1720416074,2,0,4334.871582,4271.922852,4274.743652,4322.94873,4267.820313,4279.615234,4276.666504,4265.769043,4261.025879,4274.102539,4474.615234,4446.922852,4324.615234,4446.666504,,,,,,,,,,,,,,,,,,,,,,,,,,,,,,,,,,,,,,,,,,,,,,,,,,,,,,,,,,,,,,,,,,,,,,
1720416074,3,0,4343.846191,4275.641113,4278.461426,4324.358887,4262.563965,4283.205078,4281.282227,4271.153809,4263.333496,4280.512695,4469.102539,4459.102539,4309.871582,4451.153809,,,,,,,,,,,,,,,,,,,,,,,,,,,,,,,,,,,,,,,,,,,,,,,,,,,,,,,,,,,,,,,,,,,,,,
1720416074,4,0,4345.512695,4281.025879,4284.358887,4332.94873,4268.205078,4281.794922,4286.153809,4276.282227,4262.94873,4277.94873,4478.333496,4461.025879,4312.692383,4437.307617,,,,,,,,,,,,,,,,,,,,,,,,,,,,,,,,,,,,,,,,,,,,,,,,,,,,,,,,,,,,,,,,,,,,,,
1720416074,5,0,4340.897461,4276.922852,4280.769043,4335.641113,4265.769043,4276.538574,4278.717773,4263.846191,4251.282227,4264.230957,4477.820313,4449.358887,4325,4417.820313,,,,,,,,,,,,,,,,,,,,,,,,,,,,,,,,,,,,,,,,,,,,,,,,,,,,,,,,,,,,,,,,,,,,,,
1720416074,6,0,4346.922852,4273.717773,4281.922852,4332.820313,4263.077148,4272.436035,4274.230957,4258.461426,4243.077148,4264.615234,4468.461426,4460.384766,4327.307617,4421.922852,,,,,,,,,,,,,,,,,,,,,,,,,,,,,,,,,,,,,,,,,,,,,,,,,,,,,,,,,,,,,,,,,,,,,,
1720416074,7,0,4362.179688,4283.846191,4297.307617,4339.871582,4273.846191,4276.153809,4286.666504,4274.102539,4250,4276.922852,4486.282227,4487.692383,4332.820313,4431.538574,,,,,,,,,,,,,,,,,,,,,,,,,,,,,,,,,,,,,,,,,,,,,,,,,,,,,,,,,,,,,,,,,,,,,,
1720416074,8,0,4368.077148,4292.94873,4304.615234,4348.974121,4275.897461,4282.179688,4296.794922,4283.205078,4257.94873,4282.307617,4507.436035,4486.153809,4332.436035,4420.897461,,,,,,,,,,,,,,,,,,,,,,,,,,,,,,,,,,,,,,,,,,,,,,,,,,,,,,,,,,,,,,,,,,,,,,
1720416075,9,0,4352.436035,4279.487305,4291.025879,4337.692383,4265.256348,4282.436035,4288.589844,4272.820313,4257.179688,4273.974121,4486.666504,4456.410156,4313.846191,4391.153809,,,,,,,,,,,,,,,,,,,,,,,,,,,,,,,,,,,,,,,,,,,,,,,,,,,,,,,,,,,,,,,,,,,,,,
1720416075,10,0,4339.358887,4264.615234,4278.846191,4328.846191,4263.717773,4281.666504,4282.05127,4263.205078,4257.179688,4258.077148,4457.436035,4443.974121,4304.743652,4372.436035,,,,,,,,,,,,,,,,,,,,,,,,,,,,,,,,,,,,,,,,,,,,,,,,,,,,,,,,,,,,,,,,,,,,,,
1720416075,11,0,4341.666504,4265.384766,4276.153809,4332.307617,4268.461426,4282.563965,4280.256348,4262.563965,4259.615234,4251.282227,4461.025879,4445,4313.589844,4364.871582,,,,,,,,,,,,,,,,,,,,,,,,,,,,,,,,,,,,,,,,,,,,,,,,,,,,,,,,,,,,,,,,,,,,,,
1720416075,12,0,4344.743652,4263.461426,4273.333496,4325,4260.256348,4278.461426,4271.794922,4261.410156,4258.846191,4254.487305,4461.922852,4439.358887,4311.666504,4353.333496,,,,,,,,,,,,,,,,,,,,,,,,,,,,,,,,,,,,,,,,,,,,,,,,,,,,,,,,,,,,,,,,,,,,,,
1720416075,13,0,4348.205078,4261.282227,4276.410156,4325.641113,4246.794922,4271.538574,4273.205078,4264.743652,4258.461426,4264.358887,4450.641113,4449.487305,4296.410156,4357.820313,,,,,,,,,,,,,,,,,,,,,,,,,,,,,,,,,,,,,,,,,,,,,,,,,,,,,,,,,,,,,,,,,,,,,,
1720416075,14,0,4352.692383,4265.641113,4282.820313,4336.666504,4249.358887,4266.025879,4277.436035,4266.922852,4254.487305,4265.512695,4458.589844,4454.743652,4295.256348,4361.922852,,,,,,,,,,,,,,,,,,,,,,,,,,,,,,,,,,,,,,,,,,,,,,,,,,,,,,,,,,,,,,,,,,,,,,
1720416075,15,0,4347.94873,4262.692383,4277.94873,4328.589844,4259.358887,4264.358887,4268.205078,4255.512695,4240.769043,4246.282227,4463.589844,4427.94873,4305.256348,4330.384766,0.575893,0.445245,0.261402,0.367005,0.388594,0.556397,0.427804,0.36044,0.470346,0.976684,0.472253,0.612188,0.616311,0.632629,0.653196,0.457709,0.645915,0.466561,1.147756,1.03151,0.420832,0.386483,0.706958,0.37137,0.358854,0.203413,0.153221,0.284092,0.125495,0.235826,0.366031,0.169376,0.297163,0.175153,0.222964,0.27277,0.309688,0.250504,0.234244,0.277826,0.194948,0.803357,0.278921,0.374514,0.2884,0.348069,1.030836,0.54735,0.436335,0.766819,0.566335,0.690401,0.842907,1.08217,0.982561,1.12682,0.688356,0.502156,0.612929,0.989451,0.638485,0.744781,0.66476,0.48855,0.643551,138.282028,35.798527,6.841466,3.184096,2.163324
1720416075,16,0,4350.512695,4264.230957,4278.333496,4328.717773,4254.743652,4267.692383,4266.282227,4247.820313,4237.820313,4236.153809,4456.794922,4425.128418,4308.589844,4321.153809,,,,,,,,,,,,,,,,,,,,,,,,,,,,,,,,,,,,,,,,,,,,,,,,,,,,,,,,,,,,,,,,,,,,,,
1720416075,17,0,4362.692383,4276.666504,4289.871582,4348.846191,4248.461426,4265.897461,4270.769043,4252.05127,4247.436035,4245.128418,4456.794922,4450.384766,4309.743652,4347.05127,,,,,,,,,,,,,,,,,,,,,,,,,,,,,,,,,,,,,,,,,,,,,,,,,,,,,,,,,,,,,,,,,,,,,,
1720416075,18,0,4360.256348,4278.846191,4288.974121,4349.743652,4265.256348,4261.025879,4261.922852,4248.333496,4247.307617,4251.410156,4461.538574,4445.769043,4308.333496,4338.205078,,,,,,,,,,,,,,,,,,,,,,,,,,,,,,,,,,,,,,,,,,,,,,,,,,,,,,,,,,,,,,,,,,,,,,
1720416075,19,0,4359.615234,4277.05127,4287.05127,4338.077148,4277.692383,4263.589844,4259.230957,4244.615234,4246.153809,4256.025879,4462.563965,4438.974121,4301.153809,4332.436035,,,,,,,,,,,,,,,,,,,,,,,,,,,,,,,,,,,,,,,,,,,,,,,,,,,,,,,,,,,,,,,,,,,,,,
1720416075,20,0,4369.615234,4281.410156,4295,4343.589844,4268.589844,4267.94873,4269.102539,4250.256348,4248.461426,4259.743652,4457.563965,4455.641113,4302.820313,4355.897461,,,,,,,,,,,,,,,,,,,,,,,,,,,,,,,,,,,,,,,,,,,,,,,,,,,,,,,,,,,,,,,,,,,,,,
1720416075,21,0,4365.641113,4278.205078,4288.077148,4347.179688,4260.512695,4265.897461,4267.94873,4251.410156,4238.974121,4247.307617,4453.077148,4450.641113,4308.974121,4342.692383,,,,,,,,,,,,,,,,,,,,,,,,,,,,,,,,,,,,,,,,,,,,,,,,,,,,,,,,,,,,,,,,,,,,,,
1720416075,22,0,4352.307617,4259.230957,4267.307617,4330.512695,4258.461426,4261.538574,4262.692383,4247.563965,4226.922852,4234.615234,4449.871582,4422.307617,4300.384766,4316.538574,,,,,,,,,,,,,,,,,,,,,,,,,,,,,,,,,,,,,,,,,,,,,,,,,,,,,,,,,,,,,,,,,,,,,,
1720416075,23,0,4347.692383,4248.077148,4261.794922,4321.025879,4249.743652,4261.410156,4266.153809,4245.769043,4227.820313,4231.025879,4440.641113,4410.769043,4287.692383,4324.358887,,,,,,,,,,,,,,,,,,,,,,,,,,,,,,,,,,,,,,,,,,,,,,,,,,,,,,,,,,,,,,,,,,,,,,
1720416075,24,0,4344.358887,4254.230957,4260.897461,4328.461426,4238.974121,4264.358887,4264.358887,4244.743652,4232.179688,4230.512695,4432.179688,4414.615234,4295.256348,4317.179688,,,,,,,,,,,,,,,,,,,,,,,,,,,,,,,,,,,,,,,,,,,,,,,,,,,,,,,,,,,,,,,,,,,,,,
1720416075,25,0,4342.05127,4253.461426,4250.641113,4328.205078,4237.179688,4261.282227,4256.410156,4242.179688,4232.436035,4234.230957,4443.717773,4419.743652,4307.05127,4301.025879,,,,,,,,,,,,,,,,,,,,,,,,,,,,,,,,,,,,,,,,,,,,,,,,,,,,,,,,,,,,,,,,,,,,,,
1720416075,26,0,4348.461426,4245.769043,4250.769043,4319.358887,4244.102539,4254.358887,4254.743652,4237.563965,4232.563965,4235.512695,4447.692383,4426.153809,4299.615234,4311.794922,,,,,,,,,,,,,,,,,,,,,,,,,,,,,,,,,,,,,,,,,,,,,,,,,,,,,,,,,,,,,,,,,,,,,,
1720416075,27,0,4351.794922,4251.538574,4257.563965,4323.077148,4251.794922,4259.230957,4253.846191,4233.333496,4233.846191,4233.333496,4432.94873,4423.461426,4289.230957,4301.666504,,,,,,,,,,,,,,,,,,,,,,,,,,,,,,,,,,,,,,,,,,,,,,,,,,,,,,,,,,,,,,,,,,,,,,
1720416075,28,0,4348.333496,4254.871582,4252.179688,4326.666504,4247.179688,4262.307617,4247.436035,4230.897461,4234.230957,4230.897461,4436.153809,4410.128418,4295.256348,4280.769043,,,,,,,,,,,,,,,,,,,,,,,,,,,,,,,,,,,,,,,,,,,,,,,,,,,,,,,,,,,,,,,,,,,,,,
1720416075,29,0,4342.692383,4245.384766,4244.871582,4319.615234,4239.871582,4251.410156,4246.025879,4230.256348,4232.692383,4236.666504,4442.563965,4405.769043,4300.769043,4285.384766,,,,,,,,,,,,,,,,,,,,,,,,,,,,,,,,,,,,,,,,,,,,,,,,,,,,,,,,,,,,,,,,,,,,,,
1720416075,30,0,4340.128418,4252.05127,4253.205078,4326.025879,4240.384766,4247.05127,4249.871582,4229.615234,4232.692383,4245.384766,4429.487305,4413.461426,4293.205078,4279.230957,,,,,,,,,,,,,,,,,,,,,,,,,,,,,,,,,,,,,,,,,,,,,,,,,,,,,,,,,,,,,,,,,,,,,,
1720416075,31,0,4346.922852,4267.307617,4264.615234,4337.820313,4238.974121,4250.769043,4250.256348,4230.769043,4233.846191,4237.820313,4425.384766,4424.358887,4298.077148,4266.025879,0.615574,0.512543,0.230022,0.342542,0.377405,0.609696,0.427373,0.373333,0.467237,0.923109,0.448421,0.613163,0.629637,0.583812,0.674291,0.368109,0.787982,0.438241,1.003229,0.929647,0.373872,0.36872,0.769867,0.386095,0.388021,0.190604,0.152808,0.329584,0.144803,0.237282,0.384612,0.207622,0.317955,0.177392,0.22664,0.275718,0.351734,0.348902,0.287453,0.268666,0.19336,0.650337,0.284018,0.410893,0.286837,0.403899,1.028003,0.548531,0.526499,0.737923,0.518523,0.726765,0.784251,1.181686,1.116161,1.048354,0.825346,0.647542,0.567746,1.021381,0.646993,0.801962,0.672049,0.581445,0.650753,145.889999,36.697784,7.56348,3.293742,2.417058
1720416075,32,0,4354.615234,4265,4265.128418,4336.410156,4233.717773,4244.487305,4247.179688,4230.769043,4226.922852,4223.461426,4437.94873,4433.461426,4312.692383,4271.153809,,,,,,,,,,,,,,,,,,,,,,,,,,,,,,,,,,,,,,,,,,,,,,,,,,,,,,,,,,,,,,,,,,,,,,
1720416075,33,0,4353.717773,4256.282227,4265.769043,4332.820313,4232.692383,4240.384766,4250.128418,4231.282227,4221.666504,4230.384766,4442.307617,4437.436035,4308.077148,4275.769043,,,,,,,,,,,,,,,,,,,,,,,,,,,,,,,,,,,,,,,,,,,,,,,,,,,,,,,,,,,,,,,,,,,,,,
1720416075,34,0,4347.94873,4253.205078,4264.871582,4333.077148,4238.589844,4247.307617,4254.102539,4234.743652,4226.282227,4237.563965,4444.615234,4435.641113,4296.922852,4258.333496,,,,,,,,,,,,,,,,,,,,,,,,,,,,,,,,,,,,,,,,,,,,,,,,,,,,,,,,,,,,,,,,,,,,,,
1720416075,35,0,4341.282227,4249.358887,4251.410156,4325.897461,4232.820313,4246.538574,4251.153809,4233.461426,4223.717773,4221.538574,4445.256348,4422.307617,4297.05127,4239.487305,,,,,,,,,,,,,,,,,,,,,,,,,,,,,,,,,,,,,,,,,,,,,,,,,,,,,,,,,,,,,,,,,,,,,,
1720416075,36,0,4338.077148,4243.974121,4244.615234,4316.794922,4228.846191,4245,4253.205078,4232.05127,4222.436035,4212.307617,4430.641113,4415.641113,4296.410156,4244.743652,,,,,,,,,,,,,,,,,,,,,,,,,,,,,,,,,,,,,,,,,,,,,,,,,,,,,,,,,,,,,,,,,,,,,,
1720416075,37,0,4343.589844,4245.641113,4257.05127,4322.692383,4243.846191,4254.102539,4259.871582,4235.769043,4234.358887,4220.512695,4425.641113,4426.282227,4289.743652,4251.025879,,,,,,,,,,,,,,,,,,,,,,,,,,,,,,,,,,,,,,,,,,,,,,,,,,,,,,,,,,,,,,,,,,,,,,
1720416075,38,0,4344.615234,4249.743652,4258.974121,4326.794922,4245.384766,4254.230957,4252.820313,4235.128418,4232.820313,4221.666504,4435,4420.897461,4291.025879,4234.102539,,,,,,,,,,,,,,,,,,,,,,,,,,,,,,,,,,,,,,,,,,,,,,,,,,,,,,,,,,,,,,,,,,,,,,
1720416075,39,0,4331.922852,4245.512695,4244.615234,4316.282227,4228.846191,4240,4241.794922,4228.589844,4219.615234,4212.692383,4423.717773,4401.922852,4287.94873,4212.820313,,,,,,,,,,,,,,,,,,,,,,,,,,,,,,,,,,,,,,,,,,,,,,,,,,,,,,,,,,,,,,,,,,,,,,
1720416075,40,0,4327.692383,4241.794922,4240.384766,4312.307617,4227.820313,4238.077148,4244.871582,4228.077148,4223.974121,4213.205078,4407.692383,4405.128418,4275.384766,4204.743652,,,,,,,,,,,,,,,,,,,,,,,,,,,,,,,,,,,,,,,,,,,,,,,,,,,,,,,,,,,,,,,,,,,,,,
1720416075,41,0,4341.538574,4250.769043,4249.358887,4325.512695,4238.333496,4249.358887,4250,4232.692383,4231.025879,4217.820313,4427.05127,4418.077148,4282.179688,4208.077148,,,,,,,,,,,,,,,,,,,,,,,,,,,,,,,,,,,,,,,,,,,,,,,,,,,,,,,,,,,,,,,,,,,,,,
1720416075,42,0,4347.307617,4255.256348,4251.538574,4331.025879,4236.538574,4247.179688,4245.769043,4229.615234,4222.820313,4209.487305,4441.410156,4414.230957,4299.487305,4205.384766,,,,,,,,,,,,,,,,,,,,,,,,,,,,,,,,,,,,,,,,,,,,,,,,,,,,,,,,,,,,,,,,,,,,,,
1720416075,43,0,4338.205078,4246.794922,4246.410156,4321.282227,4233.717773,4240.769043,4242.692383,4224.102539,4215.897461,4200.128418,4425.256348,4409.102539,4291.538574,4183.846191,,,,,,,,,,,,,,,,,,,,,,,,,,,,,,,,,,,,,,,,,,,,,,,,,,,,,,,,,,,,,,,,,,,,,,
1720416075,44,0,4342.05127,4250.897461,4248.077148,4322.307617,4234.102539,4243.205078,4245.897461,4226.025879,4216.538574,4203.974121,4429.487305,4411.922852,4284.230957,4176.538574,,,,,,,,,,,,,,,,,,,,,,,,,,,,,,,,,,,,,,,,,,,,,,,,,,,,,,,,,,,,,,,,,,,,,,
1720416075,45,0,4357.436035,4263.717773,4254.871582,4332.563965,4231.025879,4238.846191,4247.307617,4227.307617,4217.05127,4210.512695,4440,4417.307617,4296.794922,4201.538574,,,,,,,,,,,,,,,,,,,,,,,,,,,,,,,,,,,,,,,,,,,,,,,,,,,,,,,,,,,,,,,,,,,,,,
1720416075,46,0,4351.538574,4256.025879,4249.615234,4323.974121,4228.205078,4226.282227,4235.512695,4219.487305,4214.743652,4205.897461,4412.94873,4415,4289.871582,4187.692383,,,,,,,,,,,,,,,,,,,,,,,,,,,,,,,,,,,,,,,,,,,,,,,,,,,,,,,,,,,,,,,,,,,,,,
1720416075,47,0,4341.666504,4238.974121,4243.974121,4308.461426,4223.589844,4226.025879,4231.153809,4219.358887,4212.436035,4196.153809,4397.436035,4409.615234,4272.436035,4155.512695,0.671157,0.623564,0.186838,0.35348,0.356004,0.647938,0.474607,0.358381,0.513075,0.85482,0.47445,0.651312,0.5852,0.590128,0.675361,0.314989,0.939658,0.383467,1.026955,0.831764,0.325099,0.324888,0.849379,0.404626,0.404754,0.181537,0.164126,0.355448,0.190419,0.240435,0.374697,0.272358,0.325585,0.210581,0.223965,0.310926,0.43636,0.460955,0.379676,0.254644,0.224074,0.532392,0.334462,0.447424,0.275762,0.51376,0.971381,0.560964,0.622898,0.695061,0.474556,0.771535,0.715657,1.288353,1.193429,1.00175,1.058647,0.786822,0.637261,1.045067,0.675445,0.86272,0.656881,0.683919,0.6371,145.166382,33.254436,7.242869,3.039936,2.453905
1720416075,48,0,4354.871582,4246.282227,4258.974121,4318.333496,4223.333496,4232.820313,4245.256348,4232.05127,4216.153809,4194.102539,4429.871582,4420,4281.538574,4172.692383,,,,,,,,,,,,,,,,,,,,,,,,,,,,,,,,,,,,,,,,,,,,,,,,,,,,,,,,,,,,,,,,,,,,,,
1720416075,49,0,4362.05127,4261.794922,4265.256348,4334.230957,4231.025879,4234.102539,4250.384766,4233.205078,4219.102539,4191.794922,4448.717773,4425.384766,4292.94873,4178.077148,,,,,,,,,,,,,,,,,,,,,,,,,,,,,,,,,,,,,,,,,,,,,,,,,,,,,,,,,,,,,,,,,,,,,,
1720416075,50,0,4352.179688,4256.666504,4251.794922,4330.128418,4233.974121,4241.282227,4245.641113,4228.077148,4216.153809,4185.897461,4427.307617,4410,4288.077148,4151.666504,,,,,,,,,,,,,,,,,,,,,,,,,,,,,,,,,,,,,,,,,,,,,,,,,,,,,,,,,,,,,,,,,,,,,,
1720416075,51,0,4346.410156,4245.256348,4245.512695,4322.820313,4229.743652,4246.538574,4248.589844,4229.871582,4215.256348,4192.179688,4405.384766,4397.179688,4281.282227,4140.128418,,,,,,,,,,,,,,,,,,,,,,,,,,,,,,,,,,,,,,,,,,,,,,,,,,,,,,,,,,,,,,,,,,,,,,
1720416075,52,0,4347.179688,4249.615234,4248.974121,4324.230957,4230.897461,4238.974121,4245.128418,4226.153809,4217.05127,4198.333496,4407.820313,4393.589844,4280.897461,4131.794922,,,,,,,,,,,,,,,,,,,,,,,,,,,,,,,,,,,,,,,,,,,,,,,,,,,,,,,,,,,,,,,,,,,,,,
1720416075,53,0,4348.461426,4258.205078,4248.717773,4327.179688,4233.974121,4234.358887,4236.794922,4222.692383,4215.769043,4188.205078,4417.94873,4401.922852,4278.333496,4123.717773,,,,,,,,,,,,,,,,,,,,,,,,,,,,,,,,,,,,,,,,,,,,,,,,,,,,,,,,,,,,,,,,,,,,,,
1720416075,54,0,4352.307617,4253.717773,4247.94873,4326.666504,4230.641113,4236.153809,4242.436035,4228.974121,4215,4182.05127,4415,4409.871582,4273.589844,4130.384766,,,,,,,,,,,,,,,,,,,,,,,,,,,,,,,,,,,,,,,,,,,,,,,,,,,,,,,,,,,,,,,,,,,,,,
1720416075,55,0,4353.974121,4247.94873,4249.230957,4324.615234,4226.282227,4235,4245.769043,4230.256348,4216.410156,4187.05127,4414.615234,4403.461426,4281.666504,4116.794922,,,,,,,,,,,,,,,,,,,,,,,,,,,,,,,,,,,,,,,,,,,,,,,,,,,,,,,,,,,,,,,,,,,,,,
1720416075,56,0,4352.436035,4254.102539,4248.461426,4326.153809,4227.563965,4235.897461,4242.307617,4230.512695,4217.436035,4198.461426,4426.410156,4403.461426,4295.897461,4095,,,,,,,,,,,,,,,,,,,,,,,,,,,,,,,,,,,,,,,,,,,,,,,,,,,,,,,,,,,,,,,,,,,,,,
1720416075,57,0,4351.410156,4260.897461,4250,4328.974121,4232.563965,4238.589844,4247.307617,4235.769043,4221.153809,4213.205078,4427.820313,4417.94873,4299.358887,4096.538574,,,,,,,,,,,,,,,,,,,,,,,,,,,,,,,,,,,,,,,,,,,,,,,,,,,,,,,,,,,,,,,,,,,,,,
1720416075,58,0,4354.743652,4262.179688,4254.102539,4328.205078,4233.333496,4234.230957,4249.358887,4235.384766,4223.205078,4208.717773,4428.077148,4418.461426,4300.769043,4091.538574,,,,,,,,,,,,,,,,,,,,,,,,,,,,,,,,,,,,,,,,,,,,,,,,,,,,,,,,,,,,,,,,,,,,,,
1720416075,59,0,4364.615234,4265.512695,4262.436035,4333.846191,4233.077148,4232.692383,4247.563965,4236.922852,4222.307617,4197.05127,4448.333496,4414.358887,4315.256348,4088.205078,,,,,,,,,,,,,,,,,,,,,,,,,,,,,,,,,,,,,,,,,,,,,,,,,,,,,,,,,,,,,,,,,,,,,,
1720416075,60,0,4364.230957,4267.179688,4261.922852,4341.538574,4235.512695,4235.641113,4248.333496,4243.333496,4221.666504,4205.256348,4448.077148,4419.871582,4314.871582,4084.358887,,,,,,,,,,,,,,,,,,,,,,,,,,,,,,,,,,,,,,,,,,,,,,,,,,,,,,,,,,,,,,,,,,,,,,
1720416075,61,0,4355.512695,4263.974121,4246.025879,4336.538574,4232.307617,4234.358887,4241.282227,4233.974121,4212.436035,4197.94873,4421.410156,4410.641113,4296.538574,4068.205078,,,,,,,,,,,,,,,,,,,,,,,,,,,,,,,,,,,,,,,,,,,,,,,,,,,,,,,,,,,,,,,,,,,,,,
1720416075,62,0,4357.692383,4263.846191,4240.897461,4327.94873,4228.717773,4232.05127,4231.410156,4221.153809,4205.384766,4180.128418,4421.153809,4400.897461,4294.230957,4075.897461,,,,,,,,,,,,,,,,,,,,,,,,,,,,,,,,,,,,,,,,,,,,,,,,,,,,,,,,,,,,,,,,,,,,,,
1720416075,63,0,4359.358887,4262.94873,4239.230957,4322.307617,4226.538574,4229.743652,4232.179688,4218.205078,4210.641113,4188.717773,4433.589844,4401.794922,4303.077148,4103.077148,0.698554,0.780697,0.144688,0.39338,0.329534,0.657251,0.593929,0.316843,0.581379,0.774983,0.550238,0.77422,0.498768,0.637156,0.646903,0.295451,1.105781,0.312705,1.114067,0.751528,0.3016,0.271681,0.937171,0.424216,0.407412,0.164368,0.193508,0.360794,0.25338,0.241769,0.334725,0.359931,0.326955,0.269173,0.216728,0.340575,0.53613,0.54876,0.491592,0.242585,0.278905,0.455695,0.408634,0.47433,0.257929,0.664137,0.885404,0.572123,0.719277,0.640326,0.454094,0.848192,0.679796,1.389306,1.19591,0.973073,1.405829,0.872364,0.806208,1.068229,0.750714,0.949726,0.631575,0.782468,0.609382,137.188538,27.044924,6.00159,2.522407,2.293299
1720416075,64,0,4356.282227,4261.410156,4235,4322.692383,4225.897461,4228.205078,4232.179688,4219.615234,4217.94873,4198.333496,4428.589844,4396.025879,4310.897461,4131.922852,,,,,,,,,,,,,,,,,,,,,,,,,,,,,,,,,,,,,,,,,,,,,,,,,,,,,,,,,,,,,,,,,,,,,,
1720416075,65,0,4359.230957,4264.743652,4242.05127,4326.025879,4229.102539,4231.922852,4230.128418,4223.077148,4223.974121,4199.743652,4428.461426,4397.179688,4315.384766,4181.153809,,,,,,,,,,,,,,,,,,,,,,,,,,,,,,,,,,,,,,,,,,,,,,,,,,,,,,,,,,,,,,,,,,,,,,
1720416075,66,0,4358.333496,4264.487305,4244.358887,4320.128418,4227.05127,4232.94873,4232.307617,4223.717773,4226.282227,4201.922852,4430.769043,4406.794922,4307.436035,4248.077148,,,,,,,,,,,,,,,,,,,,,,,,,,,,,,,,,,,,,,,,,,,,,,,,,,,,,,,,,,,,,,,,,,,,,,
1720416075,67,0,4348.333496,4255.512695,4230.128418,4306.538574,4224.871582,4229.615234,4231.282227,4216.538574,4213.846191,4187.436035,4419.102539,4397.692383,4291.794922,4293.077148,,,,,,,,,,,,,,,,,,,,,,,,,,,,,,,,,,,,,,,,,,,,,,,,,,,,,,,,,,,,,,,,,,,,,,
1720416075,68,0,4349.615234,4255.769043,4228.333496,4304.230957,4229.358887,4229.871582,4230.769043,4213.205078,4204.487305,4182.179688,4415.384766,4383.974121,4292.692383,4327.436035,,,,,,,,,,,,,,,,,,,,,,,,,,,,,,,,,,,,,,,,,,,,,,,,,,,,,,,,,,,,,,,,,,,,,,
1720416075,69,0,4362.820313,4270.897461,4247.820313,4316.666504,4230.256348,4233.077148,4240.256348,4221.794922,4213.974121,4197.692383,4430.256348,4399.743652,4306.794922,4383.333496,,,,,,,,,,,,,,,,,,,,,,,,,,,,,,,,,,,,,,,,,,,,,,,,,,,,,,,,,,,,,,,,,,,,,,
1720416075,70,0,4371.153809,4280,4260.512695,4325.384766,4230.512695,4233.589844,4248.974121,4231.282227,4223.461426,4207.307617,4433.846191,4417.563965,4311.153809,4437.563965,,,,,,,,,,,,,,,,,,,,,,,,,,,,,,,,,,,,,,,,,,,,,,,,,,,,,,,,,,,,,,,,,,,,,,
1720416075,71,0,4373.461426,4279.102539,4261.922852,4323.846191,4247.05127,4233.717773,4248.205078,4234.871582,4225.128418,4212.820313,4426.153809,4415.128418,4318.077148,4457.179688,,,,,,,,,,,,,,,,,,,,,,,,,,,,,,,,,,,,,,,,,,,,,,,,,,,,,,,,,,,,,,,,,,,,,,
1720416075,72,0,4371.922852,4277.179688,4258.846191,4317.820313,4251.025879,4233.333496,4245,4233.717773,4220,4204.871582,4424.487305,4410.256348,4325.769043,4455.256348,,,,,,,,,,,,,,,,,,,,,,,,,,,,,,,,,,,,,,,,,,,,,,,,,,,,,,,,,,,,,,,,,,,,,,
1720416075,73,0,4373.974121,4281.538574,4261.410156,4322.307617,4232.820313,4235.128418,4249.230957,4233.974121,4214.743652,4193.846191,4440.769043,4420.512695,4322.94873,4482.820313,,,,,,,,,,,,,,,,,,,,,,,,,,,,,,,,,,,,,,,,,,,,,,,,,,,,,,,,,,,,,,,,,,,,,,
1720416075,74,0,4378.333496,4286.922852,4267.94873,4330.384766,4235.641113,4242.05127,4251.538574,4235.769043,4221.922852,4208.461426,4448.205078,4431.922852,4309.358887,4511.153809,,,,,,,,,,,,,,,,,,,,,,,,,,,,,,,,,,,,,,,,,,,,,,,,,,,,,,,,,,,,,,,,,,,,,,
1720416075,75,0,4376.538574,4283.846191,4263.077148,4320.512695,4251.153809,4246.025879,4246.410156,4230.769043,4229.871582,4208.846191,4426.282227,4425,4291.538574,4504.871582,,,,,,,,,,,,,,,,,,,,,,,,,,,,,,,,,,,,,,,,,,,,,,,,,,,,,,,,,,,,,,,,,,,,,,
1720416075,76,0,4372.179688,4279.230957,4259.230957,4307.820313,4255.128418,4247.05127,4247.05127,4235.512695,4230.512695,4189.615234,4425.641113,4414.358887,4298.589844,4497.820313,,,,,,,,,,,,,,,,,,,,,,,,,,,,,,,,,,,,,,,,,,,,,,,,,,,,,,,,,,,,,,,,,,,,,,
1720416075,77,0,4368.846191,4280.384766,4257.05127,4311.666504,4247.05127,4248.717773,4250.128418,4243.333496,4232.692383,4201.538574,4450.128418,4412.94873,4315.769043,4497.563965,,,,,,,,,,,,,,,,,,,,,,,,,,,,,,,,,,,,,,,,,,,,,,,,,,,,,,,,,,,,,,,,,,,,,,
1720416075,78,0,4370.512695,4282.436035,4252.179688,4320.128418,4237.05127,4245.897461,4247.307617,4238.077148,4233.974121,4211.666504,4442.692383,4416.410156,4303.974121,4504.102539,,,,,,,,,,,,,,,,,,,,,,,,,,,,,,,,,,,,,,,,,,,,,,,,,,,,,,,,,,,,,,,,,,,,,,
1720416075,79,0,4375.128418,4279.615234,4256.282227,4323.077148,4239.743652,4242.436035,4247.179688,4230.256348,4229.615234,4197.820313,4417.94873,4415.769043,4295.641113,4512.94873,0.742475,0.981775,0.115245,0.449892,0.304028,0.643611,0.815859,0.262233,0.638011,0.68622,0.658583,1.024071,0.402989,0.698884,0.588862,0.321132,1.298547,0.247244,1.15809,0.687419,0.299384,0.235448,1.024553,0.437646,0.397429,0.154155,0.247127,0.351441,0.316678,0.238121,0.286215,0.459931,0.324391,0.338137,0.20711,0.358178,0.617852,0.578714,0.591333,0.235541,0.331407,0.407898,0.486149,0.482769,0.237001,0.802737,0.80104,0.565428,0.808032,0.578058,0.439227,0.969465,0.703564,1.465612,1.130796,0.932278,1.860589,0.872564,1.037889,1.085534,0.843607,1.07449,0.607734,0.858631,0.575871,124.123962,20.484243,4.351857,1.934714,2.013792
1720416075,80,0,4377.692383,4281.666504,4265.256348,4327.94873,4247.563965,4243.846191,4250.128418,4235,4230,4205.384766,4427.05127,4417.94873,4314.743652,4512.179688,,,,,,,,,,,,,,,,,,,,,,,,,,,,,,,,,,,,,,,,,,,,,,,,,,,,,,,,,,,,,,,,,,,,,,
1720416075,81,0,4374.487305,4285.897461,4265,4330.128418,4244.871582,4244.615234,4248.717773,4242.307617,4232.94873,4214.487305,4444.871582,4426.410156,4315.512695,4508.205078,,,,,,,,,,,,,,,,,,,,,,,,,,,,,,,,,,,,,,,,,,,,,,,,,,,,,,,,,,,,,,,,,,,,,,
1720416075,82,0,4379.102539,4285.384766,4263.846191,4327.436035,4237.563965,4243.589844,4254.358887,4245.256348,4234.487305,4219.230957,4443.589844,4430.769043,4308.333496,4517.692383,,,,,,,,,,,,,,,,,,,,,,,,,,,,,,,,,,,,,,,,,,,,,,,,,,,,,,,,,,,,,,,,,,,,,,
1720416075,83,0,4385.256348,4288.461426,4268.205078,4329.358887,4244.230957,4246.410156,4262.692383,4247.307617,4236.025879,4234.871582,4444.102539,4430.384766,4324.102539,4521.025879,,,,,,,,,,,,,,,,,,,,,,,,,,,,,,,,,,,,,,,,,,,,,,,,,,,,,,,,,,,,,,,,,,,,,,
1720416075,84,0,4372.179688,4288.333496,4268.974121,4329.615234,4251.025879,4247.692383,4257.820313,4239.871582,4228.717773,4222.563965,4441.538574,4426.666504,4327.05127,4514.615234,,,,,,,,,,,,,,,,,,,,,,,,,,,,,,,,,,,,,,,,,,,,,,,,,,,,,,,,,,,,,,,,,,,,,,
1720416075,85,0,4355.384766,4279.743652,4261.025879,4322.436035,4246.410156,4245.384766,4248.846191,4233.077148,4221.025879,4200.897461,4433.333496,4419.230957,4317.94873,4523.974121,,,,,,,,,,,,,,,,,,,,,,,,,,,,,,,,,,,,,,,,,,,,,,,,,,,,,,,,,,,,,,,,,,,,,,
1720416075,86,0,4353.717773,4278.846191,4250.769043,4320.256348,4242.05127,4245.769043,4248.333496,4237.436035,4226.153809,4211.153809,4430.512695,4419.487305,4320.128418,4522.692383,,,,,,,,,,,,,,,,,,,,,,,,,,,,,,,,,,,,,,,,,,,,,,,,,,,,,,,,,,,,,,,,,,,,,,
1720416075,87,0,4358.846191,4283.846191,4252.307617,4325.384766,4244.358887,4247.820313,4256.666504,4249.230957,4238.461426,4220,4438.333496,4432.179688,4319.487305,4520.256348,,,,,,,,,,,,,,,,,,,,,,,,,,,,,,,,,,,,,,,,,,,,,,,,,,,,,,,,,,,,,,,,,,,,,,
1720416075,88,0,4362.563965,4286.538574,4265.256348,4327.692383,4250.256348,4248.846191,4260.769043,4258.589844,4246.794922,4218.717773,4456.794922,4440.128418,4323.717773,4535.256348,,,,,,,,,,,,,,,,,,,,,,,,,,,,,,,,,,,,,,,,,,,,,,,,,,,,,,,,,,,,,,,,,,,,,,
1720416075,89,0,4365.256348,4288.205078,4265.769043,4328.205078,4247.692383,4249.487305,4254.743652,4254.871582,4246.666504,4227.307617,4463.974121,4435.897461,4332.436035,4535.512695,,,,,,,,,,,,,,,,,,,,,,,,,,,,,,,,,,,,,,,,,,,,,,,,,,,,,,,,,,,,,,,,,,,,,,
1720416075,90,0,4360,4284.358887,4251.282227,4327.05127,4239.358887,4247.307617,4247.05127,4247.05127,4238.717773,4228.974121,4447.05127,4423.717773,4324.743652,4517.692383,,,,,,,,,,,,,,,,,,,,,,,,,,,,,,,,,,,,,,,,,,,,,,,,,,,,,,,,,,,,,,,,,,,,,,
1720416075,91,0,4351.922852,4276.025879,4243.333496,4324.102539,4235.769043,4244.871582,4245.641113,4245.128418,4233.077148,4223.077148,4432.179688,4415.256348,4317.563965,4502.94873,,,,,,,,,,,,,,,,,,,,,,,,,,,,,,,,,,,,,,,,,,,,,,,,,,,,,,,,,,,,,,,,,,,,,,
1720416075,92,0,4355,4279.487305,4245.897461,4325.384766,4234.230957,4247.94873,4251.025879,4248.846191,4237.307617,4227.179688,4433.717773,4424.487305,4327.307617,4492.05127,,,,,,,,,,,,,,,,,,,,,,,,,,,,,,,,,,,,,,,,,,,,,,,,,,,,,,,,,,,,,,,,,,,,,,
1720416075,93,0,4359.615234,4283.589844,4249.487305,4327.05127,4233.461426,4245.897461,4252.179688,4248.077148,4235.769043,4223.589844,4430.897461,4431.666504,4328.589844,4478.461426,,,,,,,,,,,,,,,,,,,,,,,,,,,,,,,,,,,,,,,,,,,,,,,,,,,,,,,,,,,,,,,,,,,,,,
1720416075,94,0,4360.641113,4278.974121,4257.436035,4325.641113,4239.487305,4237.436035,4251.538574,4245.128418,4229.230957,4210,4432.692383,4429.615234,4318.333496,4472.94873,,,,,,,,,,,,,,,,,,,,,,,,,,,,,,,,,,,,,,,,,,,,,,,,,,,,,,,,,,,,,,,,,,,,,,
1720416075,95,0,4363.461426,4280.128418,4262.94873,4325.256348,4243.077148,4238.717773,4258.589844,4248.974121,4231.666504,4208.846191,4445.897461,4435.384766,4315.769043,4467.307617,0.723615,1.205839,0.103454,0.50771,0.28479,0.612521,1.13933,0.215322,0.656498,0.593832,0.791235,1.396473,0.327786,0.748755,0.511947,0.381254,1.513723,0.212399,1.106884,0.629226,0.345509,0.229315,1.095724,0.437917,0.377973,0.126174,0.322855,0.335591,0.36192,0.228198,0.233419,0.553964,0.316431,0.396909,0.196927,0.351901,0.663085,0.544086,0.647067,0.231515,0.379449,0.378519,0.553048,0.469862,0.216051,0.895344,0.746796,0.536719,0.880292,0.515605,0.441674,1.12424,0.783822,1.501569,1.029941,0.84495,2.379129,0.791336,1.280393,1.081082,0.957847,1.234643,0.589694,0.900304,0.544183,110.660767,15.311125,2.787195,1.461505,1.715026
1720416075,96,0,4359.358887,4277.692383,4253.717773,4320.512695,4233.589844,4245.128418,4259.871582,4251.410156,4233.077148,4212.820313,4443.846191,4431.538574,4315.128418,4448.717773,,,,,,,,,,,,,,,,,,,,,,,,,,,,,,,,,,,,,,,,,,,,,,,,,,,,,,,,,,,,,,,,,,,,,,
1720416075,97,0,4350.641113,4271.025879,4243.846191,4315.256348,4227.307617,4245.897461,4252.94873,4247.436035,4228.589844,4212.436035,4429.615234,4415.641113,4310.512695,4426.410156,,,,,,,,,,,,,,,,,,,,,,,,,,,,,,,,,,,,,,,,,,,,,,,,,,,,,,,,,,,,,,,,,,,,,,
1720416075,98,0,4353.974121,4275.897461,4251.794922,4324.358887,4233.333496,4247.563965,4255.641113,4246.666504,4229.615234,4212.692383,4430,4423.717773,4309.102539,4424.102539,,,,,,,,,,,,,,,,,,,,,,,,,,,,,,,,,,,,,,,,,,,,,,,,,,,,,,,,,,,,,,,,,,,,,,
1720416075,99,0,4355.384766,4275.384766,4256.282227,4328.077148,4234.102539,4245.256348,4257.05127,4250.128418,4234.358887,4215.769043,4434.871582,4435,4313.461426,4432.307617,,,,,,,,,,,,,,,,,,,,,,,,,,,,,,,,,,,,,,,,,,,,,,,,,,,,,,,,,,,,,,,,,,,,,,
1720416075,100,0,4342.307617,4263.717773,4245,4312.820313,4229.102539,4236.666504,4246.025879,4244.871582,4232.94873,4210.512695,4427.436035,4422.307617,4317.05127,4415.512695,,,,,,,,,,,,,,,,,,,,,,,,,,,,,,,,,,,,,,,,,,,,,,,,,,,,,,,,,,,,,,,,,,,,,,
1720416075,101,0,4343.461426,4261.025879,4242.436035,4306.153809,4229.230957,4234.871582,4247.692383,4243.846191,4233.846191,4200.641113,4427.692383,4423.077148,4313.333496,4413.077148,,,,,,,,,,,,,,,,,,,,,,,,,,,,,,,,,,,,,,,,,,,,,,,,,,,,,,,,,,,,,,,,,,,,,,
1720416075,102,0,4355.384766,4266.922852,4250,4312.563965,4230.512695,4235.256348,4254.487305,4246.410156,4231.794922,4203.333496,4441.410156,4435.769043,4306.153809,4427.307617,,,,,,,,,,,,,,,,,,,,,,,,,,,,,,,,,,,,,,,,,,,,,,,,,,,,,,,,,,,,,,,,,,,,,,
1720416075,103,0,4349.615234,4265.128418,4248.974121,4311.922852,4230.256348,4231.666504,4245.128418,4236.282227,4219.487305,4201.922852,4441.794922,4420.128418,4309.230957,4409.743652,,,,,,,,,,,,,,,,,,,,,,,,,,,,,,,,,,,,,,,,,,,,,,,,,,,,,,,,,,,,,,,,,,,,,,
1720416075,104,0,4343.077148,4263.205078,4246.282227,4311.153809,4229.230957,4235.256348,4244.230957,4234.871582,4219.102539,4196.025879,4417.820313,4409.358887,4316.025879,4395.641113,,,,,,,,,,,,,,,,,,,,,,,,,,,,,,,,,,,,,,,,,,,,,,,,,,,,,,,,,,,,,,,,,,,,,,
1720416075,105,0,4357.436035,4270.897461,4255.769043,4321.410156,4229.230957,4242.94873,4255.256348,4248.333496,4229.230957,4207.307617,4406.794922,4433.077148,4306.794922,4410.512695,,,,,,,,,,,,,,,,,,,,,,,,,,,,,,,,,,,,,,,,,,,,,,,,,,,,,,,,,,,,,,,,,,,,,,
1720416075,106,0,4373.333496,4280.128418,4266.025879,4329.743652,4233.589844,4246.025879,4259.230957,4250.256348,4226.153809,4217.179688,4434.743652,4445.384766,4307.436035,4415.512695,,,,,,,,,,,,,,,,,,,,,,,,,,,,,,,,,,,,,,,,,,,,,,,,,,,,,,,,,,,,,,,,,,,,,,
1720416075,107,0,4372.692383,4285.256348,4266.538574,4332.563965,4234.358887,4242.307617,4261.025879,4243.077148,4217.563965,4205.641113,4453.205078,4429.358887,4321.922852,4400.384766,,,,,,,,,,,,,,,,,,,,,,,,,,,,,,,,,,,,,,,,,,,,,,,,,,,,,,,,,,,,,,,,,,,,,,
1720416075,108,0,4369.358887,4287.94873,4265.641113,4340.128418,4226.153809,4235.769043,4261.410156,4243.333496,4218.461426,4199.358887,4441.922852,4424.871582,4319.743652,4394.615234,,,,,,,,,,,,,,,,,,,,,,,,,,,,,,,,,,,,,,,,,,,,,,,,,,,,,,,,,,,,,,,,,,,,,,
1720416075,109,0,4375.384766,4285.897461,4268.717773,4341.666504,4225.384766,4234.615234,4254.871582,4243.974121,4217.563965,4205.512695,4435.641113,4433.333496,4317.436035,4394.615234,,,,,,,,,,,,,,,,,,,,,,,,,,,,,,,,,,,,,,,,,,,,,,,,,,,,,,,,,,,,,,,,,,,,,,
1720416075,110,0,4375.256348,4279.615234,4263.717773,4331.794922,4233.589844,4237.820313,4247.436035,4243.205078,4216.922852,4201.282227,4435.641113,4427.179688,4325,4388.205078,,,,,,,,,,,,,,,,,,,,,,,,,,,,,,,,,,,,,,,,,,,,,,,,,,,,,,,,,,,,,,,,,,,,,,
1720416075,111,0,4362.307617,4278.461426,4250.128418,4322.05127,4233.205078,4233.333496,4244.358887,4240,4221.922852,4196.410156,4422.563965,4415.256348,4316.025879,4377.563965,0.729269,1.413907,0.109409,0.551,0.274215,0.559559,1.510218,0.192521,0.62769,0.503758,0.923122,1.834918,0.29193,0.767317,0.433498,0.456072,1.718003,0.223303,0.96491,0.567258,0.415435,0.257902,1.131156,0.422085,0.353541,0.12682,0.40779,0.31801,0.376354,0.21249,0.230379,0.629658,0.301221,0.426451,0.187085,0.372227,0.669183,0.462816,0.642177,0.224932,0.407783,0.354724,0.593157,0.4416,0.196298,0.935446,0.736372,0.494238,0.929757,0.460896,0.455102,1.279751,0.886894,1.492355,0.936313,0.767814,2.873955,0.66086,1.472493,1.037648,1.051299,1.407504,0.572883,0.908964,0.51891,99.347282,11.973941,1.692685,1.18612,1.472014
1720416075,112,0,4357.436035,4278.589844,4248.846191,4318.333496,4230.512695,4228.846191,4243.846191,4235,4221.025879,4196.794922,4419.615234,4419.102539,4310,4366.538574,,,,,,,,,,,,,,,,,,,,,,,,,,,,,,,,,,,,,,,,,,,,,,,,,,,,,,,,,,,,,,,,,,,,,,
1720416075,113,0,4364.743652,4272.820313,4259.487305,4314.743652,4235.256348,4233.205078,4245.897461,4238.846191,4217.307617,4201.410156,4438.205078,4432.307617,4321.666504,4370.256348,,,,,,,,,,,,,,,,,,,,,,,,,,,,,,,,,,,,,,,,,,,,,,,,,,,,,,,,,,,,,,,,,,,,,,
1720416075,114,0,4370.512695,4276.922852,4261.922852,4317.692383,4235.384766,4235.256348,4244.871582,4238.717773,4214.871582,4206.025879,4440.641113,4432.692383,4307.94873,4369.230957,,,,,,,,,,,,,,,,,,,,,,,,,,,,,,,,,,,,,,,,,,,,,,,,,,,,,,,,,,,,,,,,,,,,,,
1720416075,115,0,4375.384766,4293.461426,4260.897461,4333.077148,4232.307617,4233.717773,4242.94873,4230.641113,4213.589844,4203.205078,4428.205078,4425.128418,4299.487305,4351.538574,,,,,,,,,,,,,,,,,,,,,,,,,,,,,,,,,,,,,,,,,,,,,,,,,,,,,,,,,,,,,,,,,,,,,,
1720416075,116,0,4379.615234,4297.179688,4265.769043,4339.487305,4235.128418,4234.743652,4248.205078,4231.282227,4214.102539,4195.769043,4425.128418,4428.077148,4331.153809,4341.282227,,,,,,,,,,,,,,,,,,,,,,,,,,,,,,,,,,,,,,,,,,,,,,,,,,,,,,,,,,,,,,,,,,,,,,
1720416075,117,0,4376.025879,4287.820313,4264.615234,4328.717773,4233.974121,4234.743652,4249.871582,4236.410156,4220.256348,4201.666504,4434.358887,4433.717773,4333.974121,4347.179688,,,,,,,,,,,,,,,,,,,,,,,,,,,,,,,,,,,,,,,,,,,,,,,,,,,,,,,,,,,,,,,,,,,,,,
1720416075,118,0,4376.538574,4288.333496,4263.461426,4327.179688,4231.025879,4232.436035,4246.025879,4235.128418,4226.282227,4215.256348,4445,4433.846191,4307.179688,4348.589844,,,,,,,,,,,,,,,,,,,,,,,,,,,,,,,,,,,,,,,,,,,,,,,,,,,,,,,,,,,,,,,,,,,,,,
1720416075,119,0,4383.589844,4296.666504,4270,4338.205078,4233.077148,4231.282227,4246.666504,4233.974121,4222.820313,4210.769043,4449.487305,4437.179688,4316.282227,4331.922852,,,,,,,,,,,,,,,,,,,,,,,,,,,,,,,,,,,,,,,,,,,,,,,,,,,,,,,,,,,,,,,,,,,,,,
1720416075,120,0,4384.615234,4296.922852,4270.897461,4340.641113,4231.282227,4230.897461,4250,4236.282227,4218.461426,4194.615234,4449.871582,4444.358887,4332.692383,4319.487305,,,,,,,,,,,,,,,,,,,,,,,,,,,,,,,,,,,,,,,,,,,,,,,,,,,,,,,,,,,,,,,,,,,,,,
1720416075,121,0,4381.282227,4290.128418,4264.615234,4333.077148,4227.563965,4230.512695,4248.589844,4234.487305,4215.512695,4194.615234,4436.282227,4439.487305,4318.717773,4315.128418,,,,,,,,,,,,,,,,,,,,,,,,,,,,,,,,,,,,,,,,,,,,,,,,,,,,,,,,,,,,,,,,,,,,,,
1720416075,122,0,4381.153809,4289.487305,4263.333496,4329.230957,4231.410156,4232.179688,4243.205078,4231.538574,4206.922852,4200.641113,4423.077148,4424.102539,4315.769043,4300.384766,,,,,,,,,,,,,,,,,,,,,,,,,,,,,,,,,,,,,,,,,,,,,,,,,,,,,,,,,,,,,,,,,,,,,,
1720416075,123,0,4382.307617,4291.025879,4261.025879,4323.205078,4235.256348,4234.102539,4243.974121,4230.128418,4200.641113,4184.871582,4428.333496,4417.05127,4329.743652,4291.282227,,,,,,,,,,,,,,,,,,,,,,,,,,,,,,,,,,,,,,,,,,,,,,,,,,,,,,,,,,,,,,,,,,,,,,
1720416075,124,0,4378.717773,4282.820313,4251.666504,4314.487305,4231.666504,4234.487305,4245.512695,4230,4209.743652,4178.974121,4433.333496,4419.871582,4319.743652,4296.282227,,,,,,,,,,,,,,,,,,,,,,,,,,,,,,,,,,,,,,,,,,,,,,,,,,,,,,,,,,,,,,,,,,,,,,
1720416075,125,0,4369.102539,4272.94873,4243.205078,4308.461426,4230.512695,4231.794922,4239.230957,4228.717773,4218.077148,4199.230957,4429.615234,4413.974121,4306.922852,4280.641113,,,,,,,,,,,,,,,,,,,,,,,,,,,,,,,,,,,,,,,,,,,,,,,,,,,,,,,,,,,,,,,,,,,,,,
1720416075,126,0,4369.358887,4276.922852,4243.846191,4308.846191,4232.307617,4228.846191,4234.871582,4227.05127,4214.230957,4201.794922,4428.589844,4407.436035,4316.666504,4263.205078,,,,,,,,,,,,,,,,,,,,,,,,,,,,,,,,,,,,,,,,,,,,,,,,,,,,,,,,,,,,,,,,,,,,,,
1720416075,127,0,4381.794922,4291.922852,4258.077148,4323.077148,4229.358887,4229.487305,4241.538574,4231.538574,4221.794922,4198.974121,4426.153809,4422.436035,4327.179688,4283.077148,0.68994,1.562886,0.128409,0.566406,0.270974,0.493551,1.833843,0.196013,0.558169,0.422846,1.078818,2.233894,0.293915,0.747889,0.37044,0.539774,1.857272,0.279501,0.769608,0.501677,0.515003,0.309035,1.11223,0.392064,0.32871,0.139773,0.478429,0.299713,0.358978,0.192344,0.277063,0.681265,0.278344,0.417426,0.178221,0.423294,0.645281,0.367147,0.585078,0.211103,0.418504,0.329008,0.599088,0.413212,0.178063,0.93127,0.760663,0.463712,0.952242,0.42061,0.482739,1.395182,0.967129,1.443418,0.883905,0.679232,3.237494,0.524957,1.562163,0.949751,1.121136,1.553327,0.553751,0.894609,0.501274,92.106987,9.979838,1.141619,1.070796,1.307563
1720416075,0,0,4384.230957,4297.563965,4264.487305,4333.717773,4235.256348,4233.333496,4248.205078,4235.641113,4231.794922,4210.256348,4430.897461,4432.820313,4330,4280.128418,,,,,,,,,,,,,,,,,,,,,,,,,,,,,,,,,,,,,,,,,,,,,,,,,,,,,,,,,,,,,,,,,,,,,,
1720416075,1,0,4375,4286.282227,4252.820313,4323.333496,4246.410156,4233.974121,4243.205078,4232.94873,4223.461426,4204.487305,4447.820313,4418.846191,4328.205078,4250.512695,,,,,,,,,,,,,,,,,,,,,,,,,,,,,,,,,,,,,,,,,,,,,,,,,,,,,,,,,,,,,,,,,,,,,,
1720416075,2,0,4371.025879,4275.512695,4250,4309.358887,4241.282227,4230.128418,4235.128418,4229.102539,4208.333496,4189.102539,4442.820313,4408.461426,4321.410156,4248.205078,,,,,,,,,,,,,,,,,,,,,,,,,,,,,,,,,,,,,,,,,,,,,,,,,,,,,,,,,,,,,,,,,,,,,,
1720416075,3,0,4377.563965,4286.666504,4262.94873,4319.615234,4230.641113,4230.897461,4238.846191,4228.589844,4209.743652,4197.307617,4431.922852,4420.641113,4326.794922,4250.897461,,,,,,,,,,,,,,,,,,,,,,,,,,,,,,,,,,,,,,,,,,,,,,,,,,,,,,,,,,,,,,,,,,,,,,
1720416075,4,0,4386.410156,4301.922852,4272.307617,4341.025879,4233.461426,4234.743652,4250.256348,4230.384766,4217.436035,4209.743652,4446.410156,4434.102539,4340.641113,4241.666504,,,,,,,,,,,,,,,,,,,,,,,,,,,,,,,,,,,,,,,,,,,,,,,,,,,,,,,,,,,,,,,,,,,,,,
1720416075,5,0,4381.025879,4291.922852,4262.820313,4335.641113,4237.307617,4232.436035,4245.641113,4226.025879,4212.563965,4197.563965,4445.512695,4421.922852,4330.384766,4227.94873,,,,,,,,,,,,,,,,,,,,,,,,,,,,,,,,,,,,,,,,,,,,,,,,,,,,,,,,,,,,,,,,,,,,,,
1720416075,6,0,4369.358887,4277.05127,4251.410156,4313.589844,4232.179688,4230,4237.436035,4220.384766,4207.563965,4184.743652,4422.563965,4407.692383,4308.077148,4212.436035,,,,,,,,,,,,,,,,,,,,,,,,,,,,,,,,,,,,,,,,,,,,,,,,,,,,,,,,,,,,,,,,,,,,,,
1720416075,7,0,4367.307617,4276.666504,4249.102539,4306.153809,4228.974121,4231.538574,4246.410156,4224.871582,4211.666504,4189.743652,4418.205078,4412.692383,4303.205078,4204.487305,,,,,,,,,,,,,,,,,,,,,,,,,,,,,,,,,,,,,,,,,,,,,,,,,,,,,,,,,,,,,,,,,,,,,,
1720416075,8,0,4369.358887,4279.102539,4253.333496,4312.692383,4227.94873,4231.794922,4251.153809,4232.436035,4216.922852,4201.282227,4431.153809,4418.589844,4310.641113,4209.615234,,,,,,,,,,,,,,,,,,,,,,,,,,,,,,,,,,,,,,,,,,,,,,,,,,,,,,,,,,,,,,,,,,,,,,
1720416076,9,0,4370.897461,4279.871582,4257.820313,4315.641113,4225.769043,4232.820313,4248.589844,4235.641113,4218.974121,4201.666504,4437.307617,4415.512695,4318.974121,4209.871582,,,,,,,,,,,,,,,,,,,,,,,,,,,,,,,,,,,,,,,,,,,,,,,,,,,,,,,,,,,,,,,,,,,,,,
1720416076,10,0,4370.512695,4276.922852,4252.436035,4309.230957,4226.538574,4231.025879,4247.307617,4234.871582,4217.436035,4189.358887,4426.666504,4411.025879,4320.256348,4196.666504,,,,,,,,,,,,,,,,,,,,,,,,,,,,,,,,,,,,,,,,,,,,,,,,,,,,,,,,,,,,,,,,,,,,,,
1720416076,11,0,4359.358887,4266.153809,4237.307617,4297.05127,4231.025879,4220.897461,4236.410156,4226.410156,4213.589844,4181.666504,4408.077148,4400.897461,4311.922852,4182.436035,,,,,,,,,,,,,,,,,,,,,,,,,,,,,,,,,,,,,,,,,,,,,,,,,,,,,,,,,,,,,,,,,,,,,,
1720416076,12,0,4349.230957,4261.282227,4228.589844,4289.615234,4232.563965,4219.358887,4226.794922,4216.794922,4214.230957,4184.102539,4409.871582,4392.05127,4301.794922,4175.384766,,,,,,,,,,,,,,,,,,,,,,,,,,,,,,,,,,,,,,,,,,,,,,,,,,,,,,,,,,,,,,,,,,,,,,
1720416076,13,0,4355.256348,4266.153809,4239.487305,4293.589844,4231.153809,4226.922852,4238.461426,4222.820313,4213.717773,4185.512695,4425.769043,4399.358887,4301.538574,4180.256348,,,,,,,,,,,,,,,,,,,,,,,,,,,,,,,,,,,,,,,,,,,,,,,,,,,,,,,,,,,,,,,,,,,,,,
1720416076,14,0,4358.461426,4269.358887,4247.563965,4300.128418,4231.666504,4226.153809,4242.94873,4232.692383,4208.333496,4188.846191,4423.846191,4398.846191,4313.846191,4167.94873,,,,,,,,,,,,,,,,,,,,,,,,,,,,,,,,,,,,,,,,,,,,,,,,,,,,,,,,,,,,,,,,,,,,,,
1720416076,15,0,4355.128418,4273.077148,4243.333496,4305,4222.820313,4218.333496,4234.358887,4230.641113,4211.922852,4199.871582,4413.717773,4390,4321.794922,4147.436035,0.732404,1.628846,0.159687,0.548122,0.271282,0.429691,2.013072,0.216015,0.46337,0.35877,1.209763,2.492268,0.313672,0.698097,0.331248,0.624026,1.886271,0.36804,0.568739,0.441573,0.590317,0.362974,1.025338,0.35126,0.306543,0.186402,0.513004,0.283267,0.320528,0.169607,0.374618,0.711557,0.250733,0.375404,0.171071,0.510953,0.602581,0.289848,0.50432,0.189982,0.404779,0.301684,0.572674,0.399878,0.161831,0.92805,0.796111,0.464635,0.943803,0.399557,0.52505,1.435873,0.983742,1.377558,0.882124,0.62891,3.378276,0.414452,1.529003,0.831741,1.212859,1.629051,0.529279,0.868119,0.490604,88.648201,8.684809,0.97385,1.008012,1.197809
1720416076,16,0,4358.717773,4276.282227,4244.871582,4305.128418,4212.563965,4216.410156,4237.692383,4229.615234,4220.512695,4200.769043,4419.102539,4402.436035,4311.538574,4165.512695,,,,,,,,,,,,,,,,,,,,,,,,,,,,,,,,,,,,,,,,,,,,,,,,,,,,,,,,,,,,,,,,,,,,,,
1720416076,17,0,4362.820313,4273.589844,4248.846191,4297.179688,4220.897461,4223.205078,4243.333496,4231.794922,4217.692383,4190.384766,4426.153809,4413.333496,4308.589844,4179.871582,,,,,,,,,,,,,,,,,,,,,,,,,,,,,,,,,,,,,,,,,,,,,,,,,,,,,,,,,,,,,,,,,,,,,,
1720416076,18,0,4364.102539,4275.769043,4254.358887,4293.461426,4231.538574,4230.769043,4245.128418,4233.077148,4214.871582,4192.692383,4429.743652,4411.410156,4320.641113,4161.666504,,,,,,,,,,,,,,,,,,,,,,,,,,,,,,,,,,,,,,,,,,,,,,,,,,,,,,,,,,,,,,,,,,,,,,
1720416076,19,0,4366.794922,4282.692383,4263.077148,4297.179688,4230.384766,4233.333496,4246.666504,4236.538574,4222.692383,4203.846191,4435.256348,4416.794922,4319.102539,4146.922852,,,,,,,,,,,,,,,,,,,,,,,,,,,,,,,,,,,,,,,,,,,,,,,,,,,,,,,,,,,,,,,,,,,,,,
1720416076,20,0,4363.974121,4278.077148,4260.384766,4293.589844,4231.666504,4225.641113,4239.487305,4228.589844,4216.153809,4202.563965,4425.641113,4410.128418,4309.487305,4140.128418,,,,,,,,,,,,,,,,,,,,,,,,,,,,,,,,,,,,,,,,,,,,,,,,,,,,,,,,,,,,,,,,,,,,,,
1720416076,21,0,4361.025879,4273.205078,4249.615234,4291.153809,4236.282227,4220.128418,4231.153809,4215.769043,4201.025879,4191.025879,4413.717773,4394.615234,4308.717773,4135.641113,,,,,,,,,,,,,,,,,,,,,,,,,,,,,,,,,,,,,,,,,,,,,,,,,,,,,,,,,,,,,,,,,,,,,,
1720416076,22,0,4366.025879,4278.589844,4249.615234,4296.153809,4235.384766,4222.820313,4233.717773,4220.128418,4207.179688,4182.05127,4423.717773,4404.743652,4309.230957,4147.05127,,,,,,,,,,,,,,,,,,,,,,,,,,,,,,,,,,,,,,,,,,,,,,,,,,,,,,,,,,,,,,,,,,,,,,
1720416076,23,0,4365.769043,4279.102539,4249.615234,4296.666504,4231.025879,4222.436035,4234.358887,4228.333496,4219.743652,4182.179688,4425.512695,4412.692383,4306.153809,4157.307617,,,,,,,,,,,,,,,,,,,,,,,,,,,,,,,,,,,,,,,,,,,,,,,,,,,,,,,,,,,,,,,,,,,,,,
1720416076,24,0,4363.205078,4273.974121,4248.077148,4293.717773,4230.512695,4219.358887,4231.025879,4227.05127,4216.922852,4186.794922,4417.820313,4400.641113,4314.615234,4178.205078,,,,,,,,,,,,,,,,,,,,,,,,,,,,,,,,,,,,,,,,,,,,,,,,,,,,,,,,,,,,,,,,,,,,,,
1720416076,25,0,4367.179688,4275.384766,4254.230957,4293.846191,4235.512695,4217.179688,4234.871582,4228.846191,4213.205078,4185.641113,4423.974121,4403.589844,4320.897461,4237.179688,,,,,,,,,,,,,,,,,,,,,,,,,,,,,,,,,,,,,,,,,,,,,,,,,,,,,,,,,,,,,,,,,,,,,,
1720416076,26,0,4367.436035,4279.615234,4256.410156,4296.025879,4232.820313,4217.05127,4239.230957,4233.717773,4218.589844,4188.717773,4429.871582,4416.538574,4310.897461,4294.871582,,,,,,,,,,,,,,,,,,,,,,,,,,,,,,,,,,,,,,,,,,,,,,,,,,,,,,,,,,,,,,,,,,,,,,
1720416076,27,0,4368.077148,4279.871582,4258.333496,4296.922852,4230.384766,4221.282227,4244.871582,4234.743652,4221.153809,4205.769043,4434.102539,4420.769043,4314.743652,4351.410156,,,,,,,,,,,,,,,,,,,,,,,,,,,,,,,,,,,,,,,,,,,,,,,,,,,,,,,,,,,,,,,,,,,,,,
1720416076,28,0,4371.410156,4281.538574,4262.436035,4292.820313,4245.128418,4229.871582,4249.230957,4235.897461,4221.794922,4213.974121,4440.897461,4424.102539,4325.128418,4415.256348,,,,,,,,,,,,,,,,,,,,,,,,,,,,,,,,,,,,,,,,,,,,,,,,,,,,,,,,,,,,,,,,,,,,,,
1720416076,29,0,4366.153809,4278.846191,4255.769043,4283.846191,4249.358887,4230,4245.641113,4233.717773,4217.563965,4202.563965,4432.563965,4419.871582,4315.256348,4452.179688,,,,,,,,,,,,,,,,,,,,,,,,,,,,,,,,,,,,,,,,,,,,,,,,,,,,,,,,,,,,,,,,,,,,,,
1720416076,30,0,4358.589844,4272.820313,4250.769043,4278.846191,4234.743652,4226.922852,4244.743652,4227.94873,4209.358887,4194.358887,4418.846191,4411.153809,4307.307617,4481.666504,,,,,,,,,,,,,,,,,,,,,,,,,,,,,,,,,,,,,,,,,,,,,,,,,,,,,,,,,,,,,,,,,,,,,,
1720416076,31,0,4362.05127,4278.589844,4255.384766,4282.94873,4238.077148,4238.077148,4252.05127,4229.230957,4210,4198.717773,4430.641113,4415,4320.384766,4512.307617,0.740328,1.615733,0.200512,0.50121,0.271037,0.381868,2.00118,0.242147,0.365993,0.315061,1.340776,2.560342,0.328596,0.633861,0.313479,0.709173,1.809304,0.473554,0.406386,0.394835,0.639544,0.399982,0.872238,0.304301,0.287711,0.241558,0.500212,0.272766,0.276207,0.146171,0.491408,0.731781,0.224835,0.316827,0.166065,0.607421,0.550891,0.248636,0.431671,0.166098,0.372077,0.277304,0.530075,0.409751,0.148767,0.901326,0.822986,0.502762,0.904633,0.399913,0.555151,1.398216,0.933579,1.328098,0.914291,0.582108,3.271551,0.34176,1.391269,0.71143,1.295057,1.608844,0.504317,0.833555,0.488107,87.371979,7.817465,0.967316,0.911118,1.108183
1720416076,32,0,4367.94873,4287.692383,4258.589844,4291.282227,4258.205078,4250.256348,4260.128418,4242.563965,4217.436035,4201.794922,4456.282227,4425.256348,4324.230957,4535.512695,,,,,,,,,,,,,,,,,,,,,,,,,,,,,,,,,,,,,,,,,,,,,,,,,,,,,,,,,,,,,,,,,,,,,,
1720416076,33,0,4363.077148,4282.94873,4253.461426,4289.743652,4253.077148,4246.410156,4258.974121,4249.358887,4223.717773,4206.025879,4455,4427.05127,4311.282227,4556.538574,,,,,,,,,,,,,,,,,,,,,,,,,,,,,,,,,,,,,,,,,,,,,,,,,,,,,,,,,,,,,,,,,,,,,,
1720416076,34,0,4356.282227,4278.077148,4250,4285.512695,4233.205078,4234.615234,4249.871582,4237.563965,4226.922852,4220.256348,4435.256348,4419.615234,4314.102539,4569.230957,,,,,,,,,,,,,,,,,,,,,,,,,,,,,,,,,,,,,,,,,,,,,,,,,,,,,,,,,,,,,,,,,,,,,,
1720416076,35,0,4358.461426,4283.846191,4255.897461,4292.94873,4236.282227,4232.179688,4246.282227,4236.282227,4232.436035,4228.077148,4434.230957,4417.436035,4324.230957,4571.025879,,,,,,,,,,,,,,,,,,,,,,,,,,,,,,,,,,,,,,,,,,,,,,,,,,,,,,,,,,,,,,,,,,,,,,
1720416076,36,0,4358.333496,4283.974121,4257.820313,4290.641113,4252.436035,4236.794922,4248.461426,4246.153809,4231.282227,4216.922852,4444.487305,4414.615234,4327.179688,4568.974121,,,,,,,,,,,,,,,,,,,,,,,,,,,,,,,,,,,,,,,,,,,,,,,,,,,,,,,,,,,,,,,,,,,,,,
1720416076,37,0,4353.077148,4275.256348,4250.384766,4274.871582,4251.538574,4235.128418,4245.384766,4240.897461,4222.692383,4209.615234,4432.307617,4403.717773,4331.666504,4560.512695,,,,,,,,,,,,,,,,,,,,,,,,,,,,,,,,,,,,,,,,,,,,,,,,,,,,,,,,,,,,,,,,,,,,,,
1720416076,38,0,4357.436035,4278.333496,4253.461426,4280.512695,4242.563965,4233.333496,4249.487305,4237.179688,4223.077148,4214.358887,4424.358887,4412.692383,4331.410156,4570.641113,,,,,,,,,,,,,,,,,,,,,,,,,,,,,,,,,,,,,,,,,,,,,,,,,,,,,,,,,,,,,,,,,,,,,,
1720416076,39,0,4368.461426,4290.897461,4269.615234,4300,4247.179688,4234.743652,4260,4246.153809,4230.384766,4216.922852,4438.717773,4435.384766,4323.589844,4594.743652,,,,,,,,,,,,,,,,,,,,,,,,,,,,,,,,,,,,,,,,,,,,,,,,,,,,,,,,,,,,,,,,,,,,,,
1720416076,40,0,4373.589844,4299.871582,4275.897461,4304.487305,4250.512695,4234.230957,4258.333496,4246.282227,4231.794922,4222.563965,4443.333496,4436.153809,4323.974121,4584.487305,,,,,,,,,,,,,,,,,,,,,,,,,,,,,,,,,,,,,,,,,,,,,,,,,,,,,,,,,,,,,,,,,,,,,,
1720416076,41,0,4378.333496,4308.589844,4279.358887,4309.487305,4248.461426,4238.461426,4256.282227,4242.692383,4226.794922,4229.102539,4446.666504,4429.487305,4338.333496,4576.153809,,,,,,,,,,,,,,,,,,,,,,,,,,,,,,,,,,,,,,,,,,,,,,,,,,,,,,,,,,,,,,,,,,,,,,
1720416076,42,0,4380.128418,4312.179688,4287.05127,4315.897461,4259.230957,4249.358887,4265.512695,4248.205078,4228.589844,4221.410156,4449.743652,4436.666504,4345.512695,4588.589844,,,,,,,,,,,,,,,,,,,,,,,,,,,,,,,,,,,,,,,,,,,,,,,,,,,,,,,,,,,,,,,,,,,,,,
1720416076,43,0,4371.282227,4301.666504,4277.94873,4304.102539,4266.922852,4250.256348,4266.025879,4249.102539,4227.179688,4212.05127,4439.358887,4434.358887,4335.384766,4578.589844,,,,,,,,,,,,,,,,,,,,,,,,,,,,,,,,,,,,,,,,,,,,,,,,,,,,,,,,,,,,,,,,,,,,,,
1720416076,44,0,4364.230957,4292.94873,4265.897461,4293.333496,4256.666504,4244.358887,4260.897461,4243.461426,4218.589844,4215.384766,4432.179688,4421.922852,4323.589844,4570.256348,,,,,,,,,,,,,,,,,,,,,,,,,,,,,,,,,,,,,,,,,,,,,,,,,,,,,,,,,,,,,,,,,,,,,,
1720416076,45,0,4363.461426,4297.05127,4270.897461,4300.128418,4249.743652,4248.846191,4260.769043,4242.436035,4220.512695,4215.384766,4441.025879,4423.333496,4325.256348,4575,,,,,,,,,,,,,,,,,,,,,,,,,,,,,,,,,,,,,,,,,,,,,,,,,,,,,,,,,,,,,,,,,,,,,,
1720416076,46,0,4358.717773,4293.333496,4271.666504,4300.384766,4250.897461,4250.384766,4256.410156,4247.436035,4231.922852,4214.615234,4450.256348,4426.282227,4333.461426,4565.769043,,,,,,,,,,,,,,,,,,,,,,,,,,,,,,,,,,,,,,,,,,,,,,,,,,,,,,,,,,,,,,,,,,,,,,
1720416076,47,0,4344.358887,4277.820313,4250.256348,4281.922852,4241.538574,4235.512695,4245.384766,4243.589844,4230.769043,4218.077148,4440.641113,4409.358887,4328.333496,4549.487305,0.795106,1.549694,0.250462,0.440476,0.268526,0.362778,1.825278,0.267096,0.288108,0.289124,1.379487,2.464003,0.32952,0.569359,0.308044,0.783273,1.691917,0.574126,0.312656,0.363624,0.611682,0.406585,0.679966,0.258361,0.270684,0.279412,0.444874,0.274842,0.236997,0.123695,0.578762,0.747953,0.211601,0.2589,0.163316,0.671763,0.491446,0.246455,0.385159,0.144992,0.323294,0.26081,0.500058,0.435953,0.140256,0.883641,0.82955,0.578974,0.841436,0.417177,0.57499,1.309767,0.846448,1.313244,0.947721,0.547621,2.963955,0.311853,1.196934,0.615172,1.387586,1.496141,0.487552,0.793965,0.497326,87.038574,7.254681,0.9661,0.77658,1.027293
1720416076,48,0,4334.230957,4271.153809,4238.333496,4270.769043,4236.025879,4226.282227,4242.692383,4232.436035,4218.205078,4215.512695,4422.307617,4394.230957,4322.94873,4539.487305,,,,,,,,,,,,,,,,,,,,,,,,,,,,,,,,,,,,,,,,,,,,,,,,,,,,,,,,,,,,,,,,,,,,,,
1720416076,49,0,4344.615234,4279.358887,4255.128418,4281.153809,4246.153809,4231.538574,4247.307617,4238.333496,4222.563965,4215.769043,4422.307617,4408.717773,4326.282227,4542.692383,,,,,,,,,,,,,,,,,,,,,,,,,,,,,,,,,,,,,,,,,,,,,,,,,,,,,,,,,,,,,,,,,,,,,,
1720416076,50,0,4356.666504,4287.692383,4266.922852,4292.179688,4248.461426,4233.717773,4248.461426,4249.743652,4235.641113,4220.512695,4441.025879,4426.794922,4326.153809,4556.282227,,,,,,,,,,,,,,,,,,,,,,,,,,,,,,,,,,,,,,,,,,,,,,,,,,,,,,,,,,,,,,,,,,,,,,
1720416076,51,0,4352.05127,4284.230957,4262.692383,4292.05127,4241.538574,4232.179688,4249.615234,4244.615234,4228.974121,4215.512695,4442.94873,4419.871582,4322.307617,4547.436035,,,,,,,,,,,,,,,,,,,,,,,,,,,,,,,,,,,,,,,,,,,,,,,,,,,,,,,,,,,,,,,,,,,,,,
1720416076,52,0,4349.871582,4281.025879,4262.436035,4289.615234,4245.641113,4238.974121,4255.128418,4240.384766,4216.794922,4208.333496,4423.589844,4412.307617,4321.538574,4526.538574,,,,,,,,,,,,,,,,,,,,,,,,,,,,,,,,,,,,,,,,,,,,,,,,,,,,,,,,,,,,,,,,,,,,,,
1720416076,53,0,4359.743652,4289.487305,4268.589844,4293.461426,4251.153809,4246.025879,4260.897461,4246.666504,4218.974121,4211.410156,4423.205078,4421.538574,4330.128418,4520.384766,,,,,,,,,,,,,,,,,,,,,,,,,,,,,,,,,,,,,,,,,,,,,,,,,,,,,,,,,,,,,,,,,,,,,,
1720416076,54,0,4360.897461,4296.282227,4268.333496,4299.230957,4247.05127,4244.358887,4261.410156,4248.077148,4224.487305,4218.333496,4441.922852,4434.871582,4332.179688,4511.538574,,,,,,,,,,,,,,,,,,,,,,,,,,,,,,,,,,,,,,,,,,,,,,,,,,,,,,,,,,,,,,,,,,,,,,
1720416076,55,0,4355.769043,4292.05127,4266.666504,4298.461426,4246.025879,4243.589844,4260.128418,4247.436035,4220,4220.128418,4449.487305,4436.922852,4323.717773,4505.897461,,,,,,,,,,,,,,,,,,,,,,,,,,,,,,,,,,,,,,,,,,,,,,,,,,,,,,,,,,,,,,,,,,,,,,
1720416076,56,0,4358.974121,4291.025879,4273.077148,4297.307617,4250.512695,4247.05127,4263.717773,4247.179688,4217.05127,4220,4445,4432.563965,4326.153809,4503.974121,,,,,,,,,,,,,,,,,,,,,,,,,,,,,,,,,,,,,,,,,,,,,,,,,,,,,,,,,,,,,,,,,,,,,,
1720416076,57,0,4356.025879,4292.307617,4270.769043,4296.922852,4248.717773,4247.820313,4260.641113,4241.153809,4215.384766,4215.128418,4439.743652,4428.205078,4332.307617,4481.922852,,,,,,,,,,,,,,,,,,,,,,,,,,,,,,,,,,,,,,,,,,,,,,,,,,,,,,,,,,,,,,,,,,,,,,
1720416076,58,0,4351.025879,4289.230957,4261.794922,4294.871582,4244.487305,4247.692383,4253.846191,4241.410156,4213.461426,4211.410156,4445.769043,4425.769043,4334.615234,4471.666504,,,,,,,,,,,,,,,,,,,,,,,,,,,,,,,,,,,,,,,,,,,,,,,,,,,,,,,,,,,,,,,,,,,,,,
1720416076,59,0,4356.153809,4293.846191,4264.358887,4297.94873,4248.589844,4246.282227,4254.615234,4248.974121,4223.461426,4216.410156,4460.256348,4431.282227,4342.563965,4481.922852,,,,,,,,,,,,,,,,,,,,,,,,,,,,,,,,,,,,,,,,,,,,,,,,,,,,,,,,,,,,,,,,,,,,,,
1720416076,60,0,4357.436035,4297.820313,4267.94873,4301.922852,4248.333496,4238.717773,4255.512695,4248.333496,4233.717773,4221.153809,4448.974121,4432.05127,4341.922852,4477.05127,,,,,,,,,,,,,,,,,,,,,,,,,,,,,,,,,,,,,,,,,,,,,,,,,,,,,,,,,,,,,,,,,,,,,,
1720416076,61,0,4344.743652,4284.871582,4260.512695,4295.256348,4240.128418,4230.128418,4246.153809,4244.743652,4231.282227,4218.333496,4426.666504,4417.436035,4324.358887,4462.94873,,,,,,,,,,,,,,,,,,,,,,,,,,,,,,,,,,,,,,,,,,,,,,,,,,,,,,,,,,,,,,,,,,,,,,
1720416076,62,0,4341.666504,4274.871582,4258.461426,4288.333496,4242.05127,4231.538574,4241.025879,4244.615234,4228.846191,4214.102539,4430,4410.384766,4324.358887,4458.589844,,,,,,,,,,,,,,,,,,,,,,,,,,,,,,,,,,,,,,,,,,,,,,,,,,,,,,,,,,,,,,,,,,,,,,
1720416076,63,0,4354.358887,4287.820313,4265.769043,4293.717773,4251.922852,4240.256348,4250.512695,4240,4230.384766,4218.717773,4445.256348,4424.230957,4342.179688,4459.102539,0.766811,1.464517,0.303109,0.38354,0.263718,0.388454,1.573898,0.292946,0.243109,0.275023,1.386357,2.283819,0.328314,0.51858,0.30665,0.855881,1.617981,0.657945,0.294481,0.344361,0.546628,0.384486,0.494062,0.220797,0.254489,0.291741,0.374551,0.288855,0.205952,0.104979,0.622226,0.764797,0.220123,0.213941,0.163557,0.6771,0.426073,0.276165,0.363549,0.13135,0.258988,0.260082,0.507281,0.459172,0.138106,0.815464,0.815911,0.682541,0.766417,0.441825,0.558567,1.21395,0.760042,1.329222,0.953548,0.506884,2.555661,0.325171,1.000916,0.556014,1.410599,1.319751,0.478238,0.751084,0.52004,87.097336,6.973898,0.971778,0.642159,0.953063
1720416076,64,0,4354.102539,4299.743652,4263.333496,4299.230957,4243.717773,4240.384766,4246.025879,4230.769043,4221.922852,4214.871582,4446.794922,4418.974121,4341.025879,4450.128418,,,,,,,,,,,,,,,,,,,,,,,,,,,,,,,,,,,,,,,,,,,,,,,,,,,,,,,,,,,,,,,,,,,,,,
1720416076,65,0,4343.333496,4292.94873,4257.179688,4295.641113,4231.025879,4230.897461,4230.641113,4225.384766,4211.666504,4201.025879,4435.641113,4398.333496,4325.384766,4437.94873,,,,,,,,,,,,,,,,,,,,,,,,,,,,,,,,,,,,,,,,,,,,,,,,,,,,,,,,,,,,,,,,,,,,,,
1720416076,66,0,4349.871582,4290.128418,4263.205078,4293.589844,4242.563965,4232.820313,4239.871582,4231.282227,4222.563965,4209.230957,4425.384766,4410.256348,4322.307617,4440.897461,,,,,,,,,,,,,,,,,,,,,,,,,,,,,,,,,,,,,,,,,,,,,,,,,,,,,,,,,,,,,,,,,,,,,,
1720416076,67,0,4360.256348,4297.307617,4272.820313,4300.384766,4249.871582,4245.512695,4261.410156,4241.794922,4234.102539,4225.641113,4436.794922,4430,4336.410156,4446.666504,,,,,,,,,,,,,,,,,,,,,,,,,,,,,,,,,,,,,,,,,,,,,,,,,,,,,,,,,,,,,,,,,,,,,,
1720416076,68,0,4346.666504,4290,4265.256348,4298.461426,4234.743652,4245.128418,4258.461426,4238.717773,4223.589844,4217.820313,4447.179688,4418.333496,4337.563965,4428.846191,,,,,,,,,,,,,,,,,,,,,,,,,,,,,,,,,,,,,,,,,,,,,,,,,,,,,,,,,,,,,,,,,,,,,,
1720416076,69,0,4334.743652,4276.025879,4249.487305,4284.102539,4229.102539,4241.538574,4247.307617,4230.256348,4212.94873,4208.846191,4432.563965,4400.384766,4323.589844,4411.153809,,,,,,,,,,,,,,,,,,,,,,,,,,,,,,,,,,,,,,,,,,,,,,,,,,,,,,,,,,,,,,,,,,,,,,
1720416076,70,0,4341.794922,4276.666504,4246.282227,4277.94873,4237.692383,4246.153809,4247.692383,4232.820313,4218.077148,4217.94873,4425.256348,4403.205078,4327.563965,4411.025879,,,,,,,,,,,,,,,,,,,,,,,,,,,,,,,,,,,,,,,,,,,,,,,,,,,,,,,,,,,,,,,,,,,,,,
1720416076,71,0,4341.282227,4279.230957,4248.717773,4280.769043,4234.743652,4241.538574,4244.230957,4234.102539,4221.922852,4215.512695,4423.846191,4410,4337.05127,4406.282227,,,,,,,,,,,,,,,,,,,,,,,,,,,,,,,,,,,,,,,,,,,,,,,,,,,,,,,,,,,,,,,,,,,,,,
1720416076,72,0,4336.282227,4274.487305,4249.358887,4281.025879,4230.128418,4232.436035,4239.102539,4230.641113,4223.461426,4212.94873,4416.410156,4412.692383,4327.307617,4400.128418,,,,,,,,,,,,,,,,,,,,,,,,,,,,,,,,,,,,,,,,,,,,,,,,,,,,,,,,,,,,,,,,,,,,,,
1720416076,73,0,4336.410156,4272.94873,4252.563965,4279.743652,4231.666504,4230.641113,4235,4230.641113,4230.256348,4222.692383,4428.717773,4410.641113,4316.666504,4389.487305,,,,,,,,,,,,,,,,,,,,,,,,,,,,,,,,,,,,,,,,,,,,,,,,,,,,,,,,,,,,,,,,,,,,,,
1720416076,74,0,4340.256348,4277.94873,4258.461426,4287.436035,4228.717773,4230.641113,4236.666504,4235.512695,4233.205078,4219.743652,4449.615234,4413.333496,4324.871582,4380.897461,,,,,,,,,,,,,,,,,,,,,,,,,,,,,,,,,,,,,,,,,,,,,,,,,,,,,,,,,,,,,,,,,,,,,,
1720416076,75,0,4348.974121,4283.333496,4264.871582,4297.563965,4238.589844,4231.538574,4245.641113,4241.153809,4232.179688,4213.589844,4447.179688,4427.563965,4340.769043,4383.974121,,,,,,,,,,,,,,,,,,,,,,,,,,,,,,,,,,,,,,,,,,,,,,,,,,,,,,,,,,,,,,,,,,,,,,
1720416076,76,0,4351.153809,4283.077148,4265.897461,4291.538574,4247.307617,4233.333496,4243.205078,4239.230957,4229.230957,4213.205078,4429.871582,4426.153809,4343.846191,4372.179688,,,,,,,,,,,,,,,,,,,,,,,,,,,,,,,,,,,,,,,,,,,,,,,,,,,,,,,,,,,,,,,,,,,,,,
1720416076,77,0,4344.615234,4279.358887,4262.307617,4281.153809,4238.974121,4232.563965,4235.641113,4229.871582,4220.128418,4207.05127,4421.025879,4413.461426,4333.974121,4357.94873,,,,,,,,,,,,,,,,,,,,,,,,,,,,,,,,,,,,,,,,,,,,,,,,,,,,,,,,,,,,,,,,,,,,,,
1720416076,78,0,4345.769043,4284.743652,4264.230957,4288.333496,4237.179688,4230.256348,4241.153809,4228.717773,4215.256348,4207.563965,4426.922852,4418.461426,4329.102539,4362.436035,,,,,,,,,,,,,,,,,,,,,,,,,,,,,,,,,,,,,,,,,,,,,,,,,,,,,,,,,,,,,,,,,,,,,,
1720416076,79,0,4352.563965,4294.615234,4273.717773,4299.487305,4247.307617,4233.974121,4249.230957,4239.487305,4225.384766,4225,4441.410156,4433.717773,4335.128418,4356.794922,0.755866,1.39564,0.35136,0.340949,0.258123,0.460006,1.350739,0.323239,0.231536,0.268827,1.305388,2.110723,0.336574,0.485967,0.307627,0.913843,1.63215,0.721447,0.336805,0.333686,0.447569,0.347368,0.359636,0.196796,0.241786,0.275825,0.34019,0.305149,0.179936,0.094416,0.605037,0.794793,0.24844,0.184589,0.167754,0.614089,0.354063,0.325849,0.350278,0.128395,0.199503,0.274067,0.560955,0.460496,0.143693,0.748718,0.785413,0.789279,0.695484,0.462387,0.529054,1.150691,0.697819,1.347039,0.926211,0.470599,2.165132,0.374244,0.841788,0.532708,1.356331,1.115257,0.465057,0.704782,0.552296,87.281776,6.906889,1.043033,0.54246,0.880586
1720416076,80,0,4355.384766,4294.487305,4278.205078,4297.05127,4253.077148,4243.717773,4249.487305,4246.025879,4232.179688,4228.846191,4452.05127,4432.179688,4342.179688,4343.461426,,,,,,,,,,,,,,,,,,,,,,,,,,,,,,,,,,,,,,,,,,,,,,,,,,,,,,,,,,,,,,,,,,,,,,
1720416076,81,0,4354.743652,4290.256348,4276.025879,4294.102539,4242.179688,4242.94873,4251.153809,4241.666504,4221.025879,4214.358887,4443.205078,4425.128418,4346.025879,4346.282227,,,,,,,,,,,,,,,,,,,,,,,,,,,,,,,,,,,,,,,,,,,,,,,,,,,,,,,,,,,,,,,,,,,,,,
1720416076,82,0,4349.102539,4294.358887,4277.307617,4298.461426,4232.692383,4236.410156,4251.794922,4241.922852,4212.563965,4212.05127,4434.871582,4435.256348,4344.358887,4336.666504,,,,,,,,,,,,,,,,,,,,,,,,,,,,,,,,,,,,,,,,,,,,,,,,,,,,,,,,,,,,,,,,,,,,,,
1720416076,83,0,4347.692383,4296.410156,4280.128418,4300,4241.538574,4241.538574,4251.922852,4247.307617,4219.358887,4221.922852,4450.384766,4444.615234,4336.282227,4327.820313,,,,,,,,,,,,,,,,,,,,,,,,,,,,,,,,,,,,,,,,,,,,,,,,,,,,,,,,,,,,,,,,,,,,,,
1720416076,84,0,4346.794922,4286.794922,4273.461426,4292.436035,4252.05127,4241.794922,4252.436035,4241.410156,4222.179688,4220.769043,4451.025879,4431.666504,4322.05127,4326.025879,,,,,,,,,,,,,,,,,,,,,,,,,,,,,,,,,,,,,,,,,,,,,,,,,,,,,,,,,,,,,,,,,,,,,,
1720416076,85,0,4332.436035,4277.05127,4257.820313,4278.589844,4248.974121,4228.333496,4242.692383,4227.179688,4216.410156,4206.153809,4419.743652,4403.974121,4312.563965,4292.94873,,,,,,,,,,,,,,,,,,,,,,,,,,,,,,,,,,,,,,,,,,,,,,,,,,,,,,,,,,,,,,,,,,,,,,
1720416076,86,0,4326.922852,4278.846191,4254.358887,4274.871582,4241.922852,4224.102539,4234.358887,4223.461426,4219.743652,4196.025879,4412.05127,4391.538574,4321.410156,4268.077148,,,,,,,,,,,,,,,,,,,,,,,,,,,,,,,,,,,,,,,,,,,,,,,,,,,,,,,,,,,,,,,,,,,,,,
1720416076,87,0,4336.922852,4287.94873,4265.512695,4290.512695,4236.410156,4230.512695,4239.358887,4228.717773,4230.256348,4205.256348,4429.358887,4406.282227,4325.641113,4284.615234,,,,,,,,,,,,,,,,,,,,,,,,,,,,,,,,,,,,,,,,,,,,,,,,,,,,,,,,,,,,,,,,,,,,,,
1720416076,88,0,4344.871582,4297.820313,4276.794922,4309.230957,4237.692383,4234.230957,4249.743652,4239.487305,4233.589844,4219.871582,4434.871582,4430.384766,4321.922852,4297.179688,,,,,,,,,,,,,,,,,,,,,,,,,,,,,,,,,,,,,,,,,,,,,,,,,,,,,,,,,,,,,,,,,,,,,,
1720416076,89,0,4349.102539,4296.153809,4282.436035,4303.461426,4255.769043,4238.974121,4251.794922,4246.153809,4231.153809,4220.641113,4443.846191,4436.153809,4338.974121,4282.307617,,,,,,,,,,,,,,,,,,,,,,,,,,,,,,,,,,,,,,,,,,,,,,,,,,,,,,,,,,,,,,,,,,,,,,
1720416076,90,0,4347.05127,4283.333496,4277.436035,4281.922852,4261.025879,4245.256348,4246.410156,4238.717773,4231.282227,4218.461426,4445.769043,4424.743652,4351.282227,4265,,,,,,,,,,,,,,,,,,,,,,,,,,,,,,,,,,,,,,,,,,,,,,,,,,,,,,,,,,,,,,,,,,,,,,
1720416076,91,0,4342.436035,4284.230957,4276.666504,4282.563965,4247.179688,4245.512695,4245.769043,4232.436035,4229.102539,4216.794922,4437.307617,4429.487305,4333.974121,4267.307617,,,,,,,,,,,,,,,,,,,,,,,,,,,,,,,,,,,,,,,,,,,,,,,,,,,,,,,,,,,,,,,,,,,,,,
1720416076,92,0,4349.487305,4296.922852,4287.307617,4299.102539,4244.487305,4237.820313,4251.538574,4236.025879,4221.410156,4208.461426,4444.230957,4441.922852,4326.794922,4274.871582,,,,,,,,,,,,,,,,,,,,,,,,,,,,,,,,,,,,,,,,,,,,,,,,,,,,,,,,,,,,,,,,,,,,,,
1720416076,93,0,4356.538574,4297.307617,4291.794922,4299.102539,4248.717773,4231.538574,4249.102539,4234.615234,4215.641113,4199.871582,4439.871582,4439.102539,4334.743652,4261.282227,,,,,,,,,,,,,,,,,,,,,,,,,,,,,,,,,,,,,,,,,,,,,,,,,,,,,,,,,,,,,,,,,,,,,,
1720416076,94,0,4349.230957,4292.820313,4281.538574,4291.153809,4246.282227,4235.128418,4239.615234,4228.589844,4215.769043,4201.153809,4420.769043,4424.487305,4319.743652,4240,,,,,,,,,,,,,,,,,,,,,,,,,,,,,,,,,,,,,,,,,,,,,,,,,,,,,,,,,,,,,,,,,,,,,,
1720416076,95,0,4340.256348,4293.717773,4269.487305,4294.487305,4235.897461,4235.769043,4241.025879,4230.512695,4215.641113,4201.794922,4421.282227,4409.615234,4308.333496,4234.487305,0.713671,1.372392,0.386994,0.311264,0.253137,0.57405,1.229381,0.358611,0.242974,0.270182,1.240599,2.008516,0.359623,0.463564,0.311274,0.986448,1.7154,0.76862,0.410776,0.331054,0.360379,0.313666,0.296299,0.186392,0.237803,0.245847,0.395005,0.310509,0.155289,0.095617,0.546268,0.855552,0.284923,0.165982,0.176124,0.503703,0.277893,0.383039,0.327532,0.136508,0.146827,0.295489,0.646345,0.432975,0.157437,0.652331,0.74081,0.872933,0.6434,0.469443,0.493741,1.132451,0.668746,1.3254,0.88321,0.495024,1.885455,0.45149,0.730333,0.536137,1.22084,0.914965,0.436719,0.655215,0.58363,87.43512,7.101123,1.20234,0.49482,0.807306
1720416076,96,0,4340.512695,4293.333496,4268.077148,4297.436035,4229.871582,4231.025879,4244.102539,4229.871582,4215.769043,4199.615234,4434.102539,4405.897461,4324.615234,4231.538574,,,,,,,,,,,,,,,,,,,,,,,,,,,,,,,,,,,,,,,,,,,,,,,,,,,,,,,,,,,,,,,,,,,,,,
1720416076,97,0,4346.922852,4294.615234,4276.282227,4295,4244.230957,4231.666504,4242.563965,4231.282227,4223.846191,4215.769043,4441.666504,4421.538574,4340.641113,4237.692383,,,,,,,,,,,,,,,,,,,,,,,,,,,,,,,,,,,,,,,,,,,,,,,,,,,,,,,,,,,,,,,,,,,,,,
1720416076,98,0,4350.641113,4301.153809,4285.384766,4296.282227,4258.333496,4234.358887,4242.307617,4242.94873,4235.769043,4235.256348,4452.05127,4437.692383,4344.487305,4248.077148,,,,,,,,,,,,,,,,,,,,,,,,,,,,,,,,,,,,,,,,,,,,,,,,,,,,,,,,,,,,,,,,,,,,,,
1720416076,99,0,4343.205078,4297.94873,4281.282227,4297.692383,4252.179688,4233.589844,4240.384766,4243.077148,4239.230957,4232.436035,4449.871582,4427.563965,4340.256348,4234.230957,,,,,,,,,,,,,,,,,,,,,,,,,,,,,,,,,,,,,,,,,,,,,,,,,,,,,,,,,,,,,,,,,,,,,,
1720416076,100,0,4332.563965,4283.846191,4268.846191,4289.358887,4241.282227,4232.692383,4241.666504,4230.769043,4227.307617,4209.230957,4432.307617,4410.769043,4335.384766,4217.307617,,,,,,,,,,,,,,,,,,,,,,,,,,,,,,,,,,,,,,,,,,,,,,,,,,,,,,,,,,,,,,,,,,,,,,
1720416076,101,0,4327.820313,4275.512695,4265,4278.717773,4239.487305,4233.717773,4247.307617,4228.461426,4219.871582,4201.410156,4427.563965,4410.641113,4324.743652,4212.692383,,,,,,,,,,,,,,,,,,,,,,,,,,,,,,,,,,,,,,,,,,,,,,,,,,,,,,,,,,,,,,,,,,,,,,
1720416076,102,0,4328.461426,4277.179688,4266.538574,4278.974121,4238.589844,4237.307617,4253.205078,4238.846191,4229.871582,4215.256348,4431.153809,4415.897461,4313.461426,4203.461426,,,,,,,,,,,,,,,,,,,,,,,,,,,,,,,,,,,,,,,,,,,,,,,,,,,,,,,,,,,,,,,,,,,,,,
1720416076,103,0,4327.307617,4274.871582,4266.538574,4277.179688,4237.692383,4240.128418,4254.102539,4245.128418,4235.769043,4218.846191,4432.820313,4415.384766,4318.589844,4195.641113,,,,,,,,,,,,,,,,,,,,,,,,,,,,,,,,,,,,,,,,,,,,,,,,,,,,,,,,,,,,,,,,,,,,,,
1720416076,104,0,4325.641113,4269.743652,4268.077148,4271.794922,4242.05127,4241.282227,4254.358887,4245.512695,4230.256348,4214.871582,4437.179688,4419.102539,4336.922852,4198.846191,,,,,,,,,,,,,,,,,,,,,,,,,,,,,,,,,,,,,,,,,,,,,,,,,,,,,,,,,,,,,,,,,,,,,,
1720416076,105,0,4337.307617,4277.94873,4284.487305,4282.307617,4249.615234,4246.922852,4260.769043,4249.230957,4233.205078,4222.563965,4447.692383,4438.717773,4345.512695,4210.256348,,,,,,,,,,,,,,,,,,,,,,,,,,,,,,,,,,,,,,,,,,,,,,,,,,,,,,,,,,,,,,,,,,,,,,
1720416076,106,0,4350.384766,4293.205078,4299.230957,4297.179688,4252.820313,4246.922852,4261.666504,4247.94873,4233.461426,4224.230957,4452.05127,4450.128418,4342.563965,4214.871582,,,,,,,,,,,,,,,,,,,,,,,,,,,,,,,,,,,,,,,,,,,,,,,,,,,,,,,,,,,,,,,,,,,,,,
1720416076,107,0,4348.846191,4300.769043,4291.922852,4299.230957,4251.153809,4242.94873,4254.871582,4238.846191,4218.846191,4216.410156,4445.897461,4438.461426,4341.922852,4201.282227,,,,,,,,,,,,,,,,,,,,,,,,,,,,,,,,,,,,,,,,,,,,,,,,,,,,,,,,,,,,,,,,,,,,,,
1720416076,108,0,4343.846191,4298.461426,4280.128418,4294.487305,4250.512695,4241.282227,4250.769043,4232.05127,4218.333496,4223.974121,4442.94873,4427.436035,4335.641113,4187.563965,,,,,,,,,,,,,,,,,,,,,,,,,,,,,,,,,,,,,,,,,,,,,,,,,,,,,,,,,,,,,,,,,,,,,,
1720416076,109,0,4343.589844,4294.230957,4280.256348,4291.666504,4250.897461,4238.205078,4248.205078,4234.743652,4232.436035,4231.282227,4453.717773,4427.94873,4337.179688,4190.128418,,,,,,,,,,,,,,,,,,,,,,,,,,,,,,,,,,,,,,,,,,,,,,,,,,,,,,,,,,,,,,,,,,,,,,
1720416076,110,0,4339.743652,4296.538574,4276.794922,4289.743652,4249.230957,4239.358887,4243.974121,4238.974121,4234.743652,4220.256348,4461.282227,4427.94873,4348.333496,4191.410156,,,,,,,,,,,,,,,,,,,,,,,,,,,,,,,,,,,,,,,,,,,,,,,,,,,,,,,,,,,,,,,,,,,,,,
1720416076,111,0,4339.358887,4293.974121,4268.974121,4285.128418,4247.692383,4243.205078,4241.410156,4240.769043,4234.615234,4215.641113,4449.487305,4429.487305,4337.820313,4207.179688,0.746663,1.39775,0.405258,0.28721,0.2499,0.729763,1.227285,0.395533,0.263937,0.278921,1.190504,1.986017,0.394278,0.445925,0.315806,1.070116,1.801928,0.805528,0.486855,0.335981,0.31019,0.30545,0.293675,0.187084,0.24813,0.223066,0.566747,0.298894,0.134866,0.10871,0.466951,0.965341,0.315012,0.154023,0.187859,0.385658,0.209429,0.440655,0.293766,0.15251,0.119826,0.323441,0.731985,0.388669,0.178303,0.579562,0.679715,0.915112,0.619954,0.458562,0.49902,1.143852,0.669227,1.243464,0.849206,0.622691,1.745075,0.547596,0.661141,0.555314,1.041787,0.742652,0.396795,0.609211,0.602329,87.082947,7.69606,1.441559,0.4978,0.735974
1720416076,112,0,4341.922852,4282.563965,4269.743652,4275.384766,4245.769043,4239.358887,4241.153809,4239.102539,4236.282227,4222.307617,4441.922852,4428.461426,4321.666504,4246.922852,,,,,,,,,,,,,,,,,,,,,,,,,,,,,,,,,,,,,,,,,,,,,,,,,,,,,,,,,,,,,,,,,,,,,,
1720416076,113,0,4329.230957,4272.692383,4264.743652,4260.512695,4245.384766,4230.769043,4235.384766,4229.230957,4225.641113,4216.794922,4441.538574,4410.641113,4324.358887,4271.538574,,,,,,,,,,,,,,,,,,,,,,,,,,,,,,,,,,,,,,,,,,,,,,,,,,,,,,,,,,,,,,,,,,,,,,
1720416076,114,0,4326.282227,4277.307617,4263.589844,4258.589844,4247.563965,4231.282227,4235,4227.820313,4219.358887,4205.769043,4432.820313,4408.717773,4330.384766,4317.820313,,,,,,,,,,,,,,,,,,,,,,,,,,,,,,,,,,,,,,,,,,,,,,,,,,,,,,,,,,,,,,,,,,,,,,
1720416076,115,0,4343.205078,4289.743652,4286.282227,4273.461426,4249.487305,4242.436035,4243.974121,4240,4229.871582,4207.436035,4432.563965,4440.512695,4322.692383,4407.307617,,,,,,,,,,,,,,,,,,,,,,,,,,,,,,,,,,,,,,,,,,,,,,,,,,,,,,,,,,,,,,,,,,,,,,
1720416076,116,0,4341.282227,4288.205078,4294.358887,4275.641113,4249.230957,4246.025879,4249.102539,4243.077148,4233.846191,4213.333496,4445.256348,4452.307617,4315.897461,4462.820313,,,,,,,,,,,,,,,,,,,,,,,,,,,,,,,,,,,,,,,,,,,,,,,,,,,,,,,,,,,,,,,,,,,,,,
1720416076,117,0,4324.230957,4272.820313,4276.410156,4261.153809,4247.820313,4236.538574,4248.205078,4239.102539,4228.333496,4218.205078,4443.077148,4431.282227,4318.333496,4480.512695,,,,,,,,,,,,,,,,,,,,,,,,,,,,,,,,,,,,,,,,,,,,,,,,,,,,,,,,,,,,,,,,,,,,,,
1720416076,118,0,4325.384766,4272.692383,4273.974121,4258.077148,4252.94873,4233.589844,4249.102539,4243.717773,4235.384766,4229.487305,4438.205078,4423.846191,4329.487305,4517.563965,,,,,,,,,,,,,,,,,,,,,,,,,,,,,,,,,,,,,,,,,,,,,,,,,,,,,,,,,,,,,,,,,,,,,,
1720416076,119,0,4335.897461,4290.384766,4283.205078,4268.461426,4262.692383,4245.128418,4251.410156,4251.025879,4249.102539,4237.436035,4452.05127,4437.307617,4344.102539,4555.641113,,,,,,,,,,,,,,,,,,,,,,,,,,,,,,,,,,,,,,,,,,,,,,,,,,,,,,,,,,,,,,,,,,,,,,
1720416076,120,0,4337.692383,4296.153809,4282.05127,4270.641113,4262.94873,4247.436035,4251.282227,4248.333496,4248.717773,4232.179688,4460.641113,4443.846191,4341.922852,4575,,,,,,,,,,,,,,,,,,,,,,,,,,,,,,,,,,,,,,,,,,,,,,,,,,,,,,,,,,,,,,,,,,,,,,
1720416076,121,0,4343.589844,4294.358887,4287.563965,4275.897461,4261.282227,4243.077148,4253.333496,4246.538574,4242.436035,4230.897461,4456.666504,4444.358887,4336.282227,4594.358887,,,,,,,,,,,,,,,,,,,,,,,,,,,,,,,,,,,,,,,,,,,,,,,,,,,,,,,,,,,,,,,,,,,,,,
1720416076,122,0,4353.333496,4308.461426,4299.615234,4293.205078,4265.384766,4248.461426,4257.94873,4257.05127,4246.410156,4237.436035,4465.512695,4450.512695,4344.487305,4602.692383,,,,,,,,,,,,,,,,,,,,,,,,,,,,,,,,,,,,,,,,,,,,,,,,,,,,,,,,,,,,,,,,,,,,,,
1720416076,123,0,4351.025879,4317.307617,4295.769043,4295.512695,4265,4252.820313,4261.153809,4264.358887,4253.974121,4232.94873,4471.794922,4448.461426,4349.358887,4598.846191,,,,,,,,,,,,,,,,,,,,,,,,,,,,,,,,,,,,,,,,,,,,,,,,,,,,,,,,,,,,,,,,,,,,,,
1720416076,124,0,4338.717773,4303.846191,4280.384766,4280,4261.025879,4251.282227,4258.717773,4254.102539,4246.922852,4220.512695,4447.179688,4435.641113,4330.897461,4593.205078,,,,,,,,,,,,,,,,,,,,,,,,,,,,,,,,,,,,,,,,,,,,,,,,,,,,,,,,,,,,,,,,,,,,,,
1720416076,125,0,4335.384766,4295.256348,4277.692383,4273.846191,4258.846191,4249.743652,4256.538574,4245.769043,4238.205078,4215,4428.846191,4433.589844,4308.717773,4587.692383,,,,,,,,,,,,,,,,,,,,,,,,,,,,,,,,,,,,,,,,,,,,,,,,,,,,,,,,,,,,,,,,,,,,,,
1720416076,126,0,4342.563965,4310.641113,4290.769043,4280.897461,4262.05127,4250,4262.05127,4256.922852,4242.692383,4218.205078,4441.538574,4451.282227,4314.358887,4594.743652,,,,,,,,,,,,,,,,,,,,,,,,,,,,,,,,,,,,,,,,,,,,,,,,,,,,,,,,,,,,,,,,,,,,,,
1720416076,127,0,4344.743652,4320.384766,4300.256348,4281.410156,4274.743652,4252.436035,4262.179688,4264.358887,4249.230957,4228.077148,4460.512695,4466.025879,4337.436035,4602.94873,0.848038,1.458176,0.411528,0.263762,0.249815,0.911485,1.31174,0.433011,0.283179,0.292759,1.217432,2.017722,0.443289,0.436731,0.319482,1.175143,1.825364,0.835821,0.544418,0.347123,0.313112,0.330986,0.321988,0.19693,0.275419,0.214766,0.837757,0.269503,0.124371,0.129629,0.4085,1.129982,0.327236,0.148632,0.201062,0.305072,0.162018,0.486219,0.26136,0.171751,0.112878,0.36835,0.776841,0.349422,0.203049,0.52261,0.598461,0.918332,0.622565,0.43331,0.560218,1.153032,0.701739,1.117568,0.842915,0.889309,1.729142,0.660827,0.62729,0.583862,0.881858,0.611686,0.376683,0.580281,0.600938,86.530479,8.611363,1.709963,0.545517,0.672821
1720416076,0,0,4339.358887,4312.94873,4295.384766,4277.179688,4279.230957,4251.538574,4257.820313,4260.769043,4248.461426,4237.94873,4472.563965,4460.384766,4344.230957,4608.333496,,,,,,,,,,,,,,,,,,,,,,,,,,,,,,,,,,,,,,,,,,,,,,,,,,,,,,,,,,,,,,,,,,,,,,
1720416076,1,0,4329.487305,4306.025879,4282.307617,4276.794922,4262.05127,4247.563965,4256.282227,4254.871582,4244.102539,4229.102539,4465.256348,4442.307617,4332.692383,4603.077148,,,,,,,,,,,,,,,,,,,,,,,,,,,,,,,,,,,,,,,,,,,,,,,,,,,,,,,,,,,,,,,,,,,,,,
1720416076,2,0,4327.820313,4311.410156,4285.128418,4281.410156,4260.512695,4254.871582,4260.769043,4253.333496,4244.102539,4219.615234,4450.897461,4441.538574,4335.512695,4587.692383,,,,,,,,,,,,,,,,,,,,,,,,,,,,,,,,,,,,,,,,,,,,,,,,,,,,,,,,,,,,,,,,,,,,,,
1720416076,3,0,4341.666504,4319.358887,4307.307617,4294.358887,4281.025879,4268.589844,4271.282227,4262.436035,4249.615234,4239.102539,4461.538574,4466.282227,4356.666504,4593.205078,,,,,,,,,,,,,,,,,,,,,,,,,,,,,,,,,,,,,,,,,,,,,,,,,,,,,,,,,,,,,,,,,,,,,,
1720416076,4,0,4343.333496,4316.538574,4308.589844,4294.743652,4278.205078,4262.307617,4271.794922,4263.717773,4251.025879,4253.461426,4472.307617,4471.538574,4362.307617,4601.666504,,,,,,,,,,,,,,,,,,,,,,,,,,,,,,,,,,,,,,,,,,,,,,,,,,,,,,,,,,,,,,,,,,,,,,
1720416076,5,0,4328.333496,4309.230957,4291.922852,4281.794922,4259.230957,4250.641113,4260.769043,4254.871582,4244.358887,4238.077148,4451.922852,4449.487305,4342.436035,4583.974121,,,,,,,,,,,,,,,,,,,,,,,,,,,,,,,,,,,,,,,,,,,,,,,,,,,,,,,,,,,,,,,,,,,,,,
1720416076,6,0,4324.102539,4309.230957,4288.333496,4278.333496,4259.871582,4260.256348,4261.794922,4257.820313,4245.769043,4229.871582,4443.846191,4443.461426,4326.410156,4568.205078,,,,,,,,,,,,,,,,,,,,,,,,,,,,,,,,,,,,,,,,,,,,,,,,,,,,,,,,,,,,,,,,,,,,,,
1720416076,7,0,4327.307617,4308.846191,4285.384766,4280.384766,4268.205078,4270,4268.205078,4266.025879,4249.743652,4233.333496,4455,4448.717773,4332.94873,4566.282227,,,,,,,,,,,,,,,,,,,,,,,,,,,,,,,,,,,,,,,,,,,,,,,,,,,,,,,,,,,,,,,,,,,,,,
1720416076,8,0,4323.974121,4306.410156,4280.512695,4278.461426,4265,4263.077148,4263.461426,4261.410156,4247.94873,4228.333496,4450.384766,4442.820313,4337.307617,4559.615234,,,,,,,,,,,,,,,,,,,,,,,,,,,,,,,,,,,,,,,,,,,,,,,,,,,,,,,,,,,,,,,,,,,,,,
1720416077,9,0,4326.025879,4309.871582,4290,4282.307617,4263.974121,4260.512695,4262.563965,4259.615234,4254.487305,4228.333496,4447.05127,4447.563965,4334.102539,4564.102539,,,,,,,,,,,,,,,,,,,,,,,,,,,,,,,,,,,,,,,,,,,,,,,,,,,,,,,,,,,,,,,,,,,,,,
1720416077,10,0,4331.666504,4313.333496,4291.410156,4291.410156,4267.179688,4265.128418,4269.358887,4267.179688,4259.487305,4233.974121,4452.692383,4459.615234,4338.461426,4560.641113,,,,,,,,,,,,,,,,,,,,,,,,,,,,,,,,,,,,,,,,,,,,,,,,,,,,,,,,,,,,,,,,,,,,,,
1720416077,11,0,4328.205078,4311.153809,4280.897461,4293.333496,4264.230957,4264.358887,4267.05127,4263.846191,4249.871582,4234.487305,4447.692383,4451.538574,4340.897461,4531.025879,,,,,,,,,,,,,,,,,,,,,,,,,,,,,,,,,,,,,,,,,,,,,,,,,,,,,,,,,,,,,,,,,,,,,,
1720416077,12,0,4319.102539,4308.205078,4278.205078,4284.743652,4266.538574,4262.563965,4260.384766,4252.692383,4242.94873,4229.230957,4434.230957,4436.282227,4326.153809,4517.820313,,,,,,,,,,,,,,,,,,,,,,,,,,,,,,,,,,,,,,,,,,,,,,,,,,,,,,,,,,,,,,,,,,,,,,
1720416077,13,0,4310,4303.205078,4270.256348,4273.589844,4272.307617,4263.461426,4257.820313,4247.436035,4245.256348,4219.358887,4427.179688,4427.820313,4310.256348,4503.333496,,,,,,,,,,,,,,,,,,,,,,,,,,,,,,,,,,,,,,,,,,,,,,,,,,,,,,,,,,,,,,,,,,,,,,
1720416077,14,0,4314.871582,4308.205078,4268.717773,4284.743652,4267.436035,4263.333496,4261.794922,4254.358887,4247.179688,4220,4435.128418,4432.692383,4318.974121,4478.205078,,,,,,,,,,,,,,,,,,,,,,,,,,,,,,,,,,,,,,,,,,,,,,,,,,,,,,,,,,,,,,,,,,,,,,
1720416077,15,0,4327.820313,4320,4287.94873,4301.666504,4259.743652,4258.333496,4264.102539,4262.436035,4248.846191,4233.589844,4449.743652,4448.461426,4338.846191,4475.512695,1.000641,1.538098,0.418422,0.243517,0.25424,1.096439,1.44124,0.473946,0.295234,0.307206,1.290296,2.071086,0.517247,0.445431,0.321763,1.274154,1.769223,0.863571,0.575255,0.361846,0.357358,0.379611,0.348912,0.21604,0.316031,0.231205,1.142962,0.230569,0.128807,0.151491,0.397247,1.323508,0.316043,0.152483,0.212881,0.287288,0.140901,0.508404,0.251185,0.190235,0.133713,0.44225,0.75737,0.335984,0.227483,0.513529,0.497696,0.910793,0.642536,0.404484,0.672223,1.135298,0.786926,0.998299,0.86437,1.236483,1.799563,0.803142,0.636266,0.621216,0.770275,0.53829,0.431466,0.590398,0.580296,86.176895,9.418296,1.936083,0.628236,0.623788
1720416077,16,0,4335.128418,4325,4298.974121,4300.769043,4264.743652,4254.487305,4260.512695,4261.794922,4250.256348,4235.897461,4457.692383,4460.641113,4348.974121,4484.102539,,,,,,,,,,,,,,,,,,,,,,,,,,,,,,,,,,,,,,,,,,,,,,,,,,,,,,,,,,,,,,,,,,,,,,
1720416077,17,0,4339.743652,4326.922852,4299.230957,4301.538574,4277.179688,4260.256348,4263.974121,4261.538574,4252.05127,4230.128418,4463.333496,4468.077148,4350.512695,4484.871582,,,,,,,,,,,,,,,,,,,,,,,,,,,,,,,,,,,,,,,,,,,,,,,,,,,,,,,,,,,,,,,,,,,,,,
1720416077,18,0,4337.436035,4323.846191,4299.230957,4303.974121,4278.589844,4266.282227,4272.692383,4267.94873,4258.589844,4237.820313,4469.743652,4472.436035,4350.384766,4480,,,,,,,,,,,,,,,,,,,,,,,,,,,,,,,,,,,,,,,,,,,,,,,,,,,,,,,,,,,,,,,,,,,,,,
1720416077,19,0,4327.179688,4314.358887,4289.615234,4295.769043,4269.615234,4263.974121,4266.666504,4266.666504,4260.641113,4241.922852,4460.897461,4462.820313,4347.563965,4466.794922,,,,,,,,,,,,,,,,,,,,,,,,,,,,,,,,,,,,,,,,,,,,,,,,,,,,,,,,,,,,,,,,,,,,,,
1720416077,20,0,4319.358887,4308.589844,4278.461426,4290.641113,4260.641113,4260,4255.641113,4255.897461,4253.333496,4228.461426,4439.871582,4448.717773,4336.153809,4457.820313,,,,,,,,,,,,,,,,,,,,,,,,,,,,,,,,,,,,,,,,,,,,,,,,,,,,,,,,,,,,,,,,,,,,,,
1720416077,21,0,4317.05127,4310.512695,4281.794922,4291.538574,4259.871582,4261.538574,4256.282227,4254.230957,4247.692383,4221.025879,4433.077148,4448.333496,4324.871582,4460.897461,,,,,,,,,,,,,,,,,,,,,,,,,,,,,,,,,,,,,,,,,,,,,,,,,,,,,,,,,,,,,,,,,,,,,,
1720416077,22,0,4315.641113,4308.846191,4283.205078,4291.025879,4264.615234,4259.615234,4256.922852,4256.153809,4247.563965,4223.077148,4442.692383,4449.358887,4320.384766,4447.94873,,,,,,,,,,,,,,,,,,,,,,,,,,,,,,,,,,,,,,,,,,,,,,,,,,,,,,,,,,,,,,,,,,,,,,
1720416077,23,0,4316.538574,4302.563965,4279.743652,4293.205078,4263.974121,4250.384766,4253.589844,4251.666504,4246.410156,4218.974121,4446.282227,4441.922852,4326.153809,4435.897461,,,,,,,,,,,,,,,,,,,,,,,,,,,,,,,,,,,,,,,,,,,,,,,,,,,,,,,,,,,,,,,,,,,,,,
1720416077,24,0,4312.820313,4297.436035,4277.692383,4288.846191,4259.358887,4248.846191,4253.333496,4248.461426,4244.743652,4211.794922,4438.717773,4438.974121,4329.615234,4441.410156,,,,,,,,,,,,,,,,,,,,,,,,,,,,,,,,,,,,,,,,,,,,,,,,,,,,,,,,,,,,,,,,,,,,,,
1720416077,25,0,4306.153809,4293.333496,4273.077148,4278.461426,4259.230957,4257.436035,4253.333496,4250.256348,4247.05127,4215.128418,4438.717773,4441.282227,4323.589844,4445.128418,,,,,,,,,,,,,,,,,,,,,,,,,,,,,,,,,,,,,,,,,,,,,,,,,,,,,,,,,,,,,,,,,,,,,,
1720416077,26,0,4305.512695,4292.307617,4273.077148,4278.461426,4265.128418,4264.230957,4256.666504,4256.025879,4250.256348,4225.641113,4445.512695,4442.436035,4324.358887,4445.641113,,,,,,,,,,,,,,,,,,,,,,,,,,,,,,,,,,,,,,,,,,,,,,,,,,,,,,,,,,,,,,,,,,,,,,
1720416077,27,0,4308.589844,4293.205078,4281.410156,4283.333496,4268.974121,4265.256348,4261.922852,4262.307617,4250.769043,4232.307617,4443.461426,4448.717773,4331.282227,4447.692383,,,,,,,,,,,,,,,,,,,,,,,,,,,,,,,,,,,,,,,,,,,,,,,,,,,,,,,,,,,,,,,,,,,,,,
1720416077,28,0,4314.230957,4295.512695,4290.128418,4285.769043,4263.846191,4259.102539,4263.974121,4261.666504,4248.461426,4233.717773,4445.256348,4457.563965,4333.974121,4448.717773,,,,,,,,,,,,,,,,,,,,,,,,,,,,,,,,,,,,,,,,,,,,,,,,,,,,,,,,,,,,,,,,,,,,,,
1720416077,29,0,4322.307617,4300.512695,4299.615234,4291.025879,4260.769043,4253.846191,4264.615234,4258.717773,4247.307617,4237.307617,4459.487305,4460.769043,4343.077148,4445.256348,,,,,,,,,,,,,,,,,,,,,,,,,,,,,,,,,,,,,,,,,,,,,,,,,,,,,,,,,,,,,,,,,,,,,,
1720416077,30,0,4330.384766,4310.512695,4310.128418,4302.179688,4273.205078,4262.436035,4270.897461,4272.05127,4254.102539,4249.358887,4471.282227,4473.461426,4361.153809,4448.974121,,,,,,,,,,,,,,,,,,,,,,,,,,,,,,,,,,,,,,,,,,,,,,,,,,,,,,,,,,,,,,,,,,,,,,
1720416077,31,0,4326.410156,4312.94873,4311.153809,4306.282227,4280.384766,4272.692383,4276.153809,4281.410156,4261.282227,4249.487305,4464.615234,4483.974121,4360.512695,4445.641113,1.161073,1.619062,0.437579,0.236092,0.263285,1.247871,1.590392,0.523754,0.302853,0.319094,1.350775,2.113585,0.622713,0.482568,0.323456,1.35108,1.67805,0.891565,0.585195,0.377084,0.420362,0.431821,0.360932,0.244042,0.360627,0.260346,1.395341,0.192907,0.146715,0.168072,0.449588,1.498011,0.282774,0.164594,0.220125,0.334371,0.144154,0.501167,0.276317,0.205639,0.172047,0.545613,0.681143,0.357067,0.24779,0.518432,0.405015,0.934666,0.667398,0.384677,0.796972,1.092295,0.945726,0.940451,0.894643,1.567863,1.898623,0.982743,0.708722,0.668465,0.732913,0.547147,0.615808,0.652997,0.551744,86.5895,9.706779,2.108472,0.740706,0.59249
1720416077,32,0,4310.256348,4300.384766,4296.410156,4298.974121,4267.563965,4267.436035,4269.615234,4269.871582,4259.358887,4233.333496,4452.820313,4461.410156,4342.820313,4422.563965,,,,,,,,,,,,,,,,,,,,,,,,,,,,,,,,,,,,,,,,,,,,,,,,,,,,,,,,,,,,,,,,,,,,,,
1720416077,33,0,4302.436035,4290,4280.384766,4292.05127,4262.179688,4261.025879,4258.974121,4259.871582,4257.307617,4228.077148,4448.205078,4436.794922,4334.615234,4403.974121,,,,,,,,,,,,,,,,,,,,,,,,,,,,,,,,,,,,,,,,,,,,,,,,,,,,,,,,,,,,,,,,,,,,,,
1720416077,34,0,4309.615234,4291.410156,4281.538574,4290.897461,4265.512695,4263.461426,4255.641113,4263.205078,4260.769043,4232.436035,4446.025879,4449.102539,4340.512695,4412.307617,,,,,,,,,,,,,,,,,,,,,,,,,,,,,,,,,,,,,,,,,,,,,,,,,,,,,,,,,,,,,,,,,,,,,,
1720416077,35,0,4312.692383,4301.153809,4292.563965,4296.922852,4260.128418,4262.05127,4255.641113,4265,4259.230957,4234.102539,4448.205078,4462.307617,4350.384766,4414.871582,,,,,,,,,,,,,,,,,,,,,,,,,,,,,,,,,,,,,,,,,,,,,,,,,,,,,,,,,,,,,,,,,,,,,,
1720416077,36,0,4309.615234,4310.769043,4295.256348,4307.307617,4266.025879,4258.846191,4253.717773,4258.846191,4252.05127,4238.333496,4453.846191,4451.410156,4348.589844,4385.641113,,,,,,,,,,,,,,,,,,,,,,,,,,,,,,,,,,,,,,,,,,,,,,,,,,,,,,,,,,,,,,,,,,,,,,
1720416077,37,0,4317.692383,4313.589844,4294.102539,4308.333496,4285.769043,4260.512695,4261.153809,4258.974121,4249.487305,4240.641113,4462.820313,4451.282227,4340.897461,4380.641113,,,,,,,,,,,,,,,,,,,,,,,,,,,,,,,,,,,,,,,,,,,,,,,,,,,,,,,,,,,,,,,,,,,,,,
1720416077,38,0,4316.282227,4304.743652,4295,4295.512695,4286.282227,4264.230957,4269.487305,4265.769043,4249.358887,4234.102539,4458.461426,4460.256348,4343.974121,4383.333496,,,,,,,,,,,,,,,,,,,,,,,,,,,,,,,,,,,,,,,,,,,,,,,,,,,,,,,,,,,,,,,,,,,,,,
1720416077,39,0,4300.256348,4295.897461,4292.563965,4290.256348,4268.333496,4259.871582,4260.384766,4259.615234,4243.846191,4229.102539,4442.94873,4453.846191,4345.512695,4350.256348,,,,,,,,,,,,,,,,,,,,,,,,,,,,,,,,,,,,,,,,,,,,,,,,,,,,,,,,,,,,,,,,,,,,,,
1720416077,40,0,4303.077148,4298.846191,4291.922852,4297.307617,4261.794922,4251.153809,4253.589844,4250.641113,4241.922852,4230.384766,4446.282227,4451.025879,4341.282227,4341.794922,,,,,,,,,,,,,,,,,,,,,,,,,,,,,,,,,,,,,,,,,,,,,,,,,,,,,,,,,,,,,,,,,,,,,,
1720416077,41,0,4315.128418,4303.717773,4293.461426,4299.230957,4273.077148,4252.692383,4257.307617,4255.897461,4247.692383,4234.358887,4457.94873,4460.769043,4340.769043,4355.384766,,,,,,,,,,,,,,,,,,,,,,,,,,,,,,,,,,,,,,,,,,,,,,,,,,,,,,,,,,,,,,,,,,,,,,
1720416077,42,0,4318.333496,4307.436035,4297.307617,4298.333496,4282.820313,4260.384766,4261.153809,4264.487305,4247.94873,4241.153809,4466.153809,4468.461426,4345.769043,4350.384766,,,,,,,,,,,,,,,,,,,,,,,,,,,,,,,,,,,,,,,,,,,,,,,,,,,,,,,,,,,,,,,,,,,,,,
1720416077,43,0,4319.615234,4309.102539,4307.563965,4305,4276.410156,4260.384766,4264.615234,4268.461426,4248.205078,4242.436035,4478.333496,4475.128418,4356.282227,4352.563965,,,,,,,,,,,,,,,,,,,,,,,,,,,,,,,,,,,,,,,,,,,,,,,,,,,,,,,,,,,,,,,,,,,,,,
1720416077,44,0,4319.871582,4311.410156,4314.102539,4312.307617,4271.666504,4261.666504,4269.487305,4275.256348,4259.487305,4240.256348,4486.282227,4483.333496,4363.205078,4358.461426,,,,,,,,,,,,,,,,,,,,,,,,,,,,,,,,,,,,,,,,,,,,,,,,,,,,,,,,,,,,,,,,,,,,,,
1720416077,45,0,4323.461426,4320.641113,4315.512695,4315.128418,4283.205078,4272.820313,4273.461426,4284.358887,4270.641113,4242.563965,4478.846191,4488.717773,4358.717773,4350.769043,,,,,,,,,,,,,,,,,,,,,,,,,,,,,,,,,,,,,,,,,,,,,,,,,,,,,,,,,,,,,,,,,,,,,,
1720416077,46,0,4321.922852,4318.717773,4310,4310,4287.692383,4272.307617,4264.230957,4279.487305,4265.897461,4236.666504,4465.641113,4479.615234,4342.820313,4333.846191,,,,,,,,,,,,,,,,,,,,,,,,,,,,,,,,,,,,,,,,,,,,,,,,,,,,,,,,,,,,,,,,,,,,,,
1720416077,47,0,4304.230957,4297.436035,4295.769043,4298.589844,4275.769043,4257.307617,4249.615234,4263.333496,4252.563965,4227.692383,4449.230957,4456.538574,4328.461426,4311.538574,1.270422,1.681622,0.465265,0.253059,0.27522,1.369753,1.742813,0.571982,0.313608,0.327501,1.356132,2.131715,0.746548,0.55484,0.326498,1.393847,1.617522,0.909384,0.590493,0.389686,0.479436,0.468586,0.358793,0.276317,0.39893,0.295458,1.520347,0.168383,0.170325,0.177109,0.554771,1.602631,0.237258,0.17963,0.22051,0.42471,0.170516,0.46721,0.331809,0.217105,0.219144,0.664435,0.580247,0.403278,0.261017,0.533592,0.371568,1.01176,0.681826,0.382362,0.913916,1.054813,1.168081,0.971723,0.908558,1.801327,1.9841,1.183429,0.858556,0.722298,0.742842,0.673909,0.934162,0.762792,0.530937,87.463203,9.47429,2.261246,0.876066,0.580868
1720416077,48,0,4297.563965,4292.436035,4290,4296.153809,4273.589844,4256.666504,4250.128418,4257.436035,4248.333496,4228.461426,4439.871582,4448.461426,4332.05127,4301.282227,,,,,,,,,,,,,,,,,,,,,,,,,,,,,,,,,,,,,,,,,,,,,,,,,,,,,,,,,,,,,,,,,,,,,,
1720416077,49,0,4311.666504,4302.692383,4294.871582,4304.230957,4280.384766,4263.846191,4256.666504,4262.179688,4248.461426,4234.102539,4451.666504,4459.230957,4344.102539,4309.871582,,,,,,,,,,,,,,,,,,,,,,,,,,,,,,,,,,,,,,,,,,,,,,,,,,,,,,,,,,,,,,,,,,,,,,
1720416077,50,0,4312.436035,4301.410156,4296.153809,4307.820313,4279.230957,4262.692383,4254.871582,4263.717773,4250.384766,4241.794922,4461.538574,4464.871582,4348.717773,4305,,,,,,,,,,,,,,,,,,,,,,,,,,,,,,,,,,,,,,,,,,,,,,,,,,,,,,,,,,,,,,,,,,,,,,
1720416077,51,0,4305,4296.538574,4295.897461,4301.410156,4276.794922,4261.538574,4256.282227,4263.205078,4255.641113,4251.025879,4462.307617,4471.794922,4345,4298.974121,,,,,,,,,,,,,,,,,,,,,,,,,,,,,,,,,,,,,,,,,,,,,,,,,,,,,,,,,,,,,,,,,,,,,,
1720416077,52,0,4310,4297.436035,4300.256348,4298.589844,4274.615234,4260.384766,4261.025879,4262.563965,4258.974121,4248.333496,4461.794922,4477.820313,4343.077148,4303.461426,,,,,,,,,,,,,,,,,,,,,,,,,,,,,,,,,,,,,,,,,,,,,,,,,,,,,,,,,,,,,,,,,,,,,,
1720416077,53,0,4312.179688,4300.128418,4298.589844,4302.436035,4263.974121,4247.94873,4252.307617,4248.205078,4246.025879,4234.358887,4458.205078,4462.820313,4348.077148,4284.871582,,,,,,,,,,,,,,,,,,,,,,,,,,,,,,,,,,,,,,,,,,,,,,,,,,,,,,,,,,,,,,,,,,,,,,
1720416077,54,0,4315.128418,4308.461426,4304.487305,4308.974121,4263.205078,4242.692383,4254.615234,4247.307617,4231.922852,4228.717773,4465,4463.717773,4358.461426,4278.333496,,,,,,,,,,,,,,,,,,,,,,,,,,,,,,,,,,,,,,,,,,,,,,,,,,,,,,,,,,,,,,,,,,,,,,
1720416077,55,0,4330.512695,4318.205078,4328.717773,4321.025879,4280.897461,4255.769043,4273.846191,4273.205078,4241.153809,4233.846191,4479.358887,4499.230957,4369.102539,4301.666504,,,,,,,,,,,,,,,,,,,,,,,,,,,,,,,,,,,,,,,,,,,,,,,,,,,,,,,,,,,,,,,,,,,,,,
1720416077,56,0,4338.717773,4320.256348,4338.077148,4325.769043,4287.436035,4264.358887,4275,4285.256348,4253.846191,4235.512695,4482.179688,4516.538574,4372.436035,4307.94873,,,,,,,,,,,,,,,,,,,,,,,,,,,,,,,,,,,,,,,,,,,,,,,,,,,,,,,,,,,,,,,,,,,,,,
1720416077,57,0,4326.538574,4313.846191,4317.820313,4318.589844,4278.717773,4263.077148,4265.641113,4276.666504,4257.820313,4234.102539,4476.282227,4500,4369.487305,4297.179688,,,,,,,,,,,,,,,,,,,,,,,,,,,,,,,,,,,,,,,,,,,,,,,,,,,,,,,,,,,,,,,,,,,,,,
1720416077,58,0,4306.410156,4298.974121,4293.333496,4306.538574,4274.743652,4264.102539,4262.307617,4266.025879,4258.461426,4232.692383,4463.077148,4474.487305,4356.410156,4278.333496,,,,,,,,,,,,,,,,,,,,,,,,,,,,,,,,,,,,,,,,,,,,,,,,,,,,,,,,,,,,,,,,,,,,,,
1720416077,59,0,4299.230957,4290.384766,4287.563965,4303.461426,4271.282227,4266.794922,4260.769043,4261.922852,4252.820313,4229.230957,4450.128418,4459.871582,4344.871582,4257.179688,,,,,,,,,,,,,,,,,,,,,,,,,,,,,,,,,,,,,,,,,,,,,,,,,,,,,,,,,,,,,,,,,,,,,,
1720416077,60,0,4307.692383,4298.461426,4295.897461,4314.487305,4265.384766,4264.871582,4262.692383,4265.384766,4248.205078,4231.538574,4457.820313,4463.846191,4346.538574,4257.436035,,,,,,,,,,,,,,,,,,,,,,,,,,,,,,,,,,,,,,,,,,,,,,,,,,,,,,,,,,,,,,,,,,,,,,
1720416077,61,0,4306.025879,4298.077148,4291.794922,4309.871582,4264.487305,4256.282227,4256.153809,4257.179688,4247.692383,4234.743652,4456.794922,4458.205078,4344.358887,4253.461426,,,,,,,,,,,,,,,,,,,,,,,,,,,,,,,,,,,,,,,,,,,,,,,,,,,,,,,,,,,,,,,,,,,,,,
1720416077,62,0,4293.333496,4282.820313,4278.333496,4284.102539,4264.871582,4248.717773,4243.589844,4243.205078,4245,4231.794922,4441.282227,4443.717773,4334.358887,4229.102539,,,,,,,,,,,,,,,,,,,,,,,,,,,,,,,,,,,,,,,,,,,,,,,,,,,,,,,,,,,,,,,,,,,,,,
1720416077,63,0,4293.589844,4276.153809,4280.641113,4274.487305,4263.205078,4247.436035,4246.410156,4253.333496,4243.589844,4232.179688,4449.230957,4457.436035,4336.282227,4234.487305,1.309192,1.721242,0.49292,0.303661,0.286198,1.463021,1.879634,0.605676,0.335928,0.332887,1.263874,2.137984,0.869761,0.662675,0.332075,1.398852,1.628719,0.902923,0.608777,0.39644,0.508087,0.476056,0.351592,0.305805,0.423436,0.334936,1.48,0.162364,0.191107,0.180621,0.694877,1.602152,0.194126,0.191024,0.213441,0.530877,0.218909,0.415135,0.395693,0.225265,0.272805,0.769365,0.495057,0.450004,0.265442,0.551441,0.449225,1.128867,0.674362,0.397989,0.987685,1.088563,1.413347,1.079159,0.887728,1.869159,2.069907,1.376726,1.072397,0.771304,0.792135,0.958177,1.32734,0.900335,0.529001,88.48938,9.028895,2.436826,1.017161,0.585968
1720416077,64,0,4300,4288.333496,4293.846191,4292.820313,4266.153809,4251.153809,4254.871582,4264.358887,4251.410156,4238.717773,4462.05127,4476.666504,4352.307617,4241.538574,,,,,,,,,,,,,,,,,,,,,,,,,,,,,,,,,,,,,,,,,,,,,,,,,,,,,,,,,,,,,,,,,,,,,,
1720416077,65,0,4301.922852,4294.871582,4292.692383,4297.692383,4268.461426,4251.282227,4250.897461,4251.153809,4247.820313,4235.641113,4452.436035,4469.871582,4355.512695,4221.282227,,,,,,,,,,,,,,,,,,,,,,,,,,,,,,,,,,,,,,,,,,,,,,,,,,,,,,,,,,,,,,,,,,,,,,
1720416077,66,0,4308.846191,4291.282227,4292.05127,4292.563965,4264.358887,4249.102539,4252.307617,4249.871582,4236.025879,4230.384766,4455.256348,4470.897461,4352.436035,4225.897461,,,,,,,,,,,,,,,,,,,,,,,,,,,,,,,,,,,,,,,,,,,,,,,,,,,,,,,,,,,,,,,,,,,,,,
1720416077,67,0,4315.769043,4295.897461,4304.487305,4304.871582,4259.871582,4246.153809,4258.333496,4267.563965,4239.615234,4237.563965,4481.922852,4490.769043,4363.717773,4237.692383,,,,,,,,,,,,,,,,,,,,,,,,,,,,,,,,,,,,,,,,,,,,,,,,,,,,,,,,,,,,,,,,,,,,,,
1720416077,68,0,4318.974121,4300.641113,4312.179688,4316.538574,4265.384766,4247.692383,4262.692383,4276.922852,4255.128418,4248.077148,4493.589844,4503.205078,4378.077148,4236.410156,,,,,,,,,,,,,,,,,,,,,,,,,,,,,,,,,,,,,,,,,,,,,,,,,,,,,,,,,,,,,,,,,,,,,,
1720416077,69,0,4322.307617,4298.077148,4309.871582,4310.897461,4276.666504,4260.897461,4273.205078,4281.666504,4267.820313,4253.846191,4489.743652,4506.153809,4379.358887,4251.025879,,,,,,,,,,,,,,,,,,,,,,,,,,,,,,,,,,,,,,,,,,,,,,,,,,,,,,,,,,,,,,,,,,,,,,
1720416077,70,0,4312.05127,4294.615234,4299.743652,4299.102539,4270.897461,4268.589844,4270.128418,4281.025879,4269.615234,4247.179688,4481.282227,4495.256348,4359.871582,4270,,,,,,,,,,,,,,,,,,,,,,,,,,,,,,,,,,,,,,,,,,,,,,,,,,,,,,,,,,,,,,,,,,,,,,
1720416077,71,0,4299.487305,4292.179688,4292.05127,4299.487305,4258.205078,4261.410156,4254.871582,4268.461426,4262.563965,4231.922852,4469.743652,4472.820313,4348.077148,4283.205078,,,,,,,,,,,,,,,,,,,,,,,,,,,,,,,,,,,,,,,,,,,,,,,,,,,,,,,,,,,,,,,,,,,,,,
1720416077,72,0,4308.717773,4298.461426,4297.179688,4308.974121,4267.436035,4256.922852,4254.487305,4259.871582,4251.666504,4228.205078,4466.410156,4467.307617,4360.384766,4322.563965,,,,,,,,,,,,,,,,,,,,,,,,,,,,,,,,,,,,,,,,,,,,,,,,,,,,,,,,,,,,,,,,,,,,,,
1720416077,73,0,4323.077148,4312.05127,4309.230957,4315,4281.922852,4261.410156,4263.077148,4261.666504,4247.94873,4241.282227,4464.487305,4484.743652,4368.846191,4398.077148,,,,,,,,,,,,,,,,,,,,,,,,,,,,,,,,,,,,,,,,,,,,,,,,,,,,,,,,,,,,,,,,,,,,,,
1720416077,74,0,4322.436035,4311.922852,4309.358887,4309.230957,4280.641113,4263.461426,4262.05127,4266.153809,4255.641113,4247.820313,4462.05127,4492.94873,4361.282227,4459.230957,,,,,,,,,,,,,,,,,,,,,,,,,,,,,,,,,,,,,,,,,,,,,,,,,,,,,,,,,,,,,,,,,,,,,,
1720416077,75,0,4315.256348,4298.589844,4301.794922,4299.743652,4277.692383,4261.922852,4260.256348,4269.743652,4261.666504,4241.153809,4465.769043,4479.743652,4359.358887,4487.94873,,,,,,,,,,,,,,,,,,,,,,,,,,,,,,,,,,,,,,,,,,,,,,,,,,,,,,,,,,,,,,,,,,,,,,
1720416077,76,0,4310.641113,4293.846191,4305,4297.692383,4280.512695,4263.461426,4265.256348,4275.641113,4264.615234,4243.333496,4476.025879,4477.692383,4363.589844,4523.333496,,,,,,,,,,,,,,,,,,,,,,,,,,,,,,,,,,,,,,,,,,,,,,,,,,,,,,,,,,,,,,,,,,,,,,
1720416077,77,0,4310.256348,4298.077148,4307.692383,4298.333496,4278.717773,4263.589844,4267.05127,4276.794922,4266.410156,4251.538574,4480.512695,4489.871582,4365.256348,4570.384766,,,,,,,,,,,,,,,,,,,,,,,,,,,,,,,,,,,,,,,,,,,,,,,,,,,,,,,,,,,,,,,,,,,,,,
1720416077,78,0,4311.410156,4300.641113,4305.128418,4298.589844,4276.538574,4261.538574,4263.589844,4269.358887,4256.538574,4248.205078,4477.436035,4482.94873,4369.358887,4588.846191,,,,,,,,,,,,,,,,,,,,,,,,,,,,,,,,,,,,,,,,,,,,,,,,,,,,,,,,,,,,,,,,,,,,,,
1720416077,79,0,4314.102539,4306.282227,4310.384766,4304.102539,4284.102539,4262.820313,4266.410156,4270.256348,4249.102539,4242.436035,4484.102539,4476.666504,4372.563965,4600.769043,1.268925,1.740473,0.513108,0.390722,0.292008,1.517484,1.971997,0.62032,0.377236,0.335382,1.098961,2.166071,0.964571,0.798323,0.338578,1.377619,1.704796,0.869108,0.650689,0.394371,0.493641,0.454198,0.346872,0.327439,0.433101,0.365017,1.294826,0.171605,0.205388,0.182878,0.831259,1.503715,0.164723,0.197981,0.200276,0.622615,0.303729,0.360986,0.445971,0.232212,0.31548,0.841808,0.450973,0.473862,0.260225,0.547465,0.659441,1.240018,0.644644,0.422532,0.981167,1.259956,1.629946,1.222462,0.827353,1.766163,2.208022,1.521623,1.316884,0.800971,0.815592,1.408205,1.692759,1.041808,0.545531,88.217239,8.733283,2.665135,1.141857,0.600993
1720416077,80,0,4317.563965,4314.230957,4317.820313,4312.692383,4296.282227,4264.615234,4275.897461,4279.871582,4261.922852,4251.282227,4497.436035,4491.666504,4375,4634.230957,,,,,,,,,,,,,,,,,,,,,,,,,,,,,,,,,,,,,,,,,,,,,,,,,,,,,,,,,,,,,,,,,,,,,,
1720416077,81,0,4313.974121,4314.871582,4314.102539,4311.282227,4295.128418,4264.615234,4274.615234,4282.692383,4277.94873,4264.487305,4495,4496.410156,4372.692383,4639.358887,,,,,,,,,,,,,,,,,,,,,,,,,,,,,,,,,,,,,,,,,,,,,,,,,,,,,,,,,,,,,,,,,,,,,,
1720416077,82,0,4304.358887,4308.717773,4305.641113,4303.205078,4286.025879,4268.077148,4264.615234,4278.974121,4279.871582,4262.820313,4475.897461,4482.692383,4362.436035,4625,,,,,,,,,,,,,,,,,,,,,,,,,,,,,,,,,,,,,,,,,,,,,,,,,,,,,,,,,,,,,,,,,,,,,,
1720416077,83,0,4298.846191,4303.205078,4300,4294.615234,4284.487305,4270.128418,4256.410156,4270.384766,4272.179688,4251.282227,4461.410156,4466.282227,4356.025879,4619.230957,,,,,,,,,,,,,,,,,,,,,,,,,,,,,,,,,,,,,,,,,,,,,,,,,,,,,,,,,,,,,,,,,,,,,,
1720416077,84,0,4305.641113,4307.692383,4303.846191,4301.025879,4285.128418,4270.256348,4258.717773,4262.94873,4265.256348,4247.820313,4463.846191,4465.769043,4363.205078,4618.717773,,,,,,,,,,,,,,,,,,,,,,,,,,,,,,,,,,,,,,,,,,,,,,,,,,,,,,,,,,,,,,,,,,,,,,
1720416077,85,0,4316.282227,4318.717773,4317.179688,4319.230957,4283.077148,4272.436035,4267.820313,4269.230957,4261.922852,4251.025879,4475.256348,4484.743652,4374.871582,4636.922852,,,,,,,,,,,,,,,,,,,,,,,,,,,,,,,,,,,,,,,,,,,,,,,,,,,,,,,,,,,,,,,,,,,,,,
1720416077,86,0,4318.717773,4319.743652,4324.743652,4321.153809,4289.615234,4275.384766,4269.871582,4277.436035,4258.717773,4246.025879,4483.205078,4495.384766,4376.538574,4649.230957,,,,,,,,,,,,,,,,,,,,,,,,,,,,,,,,,,,,,,,,,,,,,,,,,,,,,,,,,,,,,,,,,,,,,,
1720416077,87,0,4313.333496,4315.256348,4324.230957,4315.256348,4297.692383,4278.846191,4272.692383,4277.94873,4263.077148,4245.897461,4478.974121,4487.692383,4371.025879,4631.666504,,,,,,,,,,,,,,,,,,,,,,,,,,,,,,,,,,,,,,,,,,,,,,,,,,,,,,,,,,,,,,,,,,,,,,
1720416077,88,0,4305.128418,4311.025879,4318.717773,4311.153809,4292.307617,4281.025879,4278.461426,4279.743652,4273.461426,4256.922852,4468.846191,4481.666504,4364.743652,4621.922852,,,,,,,,,,,,,,,,,,,,,,,,,,,,,,,,,,,,,,,,,,,,,,,,,,,,,,,,,,,,,,,,,,,,,,
1720416077,89,0,4293.077148,4294.871582,4304.615234,4297.692383,4279.743652,4276.794922,4272.436035,4274.358887,4268.589844,4259.230957,4459.358887,4476.025879,4356.666504,4620.512695,,,,,,,,,,,,,,,,,,,,,,,,,,,,,,,,,,,,,,,,,,,,,,,,,,,,,,,,,,,,,,,,,,,,,,
1720416077,90,0,4288.846191,4285,4301.282227,4292.94873,4274.743652,4274.230957,4266.153809,4265.512695,4256.666504,4247.436035,4458.589844,4469.871582,4353.974121,4601.410156,,,,,,,,,,,,,,,,,,,,,,,,,,,,,,,,,,,,,,,,,,,,,,,,,,,,,,,,,,,,,,,,,,,,,,
1720416077,91,0,4312.307617,4307.563965,4326.025879,4317.94873,4283.461426,4278.461426,4278.589844,4274.871582,4261.794922,4247.436035,4471.282227,4488.077148,4372.05127,4616.025879,,,,,,,,,,,,,,,,,,,,,,,,,,,,,,,,,,,,,,,,,,,,,,,,,,,,,,,,,,,,,,,,,,,,,,
1720416077,92,0,4332.307617,4327.692383,4346.025879,4334.871582,4298.077148,4274.615234,4287.05127,4287.307617,4268.589844,4259.358887,4485.256348,4512.94873,4389.871582,4649.487305,,,,,,,,,,,,,,,,,,,,,,,,,,,,,,,,,,,,,,,,,,,,,,,,,,,,,,,,,,,,,,,,,,,,,,
1720416077,93,0,4325.512695,4318.077148,4335.512695,4321.538574,4297.05127,4264.358887,4277.436035,4282.563965,4262.692383,4257.179688,4494.871582,4510.384766,4384.230957,4634.487305,,,,,,,,,,,,,,,,,,,,,,,,,,,,,,,,,,,,,,,,,,,,,,,,,,,,,,,,,,,,,,,,,,,,,,
1720416077,94,0,4317.692383,4309.230957,4321.666504,4314.743652,4280.512695,4262.94873,4271.025879,4278.461426,4258.974121,4246.153809,4488.846191,4494.871582,4372.692383,4613.333496,,,,,,,,,,,,,,,,,,,,,,,,,,,,,,,,,,,,,,,,,,,,,,,,,,,,,,,,,,,,,,,,,,,,,,
1720416077,95,0,4315,4309.487305,4319.358887,4316.025879,4279.358887,4271.666504,4270.769043,4278.461426,4260.384766,4245.128418,4465.128418,4480.897461,4368.461426,4605.512695,1.176754,1.755364,0.522146,0.506768,0.29041,1.545071,1.995641,0.617794,0.438459,0.333754,0.897787,2.263329,1.012648,0.944896,0.342904,1.332995,1.800379,0.807165,0.712008,0.38281,0.447252,0.415202,0.351269,0.342655,0.433875,0.390117,1.04442,0.187636,0.215546,0.187756,0.925187,1.359602,0.152114,0.20624,0.184872,0.675431,0.459828,0.319481,0.473857,0.241356,0.3484,0.889312,0.445291,0.47103,0.246049,0.537857,0.964309,1.296268,0.60535,0.440849,0.909674,1.623554,1.75983,1.35302,0.737144,1.532689,2.487801,1.577508,1.549529,0.803048,0.826276,2.001999,1.935857,1.16124,0.568184,87.003242,8.74149,2.914588,1.237565,0.616625
1720416077,96,0,4305.897461,4302.563965,4314.743652,4313.717773,4292.94873,4279.615234,4270.897461,4273.205078,4260.256348,4246.922852,4453.333496,4469.871582,4362.307617,4590,,,,,,,,,,,,,,,,,,,,,,,,,,,,,,,,,,,,,,,,,,,,,,,,,,,,,,,,,,,,,,,,,,,,,,
1720416077,97,0,4299.615234,4295.128418,4307.692383,4317.820313,4287.179688,4278.461426,4266.666504,4271.025879,4259.230957,4244.615234,4454.487305,4465,4351.282227,4576.025879,,,,,,,,,,,,,,,,,,,,,,,,,,,,,,,,,,,,,,,,,,,,,,,,,,,,,,,,,,,,,,,,,,,,,,
1720416077,98,0,4298.589844,4295,4300.384766,4319.871582,4272.820313,4273.333496,4260.641113,4271.538574,4258.461426,4246.153809,4453.077148,4467.307617,4350.641113,4565.512695,,,,,,,,,,,,,,,,,,,,,,,,,,,,,,,,,,,,,,,,,,,,,,,,,,,,,,,,,,,,,,,,,,,,,,
1720416077,99,0,4295.641113,4297.05127,4299.871582,4313.846191,4280.256348,4270,4261.025879,4268.974121,4260,4250,4455.897461,4469.743652,4362.692383,4555,,,,,,,,,,,,,,,,,,,,,,,,,,,,,,,,,,,,,,,,,,,,,,,,,,,,,,,,,,,,,,,,,,,,,,
1720416077,100,0,4291.538574,4290.384766,4303.846191,4304.743652,4291.794922,4267.179688,4261.025879,4264.615234,4264.230957,4249.615234,4455.128418,4467.179688,4365.769043,4540.128418,,,,,,,,,,,,,,,,,,,,,,,,,,,,,,,,,,,,,,,,,,,,,,,,,,,,,,,,,,,,,,,,,,,,,,
1720416077,101,0,4284.871582,4277.05127,4298.974121,4296.282227,4286.153809,4264.358887,4254.487305,4261.666504,4261.666504,4250.512695,4448.461426,4458.205078,4355.256348,4521.025879,,,,,,,,,,,,,,,,,,,,,,,,,,,,,,,,,,,,,,,,,,,,,,,,,,,,,,,,,,,,,,,,,,,,,,
1720416077,102,0,4285,4280.897461,4297.307617,4305.641113,4278.077148,4264.230957,4257.307617,4259.102539,4250.512695,4251.282227,4454.102539,4453.077148,4358.717773,4511.666504,,,,,,,,,,,,,,,,,,,,,,,,,,,,,,,,,,,,,,,,,,,,,,,,,,,,,,,,,,,,,,,,,,,,,,
