Timestamp,EEG.Counter,EEG.Interpolated,EEG.AF3,EEG.F7,EEG.F3,EEG.FC5,EEG.T7,EEG.P7,EEG.O1,EEG.O2,EEG.P8,EEG.T8,EEG.FC6,EEG.F4,EEG.F8,EEG.AF4,POW.AF3.Theta,POW.AF3.Alpha,POW.AF3.BetaL,POW.AF3.BetaH,POW.AF3.Gamma,POW.F7.Theta,POW.F7.Alpha,POW.F7.BetaL,POW.F7.BetaH,POW.F7.Gamma,POW.F3.Theta,POW.F3.Alpha,POW.F3.BetaL,POW.F3.BetaH,POW.F3.Gamma,POW.FC5.Theta,POW.FC5.Alpha,POW.FC5.BetaL,POW.FC5.BetaH,POW.FC5.Gamma,POW.T7.Theta,POW.T7.Alpha,POW.T7.BetaL,POW.T7.BetaH,POW.T7.Gamma,POW.P7.Theta,POW.P7.Alpha,POW.P7.BetaL,POW.P7.BetaH,POW.P7.Gamma,POW.O1.Theta,POW.O1.Alpha,POW.O1.BetaL,POW.O1.BetaH,POW.O1.Gamma,POW.O2.Theta,POW.O2.Alpha,POW.O2.BetaL,POW.O2.BetaH,POW.O2.Gamma,POW.P8.Theta,POW.P8.Alpha,POW.P8.BetaL,POW.P8.BetaH,POW.P8.Gamma,POW.T8.Theta,POW.T8.Alpha,POW.T8.BetaL,POW.T8.BetaH,POW.T8.Gamma,POW.FC6.Theta,POW.FC6.Alpha,POW.FC6.BetaL,POW.FC6.BetaH,POW.FC6.Gamma,POW.F4.Theta,POW.F4.Alpha,POW.F4.BetaL,POW.F4.BetaH,POW.F4.Gamma,POW.F8.Theta,POW.F8.Alpha,POW.F8.BetaL,POW.F8.BetaH,POW.F8.Gamma,POW.AF4.Theta,POW.AF4.Alpha,POW.AF4.BetaL,POW.AF4.BetaH,POW.AF4.Gamma
1720518063,40,0,4269.615234,4264.102539,4275.897461,4280,4257.692383,4261.410156,4263.846191,4255.897461,4258.974121,4266.025879,4453.589844,4410.641113,4348.461426,4400.769043,,,,,,,,,,,,,,,,,,,,,,,,,,,,,,,,,,,,,,,,,,,,,,,,,,,,,,,,,,,,,,,,,,,,,,
1720518063,41,0,4279.230957,4267.05127,4277.820313,4291.410156,4261.153809,4263.589844,4264.358887,4262.692383,4267.436035,4275.897461,4458.333496,4418.717773,4356.025879,4405.641113,,,,,,,,,,,,,,,,,,,,,,,,,,,,,,,,,,,,,,,,,,,,,,,,,,,,,,,,,,,,,,,,,,,,,,
1720518063,42,0,4280.769043,4265.512695,4280.384766,4295.769043,4263.974121,4266.025879,4262.05127,4262.94873,4270.128418,4280.512695,4454.743652,4418.461426,4355.128418,4403.205078,,,,,,,,,,,,,,,,,,,,,,,,,,,,,,,,,,,,,,,,,,,,,,,,,,,,,,,,,,,,,,,,,,,,,,
1720518063,43,0,4271.794922,4262.94873,4280.897461,4287.820313,4261.794922,4262.563965,4259.743652,4255.897461,4268.333496,4279.743652,4453.205078,4413.589844,4353.589844,4401.794922,,,,,,,,,,,,,,,,,,,,,,,,,,,,,,,,,,,,,,,,,,,,,,,,,,,,,,,,,,,,,,,,,,,,,,
1720518063,44,0,4272.436035,4265.384766,4279.615234,4288.461426,4265.897461,4261.794922,4254.871582,4251.538574,4267.307617,4274.487305,4455,4411.282227,4354.615234,4401.410156,,,,,,,,,,,,,,,,,,,,,,,,,,,,,,,,,,,,,,,,,,,,,,,,,,,,,,,,,,,,,,,,,,,,,,
1720518063,45,0,4273.846191,4263.717773,4277.820313,4290.641113,4262.436035,4258.461426,4248.974121,4251.282227,4262.692383,4267.94873,4451.538574,4411.922852,4345.128418,4400.512695,,,,,,,,,,,,,,,,,,,,,,,,,,,,,,,,,,,,,,,,,,,,,,,,,,,,,,,,,,,,,,,,,,,,,,
1720518063,46,0,4264.871582,4256.410156,4275.897461,4283.717773,4251.794922,4253.846191,4246.025879,4248.846191,4251.666504,4263.589844,4442.179688,4405,4340.769043,4396.153809,,,,,,,,,,,,,,,,,,,,,,,,,,,,,,,,,,,,,,,,,,,,,,,,,,,,,,,,,,,,,,,,,,,,,,
1720518063,47,0,4261.282227,4256.794922,4276.410156,4283.974121,4255.512695,4259.102539,4254.487305,4247.05127,4245,4261.410156,4443.077148,4405.384766,4348.846191,4396.282227,,,,,,,,,,,,,,,,,,,,,,,,,,,,,,,,,,,,,,,,,,,,,,,,,,,,,,,,,,,,,,,,,,,,,,
1720518063,48,0,4270.641113,4264.102539,4278.589844,4292.563965,4263.589844,4260.641113,4265,4249.102539,4244.230957,4261.025879,4448.461426,4412.94873,4353.589844,4400.512695,1.163095,2.041353,0.562604,0.340144,0.164921,0.675655,1.241961,0.295096,0.35892,0.198556,0.836839,0.902302,0.166891,0.166868,0.087207,0.309157,0.803372,0.166667,0.252769,0.096008,0.122629,0.324317,0.155309,0.165684,0.105792,0.276562,0.443429,0.173842,0.125204,0.081429,0.344079,0.404211,0.311901,0.292389,0.112006,0.265459,0.186104,0.058027,0.078597,0.079779,0.704429,4.552135,0.29811,0.235575,0.132397,2.341267,1.241507,0.540349,0.25369,0.148949,0.911139,0.423746,0.045748,0.164259,0.123046,1.332047,0.423064,0.374953,0.204616,0.315939,1.08675,0.620228,0.206376,0.437995,0.158562,0.961022,0.838766,0.15764,0.232698,0.230243
1720518063,49,0,4276.666504,4264.358887,4278.077148,4293.205078,4259.487305,4251.922852,4256.666504,4247.94873,4238.077148,4262.307617,4442.94873,4408.717773,4351.282227,4396.794922,,,,,,,,,,,,,,,,,,,,,,,,,,,,,,,,,,,,,,,,,,,,,,,,,,,,,,,,,,,,,,,,,,,,,,
1720518063,50,0,4271.538574,4259.230957,4275.384766,4291.794922,4257.179688,4253.717773,4245.769043,4245,4229.102539,4257.692383,4441.153809,4405.512695,4348.974121,4395.384766,,,,,,,,,,,,,,,,,,,,,,,,,,,,,,,,,,,,,,,,,,,,,,,,,,,,,,,,,,,,,,,,,,,,,,
1720518063,51,0,4266.025879,4262.179688,4277.179688,4294.358887,4261.025879,4263.974121,4255.512695,4247.94873,4233.077148,4252.307617,4445.512695,4411.410156,4347.94873,4401.282227,,,,,,,,,,,,,,,,,,,,,,,,,,,,,,,,,,,,,,,,,,,,,,,,,,,,,,,,,,,,,,,,,,,,,,
1720518063,52,0,4267.820313,4263.333496,4273.461426,4294.871582,4261.794922,4266.666504,4265.641113,4250,4249.358887,4255.128418,4442.436035,4404.358887,4346.282227,4392.179688,,,,,,,,,,,,,,,,,,,,,,,,,,,,,,,,,,,,,,,,,,,,,,,,,,,,,,,,,,,,,,,,,,,,,,
1720518063,53,0,4266.410156,4255.769043,4271.153809,4293.846191,4263.717773,4265.512695,4262.179688,4256.794922,4260.897461,4261.666504,4441.410156,4408.717773,4343.846191,4390.256348,,,,,,,,,,,,,,,,,,,,,,,,,,,,,,,,,,,,,,,,,,,,,,,,,,,,,,,,,,,,,,,,,,,,,,
1720518063,54,0,4265,4256.666504,4278.333496,4295.384766,4262.692383,4266.922852,4266.282227,4266.025879,4265.256348,4265.128418,4449.871582,4426.282227,4348.589844,4403.205078,,,,,,,,,,,,,,,,,,,,,,,,,,,,,,,,,,,,,,,,,,,,,,,,,,,,,,,,,,,,,,,,,,,,,,
1720518063,55,0,4267.820313,4257.692383,4273.205078,4291.538574,4252.05127,4264.358887,4264.487305,4255.512695,4264.615234,4258.717773,4442.94873,4414.487305,4350.384766,4394.871582,,,,,,,,,,,,,,,,,,,,,,,,,,,,,,,,,,,,,,,,,,,,,,,,,,,,,,,,,,,,,,,,,,,,,,
1720518063,56,0,4262.179688,4247.820313,4267.05127,4282.436035,4245,4256.410156,4249.871582,4245.384766,4258.333496,4253.974121,4434.487305,4408.461426,4342.436035,4387.05127,,,,,,,,,,,,,,,,,,,,,,,,,,,,,,,,,,,,,,,,,,,,,,,,,,,,,,,,,,,,,,,,,,,,,,
1720518063,57,0,4265.897461,4250.128418,4278.205078,4286.538574,4254.615234,4256.410156,4251.794922,4254.743652,4258.974121,4260,4447.05127,4419.871582,4351.538574,4397.307617,,,,,,,,,,,,,,,,,,,,,,,,,,,,,,,,,,,,,,,,,,,,,,,,,,,,,,,,,,,,,,,,,,,,,,
1720518063,58,0,4278.589844,4266.153809,4285.256348,4297.307617,4264.871582,4264.487305,4262.94873,4257.94873,4264.743652,4265.512695,4457.179688,4419.230957,4372.179688,4403.846191,,,,,,,,,,,,,,,,,,,,,,,,,,,,,,,,,,,,,,,,,,,,,,,,,,,,,,,,,,,,,,,,,,,,,,
1720518063,59,0,4270.641113,4261.025879,4277.179688,4295.128418,4254.230957,4264.743652,4258.717773,4249.102539,4257.820313,4262.436035,4453.077148,4413.846191,4369.358887,4402.820313,,,,,,,,,,,,,,,,,,,,,,,,,,,,,,,,,,,,,,,,,,,,,,,,,,,,,,,,,,,,,,,,,,,,,,
1720518063,60,0,4260.512695,4246.922852,4274.615234,4288.077148,4244.871582,4259.487305,4252.692383,4247.692383,4246.153809,4257.820313,4446.282227,4410.384766,4354.743652,4399.871582,,,,,,,,,,,,,,,,,,,,,,,,,,,,,,,,,,,,,,,,,,,,,,,,,,,,,,,,,,,,,,,,,,,,,,
1720518063,61,0,4270.897461,4256.282227,4282.179688,4291.153809,4256.922852,4264.615234,4260,4251.666504,4249.230957,4261.538574,4448.333496,4413.846191,4358.974121,4401.410156,,,,,,,,,,,,,,,,,,,,,,,,,,,,,,,,,,,,,,,,,,,,,,,,,,,,,,,,,,,,,,,,,,,,,,
1720518063,62,0,4279.358887,4266.410156,4288.205078,4294.743652,4265.256348,4266.538574,4262.307617,4250.512695,4247.94873,4261.282227,4451.410156,4424.615234,4362.94873,4410.128418,,,,,,,,,,,,,,,,,,,,,,,,,,,,,,,,,,,,,,,,,,,,,,,,,,,,,,,,,,,,,,,,,,,,,,
1720518063,63,0,4276.666504,4264.871582,4291.922852,4295.769043,4259.615234,4259.487305,4255.128418,4246.538574,4232.94873,4254.230957,4451.538574,4425.641113,4358.333496,4415.384766,,,,,,,,,,,,,,,,,,,,,,,,,,,,,,,,,,,,,,,,,,,,,,,,,,,,,,,,,,,,,,,,,,,,,,
1720518063,64,0,4286.538574,4273.333496,4293.333496,4303.461426,4261.410156,4262.307617,4256.666504,4247.820313,4232.563965,4253.589844,4453.717773,4414.743652,4368.846191,4410.384766,1.353125,1.814768,0.590848,0.352315,0.163924,0.721998,1.073832,0.31164,0.399395,0.199432,0.921308,0.707152,0.150074,0.189512,0.092157,0.350473,0.707789,0.16764,0.261047,0.103922,0.124685,0.32595,0.184314,0.193458,0.115886,0.286983,0.379301,0.210979,0.128177,0.089952,0.390028,0.341022,0.305189,0.288443,0.117956,0.257215,0.219386,0.059014,0.077745,0.081587,0.654824,4.246994,0.33637,0.229638,0.140084,3.238389,1.18579,0.648252,0.258276,0.175736,1.034263,0.35366,0.047483,0.182497,0.121836,1.503394,0.327638,0.358135,0.180576,0.337391,1.296366,0.535431,0.252229,0.441778,0.140025,1.046604,0.727302,0.186309,0.243475,0.232831
1720518063,65,0,4296.282227,4281.025879,4295.512695,4306.538574,4265.256348,4266.794922,4261.922852,4255.256348,4247.94873,4263.205078,4461.922852,4427.307617,4381.025879,4419.230957,,,,,,,,,,,,,,,,,,,,,,,,,,,,,,,,,,,,,,,,,,,,,,,,,,,,,,,,,,,,,,,,,,,,,,
1720518063,66,0,4288.333496,4271.538574,4289.615234,4298.205078,4262.820313,4262.563965,4262.05127,4257.05127,4258.974121,4266.410156,4464.615234,4433.717773,4373.333496,4421.538574,,,,,,,,,,,,,,,,,,,,,,,,,,,,,,,,,,,,,,,,,,,,,,,,,,,,,,,,,,,,,,,,,,,,,,
1720518063,67,0,4279.743652,4263.333496,4278.717773,4292.820313,4259.871582,4261.538574,4261.666504,4256.794922,4264.871582,4260.897461,4456.666504,4416.410156,4362.436035,4404.358887,,,,,,,,,,,,,,,,,,,,,,,,,,,,,,,,,,,,,,,,,,,,,,,,,,,,,,,,,,,,,,,,,,,,,,
1720518063,68,0,4278.205078,4263.717773,4280.512695,4293.974121,4253.205078,4263.333496,4263.077148,4260,4267.94873,4263.846191,4454.487305,4416.538574,4361.153809,4403.333496,,,,,,,,,,,,,,,,,,,,,,,,,,,,,,,,,,,,,,,,,,,,,,,,,,,,,,,,,,,,,,,,,,,,,,
1720518063,69,0,4276.666504,4260,4281.025879,4290.128418,4247.436035,4259.358887,4261.153809,4255.641113,4267.563965,4267.820313,4453.717773,4417.820313,4356.666504,4403.077148,,,,,,,,,,,,,,,,,,,,,,,,,,,,,,,,,,,,,,,,,,,,,,,,,,,,,,,,,,,,,,,,,,,,,,
1720518063,70,0,4275.641113,4260.256348,4277.820313,4289.487305,4249.615234,4257.307617,4258.717773,4252.94873,4268.205078,4265.512695,4452.563965,4416.282227,4353.974121,4400.769043,,,,,,,,,,,,,,,,,,,,,,,,,,,,,,,,,,,,,,,,,,,,,,,,,,,,,,,,,,,,,,,,,,,,,,
1720518063,71,0,4277.94873,4266.410156,4280.897461,4295.256348,4251.922852,4260.897461,4261.410156,4255.769043,4264.615234,4261.794922,4456.025879,4420.769043,4360.769043,4407.820313,,,,,,,,,,,,,,,,,,,,,,,,,,,,,,,,,,,,,,,,,,,,,,,,,,,,,,,,,,,,,,,,,,,,,,
1720518064,72,0,4277.05127,4266.794922,4280.384766,4295.384766,4253.589844,4263.461426,4263.717773,4251.794922,4252.692383,4261.410156,4452.820313,4418.333496,4359.358887,4406.666504,,,,,,,,,,,,,,,,,,,,,,,,,,,,,,,,,,,,,,,,,,,,,,,,,,,,,,,,,,,,,,,,,,,,,,
1720518064,73,0,4271.666504,4262.692383,4277.820313,4292.820313,4258.846191,4263.846191,4261.538574,4248.333496,4245.641113,4263.205078,4445,4415.256348,4349.487305,4401.410156,,,,,,,,,,,,,,,,,,,,,,,,,,,,,,,,,,,,,,,,,,,,,,,,,,,,,,,,,,,,,,,,,,,,,,
1720518064,74,0,4271.025879,4260.512695,4278.077148,4292.692383,4259.487305,4261.025879,4253.205078,4249.743652,4245.512695,4257.94873,4444.871582,4412.820313,4343.717773,4400.769043,,,,,,,,,,,,,,,,,,,,,,,,,,,,,,,,,,,,,,,,,,,,,,,,,,,,,,,,,,,,,,,,,,,,,,
1720518064,75,0,4274.230957,4266.410156,4280.128418,4293.974121,4255.384766,4260.897461,4247.563965,4248.717773,4248.333496,4258.205078,4452.436035,4415.641113,4346.922852,4404.487305,,,,,,,,,,,,,,,,,,,,,,,,,,,,,,,,,,,,,,,,,,,,,,,,,,,,,,,,,,,,,,,,,,,,,,
1720518064,76,0,4275.512695,4274.487305,4282.307617,4295.384766,4252.179688,4258.717773,4247.94873,4248.077148,4245.256348,4260.256348,4452.563965,4417.94873,4352.436035,4406.666504,,,,,,,,,,,,,,,,,,,,,,,,,,,,,,,,,,,,,,,,,,,,,,,,,,,,,,,,,,,,,,,,,,,,,,
1720518064,77,0,4275.256348,4274.358887,4279.102539,4295.384766,4249.615234,4251.538574,4248.589844,4246.025879,4237.692383,4253.333496,4447.820313,4408.717773,4351.922852,4406.538574,,,,,,,,,,,,,,,,,,,,,,,,,,,,,,,,,,,,,,,,,,,,,,,,,,,,,,,,,,,,,,,,,,,,,,
1720518064,78,0,4279.230957,4275,4281.153809,4294.871582,4252.179688,4253.846191,4254.743652,4247.307617,4240,4254.487305,4455.897461,4410,4350.512695,4413.333496,,,,,,,,,,,,,,,,,,,,,,,,,,,,,,,,,,,,,,,,,,,,,,,,,,,,,,,,,,,,,,,,,,,,,,
1720518064,79,0,4283.461426,4277.820313,4290.769043,4298.461426,4261.666504,4264.487305,4264.487305,4257.436035,4248.974121,4265.897461,4463.717773,4425.769043,4352.820313,4418.077148,,,,,,,,,,,,,,,,,,,,,,,,,,,,,,,,,,,,,,,,,,,,,,,,,,,,,,,,,,,,,,,,,,,,,,
1720518064,80,0,4277.436035,4272.05127,4286.666504,4298.846191,4265.128418,4267.179688,4267.179688,4259.615234,4253.974121,4266.153809,4451.153809,4414.871582,4354.102539,4399.230957,1.473779,1.565692,0.570217,0.379829,0.16356,0.745224,0.906273,0.309811,0.438715,0.204831,0.926978,0.552985,0.125676,0.219959,0.105807,0.40947,0.60804,0.175126,0.271183,0.118854,0.116428,0.301919,0.213915,0.215164,0.131321,0.287648,0.318802,0.255943,0.128255,0.099794,0.447744,0.297438,0.306542,0.27922,0.1277,0.259408,0.270212,0.064974,0.077267,0.084316,0.626907,4.187629,0.378853,0.240975,0.151595,4.19218,1.079265,0.72304,0.264874,0.214664,1.101039,0.290688,0.057409,0.20608,0.125052,1.583249,0.263377,0.309727,0.16988,0.36826,1.47282,0.502904,0.321311,0.444314,0.130315,1.097569,0.657109,0.208844,0.266187,0.243795
1720518064,81,0,4264.615234,4261.794922,4275.641113,4287.692383,4254.358887,4262.820313,4262.820313,4258.077148,4257.94873,4262.179688,4444.743652,4402.94873,4347.94873,4392.820313,,,,,,,,,,,,,,,,,,,,,,,,,,,,,,,,,,,,,,,,,,,,,,,,,,,,,,,,,,,,,,,,,,,,,,
1720518064,82,0,4258.461426,4257.307617,4276.794922,4277.820313,4242.94873,4262.307617,4258.077148,4260.897461,4260.128418,4265.256348,4451.666504,4412.692383,4339.358887,4407.436035,,,,,,,,,,,,,,,,,,,,,,,,,,,,,,,,,,,,,,,,,,,,,,,,,,,,,,,,,,,,,,,,,,,,,,
1720518064,83,0,4262.692383,4258.589844,4278.333496,4282.307617,4250.512695,4265.641113,4259.615234,4255.512695,4261.922852,4263.077148,4448.974121,4404.358887,4345.384766,4400.769043,,,,,,,,,,,,,,,,,,,,,,,,,,,,,,,,,,,,,,,,,,,,,,,,,,,,,,,,,,,,,,,,,,,,,,
1720518064,84,0,4266.153809,4264.615234,4280.384766,4294.871582,4262.563965,4266.538574,4263.205078,4249.743652,4263.846191,4262.94873,4447.05127,4404.358887,4354.358887,4401.410156,,,,,,,,,,,,,,,,,,,,,,,,,,,,,,,,,,,,,,,,,,,,,,,,,,,,,,,,,,,,,,,,,,,,,,
1720518064,85,0,4265.897461,4270.384766,4282.307617,4297.05127,4255.256348,4262.563965,4257.563965,4250.512695,4251.794922,4264.358887,4451.282227,4416.666504,4346.666504,4408.589844,,,,,,,,,,,,,,,,,,,,,,,,,,,,,,,,,,,,,,,,,,,,,,,,,,,,,,,,,,,,,,,,,,,,,,
1720518064,86,0,4266.410156,4266.282227,4279.358887,4286.794922,4245.128418,4260.128418,4247.94873,4247.307617,4232.05127,4254.487305,4445.641113,4411.282227,4337.179688,4396.410156,,,,,,,,,,,,,,,,,,,,,,,,,,,,,,,,,,,,,,,,,,,,,,,,,,,,,,,,,,,,,,,,,,,,,,
1720518064,87,0,4264.871582,4262.94873,4280.897461,4282.436035,4252.820313,4262.436035,4247.692383,4245.384766,4228.333496,4248.974121,4440.641113,4410.769043,4339.743652,4395.128418,,,,,,,,,,,,,,,,,,,,,,,,,,,,,,,,,,,,,,,,,,,,,,,,,,,,,,,,,,,,,,,,,,,,,,
1720518064,88,0,4267.563965,4271.153809,4281.282227,4290.641113,4264.358887,4262.563965,4254.871582,4246.922852,4230.897461,4247.436035,4443.589844,4413.846191,4343.846191,4403.205078,,,,,,,,,,,,,,,,,,,,,,,,,,,,,,,,,,,,,,,,,,,,,,,,,,,,,,,,,,,,,,,,,,,,,,
1720518064,89,0,4276.538574,4278.589844,4284.743652,4295.512695,4263.333496,4262.05127,4261.794922,4247.563965,4229.487305,4247.94873,4448.077148,4414.230957,4344.871582,4404.871582,,,,,,,,,,,,,,,,,,,,,,,,,,,,,,,,,,,,,,,,,,,,,,,,,,,,,,,,,,,,,,,,,,,,,,
1720518064,90,0,4281.538574,4277.94873,4292.820313,4290.384766,4258.205078,4262.563965,4262.179688,4249.230957,4235.769043,4255.384766,4452.179688,4422.436035,4350.384766,4410.641113,,,,,,,,,,,,,,,,,,,,,,,,,,,,,,,,,,,,,,,,,,,,,,,,,,,,,,,,,,,,,,,,,,,,,,
1720518064,91,0,4282.05127,4277.307617,4288.974121,4287.179688,4257.820313,4262.563965,4260.128418,4251.538574,4246.666504,4257.820313,4453.589844,4426.282227,4355.897461,4417.05127,,,,,,,,,,,,,,,,,,,,,,,,,,,,,,,,,,,,,,,,,,,,,,,,,,,,,,,,,,,,,,,,,,,,,,
1720518064,92,0,4283.589844,4279.487305,4285.769043,4288.846191,4261.666504,4263.333496,4264.487305,4252.94873,4250.641113,4255.128418,4452.94873,4415.256348,4355.256348,4412.94873,,,,,,,,,,,,,,,,,,,,,,,,,,,,,,,,,,,,,,,,,,,,,,,,,,,,,,,,,,,,,,,,,,,,,,
1720518064,93,0,4284.487305,4275,4295,4286.410156,4262.563965,4262.94873,4268.333496,4258.589844,4248.333496,4260.897461,4457.179688,4421.538574,4351.025879,4422.05127,,,,,,,,,,,,,,,,,,,,,,,,,,,,,,,,,,,,,,,,,,,,,,,,,,,,,,,,,,,,,,,,,,,,,,
1720518064,94,0,4278.205078,4267.820313,4289.871582,4282.179688,4257.94873,4264.615234,4265.128418,4261.538574,4248.205078,4262.307617,4456.794922,4425.641113,4345.384766,4422.692383,,,,,,,,,,,,,,,,,,,,,,,,,,,,,,,,,,,,,,,,,,,,,,,,,,,,,,,,,,,,,,,,,,,,,,
1720518064,95,0,4267.179688,4264.871582,4275.897461,4280.384766,4255.897461,4271.666504,4265.256348,4261.538574,4257.179688,4254.871582,4450.641113,4412.820313,4338.846191,4403.205078,,,,,,,,,,,,,,,,,,,,,,,,,,,,,,,,,,,,,,,,,,,,,,,,,,,,,,,,,,,,,,,,,,,,,,
1720518064,96,0,4260.641113,4264.615234,4279.102539,4278.846191,4254.358887,4271.794922,4266.153809,4262.436035,4267.179688,4261.282227,4449.743652,4417.307617,4336.922852,4403.846191,1.519472,1.310201,0.507724,0.413808,0.164616,0.753377,0.763521,0.291145,0.464178,0.215403,0.849233,0.4533,0.101274,0.250267,0.125123,0.463306,0.516629,0.192921,0.278733,0.13866,0.107298,0.264036,0.237622,0.225336,0.149985,0.286148,0.27097,0.295833,0.126679,0.110366,0.512935,0.28928,0.31679,0.267841,0.143094,0.286283,0.343757,0.071833,0.077945,0.089558,0.659823,4.546095,0.417802,0.273908,0.164931,5.000966,0.978038,0.745891,0.273868,0.257595,1.117728,0.247399,0.073998,0.225976,0.132412,1.537313,0.228205,0.245164,0.169407,0.40215,1.614395,0.510665,0.406754,0.440709,0.131085,1.103533,0.616586,0.224175,0.28586,0.260196
1720518064,97,0,4260.128418,4262.563965,4277.94873,4274.102539,4249.487305,4264.230957,4259.743652,4254.230957,4264.487305,4264.743652,4444.487305,4413.077148,4335.512695,4398.333496,,,,,,,,,,,,,,,,,,,,,,,,,,,,,,,,,,,,,,,,,,,,,,,,,,,,,,,,,,,,,,,,,,,,,,
1720518064,98,0,4259.615234,4258.077148,4273.974121,4272.05127,4251.538574,4261.666504,4256.282227,4248.077148,4252.307617,4254.102539,4438.589844,4405.512695,4332.94873,4389.358887,,,,,,,,,,,,,,,,,,,,,,,,,,,,,,,,,,,,,,,,,,,,,,,,,,,,,,,,,,,,,,,,,,,,,,
1720518064,99,0,4264.230957,4264.487305,4279.743652,4278.461426,4260.128418,4265.128418,4260.512695,4250.641113,4244.743652,4256.538574,4446.794922,4412.179688,4337.692383,4402.692383,,,,,,,,,,,,,,,,,,,,,,,,,,,,,,,,,,,,,,,,,,,,,,,,,,,,,,,,,,,,,,,,,,,,,,
1720518064,100,0,4273.717773,4271.794922,4279.358887,4281.282227,4257.307617,4264.102539,4260.769043,4250.256348,4246.410156,4261.794922,4451.153809,4412.94873,4344.487305,4407.692383,,,,,,,,,,,,,,,,,,,,,,,,,,,,,,,,,,,,,,,,,,,,,,,,,,,,,,,,,,,,,,,,,,,,,,
1720518064,101,0,4276.153809,4268.846191,4278.461426,4278.717773,4248.589844,4257.820313,4257.05127,4253.333496,4246.922852,4252.94873,4447.179688,4415.641113,4342.820313,4404.615234,,,,,,,,,,,,,,,,,,,,,,,,,,,,,,,,,,,,,,,,,,,,,,,,,,,,,,,,,,,,,,,,,,,,,,
1720518064,102,0,4274.487305,4269.743652,4284.871582,4282.94873,4250.897461,4257.179688,4257.179688,4255.769043,4237.820313,4246.922852,4445.897461,4418.205078,4341.794922,4406.153809,,,,,,,,,,,,,,,,,,,,,,,,,,,,,,,,,,,,,,,,,,,,,,,,,,,,,,,,,,,,,,,,,,,,,,
1720518064,103,0,4278.974121,4276.666504,4288.333496,4291.410156,4260.512695,4262.436035,4260,4250.128418,4231.153809,4250.897461,4450.256348,4416.922852,4345.256348,4405.256348,,,,,,,,,,,,,,,,,,,,,,,,,,,,,,,,,,,,,,,,,,,,,,,,,,,,,,,,,,,,,,,,,,,,,,
1720518064,104,0,4283.333496,4273.461426,4291.153809,4292.307617,4266.922852,4265.512695,4258.717773,4245.769043,4234.358887,4250.897461,4449.743652,4412.179688,4336.922852,4404.102539,,,,,,,,,,,,,,,,,,,,,,,,,,,,,,,,,,,,,,,,,,,,,,,,,,,,,,,,,,,,,,,,,,,,,,
1720518064,105,0,4278.205078,4266.410156,4295.384766,4289.871582,4264.615234,4264.487305,4256.794922,4249.743652,4239.615234,4251.410156,4442.307617,4407.692383,4327.436035,4402.179688,,,,,,,,,,,,,,,,,,,,,,,,,,,,,,,,,,,,,,,,,,,,,,,,,,,,,,,,,,,,,,,,,,,,,,
1720518064,106,0,4268.333496,4267.05127,4289.487305,4290,4260.512695,4266.282227,4260.384766,4257.563965,4245,4266.538574,4442.436035,4412.307617,4334.871582,4399.102539,,,,,,,,,,,,,,,,,,,,,,,,,,,,,,,,,,,,,,,,,,,,,,,,,,,,,,,,,,,,,,,,,,,,,,
1720518064,107,0,4262.436035,4264.230957,4281.794922,4284.615234,4260,4266.922852,4264.871582,4258.205078,4251.410156,4278.589844,4447.307617,4419.102539,4338.461426,4402.307617,,,,,,,,,,,,,,,,,,,,,,,,,,,,,,,,,,,,,,,,,,,,,,,,,,,,,,,,,,,,,,,,,,,,,,
1720518064,108,0,4259.230957,4258.333496,4276.410156,4277.05127,4259.102539,4263.333496,4263.717773,4248.589844,4250.897461,4271.025879,4442.179688,4399.743652,4326.282227,4394.358887,,,,,,,,,,,,,,,,,,,,,,,,,,,,,,,,,,,,,,,,,,,,,,,,,,,,,,,,,,,,,,,,,,,,,,
1720518064,109,0,4258.077148,4259.358887,4275.641113,4277.436035,4258.846191,4268.461426,4262.307617,4251.922852,4264.358887,4267.436035,4439.487305,4392.94873,4322.820313,4387.179688,,,,,,,,,,,,,,,,,,,,,,,,,,,,,,,,,,,,,,,,,,,,,,,,,,,,,,,,,,,,,,,,,,,,,,
1720518064,110,0,4260.128418,4261.282227,4284.743652,4280.256348,4261.025879,4277.692383,4265.384766,4266.153809,4315.512695,4276.538574,4451.410156,4421.666504,4337.94873,4408.333496,,,,,,,,,,,,,,,,,,,,,,,,,,,,,,,,,,,,,,,,,,,,,,,,,,,,,,,,,,,,,,,,,,,,,,
1720518064,111,0,4260.641113,4261.666504,4285.256348,4279.358887,4262.94873,4274.230957,4266.794922,4257.692383,4358.333496,4270.641113,4455.769043,4413.717773,4341.922852,4410.384766,,,,,,,,,,,,,,,,,,,,,,,,,,,,,,,,,,,,,,,,,,,,,,,,,,,,,,,,,,,,,,,,,,,,,,
1720518064,112,0,4260.897461,4263.333496,4280.512695,4279.358887,4260.128418,4264.615234,4260.641113,4244.743652,4352.563965,4260.769043,4447.307617,4398.846191,4329.871582,4395.384766,1.505038,1.079511,0.421206,0.443321,0.168737,0.749889,0.669209,0.258874,0.468657,0.229969,0.7195,0.404916,0.082424,0.273246,0.145213,0.484954,0.448326,0.217142,0.281129,0.159734,0.103019,0.232245,0.250742,0.224703,0.170762,0.288882,0.240154,0.319724,0.124959,0.119973,0.572905,0.323507,0.337962,0.258209,0.163082,0.326324,0.443488,0.076368,0.080893,0.097329,0.747286,5.353962,0.446183,0.323725,0.177825,5.458641,0.931876,0.71166,0.28176,0.291858,1.102081,0.234208,0.093343,0.236237,0.143038,1.391427,0.219503,0.184431,0.174679,0.42927,1.734582,0.529997,0.488955,0.432007,0.143083,1.070677,0.585654,0.228948,0.292257,0.277367
1720518064,113,0,4260.256348,4261.410156,4281.410156,4279.358887,4256.410156,4260.641113,4250.769043,4248.717773,4328.974121,4260,4442.179688,4412.436035,4322.436035,4399.615234,,,,,,,,,,,,,,,,,,,,,,,,,,,,,,,,,,,,,,,,,,,,,,,,,,,,,,,,,,,,,,,,,,,,,,
1720518064,114,0,4255.897461,4257.692383,4281.282227,4277.436035,4255.256348,4258.974121,4247.307617,4249.743652,4322.94873,4252.05127,4441.410156,4408.333496,4325.256348,4399.615234,,,,,,,,,,,,,,,,,,,,,,,,,,,,,,,,,,,,,,,,,,,,,,,,,,,,,,,,,,,,,,,,,,,,,,
1720518064,115,0,4263.974121,4266.410156,4287.94873,4285.769043,4260.128418,4258.846191,4251.922852,4248.589844,4321.794922,4253.333496,4444.358887,4409.358887,4336.666504,4402.436035,,,,,,,,,,,,,,,,,,,,,,,,,,,,,,,,,,,,,,,,,,,,,,,,,,,,,,,,,,,,,,,,,,,,,,
1720518064,116,0,4277.94873,4274.487305,4293.846191,4295.256348,4265,4262.820313,4252.179688,4249.487305,4314.743652,4262.436035,4448.589844,4420.384766,4344.358887,4410.512695,,,,,,,,,,,,,,,,,,,,,,,,,,,,,,,,,,,,,,,,,,,,,,,,,,,,,,,,,,,,,,,,,,,,,,
1720518064,117,0,4272.05127,4267.05127,4286.794922,4288.717773,4263.205078,4261.153809,4248.333496,4248.205078,4307.563965,4253.589844,4444.487305,4414.487305,4334.871582,4403.077148,,,,,,,,,,,,,,,,,,,,,,,,,,,,,,,,,,,,,,,,,,,,,,,,,,,,,,,,,,,,,,,,,,,,,,
1720518064,118,0,4262.436035,4259.102539,4279.871582,4277.563965,4258.846191,4256.922852,4248.846191,4248.589844,4306.153809,4251.794922,4439.615234,4408.589844,4325.256348,4395.384766,,,,,,,,,,,,,,,,,,,,,,,,,,,,,,,,,,,,,,,,,,,,,,,,,,,,,,,,,,,,,,,,,,,,,,
1720518064,119,0,4263.077148,4260.384766,4283.717773,4278.333496,4256.025879,4256.794922,4250.256348,4248.589844,4314.230957,4265.897461,4443.077148,4411.282227,4327.05127,4396.153809,,,,,,,,,,,,,,,,,,,,,,,,,,,,,,,,,,,,,,,,,,,,,,,,,,,,,,,,,,,,,,,,,,,,,,
1720518064,120,0,4255.128418,4261.794922,4285,4281.025879,4261.538574,4255.897461,4250.128418,4250.897461,4320.128418,4268.077148,4444.743652,4408.846191,4327.307617,4391.538574,,,,,,,,,,,,,,,,,,,,,,,,,,,,,,,,,,,,,,,,,,,,,,,,,,,,,,,,,,,,,,,,,,,,,,
1720518064,121,0,4242.05127,4259.230957,4282.436035,4277.179688,4260.128418,4257.179688,4251.025879,4257.820313,4318.974121,4267.436035,4446.025879,4415.128418,4332.05127,4395.256348,,,,,,,,,,,,,,,,,,,,,,,,,,,,,,,,,,,,,,,,,,,,,,,,,,,,,,,,,,,,,,,,,,,,,,
1720518064,122,0,4241.666504,4259.615234,4281.282227,4276.282227,4249.743652,4261.922852,4250.512695,4253.205078,4323.461426,4277.692383,4447.692383,4413.717773,4344.230957,4399.358887,,,,,,,,,,,,,,,,,,,,,,,,,,,,,,,,,,,,,,,,,,,,,,,,,,,,,,,,,,,,,,,,,,,,,,
1720518064,123,0,4239.615234,4258.077148,4273.717773,4275.641113,4252.94873,4263.461426,4249.230957,4247.307617,4329.102539,4278.461426,4443.461426,4396.538574,4344.743652,4386.538574,,,,,,,,,,,,,,,,,,,,,,,,,,,,,,,,,,,,,,,,,,,,,,,,,,,,,,,,,,,,,,,,,,,,,,
1720518064,124,0,4235,4254.102539,4270.256348,4274.102539,4257.563965,4262.692383,4250,4255.512695,4322.692383,4274.615234,4444.615234,4410.128418,4338.461426,4390.384766,,,,,,,,,,,,,,,,,,,,,,,,,,,,,,,,,,,,,,,,,,,,,,,,,,,,,,,,,,,,,,,,,,,,,,
1720518064,125,0,4238.461426,4252.05127,4271.794922,4274.743652,4249.615234,4262.05127,4250.641113,4253.846191,4312.820313,4273.974121,4447.307617,4416.153809,4341.666504,4395.128418,,,,,,,,,,,,,,,,,,,,,,,,,,,,,,,,,,,,,,,,,,,,,,,,,,,,,,,,,,,,,,,,,,,,,,
1720518064,126,0,4241.153809,4256.282227,4274.615234,4274.871582,4248.589844,4260.384766,4253.461426,4250,4311.410156,4274.487305,4445.897461,4405.512695,4348.461426,4391.282227,,,,,,,,,,,,,,,,,,,,,,,,,,,,,,,,,,,,,,,,,,,,,,,,,,,,,,,,,,,,,,,,,,,,,,
1720518064,127,0,4250.769043,4264.487305,4283.717773,4278.717773,4258.846191,4261.666504,4261.666504,4259.871582,4311.153809,4280.512695,4453.589844,4418.974121,4353.205078,4401.922852,,,,,,,,,,,,,,,,,,,,,,,,,,,,,,,,,,,,,,,,,,,,,,,,,,,,,,,,,,,,,,,,,,,,,,
1720518064,0,0,4262.563965,4267.436035,4286.794922,4284.358887,4261.410156,4263.077148,4263.077148,4261.666504,4305.512695,4281.153809,4458.846191,4425.512695,4355.256348,4405,1.457485,0.915845,0.335095,0.460501,0.175807,0.735126,0.643339,0.221215,0.453839,0.244032,0.583467,0.397055,0.07494,0.284378,0.160765,0.458895,0.413229,0.240488,0.279073,0.177951,0.106523,0.223653,0.252225,0.219914,0.193144,0.291516,0.228069,0.320503,0.124504,0.126369,0.600164,0.395945,0.367511,0.253621,0.183085,0.363934,0.568869,0.077084,0.086887,0.10564,0.847875,6.480255,0.466756,0.379328,0.188479,5.419817,0.959073,0.631611,0.283453,0.305335,1.068862,0.250703,0.112346,0.235413,0.154871,1.189385,0.22347,0.140538,0.181258,0.440308,1.830028,0.533989,0.549236,0.423403,0.163813,1.019358,0.561582,0.22406,0.285245,0.289152
1720518064,1,0,4256.410156,4264.871582,4284.615234,4282.307617,4258.589844,4255.384766,4255.384766,4255.769043,4293.077148,4275.769043,4450.897461,4420.641113,4354.743652,4402.179688,,,,,,,,,,,,,,,,,,,,,,,,,,,,,,,,,,,,,,,,,,,,,,,,,,,,,,,,,,,,,,,,,,,,,,
1720518064,2,0,4249.743652,4262.05127,4283.846191,4277.179688,4258.333496,4249.615234,4248.717773,4254.615234,4282.563965,4273.461426,4445.897461,4417.692383,4353.974121,4400,,,,,,,,,,,,,,,,,,,,,,,,,,,,,,,,,,,,,,,,,,,,,,,,,,,,,,,,,,,,,,,,,,,,,,
1720518064,3,0,4260.128418,4262.692383,4284.230957,4278.846191,4258.846191,4253.974121,4250.641113,4251.410156,4279.743652,4271.410156,4444.871582,4415.897461,4345.769043,4397.179688,,,,,,,,,,,,,,,,,,,,,,,,,,,,,,,,,,,,,,,,,,,,,,,,,,,,,,,,,,,,,,,,,,,,,,
1720518064,4,0,4264.615234,4263.461426,4285.256348,4281.025879,4262.563965,4259.230957,4257.307617,4249.230957,4279.230957,4271.153809,4445.384766,4414.871582,4339.871582,4396.794922,,,,,,,,,,,,,,,,,,,,,,,,,,,,,,,,,,,,,,,,,,,,,,,,,,,,,,,,,,,,,,,,,,,,,,
1720518064,5,0,4252.692383,4263.077148,4284.871582,4279.743652,4262.692383,4263.205078,4257.307617,4251.922852,4280.384766,4274.615234,4449.743652,4413.589844,4347.820313,4393.717773,,,,,,,,,,,,,,,,,,,,,,,,,,,,,,,,,,,,,,,,,,,,,,,,,,,,,,,,,,,,,,,,,,,,,,
1720518064,6,0,4247.179688,4257.563965,4282.179688,4279.487305,4256.410156,4260,4250,4252.436035,4277.307617,4278.461426,4448.717773,4413.333496,4354.230957,4392.563965,,,,,,,,,,,,,,,,,,,,,,,,,,,,,,,,,,,,,,,,,,,,,,,,,,,,,,,,,,,,,,,,,,,,,,
1720518064,7,0,4250.128418,4250.769043,4280,4277.436035,4249.743652,4251.538574,4246.666504,4253.589844,4270.512695,4281.025879,4444.358887,4415.897461,4350.769043,4398.205078,,,,,,,,,,,,,,,,,,,,,,,,,,,,,,,,,,,,,,,,,,,,,,,,,,,,,,,,,,,,,,,,,,,,,,
1720518064,8,0,4251.410156,4254.358887,4275.512695,4275.384766,4248.333496,4254.871582,4247.563965,4253.205078,4263.333496,4281.794922,4440.897461,4409.102539,4347.05127,4390,,,,,,,,,,,,,,,,,,,,,,,,,,,,,,,,,,,,,,,,,,,,,,,,,,,,,,,,,,,,,,,,,,,,,,
1720518064,9,0,4245.256348,4255.897461,4267.563965,4275.384766,4251.666504,4259.615234,4246.538574,4248.589844,4243.717773,4278.846191,4432.692383,4398.205078,4345.641113,4375.769043,,,,,,,,,,,,,,,,,,,,,,,,,,,,,,,,,,,,,,,,,,,,,,,,,,,,,,,,,,,,,,,,,,,,,,
1720518064,10,0,4238.333496,4247.94873,4268.205078,4275.512695,4248.205078,4251.538574,4245.641113,4250.512695,4217.436035,4280,4429.871582,4409.230957,4341.922852,4387.179688,,,,,,,,,,,,,,,,,,,,,,,,,,,,,,,,,,,,,,,,,,,,,,,,,,,,,,,,,,,,,,,,,,,,,,
1720518064,11,0,4241.538574,4246.153809,4268.077148,4275,4243.589844,4247.179688,4245.384766,4248.717773,4210.256348,4275.384766,4425.641113,4406.922852,4333.205078,4386.666504,,,,,,,,,,,,,,,,,,,,,,,,,,,,,,,,,,,,,,,,,,,,,,,,,,,,,,,,,,,,,,,,,,,,,,
1720518064,12,0,4244.358887,4250.384766,4265.256348,4273.461426,4246.025879,4251.153809,4244.871582,4246.922852,4215.897461,4266.922852,4419.871582,4397.94873,4325.641113,4376.025879,,,,,,,,,,,,,,,,,,,,,,,,,,,,,,,,,,,,,,,,,,,,,,,,,,,,,,,,,,,,,,,,,,,,,,
1720518064,13,0,4241.794922,4248.333496,4268.077148,4272.563965,4243.974121,4248.589844,4245.384766,4252.05127,4210.512695,4272.05127,4426.922852,4405.641113,4330.897461,4385,,,,,,,,,,,,,,,,,,,,,,,,,,,,,,,,,,,,,,,,,,,,,,,,,,,,,,,,,,,,,,,,,,,,,,
1720518064,14,0,4243.461426,4251.025879,4268.589844,4276.153809,4247.692383,4251.025879,4247.05127,4252.692383,4207.94873,4277.94873,4435.256348,4402.692383,4343.205078,4389.487305,,,,,,,,,,,,,,,,,,,,,,,,,,,,,,,,,,,,,,,,,,,,,,,,,,,,,,,,,,,,,,,,,,,,,,
1720518064,15,0,4251.794922,4259.230957,4270.769043,4280,4256.025879,4261.794922,4254.871582,4254.871582,4214.487305,4281.538574,4437.307617,4406.282227,4348.974121,4398.974121,,,,,,,,,,,,,,,,,,,,,,,,,,,,,,,,,,,,,,,,,,,,,,,,,,,,,,,,,,,,,,,,,,,,,,
1720518064,16,0,4258.333496,4260.641113,4277.179688,4279.230957,4252.692383,4262.436035,4262.563965,4261.025879,4216.282227,4285.641113,4441.794922,4412.820313,4353.333496,4409.615234,1.406599,0.888021,0.264132,0.461894,0.182781,0.704098,0.702963,0.181873,0.426086,0.25112,0.479986,0.427194,0.077757,0.283906,0.167671,0.398841,0.423113,0.254716,0.276188,0.189709,0.113707,0.245822,0.242216,0.219558,0.215767,0.289197,0.231792,0.297435,0.126317,0.127715,0.577385,0.491966,0.396628,0.253421,0.196644,0.377554,0.710099,0.073783,0.0958,0.112106,1.046522,7.705363,0.509243,0.439369,0.198748,4.838338,1.043568,0.525325,0.274058,0.293197,1.017881,0.289693,0.129254,0.226091,0.164836,0.99406,0.232579,0.113286,0.186324,0.431596,1.880957,0.522891,0.577807,0.420979,0.188154,0.968963,0.568564,0.219232,0.273586,0.290462
1720518064,17,0,4262.05127,4262.307617,4281.410156,4282.307617,4250.384766,4257.436035,4262.563965,4263.461426,4216.410156,4287.179688,4446.538574,4409.487305,4360.769043,4408.589844,,,,,,,,,,,,,,,,,,,,,,,,,,,,,,,,,,,,,,,,,,,,,,,,,,,,,,,,,,,,,,,,,,,,,,
1720518064,18,0,4262.307617,4265.128418,4285,4290.641113,4258.077148,4256.538574,4262.307617,4261.538574,4218.846191,4287.05127,4448.717773,4412.94873,4363.461426,4410.512695,,,,,,,,,,,,,,,,,,,,,,,,,,,,,,,,,,,,,,,,,,,,,,,,,,,,,,,,,,,,,,,,,,,,,,
1720518064,19,0,4262.820313,4261.410156,4286.666504,4290.512695,4262.179688,4259.102539,4262.436035,4255.256348,4218.461426,4284.102539,4449.487305,4415.897461,4360.897461,4413.974121,,,,,,,,,,,,,,,,,,,,,,,,,,,,,,,,,,,,,,,,,,,,,,,,,,,,,,,,,,,,,,,,,,,,,,
1720518064,20,0,4262.820313,4256.922852,4283.717773,4282.05127,4258.205078,4260.897461,4258.974121,4252.307617,4214.230957,4283.205078,4444.230957,4412.05127,4359.743652,4410.641113,,,,,,,,,,,,,,,,,,,,,,,,,,,,,,,,,,,,,,,,,,,,,,,,,,,,,,,,,,,,,,,,,,,,,,
1720518064,21,0,4257.179688,4261.153809,4283.205078,4280.384766,4253.846191,4263.205078,4258.461426,4256.794922,4222.563965,4291.666504,4442.179688,4413.461426,4357.179688,4411.025879,,,,,,,,,,,,,,,,,,,,,,,,,,,,,,,,,,,,,,,,,,,,,,,,,,,,,,,,,,,,,,,,,,,,,,
1720518064,22,0,4254.743652,4264.358887,4284.102539,4283.717773,4251.025879,4265,4260.256348,4261.025879,4235.128418,4299.102539,4445.769043,4411.410156,4353.974121,4410.769043,,,,,,,,,,,,,,,,,,,,,,,,,,,,,,,,,,,,,,,,,,,,,,,,,,,,,,,,,,,,,,,,,,,,,,
1720518064,23,0,4257.820313,4260.256348,4278.461426,4279.871582,4249.230957,4264.102539,4258.077148,4259.615234,4234.615234,4296.025879,4441.794922,4401.922852,4355.641113,4403.461426,,,,,,,,,,,,,,,,,,,,,,,,,,,,,,,,,,,,,,,,,,,,,,,,,,,,,,,,,,,,,,,,,,,,,,
1720518064,24,0,4263.077148,4262.307617,4285.256348,4280.256348,4248.077148,4262.692383,4259.871582,4264.615234,4238.077148,4303.333496,4445.641113,4421.666504,4363.846191,4418.717773,,,,,,,,,,,,,,,,,,,,,,,,,,,,,,,,,,,,,,,,,,,,,,,,,,,,,,,,,,,,,,,,,,,,,,
1720518064,25,0,4266.922852,4269.358887,4293.717773,4291.666504,4249.230957,4263.077148,4265.897461,4268.077148,4249.230957,4308.846191,4452.307617,4433.077148,4368.077148,4427.692383,,,,,,,,,,,,,,,,,,,,,,,,,,,,,,,,,,,,,,,,,,,,,,,,,,,,,,,,,,,,,,,,,,,,,,
1720518064,26,0,4263.077148,4263.333496,4284.615234,4291.410156,4250.256348,4263.846191,4265.384766,4263.717773,4244.230957,4297.563965,4446.410156,4419.102539,4361.538574,4412.436035,,,,,,,,,,,,,,,,,,,,,,,,,,,,,,,,,,,,,,,,,,,,,,,,,,,,,,,,,,,,,,,,,,,,,,
1720518064,27,0,4255.897461,4255.128418,4277.692383,4279.615234,4244.871582,4261.025879,4258.974121,4261.282227,4228.717773,4292.436035,4441.666504,4421.153809,4356.282227,4412.307617,,,,,,,,,,,,,,,,,,,,,,,,,,,,,,,,,,,,,,,,,,,,,,,,,,,,,,,,,,,,,,,,,,,,,,
1720518064,28,0,4258.077148,4261.410156,4281.794922,4282.307617,4245.512695,4261.025879,4258.589844,4261.282227,4228.846191,4294.871582,4442.820313,4423.846191,4355.641113,4413.974121,,,,,,,,,,,,,,,,,,,,,,,,,,,,,,,,,,,,,,,,,,,,,,,,,,,,,,,,,,,,,,,,,,,,,,
1720518064,29,0,4264.358887,4267.05127,4283.717773,4290.128418,4251.282227,4263.974121,4263.974121,4261.666504,4231.794922,4295.641113,4446.282227,4423.846191,4357.307617,4412.94873,,,,,,,,,,,,,,,,,,,,,,,,,,,,,,,,,,,,,,,,,,,,,,,,,,,,,,,,,,,,,,,,,,,,,,
1720518064,30,0,4262.05127,4263.205078,4279.743652,4287.179688,4248.461426,4260,4257.94873,4257.307617,4221.153809,4293.589844,4444.487305,4424.743652,4362.436035,4415.384766,,,,,,,,,,,,,,,,,,,,,,,,,,,,,,,,,,,,,,,,,,,,,,,,,,,,,,,,,,,,,,,,,,,,,,
1720518064,31,0,4262.563965,4263.974121,4283.077148,4287.94873,4247.820313,4256.922852,4249.230957,4254.743652,4212.820313,4293.461426,4441.282227,4422.307617,4367.820313,4414.871582,,,,,,,,,,,,,,,,,,,,,,,,,,,,,,,,,,,,,,,,,,,,,,,,,,,,,,,,,,,,,,,,,,,,,,
1720518064,32,0,4268.717773,4265.897461,4292.94873,4292.692383,4251.410156,4259.487305,4254.871582,4260.256348,4220.769043,4297.436035,4450.128418,4426.410156,4371.410156,4418.589844,1.334087,1.060415,0.212737,0.448705,0.18573,0.647021,0.847531,0.141652,0.393831,0.24602,0.423995,0.500321,0.085672,0.276401,0.164194,0.307029,0.483381,0.251786,0.275593,0.19283,0.123873,0.29381,0.221638,0.227806,0.235574,0.277215,0.247595,0.25744,0.131368,0.123528,0.513041,0.592887,0.418391,0.254521,0.198411,0.359089,0.845518,0.069459,0.106307,0.115767,1.528044,8.825879,0.621185,0.517197,0.214608,3.853072,1.160367,0.414119,0.2538,0.260834,0.955599,0.338956,0.144681,0.213143,0.16997,0.847839,0.251934,0.098374,0.188875,0.407991,1.874397,0.514133,0.569767,0.428672,0.210291,0.941826,0.622514,0.222525,0.268131,0.279714
1720518064,33,0,4268.846191,4264.102539,4292.94873,4293.461426,4251.153809,4258.717773,4260.512695,4263.333496,4230.384766,4296.153809,4456.922852,4427.436035,4372.307617,4419.871582,,,,,,,,,,,,,,,,,,,,,,,,,,,,,,,,,,,,,,,,,,,,,,,,,,,,,,,,,,,,,,,,,,,,,,
1720518064,34,0,4267.563965,4267.179688,4287.94873,4293.717773,4251.282227,4257.94873,4259.871582,4262.179688,4235.128418,4296.282227,4450.769043,4426.794922,4368.589844,4416.922852,,,,,,,,,,,,,,,,,,,,,,,,,,,,,,,,,,,,,,,,,,,,,,,,,,,,,,,,,,,,,,,,,,,,,,
1720518064,35,0,4266.538574,4267.179688,4283.461426,4288.846191,4250.897461,4262.820313,4258.461426,4262.563965,4243.333496,4304.487305,4445.256348,4427.563965,4365.769043,4415.897461,,,,,,,,,,,,,,,,,,,,,,,,,,,,,,,,,,,,,,,,,,,,,,,,,,,,,,,,,,,,,,,,,,,,,,
1720518064,36,0,4260,4261.794922,4279.230957,4277.820313,4247.820313,4263.717773,4255.769043,4262.307617,4246.922852,4303.205078,4445,4418.974121,4366.025879,4410.769043,,,,,,,,,,,,,,,,,,,,,,,,,,,,,,,,,,,,,,,,,,,,,,,,,,,,,,,,,,,,,,,,,,,,,,
1720518064,37,0,4259.102539,4260.256348,4278.589844,4278.589844,4245.384766,4261.153809,4254.743652,4261.922852,4246.794922,4297.436035,4444.487305,4417.307617,4360.641113,4404.230957,,,,,,,,,,,,,,,,,,,,,,,,,,,,,,,,,,,,,,,,,,,,,,,,,,,,,,,,,,,,,,,,,,,,,,
1720518064,38,0,4262.05127,4260.256348,4283.461426,4286.666504,4243.974121,4262.179688,4261.153809,4265.641113,4246.282227,4307.436035,4449.102539,4430.512695,4355.384766,4410.897461,,,,,,,,,,,,,,,,,,,,,,,,,,,,,,,,,,,,,,,,,,,,,,,,,,,,,,,,,,,,,,,,,,,,,,
1720518064,39,0,4255.384766,4255.897461,4276.153809,4280.769043,4243.974121,4261.153809,4260.769043,4260.641113,4240.512695,4305.641113,4440.897461,4410.897461,4354.358887,4401.538574,,,,,,,,,,,,,,,,,,,,,,,,,,,,,,,,,,,,,,,,,,,,,,,,,,,,,,,,,,,,,,,,,,,,,,
1720518064,40,0,4250.897461,4257.307617,4272.307617,4277.94873,4246.282227,4260.128418,4251.922852,4257.307617,4238.717773,4292.05127,4432.307617,4398.589844,4353.589844,4391.666504,,,,,,,,,,,,,,,,,,,,,,,,,,,,,,,,,,,,,,,,,,,,,,,,,,,,,,,,,,,,,,,,,,,,,,
1720518064,41,0,4261.794922,4266.538574,4287.820313,4290.256348,4251.153809,4264.102539,4252.05127,4265,4243.846191,4303.717773,4449.871582,4427.820313,4358.846191,4411.153809,,,,,,,,,,,,,,,,,,,,,,,,,,,,,,,,,,,,,,,,,,,,,,,,,,,,,,,,,,,,,,,,,,,,,,
1720518064,42,0,4265.641113,4263.717773,4289.230957,4290.769043,4252.692383,4262.436035,4251.153809,4258.077148,4238.077148,4310.256348,4452.307617,4423.077148,4363.077148,4410.897461,,,,,,,,,,,,,,,,,,,,,,,,,,,,,,,,,,,,,,,,,,,,,,,,,,,,,,,,,,,,,,,,,,,,,,
1720518064,43,0,4255,4256.794922,4278.333496,4283.461426,4249.615234,4258.846191,4250.128418,4252.05127,4226.538574,4296.025879,4436.025879,4404.230957,4358.846191,4401.922852,,,,,,,,,,,,,,,,,,,,,,,,,,,,,,,,,,,,,,,,,,,,,,,,,,,,,,,,,,,,,,,,,,,,,,
1720518064,44,0,4250.256348,4258.461426,4278.974121,4286.794922,4248.974121,4259.358887,4255.512695,4258.974121,4222.05127,4293.846191,4439.487305,4414.743652,4354.743652,4409.871582,,,,,,,,,,,,,,,,,,,,,,,,,,,,,,,,,,,,,,,,,,,,,,,,,,,,,,,,,,,,,,,,,,,,,,
1720518064,45,0,4250.769043,4255.897461,4279.743652,4286.538574,4247.692383,4253.846191,4254.743652,4255.641113,4217.05127,4297.179688,4444.615234,4416.922852,4354.871582,4408.333496,,,,,,,,,,,,,,,,,,,,,,,,,,,,,,,,,,,,,,,,,,,,,,,,,,,,,,,,,,,,,,,,,,,,,,
1720518064,46,0,4248.333496,4249.487305,4273.077148,4276.666504,4243.077148,4247.563965,4246.794922,4250.641113,4217.179688,4296.666504,4437.436035,4412.05127,4354.615234,4401.794922,,,,,,,,,,,,,,,,,,,,,,,,,,,,,,,,,,,,,,,,,,,,,,,,,,,,,,,,,,,,,,,,,,,,,,
1720518064,47,0,4248.589844,4250.769043,4271.794922,4276.538574,4245.512695,4254.615234,4248.461426,4260,4230.769043,4300.512695,4441.025879,4416.794922,4354.230957,4403.846191,,,,,,,,,,,,,,,,,,,,,,,,,,,,,,,,,,,,,,,,,,,,,,,,,,,,,,,,,,,,,,,,,,,,,,
1720518064,48,0,4251.666504,4252.692383,4274.871582,4281.538574,4253.077148,4264.487305,4258.974121,4262.692383,4242.179688,4302.179688,4448.461426,4414.615234,4355.641113,4401.410156,1.241196,1.440222,0.183351,0.422637,0.182505,0.567011,1.0455,0.104689,0.361803,0.227283,0.417465,0.619494,0.0973,0.266843,0.151391,0.222902,0.585587,0.232243,0.276183,0.186783,0.13906,0.357836,0.194613,0.241364,0.247908,0.257061,0.270852,0.211395,0.140744,0.115031,0.444168,0.673085,0.427827,0.253417,0.186526,0.316786,0.94283,0.069433,0.116311,0.116951,2.452085,9.656192,0.852161,0.623124,0.241434,2.75005,1.285183,0.316244,0.228138,0.220325,0.906938,0.384752,0.165361,0.200763,0.168274,0.779607,0.286691,0.09255,0.187579,0.378235,1.826038,0.524821,0.539166,0.445137,0.225246,0.959826,0.715505,0.243152,0.273241,0.259
1720518064,49,0,4248.846191,4248.461426,4275.384766,4278.974121,4250.641113,4261.538574,4257.563965,4259.230957,4245.128418,4305.641113,4445.256348,4414.615234,4355.128418,4397.179688,,,,,,,,,,,,,,,,,,,,,,,,,,,,,,,,,,,,,,,,,,,,,,,,,,,,,,,,,,,,,,,,,,,,,,
1720518064,50,0,4244.102539,4247.820313,4277.307617,4277.05127,4244.102539,4256.410156,4249.358887,4263.077148,4243.846191,4314.358887,4445.512695,4420.512695,4351.538574,4403.077148,,,,,,,,,,,,,,,,,,,,,,,,,,,,,,,,,,,,,,,,,,,,,,,,,,,,,,,,,,,,,,,,,,,,,,
1720518064,51,0,4246.666504,4249.487305,4276.410156,4278.333496,4244.871582,4256.025879,4247.307617,4254.743652,4239.487305,4305.897461,4443.974121,4406.410156,4347.820313,4397.94873,,,,,,,,,,,,,,,,,,,,,,,,,,,,,,,,,,,,,,,,,,,,,,,,,,,,,,,,,,,,,,,,,,,,,,
1720518064,52,0,4247.05127,4248.589844,4277.05127,4278.974121,4246.922852,4252.692383,4248.333496,4247.563965,4233.974121,4292.307617,4439.871582,4404.871582,4346.922852,4398.077148,,,,,,,,,,,,,,,,,,,,,,,,,,,,,,,,,,,,,,,,,,,,,,,,,,,,,,,,,,,,,,,,,,,,,,
1720518064,53,0,4248.717773,4252.436035,4277.94873,4277.820313,4246.666504,4248.077148,4247.05127,4255.384766,4231.794922,4295.512695,4442.692383,4417.436035,4348.461426,4405.256348,,,,,,,,,,,,,,,,,,,,,,,,,,,,,,,,,,,,,,,,,,,,,,,,,,,,,,,,,,,,,,,,,,,,,,
1720518064,54,0,4258.077148,4259.358887,4274.871582,4278.205078,4246.666504,4252.436035,4249.102539,4260,4232.94873,4298.461426,4444.230957,4412.94873,4353.974121,4402.436035,,,,,,,,,,,,,,,,,,,,,,,,,,,,,,,,,,,,,,,,,,,,,,,,,,,,,,,,,,,,,,,,,,,,,,
1720518064,55,0,4266.666504,4262.563965,4280.512695,4284.743652,4247.692383,4261.410156,4260.641113,4261.282227,4235.128418,4294.871582,4445.641113,4413.974121,4360.256348,4409.871582,,,,,,,,,,,,,,,,,,,,,,,,,,,,,,,,,,,,,,,,,,,,,,,,,,,,,,,,,,,,,,,,,,,,,,
1720518064,56,0,4273.974121,4264.743652,4289.102539,4293.461426,4250.384766,4262.307617,4263.333496,4259.871582,4232.94873,4292.563965,4451.025879,4420.256348,4358.205078,4419.358887,,,,,,,,,,,,,,,,,,,,,,,,,,,,,,,,,,,,,,,,,,,,,,,,,,,,,,,,,,,,,,,,,,,,,,
1720518064,57,0,4278.077148,4266.666504,4287.692383,4292.05127,4252.179688,4257.179688,4252.307617,4253.333496,4221.153809,4290.128418,4450.384766,4421.025879,4356.922852,4418.333496,,,,,,,,,,,,,,,,,,,,,,,,,,,,,,,,,,,,,,,,,,,,,,,,,,,,,,,,,,,,,,,,,,,,,,
1720518064,58,0,4273.333496,4265.128418,4280.512695,4283.589844,4249.615234,4255.641113,4244.615234,4248.205078,4212.94873,4286.538574,4442.820313,4414.615234,4359.615234,4408.717773,,,,,,,,,,,,,,,,,,,,,,,,,,,,,,,,,,,,,,,,,,,,,,,,,,,,,,,,,,,,,,,,,,,,,,
1720518064,59,0,4266.538574,4262.820313,4279.615234,4285.641113,4248.333496,4258.077148,4247.820313,4253.461426,4221.153809,4286.410156,4440.641113,4409.230957,4353.846191,4400.897461,,,,,,,,,,,,,,,,,,,,,,,,,,,,,,,,,,,,,,,,,,,,,,,,,,,,,,,,,,,,,,,,,,,,,,
1720518064,60,0,4266.538574,4261.025879,4281.794922,4293.589844,4255.384766,4259.615234,4251.153809,4261.666504,4230.384766,4292.179688,4444.102539,4415.384766,4352.692383,4408.333496,,,,,,,,,,,,,,,,,,,,,,,,,,,,,,,,,,,,,,,,,,,,,,,,,,,,,,,,,,,,,,,,,,,,,,
1720518064,61,0,4271.538574,4265.641113,4282.692383,4293.461426,4258.077148,4260,4249.871582,4263.589844,4235.384766,4300.897461,4450.256348,4422.563965,4363.205078,4418.589844,,,,,,,,,,,,,,,,,,,,,,,,,,,,,,,,,,,,,,,,,,,,,,,,,,,,,,,,,,,,,,,,,,,,,,
1720518064,62,0,4274.615234,4270.641113,4282.307617,4293.205078,4251.282227,4260,4248.077148,4262.563965,4242.563965,4306.922852,4457.307617,4423.333496,4364.487305,4416.922852,,,,,,,,,,,,,,,,,,,,,,,,,,,,,,,,,,,,,,,,,,,,,,,,,,,,,,,,,,,,,,,,,,,,,,
1720518064,63,0,4277.436035,4269.102539,4282.94873,4295.256348,4253.974121,4260.769043,4247.05127,4262.692383,4246.794922,4309.871582,4457.563965,4423.846191,4360.128418,4413.974121,,,,,,,,,,,,,,,,,,,,,,,,,,,,,,,,,,,,,,,,,,,,,,,,,,,,,,,,,,,,,,,,,,,,,,
1720518064,64,0,4279.487305,4271.153809,4284.102539,4292.692383,4264.102539,4265,4251.282227,4263.461426,4247.94873,4310.512695,4456.794922,4425.897461,4368.717773,4418.077148,1.131139,1.954208,0.178236,0.385259,0.173914,0.481784,1.237236,0.077991,0.329697,0.198385,0.458069,0.773628,0.114038,0.258158,0.133234,0.164353,0.706219,0.204477,0.274088,0.173688,0.165121,0.42729,0.166088,0.252202,0.248318,0.238826,0.295945,0.172035,0.1546,0.104464,0.421572,0.70962,0.424018,0.247248,0.163974,0.272383,0.972055,0.081708,0.123701,0.11649,3.868681,10.058116,1.234428,0.751462,0.279298,1.756601,1.404059,0.246528,0.204512,0.184448,0.903719,0.419786,0.201914,0.189925,0.160078,0.790196,0.336413,0.096585,0.181527,0.351454,1.781543,0.563542,0.515912,0.463937,0.229764,1.041208,0.822761,0.287061,0.284462,0.233906
1720518064,65,0,4275,4273.717773,4284.102539,4292.179688,4264.102539,4267.436035,4255.384766,4263.589844,4248.846191,4305.897461,4460.256348,4425.128418,4373.461426,4419.358887,,,,,,,,,,,,,,,,,,,,,,,,,,,,,,,,,,,,,,,,,,,,,,,,,,,,,,,,,,,,,,,,,,,,,,
1720518064,66,0,4264.743652,4266.025879,4285,4294.487305,4258.077148,4266.282227,4253.846191,4266.025879,4241.410156,4298.974121,4455.897461,4428.205078,4361.025879,4418.589844,,,,,,,,,,,,,,,,,,,,,,,,,,,,,,,,,,,,,,,,,,,,,,,,,,,,,,,,,,,,,,,,,,,,,,
1720518064,67,0,4260.128418,4260.256348,4281.153809,4287.436035,4254.487305,4262.307617,4250.256348,4262.436035,4232.307617,4286.666504,4442.563965,4419.871582,4348.205078,4405.128418,,,,,,,,,,,,,,,,,,,,,,,,,,,,,,,,,,,,,,,,,,,,,,,,,,,,,,,,,,,,,,,,,,,,,,
1720518064,68,0,4262.820313,4265.128418,4277.05127,4283.974121,4249.230957,4252.94873,4247.179688,4258.077148,4230.384766,4278.717773,4442.436035,4413.333496,4345.512695,4395.769043,,,,,,,,,,,,,,,,,,,,,,,,,,,,,,,,,,,,,,,,,,,,,,,,,,,,,,,,,,,,,,,,,,,,,,
1720518064,69,0,4264.230957,4267.179688,4283.846191,4290.769043,4247.05127,4248.333496,4246.410156,4264.358887,4225.769043,4286.025879,4454.102539,4429.487305,4350.769043,4412.563965,,,,,,,,,,,,,,,,,,,,,,,,,,,,,,,,,,,,,,,,,,,,,,,,,,,,,,,,,,,,,,,,,,,,,,
1720518064,70,0,4265,4264.102539,4281.538574,4287.307617,4250.897461,4256.025879,4246.410156,4260.384766,4216.410156,4286.922852,4447.820313,4422.179688,4353.333496,4409.743652,,,,,,,,,,,,,,,,,,,,,,,,,,,,,,,,,,,,,,,,,,,,,,,,,,,,,,,,,,,,,,,,,,,,,,
1720518064,71,0,4262.692383,4261.922852,4276.025879,4275.128418,4250.384766,4259.871582,4245.512695,4250.384766,4214.102539,4279.487305,4438.589844,4407.692383,4344.487305,4396.153809,,,,,,,,,,,,,,,,,,,,,,,,,,,,,,,,,,,,,,,,,,,,,,,,,,,,,,,,,,,,,,,,,,,,,,
1720518065,72,0,4261.538574,4262.692383,4281.410156,4277.179688,4251.410156,4259.487305,4247.179688,4258.333496,4226.025879,4288.846191,4447.820313,4416.666504,4343.974121,4403.333496,,,,,,,,,,,,,,,,,,,,,,,,,,,,,,,,,,,,,,,,,,,,,,,,,,,,,,,,,,,,,,,,,,,,,,
1720518065,73,0,4263.717773,4266.282227,4280,4281.282227,4256.794922,4262.692383,4250,4268.717773,4242.05127,4300,4451.153809,4419.230957,4352.692383,4405.897461,,,,,,,,,,,,,,,,,,,,,,,,,,,,,,,,,,,,,,,,,,,,,,,,,,,,,,,,,,,,,,,,,,,,,,
1720518065,74,0,4261.410156,4260.641113,4270.641113,4271.666504,4253.589844,4258.589844,4249.230957,4264.230957,4244.615234,4295.384766,4446.922852,4416.538574,4351.794922,4402.179688,,,,,,,,,,,,,,,,,,,,,,,,,,,,,,,,,,,,,,,,,,,,,,,,,,,,,,,,,,,,,,,,,,,,,,
1720518065,75,0,4261.410156,4257.307617,4272.307617,4269.230957,4246.922852,4248.077148,4246.282227,4261.410156,4237.179688,4294.743652,4451.153809,4419.615234,4351.410156,4403.461426,,,,,,,,,,,,,,,,,,,,,,,,,,,,,,,,,,,,,,,,,,,,,,,,,,,,,,,,,,,,,,,,,,,,,,
1720518065,76,0,4266.153809,4263.589844,4281.282227,4277.94873,4246.666504,4246.922852,4242.563965,4261.025879,4233.077148,4298.846191,4450.128418,4418.846191,4355.384766,4406.025879,,,,,,,,,,,,,,,,,,,,,,,,,,,,,,,,,,,,,,,,,,,,,,,,,,,,,,,,,,,,,,,,,,,,,,
1720518065,77,0,4264.615234,4262.563965,4279.230957,4277.692383,4246.538574,4252.692383,4240.256348,4251.538574,4231.538574,4292.820313,4439.487305,4412.820313,4348.846191,4404.230957,,,,,,,,,,,,,,,,,,,,,,,,,,,,,,,,,,,,,,,,,,,,,,,,,,,,,,,,,,,,,,,,,,,,,,
1720518065,78,0,4262.820313,4258.974121,4274.871582,4275.512695,4251.153809,4258.461426,4245.384766,4246.410156,4233.333496,4291.025879,4442.692383,4415.128418,4346.282227,4404.487305,,,,,,,,,,,,,,,,,,,,,,,,,,,,,,,,,,,,,,,,,,,,,,,,,,,,,,,,,,,,,,,,,,,,,,
1720518065,79,0,4265.897461,4262.94873,4275.512695,4278.974121,4260.384766,4263.974121,4250,4248.974121,4236.410156,4295.256348,4448.846191,4413.205078,4352.436035,4401.922852,,,,,,,,,,,,,,,,,,,,,,,,,,,,,,,,,,,,,,,,,,,,,,,,,,,,,,,,,,,,,,,,,,,,,,
1720518065,80,0,4264.615234,4265,4278.717773,4279.871582,4255.256348,4260.512695,4248.589844,4253.974121,4233.589844,4294.615234,4445.641113,4411.794922,4346.282227,4403.461426,1.043821,2.463875,0.196975,0.339955,0.163203,0.419228,1.357048,0.066784,0.295006,0.166341,0.531762,0.931709,0.137257,0.250553,0.115094,0.135402,0.812885,0.179072,0.264717,0.157609,0.204548,0.493621,0.138388,0.251252,0.234372,0.235844,0.315335,0.14871,0.170838,0.093824,0.471645,0.687896,0.409308,0.23385,0.137445,0.249777,0.920174,0.110455,0.127938,0.115266,5.562244,10.004969,1.719186,0.878134,0.320267,1.122506,1.500367,0.216626,0.189066,0.161638,0.966,0.447368,0.25779,0.179749,0.148751,0.859599,0.390557,0.111199,0.171955,0.335238,1.776223,0.631633,0.520959,0.476798,0.22283,1.177492,0.914849,0.347439,0.291557,0.210933
1720518065,81,0,4262.179688,4263.589844,4278.205078,4279.871582,4243.974121,4252.436035,4249.102539,4257.692383,4232.692383,4294.358887,4445.769043,4414.102539,4341.922852,4405,,,,,,,,,,,,,,,,,,,,,,,,,,,,,,,,,,,,,,,,,,,,,,,,,,,,,,,,,,,,,,,,,,,,,,
1720518065,82,0,4265.641113,4265.128418,4274.102539,4285.641113,4251.922852,4250.512695,4249.358887,4252.94873,4232.820313,4292.307617,4445.384766,4408.333496,4351.410156,4397.436035,,,,,,,,,,,,,,,,,,,,,,,,,,,,,,,,,,,,,,,,,,,,,,,,,,,,,,,,,,,,,,,,,,,,,,
1720518065,83,0,4266.666504,4265.897461,4278.846191,4292.436035,4260.769043,4250.897461,4245.769043,4247.820313,4222.94873,4286.282227,4441.538574,4410,4350.897461,4402.94873,,,,,,,,,,,,,,,,,,,,,,,,,,,,,,,,,,,,,,,,,,,,,,,,,,,,,,,,,,,,,,,,,,,,,,
1720518065,84,0,4263.077148,4263.717773,4280.128418,4291.282227,4251.666504,4249.743652,4245.384766,4248.205078,4215.897461,4282.563965,4438.974121,4410.769043,4341.410156,4404.615234,,,,,,,,,,,,,,,,,,,,,,,,,,,,,,,,,,,,,,,,,,,,,,,,,,,,,,,,,,,,,,,,,,,,,,
1720518065,85,0,4262.820313,4261.410156,4273.333496,4284.230957,4245.384766,4251.025879,4245.641113,4250.384766,4222.436035,4285.512695,4438.589844,4415.256348,4343.333496,4397.94873,,,,,,,,,,,,,,,,,,,,,,,,,,,,,,,,,,,,,,,,,,,,,,,,,,,,,,,,,,,,,,,,,,,,,,
1720518065,86,0,4262.692383,4258.846191,4272.436035,4281.025879,4249.743652,4251.794922,4242.820313,4251.922852,4228.974121,4290.897461,4439.871582,4423.333496,4343.077148,4400.512695,,,,,,,,,,,,,,,,,,,,,,,,,,,,,,,,,,,,,,,,,,,,,,,,,,,,,,,,,,,,,,,,,,,,,,
1720518065,87,0,4260.384766,4258.974121,4273.589844,4282.436035,4250.897461,4251.922852,4242.94873,4257.179688,4231.282227,4293.717773,4440.384766,4420.128418,4336.153809,4399.871582,,,,,,,,,,,,,,,,,,,,,,,,,,,,,,,,,,,,,,,,,,,,,,,,,,,,,,,,,,,,,,,,,,,,,,
1720518065,88,0,4259.358887,4259.743652,4271.538574,4284.871582,4253.333496,4258.205078,4246.410156,4261.153809,4234.358887,4296.282227,4440.128418,4419.615234,4339.615234,4394.487305,,,,,,,,,,,,,,,,,,,,,,,,,,,,,,,,,,,,,,,,,,,,,,,,,,,,,,,,,,,,,,,,,,,,,,
1720518065,89,0,4258.974121,4257.563965,4271.794922,4283.974121,4259.358887,4263.461426,4247.307617,4256.282227,4233.846191,4297.307617,4440,4420.769043,4344.743652,4393.077148,,,,,,,,,,,,,,,,,,,,,,,,,,,,,,,,,,,,,,,,,,,,,,,,,,,,,,,,,,,,,,,,,,,,,,
1720518065,90,0,4260.128418,4259.358887,4275,4282.05127,4258.205078,4263.333496,4248.077148,4256.922852,4232.692383,4296.410156,4438.461426,4417.692383,4343.461426,4398.077148,,,,,,,,,,,,,,,,,,,,,,,,,,,,,,,,,,,,,,,,,,,,,,,,,,,,,,,,,,,,,,,,,,,,,,
1720518065,91,0,4260.641113,4259.615234,4275,4284.358887,4254.615234,4261.538574,4250,4263.461426,4234.487305,4297.692383,4439.358887,4415.384766,4342.05127,4401.922852,,,,,,,,,,,,,,,,,,,,,,,,,,,,,,,,,,,,,,,,,,,,,,,,,,,,,,,,,,,,,,,,,,,,,,
1720518065,92,0,4259.358887,4252.436035,4275.256348,4288.461426,4253.589844,4259.358887,4249.230957,4262.563965,4234.102539,4295.384766,4437.94873,4414.102539,4342.436035,4398.846191,,,,,,,,,,,,,,,,,,,,,,,,,,,,,,,,,,,,,,,,,,,,,,,,,,,,,,,,,,,,,,,,,,,,,,
1720518065,93,0,4259.743652,4251.025879,4276.666504,4288.846191,4247.94873,4260,4246.666504,4256.153809,4231.282227,4286.410156,4430.128418,4413.461426,4339.358887,4393.077148,,,,,,,,,,,,,,,,,,,,,,,,,,,,,,,,,,,,,,,,,,,,,,,,,,,,,,,,,,,,,,,,,,,,,,
1720518065,94,0,4266.794922,4259.615234,4279.487305,4290.512695,4248.974121,4257.307617,4246.410156,4261.410156,4230.897461,4286.153809,4432.94873,4423.589844,4336.025879,4403.077148,,,,,,,,,,,,,,,,,,,,,,,,,,,,,,,,,,,,,,,,,,,,,,,,,,,,,,,,,,,,,,,,,,,,,,
1720518065,95,0,4274.871582,4264.615234,4280.384766,4296.025879,4259.487305,4252.692383,4247.436035,4262.820313,4234.743652,4290.769043,4440.897461,4420.384766,4340.384766,4407.307617,,,,,,,,,,,,,,,,,,,,,,,,,,,,,,,,,,,,,,,,,,,,,,,,,,,,,,,,,,,,,,,,,,,,,,
1720518065,96,0,4280,4262.692383,4281.666504,4295.769043,4261.538574,4254.358887,4246.538574,4251.153809,4232.692383,4284.230957,4435.769043,4408.974121,4343.333496,4397.307617,1.01153,2.813584,0.232471,0.293978,0.153617,0.406578,1.359254,0.071093,0.256636,0.138103,0.615489,1.051402,0.165428,0.24212,0.101708,0.138302,0.876382,0.163074,0.246251,0.143483,0.252012,0.547306,0.113041,0.235367,0.208013,0.25207,0.320447,0.143373,0.187545,0.084566,0.578413,0.611322,0.389603,0.214813,0.114618,0.253713,0.797648,0.152036,0.13116,0.113757,7.091196,9.537544,2.176752,0.968276,0.35078,0.817482,1.560376,0.226111,0.18471,0.153184,1.072302,0.472505,0.326088,0.17048,0.139472,0.946528,0.431511,0.134273,0.162082,0.33261,1.806308,0.714528,0.558288,0.478223,0.206344,1.329282,0.966027,0.410376,0.285824,0.195272
1720518065,97,0,4285.256348,4262.94873,4289.102539,4295.384766,4258.846191,4258.589844,4246.538574,4253.333496,4220.769043,4282.692383,4434.871582,4426.666504,4340.384766,4409.230957,,,,,,,,,,,,,,,,,,,,,,,,,,,,,,,,,,,,,,,,,,,,,,,,,,,,,,,,,,,,,,,,,,,,,,
1720518065,98,0,4284.358887,4265.769043,4283.974121,4297.05127,4260.256348,4256.922852,4245.384766,4255.769043,4213.717773,4281.538574,4436.538574,4424.230957,4338.077148,4410,,,,,,,,,,,,,,,,,,,,,,,,,,,,,,,,,,,,,,,,,,,,,,,,,,,,,,,,,,,,,,,,,,,,,,
1720518065,99,0,4278.717773,4265.897461,4275.512695,4296.025879,4260,4254.871582,4244.102539,4252.307617,4223.077148,4277.563965,4433.333496,4408.974121,4342.820313,4394.358887,,,,,,,,,,,,,,,,,,,,,,,,,,,,,,,,,,,,,,,,,,,,,,,,,,,,,,,,,,,,,,,,,,,,,,
1720518065,100,0,4276.410156,4263.589844,4278.589844,4296.025879,4258.461426,4258.333496,4246.153809,4256.153809,4233.974121,4284.743652,4435.256348,4419.358887,4345.256348,4399.487305,,,,,,,,,,,,,,,,,,,,,,,,,,,,,,,,,,,,,,,,,,,,,,,,,,,,,,,,,,,,,,,,,,,,,,
1720518065,101,0,4277.563965,4261.794922,4277.179688,4295.897461,4259.615234,4262.820313,4247.692383,4258.333496,4236.410156,4290.897461,4435.897461,4417.307617,4343.461426,4406.666504,,,,,,,,,,,,,,,,,,,,,,,,,,,,,,,,,,,,,,,,,,,,,,,,,,,,,,,,,,,,,,,,,,,,,,
1720518065,102,0,4275.512695,4258.974121,4275.512695,4294.615234,4259.487305,4261.282227,4247.563965,4259.615234,4236.922852,4286.794922,4435.128418,4408.589844,4347.179688,4405.384766,,,,,,,,,,,,,,,,,,,,,,,,,,,,,,,,,,,,,,,,,,,,,,,,,,,,,,,,,,,,,,,,,,,,,,
1720518065,103,0,4268.846191,4252.94873,4275.512695,4293.974121,4257.05127,4256.025879,4245.897461,4259.230957,4236.025879,4283.333496,4437.563965,4412.692383,4350.128418,4402.820313,,,,,,,,,,,,,,,,,,,,,,,,,,,,,,,,,,,,,,,,,,,,,,,,,,,,,,,,,,,,,,,,,,,,,,
1720518065,104,0,4266.666504,4253.846191,4275.512695,4293.974121,4255.384766,4258.333496,4244.615234,4255.256348,4233.461426,4283.461426,4438.205078,4416.410156,4345.769043,4401.025879,,,,,,,,,,,,,,,,,,,,,,,,,,,,,,,,,,,,,,,,,,,,,,,,,,,,,,,,,,,,,,,,,,,,,,
1720518065,105,0,4265.769043,4260.256348,4277.307617,4294.615234,4250.641113,4260.256348,4244.487305,4253.461426,4227.820313,4281.153809,4435.512695,4413.077148,4338.974121,4396.282227,,,,,,,,,,,,,,,,,,,,,,,,,,,,,,,,,,,,,,,,,,,,,,,,,,,,,,,,,,,,,,,,,,,,,,
1720518065,106,0,4264.358887,4258.333496,4277.436035,4296.025879,4247.563965,4253.974121,4244.615234,4254.102539,4223.205078,4280.128418,4433.077148,4412.436035,4339.358887,4391.922852,,,,,,,,,,,,,,,,,,,,,,,,,,,,,,,,,,,,,,,,,,,,,,,,,,,,,,,,,,,,,,,,,,,,,,
1720518065,107,0,4269.871582,4257.05127,4279.871582,4296.794922,4255.769043,4257.436035,4246.025879,4255.128418,4228.077148,4282.94873,4434.615234,4412.820313,4347.307617,4394.743652,,,,,,,,,,,,,,,,,,,,,,,,,,,,,,,,,,,,,,,,,,,,,,,,,,,,,,,,,,,,,,,,,,,,,,
1720518065,108,0,4278.974121,4263.589844,4288.333496,4295.384766,4262.820313,4262.05127,4249.615234,4259.358887,4235.512695,4290.384766,4443.333496,4420.897461,4350.256348,4405.256348,,,,,,,,,,,,,,,,,,,,,,,,,,,,,,,,,,,,,,,,,,,,,,,,,,,,,,,,,,,,,,,,,,,,,,
1720518065,109,0,4279.615234,4264.102539,4287.436035,4293.333496,4257.436035,4253.589844,4249.487305,4256.794922,4231.153809,4295.897461,4445.641113,4424.743652,4346.666504,4407.436035,,,,,,,,,,,,,,,,,,,,,,,,,,,,,,,,,,,,,,,,,,,,,,,,,,,,,,,,,,,,,,,,,,,,,,
1720518065,110,0,4277.05127,4261.153809,4278.846191,4296.282227,4255,4250.769043,4244.615234,4248.717773,4223.589844,4289.743652,4436.922852,4411.025879,4344.871582,4397.820313,,,,,,,,,,,,,,,,,,,,,,,,,,,,,,,,,,,,,,,,,,,,,,,,,,,,,,,,,,,,,,,,,,,,,,
1720518065,111,0,4282.563965,4266.410156,4287.563965,4302.692383,4263.974121,4261.025879,4251.922852,4259.358887,4228.205078,4289.615234,4442.307617,4417.820313,4353.846191,4408.461426,,,,,,,,,,,,,,,,,,,,,,,,,,,,,,,,,,,,,,,,,,,,,,,,,,,,,,,,,,,,,,,,,,,,,,
1720518065,112,0,4283.974121,4268.974121,4291.153809,4301.282227,4267.820313,4265.256348,4260.256348,4267.179688,4235,4293.461426,4448.846191,4426.922852,4359.487305,4416.282227,1.080797,2.87777,0.271393,0.258469,0.146119,0.457559,1.233593,0.087567,0.217404,0.117288,0.68856,1.091884,0.193411,0.230595,0.095576,0.184259,0.877044,0.156582,0.220828,0.135034,0.296513,0.577007,0.09251,0.20911,0.17541,0.280686,0.305176,0.15315,0.205152,0.077572,0.690828,0.497275,0.371198,0.195825,0.100406,0.275656,0.634378,0.19704,0.13826,0.1118,7.958109,8.738372,2.469021,0.996255,0.358153,0.754725,1.58515,0.262827,0.190878,0.154227,1.171378,0.493262,0.392647,0.164434,0.136295,1.026792,0.44106,0.16136,0.15547,0.339372,1.829681,0.787162,0.615235,0.465803,0.184284,1.446388,0.960407,0.461101,0.265944,0.188856
1720518065,113,0,4275.641113,4263.077148,4277.94873,4293.205078,4260.641113,4261.410156,4253.717773,4259.615234,4235.512695,4286.922852,4440.897461,4418.333496,4349.102539,4400.897461,,,,,,,,,,,,,,,,,,,,,,,,,,,,,,,,,,,,,,,,,,,,,,,,,,,,,,,,,,,,,,,,,,,,,,
1720518065,114,0,4273.205078,4260.256348,4276.153809,4292.307617,4256.922852,4262.05127,4250.256348,4261.025879,4239.358887,4280.897461,4438.461426,4417.436035,4337.692383,4395.256348,,,,,,,,,,,,,,,,,,,,,,,,,,,,,,,,,,,,,,,,,,,,,,,,,,,,,,,,,,,,,,,,,,,,,,
1720518065,115,0,4278.077148,4262.436035,4285.128418,4295.512695,4261.410156,4265.769043,4258.974121,4264.230957,4247.436035,4284.743652,4443.846191,4422.563965,4342.436035,4402.436035,,,,,,,,,,,,,,,,,,,,,,,,,,,,,,,,,,,,,,,,,,,,,,,,,,,,,,,,,,,,,,,,,,,,,,
1720518065,116,0,4281.410156,4268.589844,4287.307617,4297.692383,4262.307617,4265.641113,4264.102539,4262.307617,4251.025879,4293.589844,4448.333496,4427.563965,4352.436035,4411.922852,,,,,,,,,,,,,,,,,,,,,,,,,,,,,,,,,,,,,,,,,,,,,,,,,,,,,,,,,,,,,,,,,,,,,,
1720518065,117,0,4286.153809,4277.94873,4282.307617,4302.179688,4257.563965,4261.922852,4256.410156,4260.512695,4244.615234,4293.077148,4446.025879,4427.94873,4356.153809,4415.384766,,,,,,,,,,,,,,,,,,,,,,,,,,,,,,,,,,,,,,,,,,,,,,,,,,,,,,,,,,,,,,,,,,,,,,
1720518065,118,0,4289.358887,4275.897461,4283.461426,4304.743652,4259.743652,4261.282227,4251.794922,4260.384766,4233.717773,4285.128418,4442.563965,4428.717773,4356.025879,4413.974121,,,,,,,,,,,,,,,,,,,,,,,,,,,,,,,,,,,,,,,,,,,,,,,,,,,,,,,,,,,,,,,,,,,,,,
1720518065,119,0,4286.153809,4266.282227,4288.205078,4306.794922,4266.025879,4264.487305,4256.794922,4261.794922,4230,4285.384766,4444.230957,4429.871582,4352.820313,4414.230957,,,,,,,,,,,,,,,,,,,,,,,,,,,,,,,,,,,,,,,,,,,,,,,,,,,,,,,,,,,,,,,,,,,,,,
1720518065,120,0,4287.436035,4267.692383,4284.230957,4306.922852,4263.717773,4264.615234,4256.922852,4261.794922,4232.94873,4292.692383,4444.871582,4425.256348,4349.871582,4411.282227,,,,,,,,,,,,,,,,,,,,,,,,,,,,,,,,,,,,,,,,,,,,,,,,,,,,,,,,,,,,,,,,,,,,,,
1720518065,121,0,4292.563965,4270.769043,4280.128418,4299.487305,4257.563965,4261.025879,4250,4259.102539,4232.307617,4291.922852,4441.666504,4418.205078,4347.436035,4406.794922,,,,,,,,,,,,,,,,,,,,,,,,,,,,,,,,,,,,,,,,,,,,,,,,,,,,,,,,,,,,,,,,,,,,,,
1720518065,122,0,4290.769043,4269.230957,4285.897461,4298.333496,4259.487305,4260.512695,4246.025879,4258.717773,4228.974121,4288.717773,4443.846191,4428.333496,4348.717773,4412.820313,,,,,,,,,,,,,,,,,,,,,,,,,,,,,,,,,,,,,,,,,,,,,,,,,,,,,,,,,,,,,,,,,,,,,,
1720518065,123,0,4292.436035,4275,4290.641113,4306.666504,4264.743652,4264.230957,4252.05127,4261.153809,4229.615234,4291.282227,4450.128418,4435,4361.666504,4416.538574,,,,,,,,,,,,,,,,,,,,,,,,,,,,,,,,,,,,,,,,,,,,,,,,,,,,,,,,,,,,,,,,,,,,,,
1720518065,124,0,4296.922852,4278.717773,4287.692383,4307.563965,4263.589844,4266.794922,4256.794922,4261.410156,4235.128418,4285.897461,4447.94873,4420,4369.230957,4406.153809,,,,,,,,,,,,,,,,,,,,,,,,,,,,,,,,,,,,,,,,,,,,,,,,,,,,,,,,,,,,,,,,,,,,,,
1720518065,125,0,4286.794922,4267.307617,4286.794922,4299.358887,4257.307617,4263.333496,4254.615234,4261.922852,4242.307617,4277.436035,4443.333496,4422.05127,4356.922852,4406.282227,,,,,,,,,,,,,,,,,,,,,,,,,,,,,,,,,,,,,,,,,,,,,,,,,,,,,,,,,,,,,,,,,,,,,,
1720518065,126,0,4275.897461,4260.384766,4283.589844,4294.358887,4257.307617,4263.205078,4254.615234,4262.179688,4249.743652,4278.205078,4442.94873,4422.436035,4348.333496,4404.358887,,,,,,,,,,,,,,,,,,,,,,,,,,,,,,,,,,,,,,,,,,,,,,,,,,,,,,,,,,,,,,,,,,,,,,
1720518065,127,0,4278.333496,4265.384766,4279.487305,4297.179688,4262.820313,4272.820313,4258.205078,4262.820313,4258.461426,4281.922852,4441.153809,4413.461426,4353.077148,4397.05127,,,,,,,,,,,,,,,,,,,,,,,,,,,,,,,,,,,,,,,,,,,,,,,,,,,,,,,,,,,,,,,,,,,,,,
1720518065,0,0,4280.128418,4265.128418,4282.563965,4301.153809,4264.102539,4276.410156,4263.077148,4265.769043,4265.512695,4283.974121,4442.94873,4420.769043,4352.307617,4403.589844,1.246805,2.628535,0.300272,0.241547,0.138872,0.558357,1.015191,0.110245,0.182087,0.103777,0.728527,1.035846,0.214089,0.213953,0.096365,0.29416,0.814807,0.155219,0.193683,0.133296,0.331452,0.575454,0.08199,0.182566,0.144555,0.31082,0.274821,0.176913,0.225819,0.072993,0.752247,0.372536,0.359056,0.182998,0.095258,0.305833,0.470431,0.234447,0.153599,0.10904,7.89234,7.744693,2.502094,0.956534,0.337016,0.748219,1.592523,0.311268,0.203897,0.157836,1.200681,0.507339,0.439148,0.163756,0.140309,1.067426,0.416444,0.186597,0.152707,0.347292,1.800139,0.829508,0.66538,0.438355,0.161777,1.497589,0.901254,0.487604,0.237966,0.19079
1720518065,1,0,4278.077148,4261.025879,4283.846191,4300.128418,4262.436035,4267.820313,4260.256348,4262.820313,4259.743652,4279.871582,4445.512695,4421.410156,4350.384766,4401.922852,,,,,,,,,,,,,,,,,,,,,,,,,,,,,,,,,,,,,,,,,,,,,,,,,,,,,,,,,,,,,,,,,,,,,,
1720518065,2,0,4282.563965,4261.922852,4283.461426,4300.897461,4261.282227,4264.102539,4253.717773,4258.846191,4249.743652,4276.410156,4445.769043,4421.538574,4352.307617,4398.974121,,,,,,,,,,,,,,,,,,,,,,,,,,,,,,,,,,,,,,,,,,,,,,,,,,,,,,,,,,,,,,,,,,,,,,
1720518065,3,0,4289.871582,4265,4285,4307.179688,4260.897461,4267.436035,4254.102539,4261.410156,4249.743652,4278.589844,4445.641113,4432.05127,4349.230957,4405.769043,,,,,,,,,,,,,,,,,,,,,,,,,,,,,,,,,,,,,,,,,,,,,,,,,,,,,,,,,,,,,,,,,,,,,,
1720518065,4,0,4293.589844,4265.256348,4285.512695,4309.487305,4261.922852,4266.922852,4256.410156,4261.282227,4251.282227,4276.025879,4445.897461,4434.102539,4349.358887,4407.05127,,,,,,,,,,,,,,,,,,,,,,,,,,,,,,,,,,,,,,,,,,,,,,,,,,,,,,,,,,,,,,,,,,,,,,
1720518065,5,0,4290.384766,4264.102539,4283.846191,4306.410156,4262.05127,4265,4253.589844,4259.487305,4248.205078,4271.666504,4447.179688,4428.717773,4354.230957,4404.230957,,,,,,,,,,,,,,,,,,,,,,,,,,,,,,,,,,,,,,,,,,,,,,,,,,,,,,,,,,,,,,,,,,,,,,
1720518065,6,0,4285.256348,4263.846191,4283.589844,4304.230957,4261.025879,4265.512695,4248.333496,4262.307617,4248.717773,4273.846191,4447.436035,4427.94873,4351.153809,4403.589844,,,,,,,,,,,,,,,,,,,,,,,,,,,,,,,,,,,,,,,,,,,,,,,,,,,,,,,,,,,,,,,,,,,,,,
1720518065,7,0,4286.666504,4265.128418,4285.384766,4304.871582,4260.897461,4264.487305,4249.102539,4263.717773,4250.512695,4279.102539,4447.692383,4430.512695,4347.692383,4404.102539,,,,,,,,,,,,,,,,,,,,,,,,,,,,,,,,,,,,,,,,,,,,,,,,,,,,,,,,,,,,,,,,,,,,,,
1720518065,8,0,4287.307617,4264.615234,4285.769043,4303.717773,4262.179688,4262.94873,4249.487305,4262.307617,4249.102539,4277.94873,4445.897461,4432.436035,4349.615234,4406.025879,,,,,,,,,,,,,,,,,,,,,,,,,,,,,,,,,,,,,,,,,,,,,,,,,,,,,,,,,,,,,,,,,,,,,,
1720518065,9,0,4282.436035,4261.153809,4282.94873,4298.205078,4262.179688,4259.487305,4246.922852,4262.692383,4246.410156,4270.641113,4443.333496,4428.589844,4349.871582,4406.538574,,,,,,,,,,,,,,,,,,,,,,,,,,,,,,,,,,,,,,,,,,,,,,,,,,,,,,,,,,,,,,,,,,,,,,
1720518065,10,0,4280.897461,4264.743652,4278.717773,4300,4258.461426,4255.384766,4244.102539,4262.563965,4242.692383,4269.615234,4443.077148,4420.384766,4351.153809,4400.384766,,,,,,,,,,,,,,,,,,,,,,,,,,,,,,,,,,,,,,,,,,,,,,,,,,,,,,,,,,,,,,,,,,,,,,
1720518065,11,0,4284.102539,4270,4282.05127,4304.743652,4255.897461,4259.487305,4247.307617,4263.461426,4240.384766,4277.05127,4443.717773,4432.307617,4352.05127,4406.794922,,,,,,,,,,,,,,,,,,,,,,,,,,,,,,,,,,,,,,,,,,,,,,,,,,,,,,,,,,,,,,,,,,,,,,
1720518065,12,0,4277.563965,4265.769043,4279.615234,4300.256348,4260,4267.307617,4258.077148,4264.102539,4243.461426,4274.487305,4441.153809,4435.769043,4340.256348,4406.153809,,,,,,,,,,,,,,,,,,,,,,,,,,,,,,,,,,,,,,,,,,,,,,,,,,,,,,,,,,,,,,,,,,,,,,
1720518065,13,0,4263.333496,4258.205078,4271.666504,4297.179688,4264.230957,4267.05127,4262.05127,4261.794922,4245.769043,4262.436035,4437.692383,4419.358887,4330.897461,4387.436035,,,,,,,,,,,,,,,,,,,,,,,,,,,,,,,,,,,,,,,,,,,,,,,,,,,,,,,,,,,,,,,,,,,,,,
1720518065,14,0,4263.589844,4261.153809,4275.897461,4303.846191,4263.974121,4268.077148,4261.153809,4263.846191,4245.256348,4265,4446.922852,4426.666504,4342.05127,4392.436035,,,,,,,,,,,,,,,,,,,,,,,,,,,,,,,,,,,,,,,,,,,,,,,,,,,,,,,,,,,,,,,,,,,,,,
1720518065,15,0,4276.410156,4269.871582,4281.410156,4307.307617,4264.230957,4273.717773,4263.717773,4265.384766,4244.487305,4269.358887,4452.94873,4435.384766,4353.333496,4402.820313,,,,,,,,,,,,,,,,,,,,,,,,,,,,,,,,,,,,,,,,,,,,,,,,,,,,,,,,,,,,,,,,,,,,,,
1720518065,16,0,4278.461426,4270.256348,4277.692383,4306.025879,4265.384766,4270,4260.512695,4262.820313,4235.769043,4263.077148,4444.743652,4428.205078,4346.153809,4395.769043,1.480839,2.152959,0.31021,0.242551,0.128671,0.677294,0.76607,0.132461,0.154245,0.094984,0.721121,0.899654,0.220077,0.191673,0.101825,0.473709,0.706547,0.150881,0.169921,0.135492,0.35298,0.540786,0.086685,0.165982,0.122349,0.330837,0.243209,0.21264,0.25049,0.070473,0.727984,0.263861,0.351797,0.178045,0.095945,0.338482,0.339557,0.256289,0.177683,0.105699,6.89038,6.699348,2.259813,0.867786,0.292832,0.717237,1.607111,0.361296,0.218684,0.15975,1.128081,0.506223,0.450302,0.167026,0.149292,1.065992,0.367275,0.204152,0.150894,0.349176,1.67089,0.826547,0.681431,0.396845,0.14351,1.471151,0.798859,0.483974,0.211236,0.198721
1720518065,17,0,4278.333496,4271.666504,4276.666504,4308.717773,4264.871582,4264.615234,4256.538574,4263.205078,4229.743652,4260.128418,4446.153809,4427.436035,4342.820313,4395.128418,,,,,,,,,,,,,,,,,,,,,,,,,,,,,,,,,,,,,,,,,,,,,,,,,,,,,,,,,,,,,,,,,,,,,,
1720518065,18,0,4290,4280.512695,4285.897461,4313.461426,4265,4267.94873,4261.666504,4265.897461,4237.94873,4263.974121,4456.666504,4436.410156,4353.077148,4407.563965,,,,,,,,,,,,,,,,,,,,,,,,,,,,,,,,,,,,,,,,,,,,,,,,,,,,,,,,,,,,,,,,,,,,,,
1720518065,19,0,4291.025879,4282.179688,4290.256348,4314.487305,4266.538574,4266.922852,4260.897461,4265,4240.128418,4268.461426,4454.358887,4440.256348,4352.692383,4414.102539,,,,,,,,,,,,,,,,,,,,,,,,,,,,,,,,,,,,,,,,,,,,,,,,,,,,,,,,,,,,,,,,,,,,,,
1720518065,20,0,4283.846191,4276.538574,4283.461426,4310.512695,4267.307617,4262.05127,4249.615234,4262.436035,4231.025879,4266.410156,4443.589844,4432.307617,4343.589844,4406.922852,,,,,,,,,,,,,,,,,,,,,,,,,,,,,,,,,,,,,,,,,,,,,,,,,,,,,,,,,,,,,,,,,,,,,,
1720518065,21,0,4284.615234,4276.282227,4279.102539,4308.077148,4265.641113,4262.179688,4246.025879,4261.922852,4228.589844,4262.179688,4440,4425.769043,4338.846191,4401.922852,,,,,,,,,,,,,,,,,,,,,,,,,,,,,,,,,,,,,,,,,,,,,,,,,,,,,,,,,,,,,,,,,,,,,,
1720518065,22,0,4284.871582,4278.461426,4285.897461,4310.384766,4262.820313,4260.384766,4249.102539,4262.436035,4231.538574,4262.820313,4446.794922,4433.205078,4338.846191,4406.794922,,,,,,,,,,,,,,,,,,,,,,,,,,,,,,,,,,,,,,,,,,,,,,,,,,,,,,,,,,,,,,,,,,,,,,
1720518065,23,0,4283.717773,4278.589844,4292.563965,4311.153809,4264.743652,4259.230957,4250.769043,4262.820313,4233.461426,4264.102539,4455.256348,4439.487305,4345,4410.256348,,,,,,,,,,,,,,,,,,,,,,,,,,,,,,,,,,,,,,,,,,,,,,,,,,,,,,,,,,,,,,,,,,,,,,
1720518065,24,0,4289.487305,4278.077148,4288.205078,4310.641113,4266.410156,4264.230957,4255.512695,4263.205078,4237.179688,4260.512695,4451.153809,4431.410156,4350.384766,4405.769043,,,,,,,,,,,,,,,,,,,,,,,,,,,,,,,,,,,,,,,,,,,,,,,,,,,,,,,,,,,,,,,,,,,,,,
1720518065,25,0,4292.179688,4274.615234,4287.563965,4310.769043,4265,4267.436035,4264.358887,4265.256348,4243.205078,4261.153809,4450.128418,4436.666504,4349.230957,4413.205078,,,,,,,,,,,,,,,,,,,,,,,,,,,,,,,,,,,,,,,,,,,,,,,,,,,,,,,,,,,,,,,,,,,,,,
1720518065,26,0,4285.128418,4272.94873,4287.94873,4309.487305,4267.563965,4267.179688,4266.794922,4264.230957,4249.102539,4265.128418,4453.846191,4435.641113,4344.487305,4412.307617,,,,,,,,,,,,,,,,,,,,,,,,,,,,,,,,,,,,,,,,,,,,,,,,,,,,,,,,,,,,,,,,,,,,,,
1720518065,27,0,4282.563965,4276.025879,4283.846191,4312.05127,4269.871582,4267.307617,4261.794922,4260.256348,4252.05127,4264.230957,4449.358887,4421.666504,4348.333496,4395.769043,,,,,,,,,,,,,,,,,,,,,,,,,,,,,,,,,,,,,,,,,,,,,,,,,,,,,,,,,,,,,,,,,,,,,,
1720518065,28,0,4288.077148,4278.461426,4285.897461,4315.897461,4265.512695,4266.025879,4260.512695,4262.820313,4250.512695,4265.384766,4453.077148,4428.846191,4351.410156,4401.538574,,,,,,,,,,,,,,,,,,,,,,,,,,,,,,,,,,,,,,,,,,,,,,,,,,,,,,,,,,,,,,,,,,,,,,
1720518065,29,0,4291.922852,4278.589844,4285.256348,4315.128418,4262.05127,4262.05127,4258.333496,4261.410156,4245.256348,4260.641113,4459.102539,4431.025879,4348.461426,4408.461426,,,,,,,,,,,,,,,,,,,,,,,,,,,,,,,,,,,,,,,,,,,,,,,,,,,,,,,,,,,,,,,,,,,,,,
1720518065,30,0,4284.487305,4276.282227,4282.436035,4320,4265.897461,4260.128418,4252.820313,4261.025879,4241.666504,4251.538574,4455.384766,4427.94873,4349.358887,4404.230957,,,,,,,,,,,,,,,,,,,,,,,,,,,,,,,,,,,,,,,,,,,,,,,,,,,,,,,,,,,,,,,,,,,,,,
1720518065,31,0,4278.846191,4276.153809,4284.743652,4324.358887,4268.205078,4262.436035,4254.743652,4268.077148,4245.128418,4253.717773,4456.538574,4436.153809,4356.794922,4406.410156,,,,,,,,,,,,,,,,,,,,,,,,,,,,,,,,,,,,,,,,,,,,,,,,,,,,,,,,,,,,,,,,,,,,,,
1720518065,32,0,4286.922852,4279.102539,4287.563965,4319.743652,4267.179688,4265.128418,4262.307617,4269.615234,4250.897461,4262.307617,4464.743652,4440.256348,4361.153809,4408.333496,1.728312,1.617386,0.300028,0.253617,0.114083,0.776786,0.548136,0.149063,0.135716,0.088688,0.663395,0.72681,0.208782,0.166013,0.10905,0.69139,0.582287,0.137534,0.152053,0.137353,0.361431,0.479224,0.104974,0.162952,0.112148,0.334515,0.22491,0.250905,0.275167,0.069681,0.626054,0.192248,0.340417,0.175703,0.098117,0.366805,0.256774,0.257888,0.204726,0.102563,5.269171,5.695723,1.812647,0.763515,0.238786,0.645959,1.629308,0.401628,0.229955,0.158254,0.949041,0.48017,0.4235,0.170855,0.158503,1.022373,0.312537,0.210036,0.146781,0.341029,1.447586,0.772386,0.654757,0.350407,0.133208,1.367962,0.668134,0.453161,0.194597,0.209449
1720518065,33,0,4296.410156,4280.384766,4292.307617,4319.487305,4271.153809,4264.358887,4264.615234,4268.333496,4253.077148,4266.666504,4465,4439.615234,4358.333496,4410.769043,,,,,,,,,,,,,,,,,,,,,,,,,,,,,,,,,,,,,,,,,,,,,,,,,,,,,,,,,,,,,,,,,,,,,,
1720518065,34,0,4299.615234,4279.615234,4294.871582,4327.563965,4277.820313,4265,4257.820313,4268.974121,4250.641113,4261.922852,4459.615234,4439.615234,4358.461426,4411.666504,,,,,,,,,,,,,,,,,,,,,,,,,,,,,,,,,,,,,,,,,,,,,,,,,,,,,,,,,,,,,,,,,,,,,,
1720518065,35,0,4297.179688,4281.282227,4288.974121,4327.179688,4275.128418,4259.615234,4250,4263.461426,4243.205078,4250.384766,4457.05127,4430.384766,4354.871582,4405,,,,,,,,,,,,,,,,,,,,,,,,,,,,,,,,,,,,,,,,,,,,,,,,,,,,,,,,,,,,,,,,,,,,,,
1720518065,36,0,4288.461426,4274.358887,4284.743652,4316.153809,4264.743652,4251.153809,4247.820313,4257.436035,4231.153809,4244.487305,4452.05127,4424.487305,4341.538574,4400,,,,,,,,,,,,,,,,,,,,,,,,,,,,,,,,,,,,,,,,,,,,,,,,,,,,,,,,,,,,,,,,,,,,,,
1720518065,37,0,4280.512695,4266.666504,4289.743652,4310.128418,4262.692383,4255.641113,4250.769043,4261.410156,4229.615234,4247.563965,4450.128418,4428.846191,4334.102539,4406.282227,,,,,,,,,,,,,,,,,,,,,,,,,,,,,,,,,,,,,,,,,,,,,,,,,,,,,,,,,,,,,,,,,,,,,,
1720518065,38,0,4281.282227,4272.820313,4287.692383,4312.307617,4267.563965,4264.358887,4250.897461,4262.94873,4242.94873,4248.589844,4451.666504,4420,4339.743652,4402.820313,,,,,,,,,,,,,,,,,,,,,,,,,,,,,,,,,,,,,,,,,,,,,,,,,,,,,,,,,,,,,,,,,,,,,,
1720518065,39,0,4280.897461,4271.410156,4281.410156,4314.871582,4266.794922,4262.94873,4250,4261.538574,4249.487305,4247.563965,4451.153809,4419.358887,4344.102539,4396.538574,,,,,,,,,,,,,,,,,,,,,,,,,,,,,,,,,,,,,,,,,,,,,,,,,,,,,,,,,,,,,,,,,,,,,,
1720518065,40,0,4274.871582,4262.179688,4279.358887,4310.641113,4262.692383,4260.384766,4257.692383,4264.358887,4241.538574,4249.358887,4450,4423.333496,4337.94873,4395.897461,,,,,,,,,,,,,,,,,,,,,,,,,,,,,,,,,,,,,,,,,,,,,,,,,,,,,,,,,,,,,,,,,,,,,,
1720518065,41,0,4274.743652,4267.179688,4277.820313,4308.333496,4262.179688,4263.846191,4261.666504,4262.563965,4237.563965,4253.974121,4449.615234,4415,4337.563965,4391.410156,,,,,,,,,,,,,,,,,,,,,,,,,,,,,,,,,,,,,,,,,,,,,,,,,,,,,,,,,,,,,,,,,,,,,,
1720518065,42,0,4278.846191,4273.589844,4279.615234,4311.922852,4264.230957,4265,4254.102539,4262.436035,4245,4260.641113,4450,4420,4344.871582,4396.410156,,,,,,,,,,,,,,,,,,,,,,,,,,,,,,,,,,,,,,,,,,,,,,,,,,,,,,,,,,,,,,,,,,,,,,
1720518065,43,0,4278.589844,4266.282227,4279.743652,4310.256348,4264.743652,4261.153809,4246.922852,4264.102539,4247.179688,4261.153809,4449.743652,4424.615234,4343.077148,4401.922852,,,,,,,,,,,,,,,,,,,,,,,,,,,,,,,,,,,,,,,,,,,,,,,,,,,,,,,,,,,,,,,,,,,,,,
1720518065,44,0,4278.461426,4264.487305,4280.128418,4308.589844,4265.256348,4260.897461,4254.358887,4264.743652,4246.410156,4258.333496,4455.128418,4423.717773,4341.153809,4400.897461,,,,,,,,,,,,,,,,,,,,,,,,,,,,,,,,,,,,,,,,,,,,,,,,,,,,,,,,,,,,,,,,,,,,,,
1720518065,45,0,4279.487305,4268.717773,4281.282227,4311.794922,4264.487305,4261.410156,4260.384766,4265.128418,4248.846191,4257.179688,4460.128418,4424.871582,4349.871582,4400.897461,,,,,,,,,,,,,,,,,,,,,,,,,,,,,,,,,,,,,,,,,,,,,,,,,,,,,,,,,,,,,,,,,,,,,,
1720518065,46,0,4279.358887,4264.487305,4279.358887,4311.410156,4261.025879,4253.077148,4251.538574,4265.128418,4243.589844,4251.153809,4456.282227,4419.743652,4350.897461,4401.666504,,,,,,,,,,,,,,,,,,,,,,,,,,,,,,,,,,,,,,,,,,,,,,,,,,,,,,,,,,,,,,,,,,,,,,
1720518065,47,0,4280.128418,4266.922852,4281.922852,4310.769043,4261.794922,4248.846191,4250.128418,4264.743652,4230.512695,4249.358887,4457.436035,4417.820313,4348.205078,4404.487305,,,,,,,,,,,,,,,,,,,,,,,,,,,,,,,,,,,,,,,,,,,,,,,,,,,,,,,,,,,,,,,,,,,,,,
1720518065,48,0,4282.179688,4280,4285.641113,4318.333496,4269.487305,4257.436035,4257.05127,4262.94873,4220.769043,4253.333496,4460.256348,4420.384766,4355.769043,4405.769043,1.928565,1.18431,0.27441,0.265834,0.097536,0.834337,0.396201,0.157618,0.128224,0.08421,0.569963,0.563942,0.182052,0.140543,0.115623,0.895056,0.476728,0.115854,0.13997,0.135359,0.359692,0.402355,0.130075,0.169263,0.112374,0.324137,0.230504,0.279693,0.291586,0.070726,0.489471,0.173749,0.31901,0.169273,0.099012,0.388087,0.21752,0.239811,0.225023,0.100031,3.530164,4.816125,1.303713,0.673934,0.189285,0.551564,1.63202,0.423101,0.233989,0.153372,0.713174,0.425787,0.367262,0.172182,0.163023,0.939941,0.271589,0.205984,0.139848,0.32355,1.16002,0.675899,0.58892,0.313502,0.133281,1.21727,0.530624,0.402572,0.192134,0.220224
1720518065,49,0,4282.820313,4279.743652,4284.230957,4321.794922,4269.871582,4256.538574,4250.897461,4262.05127,4213.717773,4249.487305,4455.769043,4417.563965,4353.077148,4404.358887,,,,,,,,,,,,,,,,,,,,,,,,,,,,,,,,,,,,,,,,,,,,,,,,,,,,,,,,,,,,,,,,,,,,,,
1720518065,50,0,4282.692383,4268.333496,4282.307617,4316.666504,4262.563965,4245.256348,4241.922852,4261.153809,4211.666504,4245.512695,4453.717773,4420.384766,4342.05127,4404.102539,,,,,,,,,,,,,,,,,,,,,,,,,,,,,,,,,,,,,,,,,,,,,,,,,,,,,,,,,,,,,,,,,,,,,,
1720518065,51,0,4281.794922,4268.974121,4281.538574,4316.025879,4262.692383,4247.820313,4247.692383,4262.307617,4220,4247.179688,4456.410156,4428.205078,4345.897461,4402.692383,,,,,,,,,,,,,,,,,,,,,,,,,,,,,,,,,,,,,,,,,,,,,,,,,,,,,,,,,,,,,,,,,,,,,,
1720518065,52,0,4281.025879,4274.230957,4277.05127,4317.307617,4265.512695,4252.94873,4251.922852,4263.717773,4232.436035,4248.974121,4456.794922,4422.436035,4351.153809,4397.179688,,,,,,,,,,,,,,,,,,,,,,,,,,,,,,,,,,,,,,,,,,,,,,,,,,,,,,,,,,,,,,,,,,,,,,
1720518065,53,0,4278.846191,4266.922852,4277.436035,4312.307617,4260.256348,4250.384766,4248.974121,4267.05127,4241.922852,4256.538574,4457.307617,4423.846191,4343.717773,4400.512695,,,,,,,,,,,,,,,,,,,,,,,,,,,,,,,,,,,,,,,,,,,,,,,,,,,,,,,,,,,,,,,,,,,,,,
1720518065,54,0,4272.05127,4260.512695,4278.205078,4309.358887,4258.205078,4255.641113,4256.153809,4269.743652,4248.461426,4258.205078,4454.615234,4422.563965,4336.666504,4396.794922,,,,,,,,,,,,,,,,,,,,,,,,,,,,,,,,,,,,,,,,,,,,,,,,,,,,,,,,,,,,,,,,,,,,,,
1720518065,55,0,4267.05127,4264.743652,4271.538574,4311.282227,4261.282227,4264.102539,4263.205078,4267.692383,4247.307617,4248.461426,4449.615234,4408.205078,4336.025879,4383.589844,,,,,,,,,,,,,,,,,,,,,,,,,,,,,,,,,,,,,,,,,,,,,,,,,,,,,,,,,,,,,,,,,,,,,,
1720518065,56,0,4264.615234,4265.384766,4270.512695,4311.794922,4260,4260,4256.153809,4266.410156,4237.94873,4247.179688,4451.282227,4414.358887,4332.692383,4387.179688,,,,,,,,,,,,,,,,,,,,,,,,,,,,,,,,,,,,,,,,,,,,,,,,,,,,,,,,,,,,,,,,,,,,,,
1720518065,57,0,4260.128418,4258.333496,4269.358887,4308.077148,4257.820313,4250.512695,4246.666504,4262.179688,4230.512695,4243.589844,4448.461426,4413.205078,4323.846191,4387.436035,,,,,,,,,,,,,,,,,,,,,,,,,,,,,,,,,,,,,,,,,,,,,,,,,,,,,,,,,,,,,,,,,,,,,,
1720518065,58,0,4263.717773,4258.717773,4268.846191,4306.025879,4256.025879,4248.589844,4247.179688,4261.153809,4229.871582,4237.179688,4441.025879,4403.333496,4323.717773,4383.077148,,,,,,,,,,,,,,,,,,,,,,,,,,,,,,,,,,,,,,,,,,,,,,,,,,,,,,,,,,,,,,,,,,,,,,
1720518065,59,0,4275.512695,4267.179688,4277.820313,4312.94873,4250,4245.384766,4245.128418,4263.077148,4225.384766,4241.153809,4445.641113,4415.512695,4338.717773,4394.487305,,,,,,,,,,,,,,,,,,,,,,,,,,,,,,,,,,,,,,,,,,,,,,,,,,,,,,,,,,,,,,,,,,,,,,
1720518065,60,0,4282.563965,4273.717773,4284.102539,4322.05127,4246.922852,4234.230957,4234.230957,4255.512695,4217.436035,4239.102539,4450.641113,4420.641113,4348.333496,4400.384766,,,,,,,,,,,,,,,,,,,,,,,,,,,,,,,,,,,,,,,,,,,,,,,,,,,,,,,,,,,,,,,,,,,,,,
1720518065,61,0,4286.794922,4275.256348,4285,4325.256348,4252.820313,4231.922852,4230.512695,4251.538574,4211.922852,4236.282227,4449.487305,4417.820313,4346.922852,4401.538574,,,,,,,,,,,,,,,,,,,,,,,,,,,,,,,,,,,,,,,,,,,,,,,,,,,,,,,,,,,,,,,,,,,,,,
1720518065,62,0,4294.615234,4279.358887,4286.282227,4327.563965,4261.794922,4242.820313,4237.436035,4260.512695,4213.974121,4241.025879,4452.179688,4424.358887,4349.358887,4407.05127,,,,,,,,,,,,,,,,,,,,,,,,,,,,,,,,,,,,,,,,,,,,,,,,,,,,,,,,,,,,,,,,,,,,,,
1720518065,63,0,4292.307617,4283.974121,4288.077148,4330.384766,4265.897461,4249.871582,4243.461426,4265.641113,4222.179688,4239.358887,4454.743652,4429.102539,4348.461426,4407.179688,,,,,,,,,,,,,,,,,,,,,,,,,,,,,,,,,,,,,,,,,,,,,,,,,,,,,,,,,,,,,,,,,,,,,,
1720518065,64,0,4281.025879,4278.461426,4287.05127,4327.692383,4263.077148,4247.94873,4247.179688,4263.589844,4227.692383,4236.922852,4451.922852,4430.897461,4340.256348,4405.512695,2.032458,0.952528,0.242071,0.272149,0.084174,0.845304,0.316124,0.156989,0.131179,0.081497,0.466578,0.444476,0.144995,0.117748,0.119758,1.026662,0.415662,0.089969,0.131798,0.127893,0.349807,0.325701,0.154396,0.176064,0.117623,0.305755,0.261584,0.289816,0.291823,0.073589,0.367184,0.217315,0.287768,0.156749,0.098503,0.401457,0.204369,0.207642,0.229173,0.097232,2.147036,4.099401,0.866724,0.609237,0.15371,0.460422,1.57168,0.420411,0.229743,0.146028,0.48061,0.354921,0.29624,0.167249,0.160234,0.847016,0.259059,0.197266,0.130833,0.299786,0.878957,0.562052,0.496426,0.295225,0.143426,1.058268,0.414345,0.339749,0.200635,0.22832
1720518065,65,0,4276.282227,4267.94873,4286.153809,4319.615234,4261.794922,4250,4251.666504,4266.282227,4228.589844,4242.692383,4450.256348,4433.205078,4337.692383,4404.615234,,,,,,,,,,,,,,,,,,,,,,,,,,,,,,,,,,,,,,,,,,,,,,,,,,,,,,,,,,,,,,,,,,,,,,
1720518065,66,0,4273.333496,4262.05127,4282.05127,4311.794922,4259.358887,4250.512695,4249.102539,4265.256348,4229.358887,4237.563965,4443.205078,4418.589844,4336.794922,4391.922852,,,,,,,,,,,,,,,,,,,,,,,,,,,,,,,,,,,,,,,,,,,,,,,,,,,,,,,,,,,,,,,,,,,,,,
1720518065,67,0,4266.025879,4257.179688,4277.820313,4306.153809,4253.846191,4247.820313,4248.461426,4262.820313,4230.641113,4229.615234,4439.102539,4413.333496,4330.384766,4389.871582,,,,,,,,,,,,,,,,,,,,,,,,,,,,,,,,,,,,,,,,,,,,,,,,,,,,,,,,,,,,,,,,,,,,,,
1720518065,68,0,4263.461426,4255.641113,4279.871582,4308.205078,4254.871582,4255,4256.794922,4266.153809,4232.820313,4234.230957,4445.384766,4423.205078,4326.153809,4399.358887,,,,,,,,,,,,,,,,,,,,,,,,,,,,,,,,,,,,,,,,,,,,,,,,,,,,,,,,,,,,,,,,,,,,,,
1720518065,69,0,4265.641113,4259.230957,4280,4310.256348,4255.256348,4261.025879,4256.794922,4264.743652,4235.641113,4234.102539,4445.897461,4417.692383,4327.179688,4391.410156,,,,,,,,,,,,,,,,,,,,,,,,,,,,,,,,,,,,,,,,,,,,,,,,,,,,,,,,,,,,,,,,,,,,,,
1720518065,70,0,4261.025879,4255.769043,4275.769043,4301.153809,4249.743652,4252.94873,4248.717773,4262.692383,4235.641113,4230,4437.436035,4415.641113,4324.743652,4383.205078,,,,,,,,,,,,,,,,,,,,,,,,,,,,,,,,,,,,,,,,,,,,,,,,,,,,,,,,,,,,,,,,,,,,,,
1720518065,71,0,4262.179688,4250.641113,4269.743652,4293.974121,4251.794922,4246.410156,4248.077148,4262.307617,4232.94873,4232.94873,4437.307617,4414.871582,4321.538574,4383.846191,,,,,,,,,,,,,,,,,,,,,,,,,,,,,,,,,,,,,,,,,,,,,,,,,,,,,,,,,,,,,,,,,,,,,,
1720518066,72,0,4274.230957,4258.846191,4272.307617,4304.743652,4259.487305,4251.153809,4251.410156,4262.436035,4234.615234,4240.897461,4446.794922,4415.384766,4330.128418,4388.077148,,,,,,,,,,,,,,,,,,,,,,,,,,,,,,,,,,,,,,,,,,,,,,,,,,,,,,,,,,,,,,,,,,,,,,
1720518066,73,0,4282.563965,4268.846191,4283.333496,4315.384766,4262.179688,4252.436035,4250.641113,4263.077148,4234.102539,4243.333496,4452.179688,4428.589844,4341.025879,4400.512695,,,,,,,,,,,,,,,,,,,,,,,,,,,,,,,,,,,,,,,,,,,,,,,,,,,,,,,,,,,,,,,,,,,,,,
1720518066,74,0,4285.256348,4268.974121,4285.512695,4310.128418,4260,4245.897461,4248.461426,4261.282227,4222.307617,4233.846191,4451.025879,4431.538574,4340.641113,4406.282227,,,,,,,,,,,,,,,,,,,,,,,,,,,,,,,,,,,,,,,,,,,,,,,,,,,,,,,,,,,,,,,,,,,,,,
1720518066,75,0,4289.358887,4271.025879,4282.94873,4306.922852,4254.358887,4243.589844,4245.641113,4260.512695,4211.282227,4230.512695,4453.205078,4428.461426,4344.615234,4408.974121,,,,,,,,,,,,,,,,,,,,,,,,,,,,,,,,,,,,,,,,,,,,,,,,,,,,,,,,,,,,,,,,,,,,,,
1720518066,76,0,4295.897461,4277.563965,4287.692383,4312.05127,4252.692383,4245,4245.641113,4262.436035,4210.641113,4235.128418,4457.05127,4431.025879,4357.692383,4416.538574,,,,,,,,,,,,,,,,,,,,,,,,,,,,,,,,,,,,,,,,,,,,,,,,,,,,,,,,,,,,,,,,,,,,,,
1720518066,77,0,4300.128418,4280.128418,4294.102539,4318.333496,4260.769043,4250.384766,4255.128418,4263.077148,4215.128418,4234.230957,4456.794922,4435.512695,4360.256348,4419.487305,,,,,,,,,,,,,,,,,,,,,,,,,,,,,,,,,,,,,,,,,,,,,,,,,,,,,,,,,,,,,,,,,,,,,,
1720518066,78,0,4302.05127,4281.794922,4293.333496,4319.743652,4265.769043,4255.512695,4261.153809,4263.333496,4222.94873,4233.974121,4458.846191,4436.922852,4355.384766,4416.538574,,,,,,,,,,,,,,,,,,,,,,,,,,,,,,,,,,,,,,,,,,,,,,,,,,,,,,,,,,,,,,,,,,,,,,
1720518066,79,0,4297.692383,4280.128418,4289.487305,4315.769043,4266.282227,4254.871582,4256.025879,4265.256348,4232.94873,4240,4459.871582,4432.94873,4354.230957,4413.333496,,,,,,,,,,,,,,,,,,,,,,,,,,,,,,,,,,,,,,,,,,,,,,,,,,,,,,,,,,,,,,,,,,,,,,
1720518066,80,0,4288.717773,4271.025879,4283.974121,4309.358887,4264.358887,4251.153809,4249.615234,4263.974121,4234.358887,4236.153809,4448.205078,4420.256348,4344.487305,4399.615234,1.997664,0.928,0.21158,0.269258,0.07902,0.809207,0.295325,0.146612,0.141421,0.081674,0.374826,0.381945,0.105636,0.098978,0.120729,1.044069,0.410737,0.065042,0.124994,0.116035,0.32967,0.263498,0.172372,0.1756,0.12198,0.278057,0.310853,0.281566,0.274106,0.07807,0.287835,0.317091,0.255307,0.144144,0.098706,0.392982,0.196506,0.170218,0.213452,0.092484,1.332559,3.515272,0.57908,0.566367,0.133994,0.392584,1.412642,0.398442,0.219958,0.137624,0.303656,0.286412,0.22695,0.154965,0.150978,0.742792,0.278664,0.191859,0.121588,0.273771,0.664332,0.465217,0.398201,0.295971,0.160673,0.910152,0.345257,0.271677,0.21174,0.231598
1720518066,81,0,4280.384766,4263.717773,4277.692383,4302.563965,4257.05127,4248.077148,4247.820313,4260.769043,4230,4231.025879,4439.230957,4421.666504,4326.666504,4390,,,,,,,,,,,,,,,,,,,,,,,,,,,,,,,,,,,,,,,,,,,,,,,,,,,,,,,,,,,,,,,,,,,,,,
1720518066,82,0,4270.256348,4258.333496,4275.512695,4297.563965,4258.717773,4252.436035,4250.641113,4262.94873,4236.666504,4237.05127,4443.974121,4426.282227,4321.794922,4392.179688,,,,,,,,,,,,,,,,,,,,,,,,,,,,,,,,,,,,,,,,,,,,,,,,,,,,,,,,,,,,,,,,,,,,,,
1720518066,83,0,4261.410156,4249.871582,4272.307617,4292.820313,4265.128418,4258.461426,4253.205078,4263.974121,4247.436035,4236.025879,4441.922852,4410.897461,4326.410156,4383.333496,,,,,,,,,,,,,,,,,,,,,,,,,,,,,,,,,,,,,,,,,,,,,,,,,,,,,,,,,,,,,,,,,,,,,,
1720518066,84,0,4263.589844,4250.512695,4269.743652,4290.641113,4254.358887,4255.384766,4251.794922,4263.333496,4244.615234,4235.384766,4436.025879,4414.743652,4324.358887,4382.179688,,,,,,,,,,,,,,,,,,,,,,,,,,,,,,,,,,,,,,,,,,,,,,,,,,,,,,,,,,,,,,,,,,,,,,
1720518066,85,0,4270.512695,4262.179688,4269.230957,4291.410156,4247.307617,4249.358887,4248.846191,4262.436035,4235.897461,4241.410156,4441.410156,4425,4325.256348,4388.974121,,,,,,,,,,,,,,,,,,,,,,,,,,,,,,,,,,,,,,,,,,,,,,,,,,,,,,,,,,,,,,,,,,,,,,
1720518066,86,0,4267.563965,4261.794922,4267.94873,4290.769043,4253.589844,4248.205078,4247.563965,4261.410156,4233.717773,4236.282227,4441.666504,4416.410156,4330.512695,4384.358887,,,,,,,,,,,,,,,,,,,,,,,,,,,,,,,,,,,,,,,,,,,,,,,,,,,,,,,,,,,,,,,,,,,,,,
1720518066,87,0,4268.974121,4256.282227,4272.05127,4289.230957,4252.820313,4249.358887,4248.717773,4265.897461,4235.256348,4234.615234,4442.436035,4419.102539,4333.589844,4389.871582,,,,,,,,,,,,,,,,,,,,,,,,,,,,,,,,,,,,,,,,,,,,,,,,,,,,,,,,,,,,,,,,,,,,,,
1720518066,88,0,4287.307617,4269.102539,4281.025879,4293.846191,4253.461426,4248.589844,4247.94873,4267.436035,4235.256348,4247.94873,4456.794922,4428.974121,4346.025879,4409.102539,,,,,,,,,,,,,,,,,,,,,,,,,,,,,,,,,,,,,,,,,,,,,,,,,,,,,,,,,,,,,,,,,,,,,,
1720518066,89,0,4304.102539,4283.205078,4290.897461,4303.205078,4257.563965,4244.358887,4249.230957,4266.922852,4234.871582,4250.897461,4471.282227,4434.102539,4366.666504,4424.230957,,,,,,,,,,,,,,,,,,,,,,,,,,,,,,,,,,,,,,,,,,,,,,,,,,,,,,,,,,,,,,,,,,,,,,
1720518066,90,0,4308.717773,4281.666504,4292.563965,4305.641113,4253.205078,4239.615234,4255.769043,4267.94873,4233.717773,4244.230957,4471.538574,4438.205078,4376.538574,4426.538574,,,,,,,,,,,,,,,,,,,,,,,,,,,,,,,,,,,,,,,,,,,,,,,,,,,,,,,,,,,,,,,,,,,,,,
1720518066,91,0,4308.974121,4280.641113,4292.94873,4303.974121,4253.717773,4242.563965,4256.282227,4268.846191,4231.025879,4246.538574,4467.692383,4445,4373.077148,4425.897461,,,,,,,,,,,,,,,,,,,,,,,,,,,,,,,,,,,,,,,,,,,,,,,,,,,,,,,,,,,,,,,,,,,,,,
1720518066,92,0,4306.538574,4289.358887,4302.436035,4306.410156,4260.256348,4247.179688,4251.666504,4270.769043,4227.692383,4247.307617,4469.743652,4448.077148,4363.717773,4426.282227,,,,,,,,,,,,,,,,,,,,,,,,,,,,,,,,,,,,,,,,,,,,,,,,,,,,,,,,,,,,,,,,,,,,,,
1720518066,93,0,4301.922852,4293.717773,4302.436035,4310.128418,4259.743652,4250.384766,4256.666504,4269.871582,4229.615234,4244.102539,4468.077148,4443.333496,4354.487305,4421.794922,,,,,,,,,,,,,,,,,,,,,,,,,,,,,,,,,,,,,,,,,,,,,,,,,,,,,,,,,,,,,,,,,,,,,,
1720518066,94,0,4295.128418,4283.974121,4290,4304.871582,4262.179688,4255.897461,4264.743652,4264.743652,4240.641113,4245.897461,4459.615234,4433.589844,4355.512695,4411.282227,,,,,,,,,,,,,,,,,,,,,,,,,,,,,,,,,,,,,,,,,,,,,,,,,,,,,,,,,,,,,,,,,,,,,,
1720518066,95,0,4283.717773,4271.922852,4284.487305,4294.102539,4263.461426,4255.384766,4261.666504,4262.307617,4244.358887,4247.307617,4452.820313,4426.410156,4356.025879,4405.769043,,,,,,,,,,,,,,,,,,,,,,,,,,,,,,,,,,,,,,,,,,,,,,,,,,,,,,,,,,,,,,,,,,,,,,
1720518066,96,0,4272.179688,4264.743652,4282.94873,4293.205078,4253.717773,4252.563965,4257.94873,4265.256348,4237.307617,4247.307617,4452.05127,4420.384766,4346.794922,4402.05127,1.810442,1.066352,0.198808,0.258759,0.083484,0.739171,0.334898,0.129201,0.154653,0.085999,0.305663,0.378702,0.073235,0.084806,0.118688,0.954687,0.468258,0.046329,0.118107,0.103401,0.297371,0.225265,0.180912,0.165639,0.1216,0.241281,0.373714,0.261433,0.242428,0.084158,0.25835,0.459072,0.233561,0.13855,0.102255,0.358895,0.184612,0.135308,0.180974,0.084184,0.996891,3.049753,0.457002,0.533829,0.125878,0.363154,1.160485,0.371955,0.209118,0.129464,0.208757,0.244585,0.170728,0.137851,0.138687,0.629866,0.331535,0.201847,0.114151,0.248696,0.546272,0.444233,0.314489,0.308452,0.179753,0.776776,0.357182,0.208182,0.216666,0.228686
1720518066,97,0,4264.743652,4255.384766,4272.05127,4292.563965,4248.974121,4256.538574,4259.615234,4263.589844,4237.05127,4245.769043,4445.897461,4408.717773,4338.717773,4388.205078,,,,,,,,,,,,,,,,,,,,,,,,,,,,,,,,,,,,,,,,,,,,,,,,,,,,,,,,,,,,,,,,,,,,,,
1720518066,98,0,4261.153809,4250,4267.05127,4285.128418,4251.410156,4254.487305,4259.358887,4262.179688,4243.077148,4245.641113,4441.410156,4413.205078,4333.589844,4389.743652,,,,,,,,,,,,,,,,,,,,,,,,,,,,,,,,,,,,,,,,,,,,,,,,,,,,,,,,,,,,,,,,,,,,,,
1720518066,99,0,4263.461426,4255.897461,4271.025879,4284.743652,4251.410156,4246.282227,4258.205078,4265.512695,4248.589844,4248.205078,4450.256348,4418.077148,4337.436035,4399.102539,,,,,,,,,,,,,,,,,,,,,,,,,,,,,,,,,,,,,,,,,,,,,,,,,,,,,,,,,,,,,,,,,,,,,,
1720518066,100,0,4270.256348,4260.128418,4271.153809,4290,4249.615234,4245.897461,4257.307617,4265.256348,4248.589844,4248.717773,4456.410156,4414.487305,4350.256348,4395.641113,,,,,,,,,,,,,,,,,,,,,,,,,,,,,,,,,,,,,,,,,,,,,,,,,,,,,,,,,,,,,,,,,,,,,,
1720518066,101,0,4275.128418,4258.205078,4272.820313,4290.769043,4250.256348,4250,4255.897461,4264.358887,4243.077148,4246.410156,4453.077148,4419.358887,4352.692383,4395.128418,,,,,,,,,,,,,,,,,,,,,,,,,,,,,,,,,,,,,,,,,,,,,,,,,,,,,,,,,,,,,,,,,,,,,,
1720518066,102,0,4277.05127,4261.025879,4274.487305,4293.333496,4249.102539,4246.153809,4250.128418,4263.589844,4230.256348,4239.102539,4449.230957,4416.282227,4345.256348,4396.282227,,,,,,,,,,,,,,,,,,,,,,,,,,,,,,,,,,,,,,,,,,,,,,,,,,,,,,,,,,,,,,,,,,,,,,
1720518066,103,0,4286.282227,4269.615234,4280.512695,4303.461426,4245.512695,4239.358887,4241.922852,4261.282227,4219.487305,4231.794922,4455.897461,4416.282227,4351.282227,4402.692383,,,,,,,,,,,,,,,,,,,,,,,,,,,,,,,,,,,,,,,,,,,,,,,,,,,,,,,,,,,,,,,,,,,,,,
1720518066,104,0,4302.05127,4282.563965,4293.333496,4314.743652,4254.487305,4242.436035,4247.692383,4263.077148,4223.846191,4239.102539,4468.077148,4426.794922,4367.820313,4415.769043,,,,,,,,,,,,,,,,,,,,,,,,,,,,,,,,,,,,,,,,,,,,,,,,,,,,,,,,,,,,,,,,,,,,,,
1720518066,105,0,4306.410156,4290.769043,4298.333496,4317.820313,4266.922852,4251.922852,4261.538574,4273.846191,4233.205078,4246.922852,4470.256348,4431.025879,4366.666504,4418.205078,,,,,,,,,,,,,,,,,,,,,,,,,,,,,,,,,,,,,,,,,,,,,,,,,,,,,,,,,,,,,,,,,,,,,,
1720518066,106,0,4298.077148,4279.102539,4291.538574,4312.94873,4261.282227,4250.512695,4259.743652,4278.077148,4234.871582,4240.769043,4463.461426,4428.974121,4351.922852,4411.153809,,,,,,,,,,,,,,,,,,,,,,,,,,,,,,,,,,,,,,,,,,,,,,,,,,,,,,,,,,,,,,,,,,,,,,
1720518066,107,0,4290.897461,4266.153809,4287.436035,4309.487305,4253.333496,4248.205078,4250.256348,4269.615234,4237.307617,4237.563965,4457.05127,4428.077148,4349.615234,4408.589844,,,,,,,,,,,,,,,,,,,,,,,,,,,,,,,,,,,,,,,,,,,,,,,,,,,,,,,,,,,,,,,,,,,,,,
1720518066,108,0,4285.512695,4270.384766,4288.333496,4310.128418,4262.307617,4256.666504,4250.769043,4263.205078,4244.871582,4241.025879,4458.077148,4424.871582,4357.94873,4406.282227,,,,,,,,,,,,,,,,,,,,,,,,,,,,,,,,,,,,,,,,,,,,,,,,,,,,,,,,,,,,,,,,,,,,,,
1720518066,109,0,4280.256348,4271.538574,4287.820313,4307.307617,4260.641113,4258.461426,4250.512695,4265.128418,4244.230957,4237.307617,4461.025879,4425.897461,4354.871582,4405.256348,,,,,,,,,,,,,,,,,,,,,,,,,,,,,,,,,,,,,,,,,,,,,,,,,,,,,,,,,,,,,,,,,,,,,,
1720518066,110,0,4277.179688,4263.077148,4282.820313,4303.589844,4247.94873,4252.94873,4247.692383,4268.589844,4241.153809,4230.641113,4457.563965,4426.282227,4347.307617,4404.615234,,,,,,,,,,,,,,,,,,,,,,,,,,,,,,,,,,,,,,,,,,,,,,,,,,,,,,,,,,,,,,,,,,,,,,
1720518066,111,0,4272.05127,4261.666504,4274.358887,4303.461426,4253.589844,4257.692383,4253.589844,4265.897461,4249.871582,4230.897461,4450.769043,4412.820313,4343.974121,4392.94873,,,,,,,,,,,,,,,,,,,,,,,,,,,,,,,,,,,,,,,,,,,,,,,,,,,,,,,,,,,,,,,,,,,,,,
1720518066,112,0,4262.692383,4262.436035,4273.333496,4302.436035,4258.205078,4264.487305,4258.846191,4268.205078,4255.256348,4232.94873,4446.666504,4415.897461,4331.410156,4389.358887,1.514786,1.366388,0.218318,0.244904,0.094489,0.657134,0.47771,0.110076,0.166111,0.094975,0.260811,0.44916,0.053438,0.074884,0.114613,0.794818,0.607403,0.038,0.111282,0.094684,0.255757,0.216875,0.181749,0.150903,0.116143,0.202846,0.452385,0.237747,0.207448,0.09219,0.264922,0.625406,0.231846,0.145577,0.110687,0.297657,0.173454,0.107813,0.140961,0.072319,0.930691,2.75061,0.459707,0.502009,0.123526,0.359824,0.869645,0.35456,0.200958,0.122849,0.190395,0.267343,0.133567,0.120884,0.127603,0.508721,0.431902,0.231692,0.109617,0.226744,0.54063,0.611363,0.26082,0.321705,0.195353,0.663506,0.523455,0.1589,0.211553,0.220272
1720518066,113,0,4260.128418,4260.769043,4275.897461,4300,4253.333496,4263.846191,4259.102539,4271.153809,4252.307617,4231.282227,4441.025879,4419.487305,4320.769043,4389.615234,,,,,,,,,,,,,,,,,,,,,,,,,,,,,,,,,,,,,,,,,,,,,,,,,,,,,,,,,,,,,,,,,,,,,,
1720518066,114,0,4265.641113,4262.307617,4275.769043,4300.769043,4257.307617,4264.102539,4259.871582,4267.563965,4250.128418,4229.102539,4436.922852,4409.358887,4327.692383,4384.102539,,,,,,,,,,,,,,,,,,,,,,,,,,,,,,,,,,,,,,,,,,,,,,,,,,,,,,,,,,,,,,,,,,,,,,
1720518066,115,0,4271.410156,4265.128418,4280,4304.615234,4261.538574,4265.256348,4255.769043,4268.846191,4249.230957,4229.487305,4446.410156,4416.025879,4335.256348,4391.282227,,,,,,,,,,,,,,,,,,,,,,,,,,,,,,,,,,,,,,,,,,,,,,,,,,,,,,,,,,,,,,,,,,,,,,
1720518066,116,0,4280,4270.769043,4283.333496,4308.846191,4256.922852,4262.820313,4252.05127,4275.769043,4247.179688,4230,4458.333496,4426.410156,4337.436035,4400.641113,,,,,,,,,,,,,,,,,,,,,,,,,,,,,,,,,,,,,,,,,,,,,,,,,,,,,,,,,,,,,,,,,,,,,,
1720518066,117,0,4294.358887,4280.641113,4289.743652,4313.333496,4259.358887,4263.717773,4259.487305,4277.692383,4246.153809,4233.846191,4464.743652,4435.128418,4351.410156,4410.256348,,,,,,,,,,,,,,,,,,,,,,,,,,,,,,,,,,,,,,,,,,,,,,,,,,,,,,,,,,,,,,,,,,,,,,
1720518066,118,0,4308.333496,4287.563965,4303.077148,4317.692383,4267.436035,4264.871582,4266.410156,4277.563965,4247.436035,4243.717773,4473.717773,4446.922852,4369.102539,4424.743652,,,,,,,,,,,,,,,,,,,,,,,,,,,,,,,,,,,,,,,,,,,,,,,,,,,,,,,,,,,,,,,,,,,,,,
1720518066,119,0,4312.563965,4287.05127,4306.410156,4319.743652,4263.717773,4261.794922,4263.589844,4281.794922,4248.717773,4242.436035,4476.025879,4448.077148,4366.153809,4425.256348,,,,,,,,,,,,,,,,,,,,,,,,,,,,,,,,,,,,,,,,,,,,,,,,,,,,,,,,,,,,,,,,,,,,,,
1720518066,120,0,4308.461426,4288.717773,4302.820313,4322.436035,4258.846191,4258.846191,4264.871582,4282.563965,4247.307617,4234.615234,4473.717773,4446.153809,4359.230957,4421.025879,,,,,,,,,,,,,,,,,,,,,,,,,,,,,,,,,,,,,,,,,,,,,,,,,,,,,,,,,,,,,,,,,,,,,,
1720518066,121,0,4303.077148,4286.282227,4303.846191,4322.820313,4260.897461,4258.205078,4264.615234,4276.282227,4239.743652,4232.05127,4473.974121,4447.05127,4363.205078,4425.128418,,,,,,,,,,,,,,,,,,,,,,,,,,,,,,,,,,,,,,,,,,,,,,,,,,,,,,,,,,,,,,,,,,,,,,
1720518066,122,0,4292.307617,4270.769043,4289.102539,4308.717773,4261.025879,4259.230957,4251.538574,4265.641113,4228.846191,4224.871582,4465.256348,4426.282227,4356.538574,4408.205078,,,,,,,,,,,,,,,,,,,,,,,,,,,,,,,,,,,,,,,,,,,,,,,,,,,,,,,,,,,,,,,,,,,,,,
1720518066,123,0,4280.384766,4259.743652,4275.641113,4294.487305,4252.307617,4260.897461,4243.077148,4260.512695,4229.230957,4219.358887,4453.846191,4411.538574,4343.717773,4390.384766,,,,,,,,,,,,,,,,,,,,,,,,,,,,,,,,,,,,,,,,,,,,,,,,,,,,,,,,,,,,,,,,,,,,,,
1720518066,124,0,4277.692383,4261.922852,4285.384766,4295.512695,4250,4263.077148,4248.077148,4264.487305,4242.05127,4227.94873,4454.358887,4424.358887,4343.205078,4401.538574,,,,,,,,,,,,,,,,,,,,,,,,,,,,,,,,,,,,,,,,,,,,,,,,,,,,,,,,,,,,,,,,,,,,,,
1720518066,125,0,4277.436035,4265.256348,4282.820313,4297.94873,4256.025879,4264.487305,4251.922852,4264.871582,4248.974121,4231.538574,4453.461426,4419.871582,4337.307617,4400.769043,,,,,,,,,,,,,,,,,,,,,,,,,,,,,,,,,,,,,,,,,,,,,,,,,,,,,,,,,,,,,,,,,,,,,,
1720518066,126,0,4273.077148,4259.487305,4271.153809,4293.333496,4253.717773,4263.974121,4253.205078,4266.282227,4249.102539,4222.94873,4446.794922,4410.512695,4328.717773,4394.487305,,,,,,,,,,,,,,,,,,,,,,,,,,,,,,,,,,,,,,,,,,,,,,,,,,,,,,,,,,,,,,,,,,,,,,
1720518066,127,0,4272.307617,4256.666504,4275.897461,4292.563965,4255.897461,4265.384766,4259.743652,4270.769043,4257.05127,4224.487305,4452.436035,4418.589844,4341.153809,4404.487305,,,,,,,,,,,,,,,,,,,,,,,,,,,,,,,,,,,,,,,,,,,,,,,,,,,,,,,,,,,,,,,,,,,,,,
1720518066,0,0,4277.436035,4262.05127,4280.256348,4296.922852,4262.563965,4268.077148,4263.461426,4270,4261.153809,4230.769043,4458.846191,4424.743652,4351.794922,4405.769043,1.202146,1.939965,0.271385,0.230139,0.106469,0.592702,0.81728,0.097201,0.172697,0.108222,0.239409,0.642192,0.047181,0.06836,0.10948,0.625125,0.865215,0.042611,0.105209,0.09264,0.212059,0.240192,0.180326,0.140009,0.107958,0.165148,0.554507,0.218533,0.180916,0.102195,0.292544,0.788941,0.251904,0.165985,0.122946,0.225404,0.170523,0.091791,0.104258,0.059142,0.938347,2.693209,0.539026,0.472635,0.123341,0.364574,0.611867,0.352423,0.196577,0.118724,0.224743,0.407148,0.116007,0.108865,0.120717,0.399465,0.623016,0.280402,0.107428,0.20874,0.623858,1.11641,0.238799,0.327107,0.204461,0.586053,0.966348,0.128301,0.197444,0.207617
1720518066,1,0,4280.384766,4267.179688,4278.461426,4300.769043,4255.512695,4267.820313,4259.743652,4267.692383,4253.333496,4224.487305,4452.820313,4427.820313,4341.538574,4401.410156,,,,,,,,,,,,,,,,,,,,,,,,,,,,,,,,,,,,,,,,,,,,,,,,,,,,,,,,,,,,,,,,,,,,,,
1720518066,2,0,4277.820313,4261.410156,4279.102539,4298.974121,4246.410156,4260.256348,4250,4265.512695,4243.974121,4213.717773,4446.153809,4425.256348,4334.102539,4398.205078,,,,,,,,,,,,,,,,,,,,,,,,,,,,,,,,,,,,,,,,,,,,,,,,,,,,,,,,,,,,,,,,,,,,,,
1720518066,3,0,4278.461426,4258.205078,4282.179688,4298.461426,4246.922852,4252.436035,4247.179688,4265,4236.282227,4212.94873,4450,4427.307617,4338.461426,4399.871582,,,,,,,,,,,,,,,,,,,,,,,,,,,,,,,,,,,,,,,,,,,,,,,,,,,,,,,,,,,,,,,,,,,,,,
1720518066,4,0,4291.794922,4271.153809,4287.820313,4306.922852,4248.333496,4252.05127,4255.128418,4265.769043,4230.256348,4220.128418,4457.05127,4436.538574,4344.102539,4410.256348,,,,,,,,,,,,,,,,,,,,,,,,,,,,,,,,,,,,,,,,,,,,,,,,,,,,,,,,,,,,,,,,,,,,,,
1720518066,5,0,4307.179688,4282.179688,4296.922852,4315.128418,4251.153809,4252.307617,4257.307617,4265.384766,4232.307617,4224.487305,4458.717773,4441.282227,4351.666504,4418.333496,,,,,,,,,,,,,,,,,,,,,,,,,,,,,,,,,,,,,,,,,,,,,,,,,,,,,,,,,,,,,,,,,,,,,,
1720518066,6,0,4306.666504,4281.666504,4300.384766,4314.871582,4257.436035,4246.794922,4256.025879,4264.358887,4231.794922,4225.128418,4460.256348,4440.128418,4356.025879,4416.025879,,,,,,,,,,,,,,,,,,,,,,,,,,,,,,,,,,,,,,,,,,,,,,,,,,,,,,,,,,,,,,,,,,,,,,
1720518066,7,0,4303.333496,4283.205078,4297.307617,4311.153809,4258.846191,4247.179688,4256.410156,4265.897461,4228.461426,4226.153809,4459.615234,4436.282227,4355.384766,4411.794922,,,,,,,,,,,,,,,,,,,,,,,,,,,,,,,,,,,,,,,,,,,,,,,,,,,,,,,,,,,,,,,,,,,,,,
1720518066,8,0,4309.487305,4288.077148,4297.563965,4312.307617,4263.077148,4259.615234,4252.179688,4268.846191,4237.05127,4231.025879,4457.94873,4435.256348,4357.820313,4412.692383,,,,,,,,,,,,,,,,,,,,,,,,,,,,,,,,,,,,,,,,,,,,,,,,,,,,,,,,,,,,,,,,,,,,,,
1720518066,9,0,4303.846191,4284.230957,4295.641113,4311.538574,4267.307617,4264.743652,4245.897461,4268.974121,4242.820313,4232.94873,4457.05127,4435.769043,4355.128418,4412.05127,,,,,,,,,,,,,,,,,,,,,,,,,,,,,,,,,,,,,,,,,,,,,,,,,,,,,,,,,,,,,,,,,,,,,,
1720518066,10,0,4295.512695,4280.897461,4288.077148,4304.102539,4261.794922,4258.974121,4245.512695,4263.077148,4241.922852,4229.358887,4452.820313,4428.205078,4342.563965,4405.641113,,,,,,,,,,,,,,,,,,,,,,,,,,,,,,,,,,,,,,,,,,,,,,,,,,,,,,,,,,,,,,,,,,,,,,
1720518066,11,0,4294.487305,4279.358887,4279.230957,4297.820313,4253.205078,4254.743652,4245.769043,4258.717773,4246.410156,4226.922852,4446.538574,4415.897461,4334.743652,4394.743652,,,,,,,,,,,,,,,,,,,,,,,,,,,,,,,,,,,,,,,,,,,,,,,,,,,,,,,,,,,,,,,,,,,,,,
1720518066,12,0,4283.974121,4266.025879,4277.563965,4293.589844,4247.820313,4251.922852,4243.974121,4262.692383,4250,4227.436035,4446.282227,4420.641113,4336.025879,4394.871582,,,,,,,,,,,,,,,,,,,,,,,,,,,,,,,,,,,,,,,,,,,,,,,,,,,,,,,,,,,,,,,,,,,,,,
1720518066,13,0,4273.461426,4257.179688,4278.461426,4289.230957,4246.538574,4249.615234,4244.743652,4264.230957,4249.230957,4228.717773,4448.461426,4420.641113,4335.769043,4395.128418,,,,,,,,,,,,,,,,,,,,,,,,,,,,,,,,,,,,,,,,,,,,,,,,,,,,,,,,,,,,,,,,,,,,,,
1720518066,14,0,4277.436035,4264.230957,4276.282227,4287.307617,4246.794922,4250.384766,4244.230957,4261.922852,4251.666504,4229.615234,4445.256348,4409.871582,4334.743652,4387.692383,,,,,,,,,,,,,,,,,,,,,,,,,,,,,,,,,,,,,,,,,,,,,,,,,,,,,,,,,,,,,,,,,,,,,,
1720518066,15,0,4282.563965,4265.897461,4279.102539,4290.769043,4246.153809,4251.410156,4247.563965,4266.794922,4253.717773,4230.384766,4448.589844,4423.333496,4339.102539,4397.307617,,,,,,,,,,,,,,,,,,,,,,,,,,,,,,,,,,,,,,,,,,,,,,,,,,,,,,,,,,,,,,,,,,,,,,
1720518066,16,0,4282.820313,4261.282227,4282.05127,4292.436035,4246.153809,4249.358887,4249.358887,4266.282227,4249.743652,4229.102539,4452.563965,4433.461426,4342.563965,4405.128418,0.955891,2.987647,0.345074,0.214339,0.114622,0.575783,1.453465,0.0964,0.174737,0.124793,0.242178,1.028726,0.049883,0.064253,0.104298,0.481492,1.275522,0.057554,0.101105,0.09679,0.174115,0.293809,0.182426,0.139624,0.101278,0.140162,0.67984,0.209648,0.168408,0.113612,0.331585,0.913658,0.285378,0.195992,0.135704,0.16116,0.180327,0.088669,0.079357,0.04795,0.945424,2.884681,0.663034,0.453473,0.123891,0.349411,0.437666,0.364648,0.194081,0.116986,0.28992,0.721406,0.117427,0.106299,0.118509,0.326265,0.967314,0.340226,0.10592,0.193666,0.749513,2.063906,0.243512,0.324961,0.208034,0.572374,1.801338,0.118861,0.18046,0.192171
1720518066,17,0,4292.94873,4272.179688,4288.717773,4297.692383,4250.128418,4249.615234,4249.230957,4266.922852,4248.461426,4234.615234,4456.666504,4432.05127,4342.820313,4407.692383,,,,,,,,,,,,,,,,,,,,,,,,,,,,,,,,,,,,,,,,,,,,,,,,,,,,,,,,,,,,,,,,,,,,,,
1720518066,18,0,4299.102539,4283.846191,4297.436035,4306.922852,4257.563965,4251.538574,4255.897461,4274.615234,4244.102539,4240.512695,4463.846191,4439.230957,4345.769043,4416.153809,,,,,,,,,,,,,,,,,,,,,,,,,,,,,,,,,,,,,,,,,,,,,,,,,,,,,,,,,,,,,,,,,,,,,,
1720518066,19,0,4300.384766,4282.820313,4299.615234,4310.641113,4263.077148,4251.410156,4262.436035,4272.692383,4233.461426,4236.666504,4465.769043,4440.641113,4357.436035,4420,,,,,,,,,,,,,,,,,,,,,,,,,,,,,,,,,,,,,,,,,,,,,,,,,,,,,,,,,,,,,,,,,,,,,,
1720518066,20,0,4306.666504,4286.666504,4300.641113,4311.282227,4262.436035,4250.384766,4262.692383,4267.820313,4229.743652,4237.307617,4465.256348,4436.794922,4363.717773,4420.769043,,,,,,,,,,,,,,,,,,,,,,,,,,,,,,,,,,,,,,,,,,,,,,,,,,,,,,,,,,,,,,,,,,,,,,
1720518066,21,0,4303.077148,4291.025879,4300.256348,4310.384766,4262.563965,4250.897461,4259.487305,4271.153809,4238.205078,4243.077148,4465.769043,4435.256348,4354.230957,4419.615234,,,,,,,,,,,,,,,,,,,,,,,,,,,,,,,,,,,,,,,,,,,,,,,,,,,,,,,,,,,,,,,,,,,,,,
1720518066,22,0,4298.589844,4288.846191,4298.333496,4310,4263.717773,4251.153809,4256.025879,4270.256348,4249.615234,4245.512695,4463.846191,4428.077148,4354.743652,4415.769043,,,,,,,,,,,,,,,,,,,,,,,,,,,,,,,,,,,,,,,,,,,,,,,,,,,,,,,,,,,,,,,,,,,,,,
1720518066,23,0,4297.307617,4282.05127,4297.307617,4306.666504,4254.102539,4248.461426,4250.512695,4263.205078,4252.307617,4245,4459.487305,4421.922852,4359.358887,4414.230957,,,,,,,,,,,,,,,,,,,,,,,,,,,,,,,,,,,,,,,,,,,,,,,,,,,,,,,,,,,,,,,,,,,,,,
1720518066,24,0,4287.692383,4271.025879,4293.589844,4298.333496,4246.794922,4249.615234,4249.230957,4264.743652,4250.512695,4241.282227,4456.666504,4428.717773,4339.358887,4413.461426,,,,,,,,,,,,,,,,,,,,,,,,,,,,,,,,,,,,,,,,,,,,,,,,,,,,,,,,,,,,,,,,,,,,,,
1720518066,25,0,4284.487305,4268.974121,4284.358887,4294.743652,4253.333496,4254.871582,4251.410156,4266.922852,4251.538574,4233.717773,4449.102539,4422.307617,4325,4404.230957,,,,,,,,,,,,,,,,,,,,,,,,,,,,,,,,,,,,,,,,,,,,,,,,,,,,,,,,,,,,,,,,,,,,,,
1720518066,26,0,4289.230957,4272.820313,4282.692383,4293.974121,4253.205078,4253.589844,4247.307617,4264.102539,4251.410156,4232.05127,4439.358887,4410.897461,4335.384766,4402.179688,,,,,,,,,,,,,,,,,,,,,,,,,,,,,,,,,,,,,,,,,,,,,,,,,,,,,,,,,,,,,,,,,,,,,,
1720518066,27,0,4284.743652,4267.820313,4286.666504,4287.692383,4246.282227,4248.077148,4242.820313,4263.333496,4248.846191,4233.846191,4439.102539,4413.717773,4336.025879,4404.230957,,,,,,,,,,,,,,,,,,,,,,,,,,,,,,,,,,,,,,,,,,,,,,,,,,,,,,,,,,,,,,,,,,,,,,
1720518066,28,0,4273.205078,4257.94873,4280.641113,4281.922852,4242.563965,4247.820313,4241.410156,4262.05127,4246.922852,4229.871582,4438.077148,4412.05127,4321.666504,4393.077148,,,,,,,,,,,,,,,,,,,,,,,,,,,,,,,,,,,,,,,,,,,,,,,,,,,,,,,,,,,,,,,,,,,,,,
1720518066,29,0,4264.358887,4251.282227,4270.897461,4279.230957,4236.282227,4248.205078,4236.153809,4261.794922,4240,4227.05127,4431.922852,4402.692383,4313.333496,4385.256348,,,,,,,,,,,,,,,,,,,,,,,,,,,,,,,,,,,,,,,,,,,,,,,,,,,,,,,,,,,,,,,,,,,,,,
1720518066,30,0,4262.563965,4250.769043,4267.05127,4277.94873,4236.538574,4244.358887,4231.922852,4261.025879,4232.05127,4223.333496,4428.461426,4394.871582,4308.077148,4383.333496,,,,,,,,,,,,,,,,,,,,,,,,,,,,,,,,,,,,,,,,,,,,,,,,,,,,,,,,,,,,,,,,,,,,,,
1720518066,31,0,4271.153809,4255.384766,4271.922852,4283.461426,4245,4242.563965,4239.230957,4261.410156,4232.563965,4225.897461,4437.05127,4404.230957,4312.94873,4387.563965,,,,,,,,,,,,,,,,,,,,,,,,,,,,,,,,,,,,,,,,,,,,,,,,,,,,,,,,,,,,,,,,,,,,,,
1720518066,32,0,4277.692383,4260.769043,4277.05127,4291.666504,4248.333496,4244.743652,4247.179688,4264.487305,4235.256348,4235.512695,4447.692383,4418.333496,4329.487305,4397.307617,0.835265,4.671122,0.415683,0.197493,0.116949,0.601579,2.43027,0.1136,0.175748,0.143375,0.268385,1.670696,0.055729,0.062939,0.100611,0.392509,1.845277,0.079136,0.100493,0.104063,0.145603,0.373314,0.194121,0.151173,0.100001,0.134988,0.813829,0.21378,0.16624,0.124899,0.380884,0.969651,0.316851,0.231345,0.145117,0.128339,0.206411,0.097503,0.070311,0.04113,0.872389,3.214918,0.800408,0.446172,0.124308,0.340622,0.353835,0.385421,0.191773,0.116746,0.378371,1.253411,0.13968,0.115346,0.119336,0.311979,1.514413,0.398054,0.104107,0.180132,0.883682,3.448872,0.278632,0.320948,0.209649,0.632746,3.056169,0.133646,0.169149,0.176125
1720518066,33,0,4283.846191,4271.153809,4279.615234,4298.077148,4253.974121,4249.871582,4248.974121,4265.256348,4232.307617,4233.461426,4445.897461,4420.769043,4335.641113,4401.538574,,,,,,,,,,,,,,,,,,,,,,,,,,,,,,,,,,,,,,,,,,,,,,,,,,,,,,,,,,,,,,,,,,,,,,
1720518066,34,0,4296.794922,4284.743652,4286.410156,4301.153809,4260,4247.179688,4250.128418,4264.358887,4232.692383,4231.922852,4445.512695,4424.615234,4336.666504,4404.871582,,,,,,,,,,,,,,,,,,,,,,,,,,,,,,,,,,,,,,,,,,,,,,,,,,,,,,,,,,,,,,,,,,,,,,
1720518066,35,0,4293.589844,4275.769043,4284.871582,4297.307617,4251.666504,4235.256348,4241.538574,4263.077148,4240.384766,4241.922852,4447.436035,4423.717773,4337.307617,4399.358887,,,,,,,,,,,,,,,,,,,,,,,,,,,,,,,,,,,,,,,,,,,,,,,,,,,,,,,,,,,,,,,,,,,,,,
1720518066,36,0,4275.897461,4259.615234,4273.077148,4292.692383,4245.128418,4234.102539,4234.487305,4261.922852,4245,4248.205078,4442.563965,4412.563965,4326.794922,4386.922852,,,,,,,,,,,,,,,,,,,,,,,,,,,,,,,,,,,,,,,,,,,,,,,,,,,,,,,,,,,,,,,,,,,,,,
1720518066,37,0,4268.717773,4264.102539,4270,4290.128418,4251.025879,4245.641113,4242.94873,4263.974121,4251.153809,4248.333496,4440.512695,4409.102539,4319.615234,4387.563965,,,,,,,,,,,,,,,,,,,,,,,,,,,,,,,,,,,,,,,,,,,,,,,,,,,,,,,,,,,,,,,,,,,,,,
1720518066,38,0,4267.820313,4263.717773,4270.641113,4281.025879,4252.436035,4246.794922,4247.179688,4265.384766,4257.05127,4249.230957,4442.436035,4410,4322.307617,4386.282227,,,,,,,,,,,,,,,,,,,,,,,,,,,,,,,,,,,,,,,,,,,,,,,,,,,,,,,,,,,,,,,,,,,,,,
1720518066,39,0,4260.512695,4246.794922,4262.179688,4272.692383,4245.641113,4244.358887,4240.769043,4259.871582,4253.846191,4259.102539,4433.974121,4395.256348,4315.897461,4370.641113,,,,,,,,,,,,,,,,,,,,,,,,,,,,,,,,,,,,,,,,,,,,,,,,,,,,,,,,,,,,,,,,,,,,,,
1720518066,40,0,4259.102539,4245.897461,4265.769043,4277.94873,4247.563965,4256.025879,4244.487305,4262.05127,4255.897461,4286.538574,4430,4400.384766,4308.846191,4375.256348,,,,,,,,,,,,,,,,,,,,,,,,,,,,,,,,,,,,,,,,,,,,,,,,,,,,,,,,,,,,,,,,,,,,,,
1720518066,41,0,4269.358887,4259.871582,4280.384766,4284.102539,4256.410156,4265.384766,4254.358887,4272.179688,4265.769043,4308.461426,4443.589844,4421.538574,4320.384766,4393.974121,,,,,,,,,,,,,,,,,,,,,,,,,,,,,,,,,,,,,,,,,,,,,,,,,,,,,,,,,,,,,,,,,,,,,,
1720518066,42,0,4272.179688,4257.563965,4277.820313,4280.512695,4255.769043,4262.692383,4252.436035,4267.692383,4258.461426,4295.128418,4443.077148,4414.230957,4327.563965,4385.384766,,,,,,,,,,,,,,,,,,,,,,,,,,,,,,,,,,,,,,,,,,,,,,,,,,,,,,,,,,,,,,,,,,,,,,
1720518066,43,0,4263.461426,4249.615234,4272.05127,4276.538574,4248.205078,4256.153809,4248.589844,4262.692383,4242.820313,4281.410156,4431.538574,4407.94873,4319.358887,4377.436035,,,,,,,,,,,,,,,,,,,,,,,,,,,,,,,,,,,,,,,,,,,,,,,,,,,,,,,,,,,,,,,,,,,,,,
1720518066,44,0,4270.256348,4258.974121,4278.846191,4281.282227,4247.692383,4252.692383,4252.563965,4267.94873,4246.794922,4287.94873,4438.077148,4418.077148,4321.410156,4391.153809,,,,,,,,,,,,,,,,,,,,,,,,,,,,,,,,,,,,,,,,,,,,,,,,,,,,,,,,,,,,,,,,,,,,,,
1720518066,45,0,4290.384766,4269.743652,4284.871582,4291.025879,4251.282227,4256.282227,4258.846191,4269.871582,4253.974121,4287.179688,4449.743652,4424.102539,4331.922852,4400.641113,,,,,,,,,,,,,,,,,,,,,,,,,,,,,,,,,,,,,,,,,,,,,,,,,,,,,,,,,,,,,,,,,,,,,,
1720518066,46,0,4292.436035,4269.230957,4287.05127,4292.563965,4253.974121,4259.615234,4260.128418,4272.179688,4248.077148,4282.563965,4448.205078,4423.589844,4331.922852,4401.282227,,,,,,,,,,,,,,,,,,,,,,,,,,,,,,,,,,,,,,,,,,,,,,,,,,,,,,,,,,,,,,,,,,,,,,
1720518066,47,0,4293.589844,4274.871582,4293.846191,4295.512695,4260,4261.410156,4259.487305,4275.897461,4245.384766,4284.102539,4447.307617,4423.589844,4337.820313,4403.589844,,,,,,,,,,,,,,,,,,,,,,,,,,,,,,,,,,,,,,,,,,,,,,,,,,,,,,,,,,,,,,,,,,,,,,
1720518066,48,0,4307.820313,4287.820313,4302.05127,4306.922852,4266.282227,4262.436035,4263.333496,4277.820313,4251.794922,4282.692383,4457.179688,4430.512695,4356.025879,4415.769043,0.823508,6.935959,0.469804,0.181611,0.114702,0.659247,3.674859,0.153186,0.17904,0.162561,0.31278,2.563451,0.06567,0.065448,0.100255,0.337614,2.538662,0.104714,0.103766,0.110752,0.129589,0.482474,0.224346,0.16933,0.105318,0.149371,0.931507,0.230958,0.16465,0.133541,0.445582,0.948845,0.33593,0.268951,0.148361,0.133074,0.24961,0.11753,0.075353,0.039349,0.74363,3.541826,0.914461,0.445088,0.124296,0.323604,0.330831,0.411253,0.188021,0.117531,0.481091,1.983927,0.187799,0.133879,0.121018,0.354732,2.268912,0.451551,0.101995,0.169129,0.975768,5.095743,0.354387,0.321258,0.213624,0.740425,4.595568,0.185479,0.169456,0.161994
1720518066,49,0,4309.230957,4286.153809,4299.358887,4306.410156,4267.436035,4259.230957,4265.641113,4275.769043,4258.461426,4279.230957,4460,4430.641113,4357.563965,4417.563965,,,,,,,,,,,,,,,,,,,,,,,,,,,,,,,,,,,,,,,,,,,,,,,,,,,,,,,,,,,,,,,,,,,,,,
1720518066,50,0,4291.282227,4269.230957,4286.282227,4289.871582,4257.820313,4253.717773,4261.025879,4271.538574,4260.256348,4279.102539,4448.589844,4414.743652,4333.717773,4396.922852,,,,,,,,,,,,,,,,,,,,,,,,,,,,,,,,,,,,,,,,,,,,,,,,,,,,,,,,,,,,,,,,,,,,,,
1720518066,51,0,4280.128418,4261.794922,4282.692383,4289.358887,4259.871582,4258.333496,4258.846191,4274.102539,4261.410156,4278.846191,4448.077148,4406.282227,4325.128418,4388.589844,,,,,,,,,,,,,,,,,,,,,,,,,,,,,,,,,,,,,,,,,,,,,,,,,,,,,,,,,,,,,,,,,,,,,,
1720518066,52,0,4283.205078,4267.436035,4288.589844,4297.436035,4280.897461,4266.153809,4261.794922,4277.179688,4266.153809,4280.512695,4456.538574,4414.487305,4338.974121,4400.384766,,,,,,,,,,,,,,,,,,,,,,,,,,,,,,,,,,,,,,,,,,,,,,,,,,,,,,,,,,,,,,,,,,,,,,
1720518066,53,0,4281.922852,4264.230957,4282.307617,4286.922852,4273.846191,4260.256348,4260.512695,4270.641113,4267.820313,4281.410156,4449.743652,4408.846191,4335.128418,4394.743652,,,,,,,,,,,,,,,,,,,,,,,,,,,,,,,,,,,,,,,,,,,,,,,,,,,,,,,,,,,,,,,,,,,,,,
1720518066,54,0,4279.230957,4261.666504,4281.794922,4283.333496,4251.410156,4257.179688,4260,4269.230957,4267.307617,4281.538574,4445.641113,4410.512695,4323.974121,4391.153809,,,,,,,,,,,,,,,,,,,,,,,,,,,,,,,,,,,,,,,,,,,,,,,,,,,,,,,,,,,,,,,,,,,,,,
1720518066,55,0,4282.05127,4263.077148,4291.666504,4288.974121,4249.358887,4259.102539,4260.512695,4274.615234,4263.717773,4281.410156,4452.820313,4423.333496,4332.05127,4402.436035,,,,,,,,,,,,,,,,,,,,,,,,,,,,,,,,,,,,,,,,,,,,,,,,,,,,,,,,,,,,,,,,,,,,,,
1720518066,56,0,4279.102539,4252.820313,4281.025879,4280,4244.615234,4251.922852,4251.153809,4265.897461,4248.205078,4268.589844,4441.282227,4411.410156,4330.512695,4389.743652,,,,,,,,,,,,,,,,,,,,,,,,,,,,,,,,,,,,,,,,,,,,,,,,,,,,,,,,,,,,,,,,,,,,,,
1720518066,57,0,4268.333496,4242.307617,4268.846191,4274.230957,4229.487305,4245,4242.692383,4259.230957,4231.410156,4254.230957,4421.282227,4402.94873,4307.820313,4374.615234,,,,,,,,,,,,,,,,,,,,,,,,,,,,,,,,,,,,,,,,,,,,,,,,,,,,,,,,,,,,,,,,,,,,,,
1720518066,58,0,4270.128418,4244.743652,4271.794922,4284.743652,4231.025879,4249.230957,4246.666504,4263.717773,4228.077148,4257.179688,4422.307617,4406.282227,4300.128418,4378.717773,,,,,,,,,,,,,,,,,,,,,,,,,,,,,,,,,,,,,,,,,,,,,,,,,,,,,,,,,,,,,,,,,,,,,,
1720518066,59,0,4284.358887,4248.974121,4264.358887,4292.563965,4235.769043,4251.794922,4250.897461,4264.102539,4227.179688,4267.05127,4433.333496,4404.230957,4313.205078,4385.641113,,,,,,,,,,,,,,,,,,,,,,,,,,,,,,,,,,,,,,,,,,,,,,,,,,,,,,,,,,,,,,,,,,,,,,
1720518066,60,0,4285.384766,4247.94873,4241.282227,4292.436035,4230.641113,4243.461426,4241.025879,4260.128418,4214.230957,4263.461426,4432.179688,4404.487305,4313.717773,4386.282227,,,,,,,,,,,,,,,,,,,,,,,,,,,,,,,,,,,,,,,,,,,,,,,,,,,,,,,,,,,,,,,,,,,,,,
1720518066,61,0,4280.641113,4248.077148,4229.230957,4296.666504,4240.128418,4246.153809,4233.717773,4257.692383,4209.743652,4261.153809,4424.743652,4411.538574,4306.794922,4382.436035,,,,,,,,,,,,,,,,,,,,,,,,,,,,,,,,,,,,,,,,,,,,,,,,,,,,,,,,,,,,,,,,,,,,,,
1720518066,62,0,4281.922852,4244.487305,4230,4300.512695,4245.384766,4260.384766,4243.205078,4259.230957,4226.153809,4274.871582,4426.794922,4417.307617,4313.205078,4383.974121,,,,,,,,,,,,,,,,,,,,,,,,,,,,,,,,,,,,,,,,,,,,,,,,,,,,,,,,,,,,,,,,,,,,,,
1720518066,63,0,4273.589844,4238.717773,4226.666504,4299.871582,4239.230957,4267.436035,4248.589844,4258.717773,4238.717773,4278.717773,4428.717773,4408.974121,4318.589844,4380.384766,,,,,,,,,,,,,,,,,,,,,,,,,,,,,,,,,,,,,,,,,,,,,,,,,,,,,,,,,,,,,,,,,,,,,,
1720518066,64,0,4259.358887,4238.717773,4220.256348,4293.974121,4238.846191,4265.512695,4233.461426,4249.615234,4230.897461,4259.358887,4419.358887,4394.358887,4303.589844,4365.641113,0.908581,9.417027,0.506048,0.172304,0.111357,0.741664,4.99461,0.211063,0.187102,0.180938,0.386789,3.594326,0.083807,0.072748,0.104055,0.313723,3.280673,0.131528,0.10984,0.113921,0.132572,0.628051,0.278559,0.186745,0.115181,0.178737,1.005651,0.259885,0.156721,0.137252,0.540578,0.871833,0.340844,0.30729,0.144677,0.168503,0.305019,0.145513,0.088995,0.041809,0.623499,3.758784,0.979441,0.442361,0.123567,0.375682,0.339374,0.445528,0.181861,0.119743,0.594332,2.814095,0.260206,0.156219,0.122152,0.446849,3.15774,0.505128,0.101161,0.163959,1.012693,6.698842,0.470319,0.330881,0.223423,0.872016,6.125587,0.279861,0.182285,0.151838
1720518066,65,0,4262.05127,4239.487305,4224.102539,4294.871582,4240,4267.692383,4227.05127,4245,4227.179688,4255.384766,4423.205078,4396.922852,4300.897461,4370,,,,,,,,,,,,,,,,,,,,,,,,,,,,,,,,,,,,,,,,,,,,,,,,,,,,,,,,,,,,,,,,,,,,,,
1720518066,66,0,4266.153809,4234.487305,4232.436035,4301.922852,4240.512695,4276.025879,4241.794922,4253.461426,4238.077148,4276.282227,4436.538574,4406.282227,4319.871582,4387.307617,,,,,,,,,,,,,,,,,,,,,,,,,,,,,,,,,,,,,,,,,,,,,,,,,,,,,,,,,,,,,,,,,,,,,,
1720518066,67,0,4259.358887,4231.153809,4226.153809,4298.333496,4243.333496,4280.641113,4245.641113,4253.846191,4238.717773,4274.743652,4425.512695,4391.922852,4319.487305,4372.692383,,,,,,,,,,,,,,,,,,,,,,,,,,,,,,,,,,,,,,,,,,,,,,,,,,,,,,,,,,,,,,,,,,,,,,
1720518066,68,0,4261.922852,4236.538574,4225.512695,4296.666504,4247.692383,4287.563965,4241.538574,4251.922852,4231.282227,4261.666504,4417.05127,4391.666504,4306.538574,4365.128418,,,,,,,,,,,,,,,,,,,,,,,,,,,,,,,,,,,,,,,,,,,,,,,,,,,,,,,,,,,,,,,,,,,,,,
1720518066,69,0,4266.538574,4233.717773,4233.974121,4301.025879,4243.205078,4292.307617,4246.538574,4258.077148,4232.563965,4269.102539,4427.820313,4407.179688,4308.589844,4383.077148,,,,,,,,,,,,,,,,,,,,,,,,,,,,,,,,,,,,,,,,,,,,,,,,,,,,,,,,,,,,,,,,,,,,,,
1720518066,70,0,4258.717773,4227.179688,4230.128418,4297.820313,4233.974121,4285.128418,4247.179688,4254.743652,4231.794922,4266.538574,4425,4391.794922,4312.05127,4376.282227,,,,,,,,,,,,,,,,,,,,,,,,,,,,,,,,,,,,,,,,,,,,,,,,,,,,,,,,,,,,,,,,,,,,,,
1720518066,71,0,4264.358887,4241.153809,4233.589844,4296.922852,4232.436035,4280.641113,4244.230957,4253.846191,4224.487305,4257.307617,4418.461426,4390.897461,4314.102539,4372.307617,,,,,,,,,,,,,,,,,,,,,,,,,,,,,,,,,,,,,,,,,,,,,,,,,,,,,,,,,,,,,,,,,,,,,,
