Timestamp,EEG.Counter,EEG.Interpolated,EEG.AF3,EEG.F7,EEG.F3,EEG.FC5,EEG.T7,EEG.P7,EEG.O1,EEG.O2,EEG.P8,EEG.T8,EEG.FC6,EEG.F4,EEG.F8,EEG.AF4,POW.AF3.Theta,POW.AF3.Alpha,POW.AF3.BetaL,POW.AF3.BetaH,POW.AF3.Gamma,POW.F7.Theta,POW.F7.Alpha,POW.F7.BetaL,POW.F7.BetaH,POW.F7.Gamma,POW.F3.Theta,POW.F3.Alpha,POW.F3.BetaL,POW.F3.BetaH,POW.F3.Gamma,POW.FC5.Theta,POW.FC5.Alpha,POW.FC5.BetaL,POW.FC5.BetaH,POW.FC5.Gamma,POW.T7.Theta,POW.T7.Alpha,POW.T7.BetaL,POW.T7.BetaH,POW.T7.Gamma,POW.P7.Theta,POW.P7.Alpha,POW.P7.BetaL,POW.P7.BetaH,POW.P7.Gamma,POW.O1.Theta,POW.O1.Alpha,POW.O1.BetaL,POW.O1.BetaH,POW.O1.Gamma,POW.O2.Theta,POW.O2.Alpha,POW.O2.BetaL,POW.O2.BetaH,POW.O2.Gamma,POW.P8.Theta,POW.P8.Alpha,POW.P8.BetaL,POW.P8.BetaH,POW.P8.Gamma,POW.T8.Theta,POW.T8.Alpha,POW.T8.BetaL,POW.T8.BetaH,POW.T8.Gamma,POW.FC6.Theta,POW.FC6.Alpha,POW.FC6.BetaL,POW.FC6.BetaH,POW.FC6.Gamma,POW.F4.Theta,POW.F4.Alpha,POW.F4.BetaL,POW.F4.BetaH,POW.F4.Gamma,POW.F8.Theta,POW.F8.Alpha,POW.F8.BetaL,POW.F8.BetaH,POW.F8.Gamma,POW.AF4.Theta,POW.AF4.Alpha,POW.AF4.BetaL,POW.AF4.BetaH,POW.AF4.Gamma
1720524962,3,0,4337.436035,4235.128418,4336.666504,4385.128418,4236.282227,4306.666504,4280.256348,4322.820313,4263.974121,4266.922852,4533.846191,4498.717773,4379.487305,4738.333496,,,,,,,,,,,,,,,,,,,,,,,,,,,,,,,,,,,,,,,,,,,,,,,,,,,,,,,,,,,,,,,,,,,,,,
1720524962,4,0,4337.692383,4230.128418,4337.179688,4383.589844,4238.205078,4303.461426,4278.717773,4322.436035,4252.563965,4262.563965,4528.333496,4499.871582,4378.461426,4734.743652,5.087978,5.269522,3.119984,1.178563,0.446704,2.422214,2.385676,2.058772,0.73395,0.284687,3.250525,3.020844,1.818016,0.893849,0.293749,2.045045,2.051957,1.142118,0.831803,0.435176,22.622763,10.339665,6.66886,2.105547,0.749823,0.999929,0.584009,0.424587,0.292799,0.126639,1.625459,0.750142,0.59895,0.504595,0.166845,0.577749,0.270955,0.310528,0.233731,0.234887,3.051416,1.854035,1.235612,0.899704,0.235835,4.443435,4.5412,2.280707,1.14724,0.275204,4.908689,5.388675,2.953326,2.250429,0.701077,3.283533,4.844007,3.112061,1.296023,0.437442,5.768724,4.138103,2.843713,2.633684,0.481828,13.352813,7.909074,4.347835,2.199234,0.513779
1720524962,5,0,4346.922852,4232.436035,4342.179688,4393.974121,4248.717773,4314.487305,4286.410156,4320,4247.692383,4261.282227,4528.846191,4509.358887,4372.94873,4736.794922,,,,,,,,,,,,,,,,,,,,,,,,,,,,,,,,,,,,,,,,,,,,,,,,,,,,,,,,,,,,,,,,,,,,,,
1720524962,6,0,4347.94873,4242.307617,4343.717773,4400.128418,4248.589844,4306.025879,4284.743652,4325.384766,4252.94873,4266.153809,4536.794922,4511.922852,4375,4744.230957,,,,,,,,,,,,,,,,,,,,,,,,,,,,,,,,,,,,,,,,,,,,,,,,,,,,,,,,,,,,,,,,,,,,,,
1720524962,7,0,4344.871582,4250,4335.897461,4396.410156,4243.461426,4292.692383,4275.641113,4321.666504,4255.769043,4268.846191,4542.692383,4504.358887,4383.205078,4746.666504,,,,,,,,,,,,,,,,,,,,,,,,,,,,,,,,,,,,,,,,,,,,,,,,,,,,,,,,,,,,,,,,,,,,,,
1720524962,8,0,4347.307617,4249.487305,4335.641113,4404.358887,4247.94873,4304.871582,4282.179688,4321.410156,4263.205078,4275.641113,4551.538574,4508.974121,4394.743652,4748.846191,,,,,,,,,,,,,,,,,,,,,,,,,,,,,,,,,,,,,,,,,,,,,,,,,,,,,,,,,,,,,,,,,,,,,,
1720524962,9,0,4348.846191,4240,4336.025879,4405.128418,4250.641113,4313.589844,4285,4329.358887,4265.384766,4271.282227,4544.615234,4510.641113,4380.512695,4741.538574,,,,,,,,,,,,,,,,,,,,,,,,,,,,,,,,,,,,,,,,,,,,,,,,,,,,,,,,,,,,,,,,,,,,,,
1720524962,10,0,4329.743652,4221.794922,4314.487305,4371.410156,4242.563965,4301.410156,4261.794922,4313.846191,4239.615234,4242.563965,4511.794922,4478.717773,4339.358887,4709.871582,,,,,,,,,,,,,,,,,,,,,,,,,,,,,,,,,,,,,,,,,,,,,,,,,,,,,,,,,,,,,,,,,,,,,,
1720524962,11,0,4309.615234,4213.717773,4298.717773,4350.769043,4233.717773,4289.230957,4244.230957,4303.333496,4215.128418,4217.05127,4488.333496,4456.025879,4316.410156,4692.820313,,,,,,,,,,,,,,,,,,,,,,,,,,,,,,,,,,,,,,,,,,,,,,,,,,,,,,,,,,,,,,,,,,,,,,
1720524962,12,0,4308.333496,4214.615234,4299.230957,4363.077148,4226.922852,4280,4242.436035,4310,4212.436035,4203.717773,4478.461426,4455.128418,4310.384766,4694.230957,,,,,,,,,,,,,,,,,,,,,,,,,,,,,,,,,,,,,,,,,,,,,,,,,,,,,,,,,,,,,,,,,,,,,,
1720524962,13,0,4312.436035,4216.153809,4295.512695,4365.256348,4229.487305,4277.820313,4244.102539,4307.05127,4213.589844,4207.307617,4475.384766,4449.487305,4314.743652,4693.589844,,,,,,,,,,,,,,,,,,,,,,,,,,,,,,,,,,,,,,,,,,,,,,,,,,,,,,,,,,,,,,,,,,,,,,
1720524962,14,0,4320.512695,4224.615234,4302.692383,4364.615234,4241.666504,4291.922852,4257.563965,4312.436035,4224.487305,4231.410156,4499.743652,4461.666504,4346.025879,4714.615234,,,,,,,,,,,,,,,,,,,,,,,,,,,,,,,,,,,,,,,,,,,,,,,,,,,,,,,,,,,,,,,,,,,,,,
1720524962,15,0,4338.333496,4241.794922,4317.563965,4383.077148,4248.974121,4301.025879,4271.538574,4318.589844,4242.820313,4251.153809,4529.871582,4483.333496,4378.589844,4743.717773,,,,,,,,,,,,,,,,,,,,,,,,,,,,,,,,,,,,,,,,,,,,,,,,,,,,,,,,,,,,,,,,,,,,,,
1720524963,16,0,4349.230957,4249.487305,4323.846191,4392.692383,4250.256348,4301.282227,4272.05127,4316.282227,4250.641113,4257.179688,4537.94873,4493.333496,4382.820313,4750.897461,,,,,,,,,,,,,,,,,,,,,,,,,,,,,,,,,,,,,,,,,,,,,,,,,,,,,,,,,,,,,,,,,,,,,,
1720524963,17,0,4348.974121,4245.512695,4329.615234,4385.384766,4254.230957,4310.128418,4274.615234,4320.641113,4251.666504,4264.871582,4544.743652,4503.846191,4382.94873,4759.743652,,,,,,,,,,,,,,,,,,,,,,,,,,,,,,,,,,,,,,,,,,,,,,,,,,,,,,,,,,,,,,,,,,,,,,
1720524963,18,0,4346.282227,4247.820313,4328.205078,4386.282227,4252.563965,4313.077148,4275.384766,4320.384766,4245.384766,4257.563965,4543.205078,4498.205078,4379.743652,4766.410156,,,,,,,,,,,,,,,,,,,,,,,,,,,,,,,,,,,,,,,,,,,,,,,,,,,,,,,,,,,,,,,,,,,,,,
1720524963,19,0,4333.461426,4248.846191,4317.436035,4388.589844,4247.05127,4302.307617,4262.820313,4313.717773,4229.230957,4232.307617,4528.461426,4475.897461,4359.487305,4747.05127,,,,,,,,,,,,,,,,,,,,,,,,,,,,,,,,,,,,,,,,,,,,,,,,,,,,,,,,,,,,,,,,,,,,,,
1720524963,20,0,4328.846191,4247.179688,4323.846191,4384.102539,4253.205078,4296.153809,4265.512695,4315,4232.436035,4239.871582,4540.512695,4483.461426,4365.769043,4746.153809,6.76525,5.823691,3.209582,1.143366,0.467885,2.717514,2.457892,2.147966,0.71998,0.288622,3.628292,3.174097,1.739369,0.907714,0.297928,2.209314,2.029468,1.139776,0.845358,0.415294,32.216496,14.38169,9.115775,2.860678,1.028669,1.073191,0.605784,0.472173,0.284587,0.109408,1.684725,0.805052,0.762897,0.492174,0.166917,0.414477,0.227486,0.212194,0.16563,0.203842,3.403531,1.945983,1.152757,0.769669,0.214421,4.737702,4.424564,2.003902,1.184039,0.269063,5.293214,5.061242,3.529168,2.607579,0.714602,3.69704,4.900702,3.389208,1.377243,0.415778,5.058016,4.107202,3.124783,3.079551,0.490801,16.855837,8.629089,4.908528,2.547533,0.542734
1720524963,21,0,4340.128418,4249.230957,4338.589844,4381.282227,4261.025879,4297.692383,4280.128418,4319.743652,4253.077148,4268.846191,4557.307617,4506.794922,4390.641113,4771.025879,,,,,,,,,,,,,,,,,,,,,,,,,,,,,,,,,,,,,,,,,,,,,,,,,,,,,,,,,,,,,,,,,,,,,,
1720524963,22,0,4333.205078,4249.358887,4332.436035,4379.102539,4260.641113,4302.05127,4280.641113,4321.922852,4257.05127,4267.692383,4543.333496,4503.077148,4386.410156,4771.025879,,,,,,,,,,,,,,,,,,,,,,,,,,,,,,,,,,,,,,,,,,,,,,,,,,,,,,,,,,,,,,,,,,,,,,
1720524963,23,0,4318.205078,4247.179688,4331.922852,4379.615234,4261.410156,4304.871582,4280.641113,4322.94873,4252.179688,4255.128418,4540.128418,4497.05127,4380.128418,4765.641113,,,,,,,,,,,,,,,,,,,,,,,,,,,,,,,,,,,,,,,,,,,,,,,,,,,,,,,,,,,,,,,,,,,,,,
1720524963,24,0,4320.641113,4248.205078,4340.897461,4382.436035,4261.538574,4300.512695,4277.436035,4317.94873,4247.692383,4257.94873,4555.512695,4502.179688,4391.153809,4774.615234,,,,,,,,,,,,,,,,,,,,,,,,,,,,,,,,,,,,,,,,,,,,,,,,,,,,,,,,,,,,,,,,,,,,,,
1720524963,25,0,4324.102539,4252.436035,4340.769043,4383.333496,4257.820313,4298.589844,4272.179688,4318.333496,4240.256348,4261.666504,4551.666504,4500.641113,4388.846191,4770.897461,,,,,,,,,,,,,,,,,,,,,,,,,,,,,,,,,,,,,,,,,,,,,,,,,,,,,,,,,,,,,,,,,,,,,,
1720524963,26,0,4319.615234,4251.282227,4337.94873,4380.128418,4257.692383,4304.358887,4284.743652,4319.230957,4239.615234,4252.436035,4548.717773,4498.589844,4376.282227,4761.538574,,,,,,,,,,,,,,,,,,,,,,,,,,,,,,,,,,,,,,,,,,,,,,,,,,,,,,,,,,,,,,,,,,,,,,
1720524963,27,0,4316.538574,4248.205078,4335.641113,4379.230957,4260,4306.666504,4301.410156,4312.307617,4247.94873,4247.94873,4559.743652,4499.871582,4377.692383,4764.615234,,,,,,,,,,,,,,,,,,,,,,,,,,,,,,,,,,,,,,,,,,,,,,,,,,,,,,,,,,,,,,,,,,,,,,
1720524963,28,0,4314.871582,4248.589844,4336.410156,4387.307617,4257.820313,4300.897461,4295.641113,4320.128418,4246.410156,4256.666504,4548.717773,4502.692383,4377.436035,4764.743652,,,,,,,,,,,,,,,,,,,,,,,,,,,,,,,,,,,,,,,,,,,,,,,,,,,,,,,,,,,,,,,,,,,,,,
1720524963,29,0,4318.077148,4251.282227,4344.230957,4387.05127,4257.94873,4301.538574,4289.487305,4325.384766,4239.615234,4266.922852,4532.820313,4505.897461,4368.846191,4763.974121,,,,,,,,,,,,,,,,,,,,,,,,,,,,,,,,,,,,,,,,,,,,,,,,,,,,,,,,,,,,,,,,,,,,,,
1720524963,30,0,4318.717773,4247.563965,4346.922852,4377.436035,4259.102539,4303.974121,4295.128418,4316.153809,4239.615234,4262.563965,4537.05127,4503.461426,4370.897461,4769.487305,,,,,,,,,,,,,,,,,,,,,,,,,,,,,,,,,,,,,,,,,,,,,,,,,,,,,,,,,,,,,,,,,,,,,,
1720524963,31,0,4305,4236.410156,4336.153809,4374.358887,4254.487305,4297.307617,4291.153809,4314.487305,4235.769043,4248.717773,4541.410156,4500.769043,4373.717773,4770.256348,,,,,,,,,,,,,,,,,,,,,,,,,,,,,,,,,,,,,,,,,,,,,,,,,,,,,,,,,,,,,,,,,,,,,,
1720524963,32,0,4289.230957,4230.384766,4323.205078,4367.820313,4248.333496,4292.820313,4285.384766,4313.077148,4234.487305,4247.05127,4535,4495.769043,4362.94873,4760.512695,,,,,,,,,,,,,,,,,,,,,,,,,,,,,,,,,,,,,,,,,,,,,,,,,,,,,,,,,,,,,,,,,,,,,,
1720524963,33,0,4288.717773,4236.666504,4323.205078,4357.307617,4249.743652,4293.846191,4290.128418,4313.077148,4243.974121,4256.025879,4534.358887,4491.153809,4355.256348,4758.846191,,,,,,,,,,,,,,,,,,,,,,,,,,,,,,,,,,,,,,,,,,,,,,,,,,,,,,,,,,,,,,,,,,,,,,
1720524963,34,0,4300.512695,4248.077148,4336.666504,4367.94873,4256.922852,4289.487305,4297.05127,4319.743652,4252.94873,4265.641113,4550.384766,4503.205078,4368.846191,4771.153809,,,,,,,,,,,,,,,,,,,,,,,,,,,,,,,,,,,,,,,,,,,,,,,,,,,,,,,,,,,,,,,,,,,,,,
1720524963,35,0,4301.922852,4249.871582,4342.563965,4380.897461,4260.256348,4287.692383,4299.358887,4318.974121,4247.692383,4265.897461,4554.743652,4509.358887,4373.717773,4770.512695,,,,,,,,,,,,,,,,,,,,,,,,,,,,,,,,,,,,,,,,,,,,,,,,,,,,,,,,,,,,,,,,,,,,,,
1720524963,36,0,4298.205078,4246.025879,4337.436035,4373.589844,4261.153809,4293.846191,4293.589844,4314.487305,4237.179688,4255.512695,4545.128418,4496.794922,4362.692383,4756.282227,8.297394,5.789286,3.129651,1.09423,0.464326,3.114956,2.35248,2.184318,0.717533,0.281931,3.815651,3.185793,1.627475,0.902058,0.28942,2.207628,1.909966,1.108709,0.853353,0.379245,39.052242,17.015425,10.671421,3.361087,1.219838,1.076791,0.625371,0.54481,0.265366,0.096928,1.660953,0.857679,0.947774,0.493704,0.165078,0.30705,0.212116,0.164877,0.127731,0.179272,3.566208,2.013607,1.117207,0.69465,0.194295,4.711819,4.124713,1.749478,1.206297,0.266656,5.32977,4.579526,3.855458,2.78328,0.710539,3.846567,4.608428,3.46793,1.391598,0.390264,4.424189,3.877737,3.224268,3.324204,0.499527,18.52383,8.552415,5.060093,2.690982,0.558996
1720524963,37,0,4305.384766,4248.333496,4339.230957,4369.102539,4261.410156,4292.436035,4284.230957,4317.179688,4233.589844,4248.974121,4544.743652,4497.179688,4359.230957,4749.487305,,,,,,,,,,,,,,,,,,,,,,,,,,,,,,,,,,,,,,,,,,,,,,,,,,,,,,,,,,,,,,,,,,,,,,
1720524963,38,0,4306.922852,4250.769043,4336.410156,4369.871582,4258.717773,4287.820313,4278.846191,4311.025879,4233.974121,4249.230957,4544.102539,4500.128418,4355.641113,4742.179688,,,,,,,,,,,,,,,,,,,,,,,,,,,,,,,,,,,,,,,,,,,,,,,,,,,,,,,,,,,,,,,,,,,,,,
1720524963,39,0,4300,4248.717773,4326.410156,4366.282227,4256.153809,4291.025879,4278.333496,4308.205078,4233.333496,4248.333496,4531.153809,4483.846191,4350.897461,4727.820313,,,,,,,,,,,,,,,,,,,,,,,,,,,,,,,,,,,,,,,,,,,,,,,,,,,,,,,,,,,,,,,,,,,,,,
1720524963,40,0,4297.436035,4247.820313,4324.615234,4365.769043,4256.410156,4292.692383,4276.922852,4317.563965,4228.974121,4248.077148,4522.692383,4479.102539,4352.05127,4719.743652,,,,,,,,,,,,,,,,,,,,,,,,,,,,,,,,,,,,,,,,,,,,,,,,,,,,,,,,,,,,,,,,,,,,,,
1720524963,41,0,4294.615234,4249.871582,4322.05127,4361.025879,4262.692383,4293.461426,4277.94873,4311.410156,4230.384766,4248.077148,4523.846191,4486.794922,4352.436035,4719.615234,,,,,,,,,,,,,,,,,,,,,,,,,,,,,,,,,,,,,,,,,,,,,,,,,,,,,,,,,,,,,,,,,,,,,,
1720524963,42,0,4291.282227,4249.102539,4318.974121,4359.615234,4264.487305,4297.179688,4281.922852,4310.897461,4236.922852,4248.846191,4527.820313,4487.563965,4353.077148,4719.743652,,,,,,,,,,,,,,,,,,,,,,,,,,,,,,,,,,,,,,,,,,,,,,,,,,,,,,,,,,,,,,,,,,,,,,
1720524963,43,0,4288.846191,4240.128418,4317.94873,4366.025879,4249.743652,4296.922852,4281.538574,4317.05127,4235.384766,4244.487305,4528.461426,4482.563965,4347.563965,4705.769043,,,,,,,,,,,,,,,,,,,,,,,,,,,,,,,,,,,,,,,,,,,,,,,,,,,,,,,,,,,,,,,,,,,,,,
1720524963,44,0,4278.333496,4234.487305,4306.922852,4360.384766,4229.358887,4293.846191,4276.922852,4311.025879,4228.717773,4235.769043,4518.589844,4476.153809,4338.974121,4684.230957,,,,,,,,,,,,,,,,,,,,,,,,,,,,,,,,,,,,,,,,,,,,,,,,,,,,,,,,,,,,,,,,,,,,,,
1720524963,45,0,4273.461426,4241.922852,4305.897461,4352.820313,4228.717773,4295.128418,4277.563965,4312.436035,4236.153809,4239.871582,4518.077148,4478.846191,4349.615234,4688.846191,,,,,,,,,,,,,,,,,,,,,,,,,,,,,,,,,,,,,,,,,,,,,,,,,,,,,,,,,,,,,,,,,,,,,,
1720524963,46,0,4285.128418,4254.487305,4321.282227,4362.179688,4237.94873,4297.692383,4282.179688,4317.179688,4248.717773,4251.282227,4532.820313,4485.384766,4363.589844,4703.717773,,,,,,,,,,,,,,,,,,,,,,,,,,,,,,,,,,,,,,,,,,,,,,,,,,,,,,,,,,,,,,,,,,,,,,
1720524963,47,0,4286.922852,4256.282227,4320.897461,4367.307617,4234.615234,4296.666504,4282.820313,4313.846191,4243.974121,4244.615234,4536.153809,4486.025879,4355.384766,4696.666504,,,,,,,,,,,,,,,,,,,,,,,,,,,,,,,,,,,,,,,,,,,,,,,,,,,,,,,,,,,,,,,,,,,,,,
1720524963,48,0,4282.307617,4251.025879,4314.871582,4366.025879,4236.410156,4297.692383,4284.871582,4312.436035,4241.025879,4240.256348,4532.307617,4488.205078,4354.358887,4694.487305,,,,,,,,,,,,,,,,,,,,,,,,,,,,,,,,,,,,,,,,,,,,,,,,,,,,,,,,,,,,,,,,,,,,,,
1720524963,49,0,4294.743652,4253.846191,4331.282227,4368.205078,4248.333496,4298.846191,4290.512695,4318.974121,4251.538574,4258.461426,4543.205078,4500,4372.820313,4713.717773,,,,,,,,,,,,,,,,,,,,,,,,,,,,,,,,,,,,,,,,,,,,,,,,,,,,,,,,,,,,,,,,,,,,,,
1720524963,50,0,4305.769043,4261.538574,4343.077148,4365.128418,4245.897461,4292.436035,4290.897461,4319.487305,4251.666504,4262.179688,4553.717773,4506.666504,4376.794922,4715.897461,,,,,,,,,,,,,,,,,,,,,,,,,,,,,,,,,,,,,,,,,,,,,,,,,,,,,,,,,,,,,,,,,,,,,,
1720524963,51,0,4302.94873,4267.307617,4333.589844,4369.615234,4238.589844,4287.692383,4289.871582,4316.538574,4246.410156,4255.384766,4555,4506.922852,4374.743652,4702.94873,,,,,,,,,,,,,,,,,,,,,,,,,,,,,,,,,,,,,,,,,,,,,,,,,,,,,,,,,,,,,,,,,,,,,,
1720524963,52,0,4296.922852,4267.692383,4328.589844,4378.589844,4241.922852,4287.820313,4291.282227,4320,4250.769043,4257.94873,4555.384766,4511.282227,4378.717773,4699.487305,9.308599,5.112983,2.905409,0.992272,0.432949,3.407944,2.065205,2.105149,0.709783,0.26223,3.817551,2.999581,1.502995,0.831577,0.268159,2.077259,1.685893,1.062505,0.835506,0.328573,40.663479,17.27883,10.797152,3.420635,1.25568,1.059794,0.645673,0.62602,0.240887,0.090557,1.611438,0.888938,1.118864,0.488903,0.161801,0.249659,0.212172,0.160392,0.112596,0.162779,3.488748,1.969038,1.128463,0.6546,0.182138,4.404078,3.624057,1.566296,1.181778,0.267393,5.123984,3.926129,3.887272,2.71192,0.686737,3.767486,3.970478,3.341617,1.29439,0.368509,4.160841,3.45509,3.203143,3.275638,0.512075,19.981283,7.665176,4.813491,2.561654,0.558696
1720524963,53,0,4290.512695,4266.922852,4332.692383,4372.436035,4246.410156,4289.743652,4289.743652,4322.820313,4252.307617,4257.94873,4549.230957,4509.358887,4372.820313,4687.94873,,,,,,,,,,,,,,,,,,,,,,,,,,,,,,,,,,,,,,,,,,,,,,,,,,,,,,,,,,,,,,,,,,,,,,
1720524963,54,0,4284.487305,4262.179688,4330.769043,4363.589844,4247.307617,4293.589844,4289.230957,4318.846191,4249.615234,4253.846191,4542.179688,4500,4362.692383,4660.128418,,,,,,,,,,,,,,,,,,,,,,,,,,,,,,,,,,,,,,,,,,,,,,,,,,,,,,,,,,,,,,,,,,,,,,
1720524963,55,0,4282.307617,4263.205078,4325.641113,4366.922852,4251.282227,4294.871582,4293.461426,4312.820313,4251.410156,4254.615234,4548.461426,4495.256348,4364.358887,4637.436035,,,,,,,,,,,,,,,,,,,,,,,,,,,,,,,,,,,,,,,,,,,,,,,,,,,,,,,,,,,,,,,,,,,,,,
1720524963,56,0,4284.230957,4277.05127,4326.794922,4374.615234,4251.538574,4293.077148,4294.230957,4323.205078,4253.077148,4255.384766,4557.179688,4500.512695,4368.974121,4626.153809,,,,,,,,,,,,,,,,,,,,,,,,,,,,,,,,,,,,,,,,,,,,,,,,,,,,,,,,,,,,,,,,,,,,,,
1720524963,57,0,4284.615234,4276.538574,4329.358887,4371.922852,4250.256348,4294.358887,4289.487305,4328.589844,4250,4250.897461,4551.153809,4500,4359.230957,4608.333496,,,,,,,,,,,,,,,,,,,,,,,,,,,,,,,,,,,,,,,,,,,,,,,,,,,,,,,,,,,,,,,,,,,,,,
1720524963,58,0,4287.179688,4267.179688,4330.256348,4368.205078,4255.897461,4296.025879,4286.922852,4316.794922,4248.461426,4252.307617,4547.307617,4494.358887,4353.717773,4593.974121,,,,,,,,,,,,,,,,,,,,,,,,,,,,,,,,,,,,,,,,,,,,,,,,,,,,,,,,,,,,,,,,,,,,,,
1720524963,59,0,4292.05127,4275.512695,4333.461426,4376.282227,4256.410156,4290.769043,4290.256348,4321.666504,4250.128418,4261.025879,4555.769043,4503.717773,4361.666504,4591.794922,,,,,,,,,,,,,,,,,,,,,,,,,,,,,,,,,,,,,,,,,,,,,,,,,,,,,,,,,,,,,,,,,,,,,,
1720524963,60,0,4292.692383,4284.358887,4330,4378.461426,4249.358887,4290.256348,4291.153809,4327.436035,4250.384766,4267.307617,4555.128418,4507.436035,4363.717773,4580.128418,,,,,,,,,,,,,,,,,,,,,,,,,,,,,,,,,,,,,,,,,,,,,,,,,,,,,,,,,,,,,,,,,,,,,,
1720524963,61,0,4283.846191,4272.307617,4316.153809,4361.410156,4247.436035,4291.025879,4283.077148,4320.769043,4247.820313,4261.538574,4548.717773,4493.589844,4353.077148,4547.820313,,,,,,,,,,,,,,,,,,,,,,,,,,,,,,,,,,,,,,,,,,,,,,,,,,,,,,,,,,,,,,,,,,,,,,
1720524963,62,0,4272.820313,4262.820313,4309.358887,4352.179688,4248.333496,4284.487305,4275.641113,4320.769043,4244.871582,4255.769043,4552.05127,4490.256348,4352.94873,4509.871582,,,,,,,,,,,,,,,,,,,,,,,,,,,,,,,,,,,,,,,,,,,,,,,,,,,,,,,,,,,,,,,,,,,,,,
1720524963,63,0,4267.307617,4262.692383,4306.794922,4354.102539,4245.641113,4283.717773,4278.846191,4319.230957,4246.794922,4265.128418,4550,4496.410156,4364.102539,4479.230957,,,,,,,,,,,,,,,,,,,,,,,,,,,,,,,,,,,,,,,,,,,,,,,,,,,,,,,,,,,,,,,,,,,,,,
1720524963,64,0,4269.487305,4266.153809,4303.461426,4355.769043,4248.974121,4291.666504,4279.743652,4315.897461,4247.820313,4264.487305,4539.230957,4494.615234,4352.05127,4457.05127,,,,,,,,,,,,,,,,,,,,,,,,,,,,,,,,,,,,,,,,,,,,,,,,,,,,,,,,,,,,,,,,,,,,,,
1720524963,65,0,4273.846191,4280.128418,4309.871582,4364.743652,4258.461426,4293.974121,4277.563965,4323.461426,4246.025879,4250.641113,4541.282227,4492.94873,4333.974121,4442.692383,,,,,,,,,,,,,,,,,,,,,,,,,,,,,,,,,,,,,,,,,,,,,,,,,,,,,,,,,,,,,,,,,,,,,,
1720524963,66,0,4270.512695,4284.615234,4320.256348,4369.871582,4266.025879,4292.820313,4287.563965,4325.256348,4248.333496,4252.436035,4546.025879,4493.205078,4339.871582,4429.102539,,,,,,,,,,,,,,,,,,,,,,,,,,,,,,,,,,,,,,,,,,,,,,,,,,,,,,,,,,,,,,,,,,,,,,
1720524963,67,0,4271.410156,4279.615234,4321.794922,4365.641113,4270.256348,4298.846191,4298.589844,4320.897461,4252.563965,4265.384766,4537.692383,4487.179688,4342.05127,4412.94873,,,,,,,,,,,,,,,,,,,,,,,,,,,,,,,,,,,,,,,,,,,,,,,,,,,,,,,,,,,,,,,,,,,,,,
1720524963,68,0,4276.410156,4286.410156,4317.307617,4366.410156,4268.461426,4295.897461,4293.205078,4326.282227,4248.717773,4261.410156,4531.410156,4486.794922,4328.461426,4397.94873,9.460694,3.985941,2.624794,0.829716,0.381559,3.519754,1.664781,1.902226,0.689973,0.231881,3.60428,2.624563,1.390572,0.689022,0.239556,1.795449,1.396625,1.04689,0.788586,0.275812,36.445885,15.047227,9.439597,3.009452,1.122575,1.031951,0.665155,0.694669,0.221226,0.09308,1.580005,0.899762,1.246321,0.470023,0.159798,0.223838,0.212629,0.175556,0.107873,0.151054,3.201323,1.796093,1.180392,0.639681,0.180505,3.879251,3.002376,1.491631,1.122334,0.270972,4.805752,3.187897,3.724386,2.42245,0.64382,3.59421,3.142448,3.071966,1.098032,0.355315,4.21696,2.973171,3.197905,2.971051,0.527607,18.349504,6.261994,4.291537,2.197865,0.5415
1720524963,69,0,4275.128418,4296.025879,4316.410156,4369.102539,4265.641113,4284.102539,4287.05127,4322.563965,4242.179688,4255.512695,4539.102539,4494.230957,4335.128418,4397.563965,,,,,,,,,,,,,,,,,,,,,,,,,,,,,,,,,,,,,,,,,,,,,,,,,,,,,,,,,,,,,,,,,,,,,,
1720524963,70,0,4278.077148,4293.974121,4322.563965,4370.256348,4265.512695,4280.512695,4289.358887,4318.589844,4242.563965,4263.717773,4548.589844,4500.897461,4357.692383,4407.563965,,,,,,,,,,,,,,,,,,,,,,,,,,,,,,,,,,,,,,,,,,,,,,,,,,,,,,,,,,,,,,,,,,,,,,
1720524963,71,0,4284.358887,4293.717773,4326.538574,4374.487305,4265.641113,4282.563965,4288.846191,4321.538574,4246.538574,4266.025879,4545.897461,4501.794922,4357.307617,4396.538574,,,,,,,,,,,,,,,,,,,,,,,,,,,,,,,,,,,,,,,,,,,,,,,,,,,,,,,,,,,,,,,,,,,,,,
1720524963,72,0,4281.794922,4296.922852,4325.128418,4375.641113,4268.077148,4286.794922,4291.025879,4314.615234,4250.897461,4263.461426,4543.077148,4503.077148,4358.717773,4378.974121,,,,,,,,,,,,,,,,,,,,,,,,,,,,,,,,,,,,,,,,,,,,,,,,,,,,,,,,,,,,,,,,,,,,,,
1720524963,73,0,4276.025879,4293.846191,4325.384766,4369.615234,4271.282227,4293.333496,4295.384766,4314.615234,4253.333496,4272.436035,4555.641113,4509.358887,4378.077148,4373.077148,,,,,,,,,,,,,,,,,,,,,,,,,,,,,,,,,,,,,,,,,,,,,,,,,,,,,,,,,,,,,,,,,,,,,,
1720524963,74,0,4272.820313,4291.538574,4320.384766,4359.871582,4268.974121,4295.512695,4288.077148,4317.307617,4252.692383,4277.307617,4559.871582,4501.410156,4378.974121,4357.05127,,,,,,,,,,,,,,,,,,,,,,,,,,,,,,,,,,,,,,,,,,,,,,,,,,,,,,,,,,,,,,,,,,,,,,
1720524963,75,0,4267.692383,4287.692383,4310.641113,4353.205078,4262.692383,4293.205078,4278.974121,4311.922852,4253.077148,4269.230957,4538.717773,4487.179688,4363.333496,4335.769043,,,,,,,,,,,,,,,,,,,,,,,,,,,,,,,,,,,,,,,,,,,,,,,,,,,,,,,,,,,,,,,,,,,,,,
1720524963,76,0,4261.794922,4279.871582,4311.282227,4354.230957,4261.794922,4293.589844,4283.077148,4312.436035,4253.589844,4260.128418,4520.897461,4485.512695,4360.384766,4328.461426,,,,,,,,,,,,,,,,,,,,,,,,,,,,,,,,,,,,,,,,,,,,,,,,,,,,,,,,,,,,,,,,,,,,,,
1720524963,77,0,4263.333496,4286.025879,4319.102539,4362.436035,4267.436035,4297.05127,4292.820313,4318.974121,4252.05127,4261.025879,4526.794922,4491.025879,4371.282227,4334.102539,,,,,,,,,,,,,,,,,,,,,,,,,,,,,,,,,,,,,,,,,,,,,,,,,,,,,,,,,,,,,,,,,,,,,,
1720524963,78,0,4271.922852,4301.410156,4323.205078,4366.666504,4276.538574,4305,4295.897461,4320.512695,4252.179688,4270.128418,4538.717773,4498.846191,4378.333496,4343.077148,,,,,,,,,,,,,,,,,,,,,,,,,,,,,,,,,,,,,,,,,,,,,,,,,,,,,,,,,,,,,,,,,,,,,,
1720524963,79,0,4272.436035,4300.897461,4318.974121,4362.94873,4278.846191,4310.256348,4296.538574,4315.769043,4253.461426,4272.307617,4539.743652,4498.461426,4374.102539,4336.538574,,,,,,,,,,,,,,,,,,,,,,,,,,,,,,,,,,,,,,,,,,,,,,,,,,,,,,,,,,,,,,,,,,,,,,
1720524963,80,0,4265.769043,4294.487305,4311.666504,4364.102539,4271.666504,4301.282227,4297.692383,4315.384766,4248.846191,4262.307617,4534.102539,4491.282227,4372.436035,4317.563965,,,,,,,,,,,,,,,,,,,,,,,,,,,,,,,,,,,,,,,,,,,,,,,,,,,,,,,,,,,,,,,,,,,,,,
1720524963,81,0,4267.307617,4302.94873,4309.358887,4370.512695,4268.717773,4291.282227,4295.769043,4321.922852,4244.358887,4256.410156,4539.487305,4493.077148,4377.94873,4317.94873,,,,,,,,,,,,,,,,,,,,,,,,,,,,,,,,,,,,,,,,,,,,,,,,,,,,,,,,,,,,,,,,,,,,,,
1720524963,82,0,4276.538574,4310.769043,4312.94873,4369.358887,4275.256348,4292.94873,4292.563965,4323.589844,4253.461426,4270.384766,4550.512695,4504.230957,4385.897461,4329.871582,,,,,,,,,,,,,,,,,,,,,,,,,,,,,,,,,,,,,,,,,,,,,,,,,,,,,,,,,,,,,,,,,,,,,,
1720524963,83,0,4277.820313,4309.743652,4316.410156,4369.358887,4280.128418,4296.410156,4295.641113,4313.461426,4266.282227,4285.641113,4556.282227,4510.641113,4401.410156,4330.641113,,,,,,,,,,,,,,,,,,,,,,,,,,,,,,,,,,,,,,,,,,,,,,,,,,,,,,,,,,,,,,,,,,,,,,
1720524963,84,0,4271.922852,4311.282227,4316.794922,4376.282227,4278.717773,4295.897461,4301.282227,4318.205078,4267.436035,4286.538574,4558.205078,4513.333496,4413.846191,4337.307617,8.694727,2.770402,2.413985,0.643209,0.325272,3.35387,1.263389,1.6392,0.666798,0.197826,3.413848,2.153992,1.325332,0.515796,0.212747,1.526321,1.116293,1.110853,0.728661,0.235541,27.871048,11.120038,7.08323,2.276749,0.868617,1.048451,0.673751,0.736307,0.216195,0.105513,1.673277,0.896597,1.314244,0.448155,0.161723,0.224653,0.204868,0.192091,0.106746,0.13997,2.842209,1.539673,1.266469,0.65904,0.187312,3.379889,2.41367,1.552758,1.075823,0.279109,4.758422,2.522827,3.54808,2.022783,0.587498,3.586771,2.361251,2.76783,0.870809,0.351292,4.699856,2.599298,3.333766,2.551826,0.540892,17.134329,4.809202,3.745827,1.731246,0.512584
1720524963,85,0,4269.871582,4305.128418,4313.205078,4369.615234,4279.358887,4297.179688,4300.384766,4330.256348,4266.922852,4280.384766,4549.615234,4510.512695,4402.563965,4341.794922,,,,,,,,,,,,,,,,,,,,,,,,,,,,,,,,,,,,,,,,,,,,,,,,,,,,,,,,,,,,,,,,,,,,,,
1720524963,86,0,4269.743652,4292.179688,4306.153809,4352.307617,4279.743652,4298.461426,4294.102539,4316.922852,4263.717773,4269.487305,4529.487305,4494.102539,4389.358887,4323.333496,,,,,,,,,,,,,,,,,,,,,,,,,,,,,,,,,,,,,,,,,,,,,,,,,,,,,,,,,,,,,,,,,,,,,,
1720524963,87,0,4271.922852,4298.974121,4307.692383,4355.512695,4277.436035,4296.922852,4293.589844,4313.461426,4252.05127,4264.487305,4529.230957,4492.436035,4400.256348,4316.666504,,,,,,,,,,,,,,,,,,,,,,,,,,,,,,,,,,,,,,,,,,,,,,,,,,,,,,,,,,,,,,,,,,,,,,
1720524963,88,0,4277.692383,4313.461426,4317.94873,4372.820313,4282.307617,4295.256348,4300.512695,4325.128418,4248.205078,4272.179688,4549.487305,4509.358887,4412.179688,4330.897461,,,,,,,,,,,,,,,,,,,,,,,,,,,,,,,,,,,,,,,,,,,,,,,,,,,,,,,,,,,,,,,,,,,,,,
1720524963,89,0,4283.461426,4315.128418,4327.05127,4377.820313,4285.256348,4293.974121,4305.897461,4322.436035,4251.538574,4276.922852,4558.077148,4515.128418,4412.179688,4332.179688,,,,,,,,,,,,,,,,,,,,,,,,,,,,,,,,,,,,,,,,,,,,,,,,,,,,,,,,,,,,,,,,,,,,,,
1720524963,90,0,4287.820313,4318.846191,4334.358887,4375.897461,4285.641113,4294.743652,4308.205078,4320.769043,4250.256348,4276.666504,4556.410156,4516.538574,4414.102539,4328.974121,,,,,,,,,,,,,,,,,,,,,,,,,,,,,,,,,,,,,,,,,,,,,,,,,,,,,,,,,,,,,,,,,,,,,,
1720524963,91,0,4282.94873,4323.589844,4335.128418,4374.358887,4288.205078,4293.589844,4305.512695,4324.358887,4250.256348,4284.871582,4560.256348,4524.102539,4418.589844,4333.205078,,,,,,,,,,,,,,,,,,,,,,,,,,,,,,,,,,,,,,,,,,,,,,,,,,,,,,,,,,,,,,,,,,,,,,
1720524963,92,0,4265.641113,4311.410156,4327.436035,4362.820313,4284.487305,4288.077148,4294.743652,4321.410156,4247.563965,4287.05127,4560.512695,4522.563965,4414.871582,4321.025879,,,,,,,,,,,,,,,,,,,,,,,,,,,,,,,,,,,,,,,,,,,,,,,,,,,,,,,,,,,,,,,,,,,,,,
1720524963,93,0,4259.743652,4308.333496,4326.025879,4359.743652,4281.538574,4290.256348,4290.256348,4321.410156,4245.641113,4279.871582,4550,4515,4404.615234,4302.179688,,,,,,,,,,,,,,,,,,,,,,,,,,,,,,,,,,,,,,,,,,,,,,,,,,,,,,,,,,,,,,,,,,,,,,
1720524963,94,0,4271.282227,4324.871582,4326.794922,4373.589844,4288.077148,4297.179688,4297.307617,4321.282227,4256.153809,4281.794922,4545.128418,4510.897461,4396.538574,4302.179688,,,,,,,,,,,,,,,,,,,,,,,,,,,,,,,,,,,,,,,,,,,,,,,,,,,,,,,,,,,,,,,,,,,,,,
1720524963,95,0,4266.794922,4324.102539,4315,4369.871582,4285.128418,4291.538574,4295.769043,4317.436035,4258.205078,4275.897461,4540.769043,4501.025879,4383.333496,4294.615234,,,,,,,,,,,,,,,,,,,,,,,,,,,,,,,,,,,,,,,,,,,,,,,,,,,,,,,,,,,,,,,,,,,,,,
1720524963,96,0,4250,4310.128418,4303.846191,4357.820313,4277.05127,4287.05127,4293.461426,4324.743652,4245.384766,4258.974121,4526.282227,4493.205078,4369.615234,4261.282227,,,,,,,,,,,,,,,,,,,,,,,,,,,,,,,,,,,,,,,,,,,,,,,,,,,,,,,,,,,,,,,,,,,,,,
1720524963,97,0,4251.538574,4310,4304.743652,4362.307617,4285.256348,4297.307617,4306.153809,4323.077148,4250.128418,4263.205078,4522.563965,4493.717773,4371.794922,4238.846191,,,,,,,,,,,,,,,,,,,,,,,,,,,,,,,,,,,,,,,,,,,,,,,,,,,,,,,,,,,,,,,,,,,,,,
1720524963,98,0,4258.333496,4315.512695,4305.128418,4355.512695,4290.384766,4300.384766,4307.563965,4314.871582,4264.358887,4275.769043,4536.282227,4496.410156,4383.589844,4241.922852,,,,,,,,,,,,,,,,,,,,,,,,,,,,,,,,,,,,,,,,,,,,,,,,,,,,,,,,,,,,,,,,,,,,,,
1720524963,99,0,4255.128418,4317.05127,4301.922852,4342.692383,4283.846191,4294.358887,4295.897461,4320.384766,4251.282227,4269.615234,4537.94873,4501.410156,4383.974121,4237.820313,,,,,,,,,,,,,,,,,,,,,,,,,,,,,,,,,,,,,,,,,,,,,,,,,,,,,,,,,,,,,,,,,,,,,,
1720524963,100,0,4257.307617,4319.358887,4300.256348,4352.436035,4280.897461,4292.94873,4294.871582,4317.94873,4230.512695,4258.974121,4523.717773,4499.358887,4373.333496,4213.461426,7.32788,1.836539,2.366343,0.489785,0.278661,2.985716,0.967707,1.405565,0.651648,0.16952,3.346245,1.722208,1.331911,0.375513,0.195891,1.328238,0.926212,1.267145,0.680105,0.216833,17.893778,6.81852,4.505538,1.477751,0.579829,1.121166,0.661957,0.749,0.229587,0.12429,1.912359,0.892682,1.321002,0.441719,0.168068,0.237159,0.19261,0.204263,0.10996,0.128826,2.556746,1.276493,1.364218,0.724131,0.197479,3.05817,2.01712,1.744007,1.084596,0.293524,5.010321,2.119944,3.498037,1.643972,0.527605,3.857648,1.851343,2.53076,0.696766,0.353444,5.60087,2.449951,3.644985,2.178496,0.545766,15.66849,3.77121,3.429022,1.321736,0.481716
1720524963,101,0,4267.94873,4329.102539,4304.871582,4360.897461,4280.512695,4285.384766,4291.666504,4312.179688,4235.512695,4260.641113,4524.230957,4501.282227,4372.179688,4201.282227,,,,,,,,,,,,,,,,,,,,,,,,,,,,,,,,,,,,,,,,,,,,,,,,,,,,,,,,,,,,,,,,,,,,,,
1720524963,102,0,4276.794922,4340.512695,4314.615234,4358.333496,4287.94873,4275.641113,4282.307617,4317.436035,4250.384766,4274.230957,4540.897461,4515.384766,4386.538574,4208.333496,,,,,,,,,,,,,,,,,,,,,,,,,,,,,,,,,,,,,,,,,,,,,,,,,,,,,,,,,,,,,,,,,,,,,,
1720524963,103,0,4275.512695,4339.487305,4313.333496,4356.538574,4292.307617,4276.025879,4282.94873,4320.256348,4251.666504,4278.461426,4550.512695,4512.820313,4392.94873,4199.615234,,,,,,,,,,,,,,,,,,,,,,,,,,,,,,,,,,,,,,,,,,,,,,,,,,,,,,,,,,,,,,,,,,,,,,
1720524963,104,0,4263.846191,4334.615234,4299.102539,4351.410156,4283.461426,4277.436035,4286.538574,4318.333496,4250.769043,4265.769043,4538.974121,4494.230957,4378.974121,4171.666504,,,,,,,,,,,,,,,,,,,,,,,,,,,,,,,,,,,,,,,,,,,,,,,,,,,,,,,,,,,,,,,,,,,,,,
1720524963,105,0,4260.641113,4336.666504,4297.436035,4347.179688,4283.717773,4281.538574,4292.307617,4321.922852,4261.794922,4266.282227,4527.94873,4494.102539,4373.846191,4160.641113,,,,,,,,,,,,,,,,,,,,,,,,,,,,,,,,,,,,,,,,,,,,,,,,,,,,,,,,,,,,,,,,,,,,,,
1720524963,106,0,4264.743652,4335.128418,4306.153809,4348.846191,4295.384766,4291.025879,4301.538574,4330.384766,4268.077148,4276.794922,4537.820313,4503.077148,4380,4166.538574,,,,,,,,,,,,,,,,,,,,,,,,,,,,,,,,,,,,,,,,,,,,,,,,,,,,,,,,,,,,,,,,,,,,,,
1720524963,107,0,4258.974121,4334.102539,4302.692383,4354.615234,4293.205078,4292.563965,4300.128418,4327.307617,4258.589844,4270.641113,4538.846191,4495.512695,4371.282227,4156.538574,,,,,,,,,,,,,,,,,,,,,,,,,,,,,,,,,,,,,,,,,,,,,,,,,,,,,,,,,,,,,,,,,,,,,,
1720524963,108,0,4254.487305,4340.769043,4298.205078,4358.974121,4288.974121,4289.743652,4292.05127,4320.128418,4247.179688,4260,4520.641113,4487.179688,4363.333496,4143.077148,,,,,,,,,,,,,,,,,,,,,,,,,,,,,,,,,,,,,,,,,,,,,,,,,,,,,,,,,,,,,,,,,,,,,,
1720524963,109,0,4267.307617,4343.205078,4306.666504,4353.333496,4295,4293.077148,4293.205078,4324.743652,4243.974121,4265,4513.974121,4492.94873,4371.538574,4149.743652,,,,,,,,,,,,,,,,,,,,,,,,,,,,,,,,,,,,,,,,,,,,,,,,,,,,,,,,,,,,,,,,,,,,,,
1720524963,110,0,4284.743652,4346.025879,4313.717773,4351.153809,4297.307617,4294.230957,4297.05127,4330,4250.641113,4274.871582,4524.743652,4503.974121,4381.538574,4162.820313,,,,,,,,,,,,,,,,,,,,,,,,,,,,,,,,,,,,,,,,,,,,,,,,,,,,,,,,,,,,,,,,,,,,,,
1720524963,111,0,4298.461426,4358.205078,4319.102539,4359.743652,4297.307617,4295.384766,4299.615234,4326.153809,4258.974121,4280.256348,4537.820313,4517.179688,4392.563965,4173.846191,,,,,,,,,,,,,,,,,,,,,,,,,,,,,,,,,,,,,,,,,,,,,,,,,,,,,,,,,,,,,,,,,,,,,,
1720524963,112,0,4303.461426,4359.615234,4320.769043,4357.94873,4294.743652,4294.358887,4294.487305,4324.871582,4256.666504,4276.922852,4547.179688,4522.05127,4403.717773,4180.769043,,,,,,,,,,,,,,,,,,,,,,,,,,,,,,,,,,,,,,,,,,,,,,,,,,,,,,,,,,,,,,,,,,,,,,
1720524963,113,0,4285.128418,4344.615234,4304.871582,4339.358887,4282.563965,4280.512695,4273.205078,4321.153809,4243.589844,4258.333496,4531.153809,4505.512695,4388.846191,4165.128418,,,,,,,,,,,,,,,,,,,,,,,,,,,,,,,,,,,,,,,,,,,,,,,,,,,,,,,,,,,,,,,,,,,,,,
1720524963,114,0,4256.922852,4327.307617,4278.205078,4320.897461,4270.512695,4268.589844,4257.436035,4301.794922,4231.666504,4231.666504,4491.538574,4472.307617,4350.897461,4131.794922,,,,,,,,,,,,,,,,,,,,,,,,,,,,,,,,,,,,,,,,,,,,,,,,,,,,,,,,,,,,,,,,,,,,,,
1720524963,115,0,4241.282227,4312.436035,4263.846191,4306.922852,4264.615234,4270.256348,4254.230957,4301.666504,4222.820313,4211.666504,4470.641113,4456.794922,4325.897461,4117.307617,,,,,,,,,,,,,,,,,,,,,,,,,,,,,,,,,,,,,,,,,,,,,,,,,,,,,,,,,,,,,,,,,,,,,,
1720524963,116,0,4240.128418,4310.897461,4267.05127,4305,4264.487305,4278.589844,4258.077148,4315.256348,4220.641113,4213.205078,4475.769043,4468.717773,4325.512695,4126.922852,5.716121,1.358002,2.485595,0.405366,0.249247,2.582154,0.842169,1.276078,0.644185,0.154367,3.547961,1.424367,1.402719,0.309789,0.191879,1.31491,0.869905,1.472565,0.654576,0.218127,9.393215,3.376694,2.428004,0.847228,0.338906,1.227674,0.625799,0.738912,0.255432,0.142076,2.27435,0.889235,1.268751,0.458834,0.176007,0.28404,0.17929,0.209612,0.116652,0.120253,2.446556,1.084155,1.436343,0.816318,0.205271,3.00797,1.875006,2.000779,1.144142,0.314094,5.681248,2.059127,3.61396,1.365471,0.475624,4.439282,1.678862,2.407053,0.61728,0.356886,6.80716,2.525172,4.037416,1.928954,0.539774,16.171415,3.360025,3.45234,1.062488,0.459002
1720524963,117,0,4241.794922,4314.743652,4274.358887,4308.333496,4271.410156,4287.94873,4269.358887,4309.743652,4232.436035,4229.743652,4486.025879,4478.333496,4338.846191,4135,,,,,,,,,,,,,,,,,,,,,,,,,,,,,,,,,,,,,,,,,,,,,,,,,,,,,,,,,,,,,,,,,,,,,,
1720524963,118,0,4252.05127,4326.538574,4287.820313,4313.846191,4280.384766,4295.128418,4281.410156,4312.179688,4243.461426,4247.94873,4502.820313,4491.282227,4358.333496,4148.205078,,,,,,,,,,,,,,,,,,,,,,,,,,,,,,,,,,,,,,,,,,,,,,,,,,,,,,,,,,,,,,,,,,,,,,
1720524963,119,0,4276.153809,4359.230957,4307.563965,4344.358887,4293.333496,4300.128418,4292.05127,4323.333496,4248.974121,4267.179688,4524.230957,4515.128418,4380.128418,4171.410156,,,,,,,,,,,,,,,,,,,,,,,,,,,,,,,,,,,,,,,,,,,,,,,,,,,,,,,,,,,,,,,,,,,,,,
1720524963,120,0,4294.487305,4378.846191,4319.230957,4368.846191,4304.871582,4301.794922,4295.256348,4320.641113,4258.205078,4280.897461,4533.205078,4525.384766,4396.922852,4181.025879,,,,,,,,,,,,,,,,,,,,,,,,,,,,,,,,,,,,,,,,,,,,,,,,,,,,,,,,,,,,,,,,,,,,,,
1720524963,121,0,4297.179688,4361.666504,4318.589844,4350,4300.384766,4298.461426,4288.333496,4316.025879,4261.410156,4280.512695,4536.538574,4523.461426,4407.05127,4180.641113,,,,,,,,,,,,,,,,,,,,,,,,,,,,,,,,,,,,,,,,,,,,,,,,,,,,,,,,,,,,,,,,,,,,,,
1720524963,122,0,4296.410156,4352.436035,4318.333496,4330.769043,4292.05127,4293.589844,4283.974121,4318.717773,4259.230957,4279.615234,4544.871582,4530.512695,4413.717773,4188.205078,,,,,,,,,,,,,,,,,,,,,,,,,,,,,,,,,,,,,,,,,,,,,,,,,,,,,,,,,,,,,,,,,,,,,,
1720524963,123,0,4293.589844,4364.871582,4319.230957,4338.717773,4294.871582,4290.256348,4287.179688,4318.846191,4268.077148,4290.512695,4544.871582,4533.589844,4413.333496,4191.025879,,,,,,,,,,,,,,,,,,,,,,,,,,,,,,,,,,,,,,,,,,,,,,,,,,,,,,,,,,,,,,,,,,,,,,
1720524963,124,0,4286.153809,4360.641113,4312.94873,4337.307617,4296.922852,4285.384766,4282.179688,4323.717773,4272.820313,4292.307617,4536.153809,4520.769043,4403.333496,4178.333496,,,,,,,,,,,,,,,,,,,,,,,,,,,,,,,,,,,,,,,,,,,,,,,,,,,,,,,,,,,,,,,,,,,,,,
1720524963,125,0,4284.230957,4355.128418,4304.487305,4328.205078,4293.974121,4287.436035,4277.307617,4325.641113,4263.846191,4280.256348,4529.102539,4511.922852,4397.692383,4168.205078,,,,,,,,,,,,,,,,,,,,,,,,,,,,,,,,,,,,,,,,,,,,,,,,,,,,,,,,,,,,,,,,,,,,,,
1720524963,126,0,4278.974121,4365.128418,4300.512695,4331.025879,4294.102539,4296.153809,4282.05127,4317.94873,4263.461426,4278.077148,4520.384766,4510.641113,4400,4168.333496,,,,,,,,,,,,,,,,,,,,,,,,,,,,,,,,,,,,,,,,,,,,,,,,,,,,,,,,,,,,,,,,,,,,,,
1720524963,127,0,4266.282227,4365,4300.384766,4329.487305,4294.615234,4296.538574,4280.128418,4320.384766,4264.487305,4280.384766,4516.538574,4509.102539,4397.436035,4165.128418,,,,,,,,,,,,,,,,,,,,,,,,,,,,,,,,,,,,,,,,,,,,,,,,,,,,,,,,,,,,,,,,,,,,,,
1720524963,0,0,4266.922852,4360.769043,4299.871582,4328.461426,4295,4293.461426,4275.512695,4321.794922,4253.974121,4270.128418,4523.077148,4504.615234,4395.641113,4165.256348,,,,,,,,,,,,,,,,,,,,,,,,,,,,,,,,,,,,,,,,,,,,,,,,,,,,,,,,,,,,,,,,,,,,,,
1720524963,1,0,4276.538574,4367.94873,4300.897461,4336.153809,4300.128418,4294.358887,4280.641113,4320.897461,4250.897461,4263.077148,4523.077148,4507.179688,4402.436035,4178.589844,,,,,,,,,,,,,,,,,,,,,,,,,,,,,,,,,,,,,,,,,,,,,,,,,,,,,,,,,,,,,,,,,,,,,,
1720524963,2,0,4271.922852,4370.256348,4301.282227,4330.897461,4307.307617,4297.820313,4280.769043,4321.025879,4252.179688,4266.153809,4508.333496,4511.282227,4403.974121,4185.512695,,,,,,,,,,,,,,,,,,,,,,,,,,,,,,,,,,,,,,,,,,,,,,,,,,,,,,,,,,,,,,,,,,,,,,
1720524963,3,0,4268.077148,4367.436035,4300,4320.256348,4306.794922,4296.153809,4273.077148,4318.333496,4248.846191,4263.717773,4511.410156,4510.641113,4402.307617,4182.307617,,,,,,,,,,,,,,,,,,,,,,,,,,,,,,,,,,,,,,,,,,,,,,,,,,,,,,,,,,,,,,,,,,,,,,
1720524963,4,0,4278.077148,4381.538574,4307.307617,4330.897461,4298.717773,4285.769043,4270.897461,4324.358887,4259.615234,4266.538574,4529.487305,4517.563965,4412.307617,4188.846191,4.350144,1.252364,2.676625,0.389353,0.235452,2.189921,0.865202,1.262345,0.634287,0.155338,3.911168,1.256684,1.498651,0.320654,0.197089,1.392499,0.907243,1.644631,0.650921,0.229444,4.062478,1.379953,1.199395,0.496156,0.190191,1.304642,0.571902,0.716016,0.281648,0.151599,2.601674,0.85894,1.170209,0.491318,0.180635,0.324008,0.164444,0.204867,0.122797,0.116305,2.445754,0.970244,1.449535,0.891289,0.207003,3.068769,1.880602,2.198863,1.204756,0.337654,6.326161,2.223419,3.811714,1.193481,0.441443,5.062562,1.711845,2.369098,0.618245,0.35514,8.012511,2.676625,4.330448,1.778227,0.526174,18.480692,3.41752,3.742057,0.955584,0.448957
1720524963,5,0,4277.179688,4390.384766,4311.666504,4337.436035,4294.871582,4277.820313,4268.974121,4325.512695,4270.769043,4271.282227,4516.410156,4516.410156,4417.307617,4191.538574,,,,,,,,,,,,,,,,,,,,,,,,,,,,,,,,,,,,,,,,,,,,,,,,,,,,,,,,,,,,,,,,,,,,,,
1720524963,6,0,4265.512695,4374.615234,4303.974121,4325,4295.897461,4281.922852,4260.897461,4320.384766,4260,4264.615234,4497.436035,4505,4406.922852,4181.794922,,,,,,,,,,,,,,,,,,,,,,,,,,,,,,,,,,,,,,,,,,,,,,,,,,,,,,,,,,,,,,,,,,,,,,
1720524963,7,0,4266.794922,4368.846191,4308.077148,4328.974121,4302.94873,4289.871582,4260.897461,4323.333496,4258.205078,4267.05127,4524.358887,4511.153809,4412.94873,4186.153809,,,,,,,,,,,,,,,,,,,,,,,,,,,,,,,,,,,,,,,,,,,,,,,,,,,,,,,,,,,,,,,,,,,,,,
1720524963,8,0,4273.333496,4380.641113,4322.05127,4341.153809,4307.563965,4291.666504,4267.692383,4328.461426,4269.615234,4280,4552.820313,4524.102539,4430.641113,4201.025879,,,,,,,,,,,,,,,,,,,,,,,,,,,,,,,,,,,,,,,,,,,,,,,,,,,,,,,,,,,,,,,,,,,,,,
1720524963,9,0,4267.307617,4379.743652,4319.102539,4329.102539,4302.179688,4290.769043,4265.897461,4323.974121,4258.589844,4271.794922,4535.384766,4516.666504,4423.461426,4197.307617,,,,,,,,,,,,,,,,,,,,,,,,,,,,,,,,,,,,,,,,,,,,,,,,,,,,,,,,,,,,,,,,,,,,,,
1720524963,10,0,4265.384766,4377.179688,4313.461426,4322.820313,4304.487305,4295.384766,4263.205078,4319.358887,4251.538574,4257.436035,4526.025879,4510.384766,4415.897461,4192.436035,,,,,,,,,,,,,,,,,,,,,,,,,,,,,,,,,,,,,,,,,,,,,,,,,,,,,,,,,,,,,,,,,,,,,,
1720524963,11,0,4272.05127,4381.666504,4313.846191,4335.897461,4310.384766,4299.102539,4266.666504,4318.589844,4260.641113,4264.743652,4540.769043,4514.358887,4426.153809,4200.256348,,,,,,,,,,,,,,,,,,,,,,,,,,,,,,,,,,,,,,,,,,,,,,,,,,,,,,,,,,,,,,,,,,,,,,
1720524963,12,0,4262.05127,4372.05127,4302.436035,4327.94873,4298.846191,4293.077148,4261.153809,4318.974121,4256.922852,4266.153809,4529.358887,4504.487305,4419.230957,4191.794922,,,,,,,,,,,,,,,,,,,,,,,,,,,,,,,,,,,,,,,,,,,,,,,,,,,,,,,,,,,,,,,,,,,,,,
1720524963,13,0,4249.487305,4364.230957,4293.717773,4314.615234,4289.871582,4288.717773,4252.179688,4321.282227,4251.153809,4257.436035,4511.410156,4496.282227,4410.384766,4178.205078,,,,,,,,,,,,,,,,,,,,,,,,,,,,,,,,,,,,,,,,,,,,,,,,,,,,,,,,,,,,,,,,,,,,,,
1720524963,14,0,4255.384766,4374.871582,4300.769043,4319.615234,4300.128418,4290,4251.025879,4313.589844,4257.563965,4261.153809,4521.922852,4501.666504,4425.128418,4180.512695,,,,,,,,,,,,,,,,,,,,,,,,,,,,,,,,,,,,,,,,,,,,,,,,,,,,,,,,,,,,,,,,,,,,,,
1720524963,15,0,4256.025879,4377.820313,4300.384766,4318.717773,4300.897461,4282.94873,4249.871582,4313.589844,4251.153809,4260,4527.692383,4500.897461,4426.025879,4174.102539,,,,,,,,,,,,,,,,,,,,,,,,,,,,,,,,,,,,,,,,,,,,,,,,,,,,,,,,,,,,,,,,,,,,,,
1720524964,16,0,4250.256348,4370.256348,4294.358887,4318.974121,4291.410156,4274.230957,4245.512695,4322.692383,4244.487305,4248.589844,4513.717773,4496.153809,4410.384766,4158.333496,,,,,,,,,,,,,,,,,,,,,,,,,,,,,,,,,,,,,,,,,,,,,,,,,,,,,,,,,,,,,,,,,,,,,,
1720524964,17,0,4256.794922,4368.205078,4298.205078,4324.871582,4292.94873,4279.743652,4246.794922,4315.641113,4256.922852,4248.077148,4501.282227,4493.717773,4411.282227,4158.846191,,,,,,,,,,,,,,,,,,,,,,,,,,,,,,,,,,,,,,,,,,,,,,,,,,,,,,,,,,,,,,,,,,,,,,
1720524964,18,0,4255.128418,4360.512695,4297.820313,4314.871582,4294.743652,4290.641113,4250,4315.128418,4256.666504,4250.641113,4498.974121,4492.307617,4414.230957,4161.282227,,,,,,,,,,,,,,,,,,,,,,,,,,,,,,,,,,,,,,,,,,,,,,,,,,,,,,,,,,,,,,,,,,,,,,
1720524964,19,0,4245,4353.974121,4289.743652,4309.230957,4292.05127,4293.974121,4249.871582,4322.692383,4253.461426,4248.205078,4500.641113,4494.743652,4409.230957,4150.128418,,,,,,,,,,,,,,,,,,,,,,,,,,,,,,,,,,,,,,,,,,,,,,,,,,,,,,,,,,,,,,,,,,,,,,
1720524964,20,0,4250.128418,4356.538574,4287.820313,4319.871582,4292.179688,4293.333496,4250.384766,4318.717773,4261.538574,4250.128418,4498.461426,4492.436035,4407.307617,4146.025879,3.328808,1.317269,2.878524,0.416157,0.229508,1.910776,0.966475,1.349511,0.61504,0.17113,4.251927,1.17963,1.61237,0.376812,0.203765,1.478515,0.976784,1.730719,0.660882,0.239761,1.783222,0.661199,0.7236,0.384445,0.128522,1.291564,0.530535,0.704153,0.299513,0.149276,2.752135,0.808348,1.059931,0.524957,0.177539,0.358345,0.154055,0.188986,0.12466,0.118,2.429609,0.905838,1.379408,0.908865,0.203681,3.087269,1.884309,2.255169,1.209163,0.360071,6.713233,2.38828,3.97003,1.090402,0.430499,5.447167,1.740615,2.400807,0.653154,0.344062,8.772421,2.723379,4.418354,1.644891,0.510826,21.293142,3.557958,4.137325,0.935755,0.451392
1720524964,21,0,4257.563965,4352.692383,4293.461426,4315.128418,4293.717773,4294.230957,4249.487305,4313.717773,4255.256348,4251.666504,4487.692383,4488.333496,4406.794922,4151.794922,,,,,,,,,,,,,,,,,,,,,,,,,,,,,,,,,,,,,,,,,,,,,,,,,,,,,,,,,,,,,,,,,,,,,,
1720524964,22,0,4260.769043,4347.436035,4297.820313,4302.179688,4292.563965,4291.538574,4247.692383,4315.384766,4244.487305,4249.743652,4486.410156,4493.077148,4412.820313,4156.538574,,,,,,,,,,,,,,,,,,,,,,,,,,,,,,,,,,,,,,,,,,,,,,,,,,,,,,,,,,,,,,,,,,,,,,
1720524964,23,0,4269.358887,4350.384766,4299.230957,4307.563965,4291.153809,4285.512695,4248.846191,4315.256348,4249.743652,4250.256348,4505.641113,4501.282227,4423.589844,4159.615234,,,,,,,,,,,,,,,,,,,,,,,,,,,,,,,,,,,,,,,,,,,,,,,,,,,,,,,,,,,,,,,,,,,,,,
1720524964,24,0,4274.487305,4351.282227,4300.256348,4316.538574,4292.05127,4287.436035,4247.179688,4318.461426,4251.922852,4245.897461,4508.974121,4505.512695,4420.769043,4163.333496,,,,,,,,,,,,,,,,,,,,,,,,,,,,,,,,,,,,,,,,,,,,,,,,,,,,,,,,,,,,,,,,,,,,,,
1720524964,25,0,4275.384766,4351.666504,4300.384766,4319.230957,4293.333496,4289.615234,4244.871582,4320.769043,4246.538574,4246.153809,4489.615234,4506.538574,4414.871582,4171.794922,,,,,,,,,,,,,,,,,,,,,,,,,,,,,,,,,,,,,,,,,,,,,,,,,,,,,,,,,,,,,,,,,,,,,,
1720524964,26,0,4282.05127,4355.512695,4302.436035,4320.256348,4293.717773,4282.179688,4243.846191,4315.384766,4256.153809,4259.102539,4486.666504,4506.538574,4427.820313,4184.230957,,,,,,,,,,,,,,,,,,,,,,,,,,,,,,,,,,,,,,,,,,,,,,,,,,,,,,,,,,,,,,,,,,,,,,
1720524964,27,0,4289.230957,4355.128418,4309.615234,4318.205078,4293.077148,4282.179688,4240.641113,4321.794922,4265.897461,4265.512695,4507.563965,4516.282227,4440.512695,4198.461426,,,,,,,,,,,,,,,,,,,,,,,,,,,,,,,,,,,,,,,,,,,,,,,,,,,,,,,,,,,,,,,,,,,,,,
1720524964,28,0,4298.846191,4360.769043,4322.307617,4326.666504,4294.487305,4294.487305,4241.282227,4324.871582,4266.025879,4267.820313,4522.94873,4529.871582,4439.102539,4213.461426,,,,,,,,,,,,,,,,,,,,,,,,,,,,,,,,,,,,,,,,,,,,,,,,,,,,,,,,,,,,,,,,,,,,,,
1720524964,29,0,4299.487305,4367.179688,4328.717773,4336.538574,4297.179688,4297.05127,4244.102539,4319.230957,4266.922852,4274.871582,4522.05127,4531.538574,4437.307617,4225.128418,,,,,,,,,,,,,,,,,,,,,,,,,,,,,,,,,,,,,,,,,,,,,,,,,,,,,,,,,,,,,,,,,,,,,,
1720524964,30,0,4286.025879,4358.461426,4323.333496,4327.692383,4297.05127,4290.384766,4244.230957,4322.94873,4264.871582,4271.153809,4513.077148,4526.922852,4430.128418,4222.820313,,,,,,,,,,,,,,,,,,,,,,,,,,,,,,,,,,,,,,,,,,,,,,,,,,,,,,,,,,,,,,,,,,,,,,
1720524964,31,0,4283.461426,4353.974121,4316.282227,4321.794922,4295.641113,4290.641113,4245.128418,4322.820313,4261.025879,4263.717773,4503.077148,4520.512695,4417.05127,4215,,,,,,,,,,,,,,,,,,,,,,,,,,,,,,,,,,,,,,,,,,,,,,,,,,,,,,,,,,,,,,,,,,,,,,
1720524964,32,0,4284.487305,4352.05127,4310,4324.871582,4294.102539,4294.487305,4246.666504,4321.794922,4261.282227,4265,4499.615234,4514.871582,4419.102539,4218.077148,,,,,,,,,,,,,,,,,,,,,,,,,,,,,,,,,,,,,,,,,,,,,,,,,,,,,,,,,,,,,,,,,,,,,,
1720524964,33,0,4273.333496,4339.871582,4305.641113,4314.743652,4293.717773,4293.846191,4245.512695,4323.589844,4265.641113,4268.205078,4505.384766,4517.179688,4430.897461,4232.436035,,,,,,,,,,,,,,,,,,,,,,,,,,,,,,,,,,,,,,,,,,,,,,,,,,,,,,,,,,,,,,,,,,,,,,
1720524964,34,0,4276.794922,4341.153809,4309.871582,4301.794922,4293.846191,4292.05127,4241.538574,4323.205078,4265.256348,4271.153809,4515.128418,4523.461426,4432.94873,4246.282227,,,,,,,,,,,,,,,,,,,,,,,,,,,,,,,,,,,,,,,,,,,,,,,,,,,,,,,,,,,,,,,,,,,,,,
1720524964,35,0,4298.205078,4358.077148,4318.461426,4314.358887,4295.897461,4295.769043,4241.410156,4321.666504,4262.307617,4277.94873,4515.512695,4524.358887,4430.512695,4243.974121,,,,,,,,,,,,,,,,,,,,,,,,,,,,,,,,,,,,,,,,,,,,,,,,,,,,,,,,,,,,,,,,,,,,,,
1720524964,36,0,4300.256348,4352.563965,4318.974121,4327.692383,4297.179688,4294.487305,4244.358887,4320.769043,4262.820313,4280.641113,4504.743652,4518.077148,4429.230957,4239.743652,2.775871,1.449655,3.123928,0.457111,0.224625,1.711763,1.102967,1.533893,0.594403,0.198717,4.402929,1.22859,1.779887,0.438716,0.204823,1.532084,1.075231,1.753931,0.678934,0.246637,1.32196,0.619126,0.655219,0.385427,0.117347,1.156488,0.539349,0.740512,0.305401,0.136581,2.654496,0.782008,0.98599,0.548632,0.165509,0.371066,0.161192,0.16513,0.121876,0.124983,2.313478,0.885365,1.223494,0.856892,0.200389,3.001914,1.865954,2.184138,1.134448,0.376968,6.549201,2.436421,4.025154,1.020772,0.444907,5.379701,1.693711,2.536444,0.680977,0.325031,8.930373,2.658267,4.351975,1.47015,0.497868,24.013691,3.4967,4.515249,0.933248,0.461947
1720524964,37,0,4291.538574,4337.692383,4315.641113,4320.128418,4294.230957,4286.538574,4241.666504,4321.025879,4263.846191,4279.743652,4503.589844,4513.974121,4428.205078,4252.692383,,,,,,,,,,,,,,,,,,,,,,,,,,,,,,,,,,,,,,,,,,,,,,,,,,,,,,,,,,,,,,,,,,,,,,
1720524964,38,0,4297.05127,4345.256348,4315.769043,4315.256348,4296.410156,4288.974121,4233.333496,4319.230957,4264.358887,4282.692383,4510.384766,4513.205078,4426.538574,4267.563965,,,,,,,,,,,,,,,,,,,,,,,,,,,,,,,,,,,,,,,,,,,,,,,,,,,,,,,,,,,,,,,,,,,,,,
1720524964,39,0,4306.922852,4357.436035,4319.487305,4324.743652,4306.794922,4298.974121,4231.794922,4317.179688,4263.077148,4285.128418,4507.692383,4513.333496,4423.333496,4272.307617,,,,,,,,,,,,,,,,,,,,,,,,,,,,,,,,,,,,,,,,,,,,,,,,,,,,,,,,,,,,,,,,,,,,,,
1720524964,40,0,4313.461426,4359.102539,4325.769043,4332.179688,4313.974121,4300.769043,4236.410156,4319.487305,4264.871582,4288.974121,4505.512695,4518.333496,4426.794922,4273.846191,,,,,,,,,,,,,,,,,,,,,,,,,,,,,,,,,,,,,,,,,,,,,,,,,,,,,,,,,,,,,,,,,,,,,,
1720524964,41,0,4311.410156,4359.358887,4326.153809,4327.820313,4310.512695,4296.282227,4235.641113,4326.666504,4272.179688,4295.769043,4516.025879,4525.897461,4437.94873,4278.974121,,,,,,,,,,,,,,,,,,,,,,,,,,,,,,,,,,,,,,,,,,,,,,,,,,,,,,,,,,,,,,,,,,,,,,
1720524964,42,0,4305.384766,4358.846191,4323.205078,4329.358887,4306.794922,4295.384766,4233.461426,4321.666504,4274.358887,4297.436035,4522.179688,4525.384766,4445.256348,4282.436035,,,,,,,,,,,,,,,,,,,,,,,,,,,,,,,,,,,,,,,,,,,,,,,,,,,,,,,,,,,,,,,,,,,,,,
1720524964,43,0,4297.94873,4347.307617,4316.666504,4327.820313,4306.666504,4296.025879,4233.974121,4317.307617,4266.794922,4287.94873,4513.846191,4516.794922,4440.256348,4276.282227,,,,,,,,,,,,,,,,,,,,,,,,,,,,,,,,,,,,,,,,,,,,,,,,,,,,,,,,,,,,,,,,,,,,,,
1720524964,44,0,4294.230957,4341.410156,4310,4313.717773,4307.436035,4297.05127,4233.974121,4328.077148,4260.897461,4276.025879,4505.256348,4514.358887,4428.077148,4265.512695,,,,,,,,,,,,,,,,,,,,,,,,,,,,,,,,,,,,,,,,,,,,,,,,,,,,,,,,,,,,,,,,,,,,,,
1720524964,45,0,4296.410156,4355.256348,4308.333496,4320.384766,4306.666504,4293.205078,4232.563965,4323.589844,4263.205078,4277.436035,4506.538574,4516.025879,4426.282227,4263.846191,,,,,,,,,,,,,,,,,,,,,,,,,,,,,,,,,,,,,,,,,,,,,,,,,,,,,,,,,,,,,,,,,,,,,,
1720524964,46,0,4290.641113,4354.230957,4302.820313,4328.717773,4297.563965,4281.410156,4228.589844,4314.358887,4261.794922,4280.769043,4498.974121,4511.922852,4431.538574,4265.128418,,,,,,,,,,,,,,,,,,,,,,,,,,,,,,,,,,,,,,,,,,,,,,,,,,,,,,,,,,,,,,,,,,,,,,
1720524964,47,0,4286.794922,4337.436035,4301.025879,4314.743652,4294.743652,4280.769043,4228.717773,4318.461426,4258.461426,4274.743652,4485.384766,4510.897461,4428.461426,4261.922852,,,,,,,,,,,,,,,,,,,,,,,,,,,,,,,,,,,,,,,,,,,,,,,,,,,,,,,,,,,,,,,,,,,,,,
1720524964,48,0,4293.974121,4343.205078,4309.615234,4312.563965,4305.128418,4289.102539,4230.769043,4318.333496,4262.179688,4275.641113,4496.410156,4515.256348,4428.333496,4266.153809,,,,,,,,,,,,,,,,,,,,,,,,,,,,,,,,,,,,,,,,,,,,,,,,,,,,,,,,,,,,,,,,,,,,,,
1720524964,49,0,4296.025879,4353.333496,4311.666504,4323.077148,4306.025879,4286.538574,4227.307617,4316.153809,4262.94873,4278.461426,4508.846191,4517.563965,4432.436035,4269.102539,,,,,,,,,,,,,,,,,,,,,,,,,,,,,,,,,,,,,,,,,,,,,,,,,,,,,,,,,,,,,,,,,,,,,,
1720524964,50,0,4290.384766,4343.846191,4306.025879,4314.230957,4299.358887,4280,4225.512695,4318.077148,4257.820313,4270.897461,4496.282227,4513.717773,4428.974121,4263.461426,,,,,,,,,,,,,,,,,,,,,,,,,,,,,,,,,,,,,,,,,,,,,,,,,,,,,,,,,,,,,,,,,,,,,,
1720524964,51,0,4296.410156,4346.282227,4309.615234,4308.333496,4301.538574,4281.410156,4229.743652,4316.538574,4255.641113,4269.230957,4490.512695,4511.922852,4431.025879,4270.256348,,,,,,,,,,,,,,,,,,,,,,,,,,,,,,,,,,,,,,,,,,,,,,,,,,,,,,,,,,,,,,,,,,,,,,
1720524964,52,0,4305.769043,4361.410156,4317.820313,4324.743652,4304.871582,4280.641113,4231.538574,4317.05127,4257.307617,4278.205078,4507.05127,4520.512695,4445,4286.794922,2.43428,1.699655,3.494458,0.497034,0.219662,1.634491,1.260756,1.806123,0.591098,0.233329,4.283178,1.47416,2.037591,0.48315,0.198243,1.496742,1.241387,1.784239,0.706137,0.256875,1.332606,0.719689,0.694557,0.389031,0.120781,0.927423,0.61545,0.857627,0.301847,0.119188,2.342237,0.832829,0.988612,0.559539,0.147446,0.380936,0.194883,0.139659,0.117262,0.135,2.117116,0.932845,1.015761,0.760268,0.203383,2.966803,1.941389,2.075355,1.007769,0.384997,5.974327,2.422521,4.008733,0.983064,0.486761,4.916279,1.641151,2.82041,0.688526,0.304184,8.402946,2.639836,4.308851,1.26585,0.488821,24.264174,3.241176,4.853992,0.916671,0.474853
1720524964,53,0,4301.666504,4359.743652,4316.153809,4326.538574,4297.820313,4281.153809,4229.615234,4321.922852,4260.128418,4278.333496,4509.743652,4526.922852,4447.692383,4290.641113,,,,,,,,,,,,,,,,,,,,,,,,,,,,,,,,,,,,,,,,,,,,,,,,,,,,,,,,,,,,,,,,,,,,,,
1720524964,54,0,4295.256348,4356.282227,4311.153809,4318.717773,4297.563965,4286.794922,4231.410156,4314.358887,4262.436035,4271.410156,4492.179688,4519.487305,4433.974121,4286.282227,,,,,,,,,,,,,,,,,,,,,,,,,,,,,,,,,,,,,,,,,,,,,,,,,,,,,,,,,,,,,,,,,,,,,,
1720524964,55,0,4291.153809,4355.769043,4309.871582,4322.05127,4303.589844,4284.615234,4234.871582,4314.102539,4255.512695,4269.102539,4489.487305,4512.94873,4428.077148,4287.436035,,,,,,,,,,,,,,,,,,,,,,,,,,,,,,,,,,,,,,,,,,,,,,,,,,,,,,,,,,,,,,,,,,,,,,
1720524964,56,0,4284.230957,4345.897461,4305.128418,4315,4300.769043,4279.102539,4232.436035,4317.820313,4244.615234,4262.820313,4491.025879,4510.256348,4431.922852,4283.077148,,,,,,,,,,,,,,,,,,,,,,,,,,,,,,,,,,,,,,,,,,,,,,,,,,,,,,,,,,,,,,,,,,,,,,
1720524964,57,0,4274.230957,4338.846191,4295.512695,4297.94873,4294.487305,4277.94873,4222.94873,4309.871582,4245.128418,4252.563965,4480.897461,4499.743652,4426.538574,4273.717773,,,,,,,,,,,,,,,,,,,,,,,,,,,,,,,,,,,,,,,,,,,,,,,,,,,,,,,,,,,,,,,,,,,,,,
1720524964,58,0,4263.846191,4341.410156,4290.641113,4292.692383,4293.846191,4275.512695,4216.025879,4313.205078,4251.025879,4250.512695,4470.897461,4491.153809,4412.692383,4271.922852,,,,,,,,,,,,,,,,,,,,,,,,,,,,,,,,,,,,,,,,,,,,,,,,,,,,,,,,,,,,,,,,,,,,,,
1720524964,59,0,4258.077148,4340.641113,4284.871582,4295.384766,4289.358887,4271.282227,4216.922852,4314.230957,4246.153809,4251.538574,4463.461426,4488.077148,4404.743652,4267.820313,,,,,,,,,,,,,,,,,,,,,,,,,,,,,,,,,,,,,,,,,,,,,,,,,,,,,,,,,,,,,,,,,,,,,,
1720524964,60,0,4255.128418,4330.641113,4274.358887,4288.717773,4282.307617,4267.307617,4211.794922,4307.307617,4234.487305,4246.538574,4455.256348,4481.794922,4400.641113,4258.333496,,,,,,,,,,,,,,,,,,,,,,,,,,,,,,,,,,,,,,,,,,,,,,,,,,,,,,,,,,,,,,,,,,,,,,
1720524964,61,0,4255.256348,4332.692383,4276.538574,4287.563965,4288.461426,4265.897461,4201.794922,4308.333496,4231.025879,4244.615234,4453.717773,4478.846191,4395.897461,4251.666504,,,,,,,,,,,,,,,,,,,,,,,,,,,,,,,,,,,,,,,,,,,,,,,,,,,,,,,,,,,,,,,,,,,,,,
1720524964,62,0,4261.025879,4347.307617,4288.846191,4297.563965,4293.205078,4267.692383,4201.794922,4311.922852,4234.615234,4247.179688,4464.230957,4482.436035,4397.94873,4248.717773,,,,,,,,,,,,,,,,,,,,,,,,,,,,,,,,,,,,,,,,,,,,,,,,,,,,,,,,,,,,,,,,,,,,,,
1720524964,63,0,4261.282227,4343.205078,4284.230957,4291.282227,4280,4266.153809,4206.538574,4313.333496,4230.384766,4236.794922,4465,4484.230957,4393.333496,4242.05127,,,,,,,,,,,,,,,,,,,,,,,,,,,,,,,,,,,,,,,,,,,,,,,,,,,,,,,,,,,,,,,,,,,,,,
1720524964,64,0,4255.384766,4335.512695,4275,4283.333496,4274.871582,4261.794922,4206.794922,4312.05127,4220.897461,4227.563965,4456.666504,4484.102539,4384.487305,4243.333496,,,,,,,,,,,,,,,,,,,,,,,,,,,,,,,,,,,,,,,,,,,,,,,,,,,,,,,,,,,,,,,,,,,,,,
1720524964,65,0,4264.615234,4356.538574,4290.769043,4295.256348,4288.846191,4268.974121,4213.974121,4312.820313,4229.358887,4241.025879,4462.820313,4495.128418,4396.025879,4264.102539,,,,,,,,,,,,,,,,,,,,,,,,,,,,,,,,,,,,,,,,,,,,,,,,,,,,,,,,,,,,,,,,,,,,,,
1720524964,66,0,4274.358887,4368.974121,4300.641113,4303.461426,4297.307617,4278.589844,4226.025879,4314.871582,4245.641113,4253.077148,4474.102539,4502.692383,4406.153809,4275.897461,,,,,,,,,,,,,,,,,,,,,,,,,,,,,,,,,,,,,,,,,,,,,,,,,,,,,,,,,,,,,,,,,,,,,,
1720524964,67,0,4261.538574,4357.05127,4285.384766,4294.102539,4292.179688,4274.487305,4220.512695,4313.461426,4242.307617,4249.358887,4465.769043,4489.358887,4395.384766,4266.153809,,,,,,,,,,,,,,,,,,,,,,,,,,,,,,,,,,,,,,,,,,,,,,,,,,,,,,,,,,,,,,,,,,,,,,
1720524964,68,0,4256.794922,4364.743652,4279.358887,4292.563965,4291.410156,4265.128418,4203.205078,4308.333496,4228.205078,4244.615234,4445.641113,4478.846191,4381.666504,4254.487305,2.345256,2.176133,3.974667,0.537616,0.217325,1.664415,1.45432,2.128191,0.619821,0.269305,3.964211,1.967715,2.353128,0.509056,0.186801,1.468142,1.514808,1.865392,0.741717,0.278862,1.301504,0.816788,0.766662,0.369933,0.125619,0.664839,0.739797,1.060979,0.294146,0.104494,1.95251,0.981347,1.074772,0.559918,0.128189,0.395642,0.254332,0.118999,0.113904,0.144599,1.919523,1.09079,0.81137,0.662702,0.215171,3.115018,2.284339,2.018453,0.885916,0.382125,5.338961,2.540936,3.993085,1.003295,0.555154,4.278262,1.73554,3.226498,0.688479,0.287744,7.560358,2.885285,4.440941,1.095675,0.482186,23.301464,3.016076,5.113872,0.889014,0.484187
1720524964,69,0,4269.487305,4376.794922,4291.922852,4300.384766,4297.692383,4265.641113,4200.641113,4306.538574,4227.307617,4239.743652,4447.563965,4486.666504,4386.282227,4261.282227,,,,,,,,,,,,,,,,,,,,,,,,,,,,,,,,,,,,,,,,,,,,,,,,,,,,,,,,,,,,,,,,,,,,,,
1720524964,70,0,4262.179688,4361.410156,4290.897461,4295.256348,4295.897461,4268.717773,4204.871582,4305.384766,4232.436035,4232.05127,4462.05127,4489.102539,4393.333496,4268.461426,,,,,,,,,,,,,,,,,,,,,,,,,,,,,,,,,,,,,,,,,,,,,,,,,,,,,,,,,,,,,,,,,,,,,,
1720524964,71,0,4247.820313,4353.717773,4277.94873,4287.179688,4289.102539,4265.512695,4202.307617,4305.769043,4230.512695,4235.384766,4463.974121,4479.615234,4387.436035,4260.897461,,,,,,,,,,,,,,,,,,,,,,,,,,,,,,,,,,,,,,,,,,,,,,,,,,,,,,,,,,,,,,,,,,,,,,
1720524964,72,0,4254.615234,4364.743652,4277.692383,4290.128418,4292.05127,4265,4207.05127,4312.307617,4234.871582,4247.94873,4456.666504,4481.153809,4381.153809,4259.615234,,,,,,,,,,,,,,,,,,,,,,,,,,,,,,,,,,,,,,,,,,,,,,,,,,,,,,,,,,,,,,,,,,,,,,
1720524964,73,0,4259.871582,4366.538574,4279.743652,4293.717773,4295.769043,4267.692383,4216.666504,4302.94873,4241.666504,4250,4455.512695,4487.179688,4382.05127,4264.487305,,,,,,,,,,,,,,,,,,,,,,,,,,,,,,,,,,,,,,,,,,,,,,,,,,,,,,,,,,,,,,,,,,,,,,
1720524964,74,0,4251.794922,4360.897461,4277.94873,4286.538574,4291.538574,4263.974121,4215.128418,4300,4234.743652,4243.846191,4459.487305,4481.282227,4382.179688,4262.307617,,,,,,,,,,,,,,,,,,,,,,,,,,,,,,,,,,,,,,,,,,,,,,,,,,,,,,,,,,,,,,,,,,,,,,
1720524964,75,0,4248.333496,4358.717773,4282.307617,4276.666504,4289.615234,4258.846191,4212.820313,4313.717773,4227.820313,4245.256348,4458.974121,4480,4378.461426,4263.717773,,,,,,,,,,,,,,,,,,,,,,,,,,,,,,,,,,,,,,,,,,,,,,,,,,,,,,,,,,,,,,,,,,,,,,
1720524964,76,0,4253.461426,4356.794922,4288.205078,4275.769043,4294.615234,4264.615234,4216.922852,4307.820313,4230.512695,4250.769043,4460.512695,4487.94873,4385.641113,4273.461426,,,,,,,,,,,,,,,,,,,,,,,,,,,,,,,,,,,,,,,,,,,,,,,,,,,,,,,,,,,,,,,,,,,,,,
1720524964,77,0,4252.692383,4357.820313,4290.128418,4280.384766,4295.897461,4272.436035,4218.974121,4303.846191,4233.974121,4247.692383,4462.307617,4488.717773,4393.077148,4268.205078,,,,,,,,,,,,,,,,,,,,,,,,,,,,,,,,,,,,,,,,,,,,,,,,,,,,,,,,,,,,,,,,,,,,,,
1720524964,78,0,4245.128418,4358.846191,4287.563965,4281.410156,4293.461426,4268.461426,4217.05127,4311.410156,4237.05127,4242.436035,4459.358887,4481.410156,4390.384766,4253.205078,,,,,,,,,,,,,,,,,,,,,,,,,,,,,,,,,,,,,,,,,,,,,,,,,,,,,,,,,,,,,,,,,,,,,,
1720524964,79,0,4247.05127,4357.179688,4285.769043,4277.563965,4294.615234,4261.794922,4216.538574,4306.153809,4244.230957,4246.794922,4460.769043,4482.179688,4392.820313,4256.538574,,,,,,,,,,,,,,,,,,,,,,,,,,,,,,,,,,,,,,,,,,,,,,,,,,,,,,,,,,,,,,,,,,,,,,
1720524964,80,0,4255.128418,4361.538574,4287.563965,4278.205078,4296.410156,4264.487305,4216.794922,4301.538574,4246.410156,4247.179688,4460.512695,4490.769043,4395.641113,4265.641113,,,,,,,,,,,,,,,,,,,,,,,,,,,,,,,,,,,,,,,,,,,,,,,,,,,,,,,,,,,,,,,,,,,,,,
1720524964,81,0,4252.94873,4362.820313,4291.922852,4281.538574,4294.871582,4266.922852,4219.358887,4313.077148,4244.230957,4237.94873,4458.333496,4496.538574,4396.282227,4268.717773,,,,,,,,,,,,,,,,,,,,,,,,,,,,,,,,,,,,,,,,,,,,,,,,,,,,,,,,,,,,,,,,,,,,,,
1720524964,82,0,4247.94873,4356.666504,4294.615234,4281.282227,4294.102539,4263.717773,4227.05127,4316.410156,4246.794922,4239.871582,4467.692383,4500.641113,4403.974121,4276.282227,,,,,,,,,,,,,,,,,,,,,,,,,,,,,,,,,,,,,,,,,,,,,,,,,,,,,,,,,,,,,,,,,,,,,,
1720524964,83,0,4255.641113,4361.025879,4297.05127,4280.512695,4294.871582,4262.05127,4234.358887,4312.436035,4248.589844,4250.128418,4479.358887,4502.563965,4413.333496,4289.743652,,,,,,,,,,,,,,,,,,,,,,,,,,,,,,,,,,,,,,,,,,,,,,,,,,,,,,,,,,,,,,,,,,,,,,
1720524964,84,0,4266.025879,4370.641113,4302.05127,4282.563965,4294.358887,4263.717773,4234.487305,4313.717773,4245.384766,4248.717773,4476.538574,4501.538574,4412.820313,4297.94873,2.281145,2.873712,4.407312,0.571693,0.219546,1.782192,1.686542,2.406806,0.670363,0.302198,3.522145,2.636606,2.621376,0.519409,0.173806,1.43777,1.884787,1.977661,0.768598,0.315995,1.197467,0.918103,0.854164,0.334168,0.130456,0.430926,0.87372,1.311816,0.284738,0.098238,1.574129,1.203389,1.214652,0.547666,0.111522,0.420435,0.324257,0.105764,0.112297,0.150117,1.783245,1.342586,0.645272,0.593308,0.232386,3.440364,2.890449,2.008342,0.806714,0.366871,4.878783,2.870985,3.967799,1.069526,0.6402,3.721813,2.021138,3.609095,0.686684,0.27701,6.520109,3.41615,4.701818,0.989578,0.472426,19.048697,3.031318,5.218005,0.847087,0.483672
1720524964,85,0,4276.666504,4377.563965,4308.846191,4287.307617,4297.179688,4267.307617,4235.641113,4313.333496,4248.846191,4247.436035,4477.820313,4506.410156,4414.743652,4306.282227,,,,,,,,,,,,,,,,,,,,,,,,,,,,,,,,,,,,,,,,,,,,,,,,,,,,,,,,,,,,,,,,,,,,,,
1720524964,86,0,4282.820313,4381.153809,4310.641113,4290.384766,4297.307617,4264.358887,4235.769043,4315,4249.615234,4251.538574,4481.025879,4511.538574,4418.974121,4311.410156,,,,,,,,,,,,,,,,,,,,,,,,,,,,,,,,,,,,,,,,,,,,,,,,,,,,,,,,,,,,,,,,,,,,,,
1720524964,87,0,4266.282227,4372.820313,4295.384766,4284.102539,4288.077148,4250.256348,4218.461426,4303.333496,4229.743652,4239.615234,4458.974121,4490.641113,4400,4296.666504,,,,,,,,,,,,,,,,,,,,,,,,,,,,,,,,,,,,,,,,,,,,,,,,,,,,,,,,,,,,,,,,,,,,,,
1720524964,88,0,4237.692383,4351.538574,4271.153809,4266.153809,4274.871582,4234.871582,4192.436035,4288.589844,4202.563965,4211.153809,4430,4456.922852,4370.641113,4272.820313,,,,,,,,,,,,,,,,,,,,,,,,,,,,,,,,,,,,,,,,,,,,,,,,,,,,,,,,,,,,,,,,,,,,,,
1720524964,89,0,4219.615234,4334.358887,4253.461426,4245.769043,4264.487305,4229.743652,4177.820313,4291.666504,4192.692383,4187.692383,4414.487305,4438.205078,4351.153809,4253.461426,,,,,,,,,,,,,,,,,,,,,,,,,,,,,,,,,,,,,,,,,,,,,,,,,,,,,,,,,,,,,,,,,,,,,,
1720524964,90,0,4222.179688,4335.512695,4251.025879,4239.358887,4266.794922,4234.102539,4177.820313,4293.717773,4202.692383,4189.230957,4410.641113,4437.692383,4350.512695,4252.307617,,,,,,,,,,,,,,,,,,,,,,,,,,,,,,,,,,,,,,,,,,,,,,,,,,,,,,,,,,,,,,,,,,,,,,
1720524964,91,0,4239.743652,4350,4271.025879,4253.077148,4279.871582,4246.922852,4195.256348,4299.487305,4223.846191,4218.205078,4428.589844,4463.205078,4373.589844,4275,,,,,,,,,,,,,,,,,,,,,,,,,,,,,,,,,,,,,,,,,,,,,,,,,,,,,,,,,,,,,,,,,,,,,,
1720524964,92,0,4255.256348,4368.846191,4295.128418,4272.94873,4288.846191,4261.666504,4221.410156,4312.307617,4244.743652,4244.230957,4463.846191,4495.769043,4403.974121,4297.179688,,,,,,,,,,,,,,,,,,,,,,,,,,,,,,,,,,,,,,,,,,,,,,,,,,,,,,,,,,,,,,,,,,,,,,
1720524964,93,0,4261.666504,4378.461426,4300.641113,4280.897461,4291.922852,4264.615234,4234.487305,4315.897461,4253.333496,4248.717773,4489.871582,4509.487305,4418.333496,4310,,,,,,,,,,,,,,,,,,,,,,,,,,,,,,,,,,,,,,,,,,,,,,,,,,,,,,,,,,,,,,,,,,,,,,
1720524964,94,0,4265.512695,4376.153809,4298.589844,4276.410156,4294.871582,4263.846191,4232.94873,4311.538574,4250.897461,4248.461426,4487.820313,4508.077148,4416.153809,4318.461426,,,,,,,,,,,,,,,,,,,,,,,,,,,,,,,,,,,,,,,,,,,,,,,,,,,,,,,,,,,,,,,,,,,,,,
1720524964,95,0,4269.230957,4378.717773,4304.615234,4273.974121,4295,4266.922852,4236.282227,4312.563965,4244.102539,4251.538574,4476.538574,4507.179688,4414.871582,4316.922852,,,,,,,,,,,,,,,,,,,,,,,,,,,,,,,,,,,,,,,,,,,,,,,,,,,,,,,,,,,,,,,,,,,,,,
1720524964,96,0,4271.410156,4388.589844,4309.871582,4283.077148,4296.410156,4269.358887,4243.333496,4316.153809,4237.692383,4248.461426,4478.974121,4509.102539,4415.256348,4311.282227,,,,,,,,,,,,,,,,,,,,,,,,,,,,,,,,,,,,,,,,,,,,,,,,,,,,,,,,,,,,,,,,,,,,,,
1720524964,97,0,4272.820313,4387.94873,4302.94873,4288.461426,4300.256348,4269.871582,4238.974121,4313.205078,4231.410156,4241.922852,4477.307617,4504.871582,4407.05127,4308.461426,,,,,,,,,,,,,,,,,,,,,,,,,,,,,,,,,,,,,,,,,,,,,,,,,,,,,,,,,,,,,,,,,,,,,,
1720524964,98,0,4275.897461,4378.205078,4295.897461,4279.487305,4298.589844,4268.333496,4231.922852,4306.538574,4228.205078,4242.436035,4469.871582,4498.974121,4404.358887,4311.025879,,,,,,,,,,,,,,,,,,,,,,,,,,,,,,,,,,,,,,,,,,,,,,,,,,,,,,,,,,,,,,,,,,,,,,
1720524964,99,0,4279.358887,4377.307617,4297.563965,4276.025879,4296.794922,4264.358887,4231.666504,4304.102539,4237.820313,4248.589844,4471.025879,4499.487305,4409.487305,4322.563965,,,,,,,,,,,,,,,,,,,,,,,,,,,,,,,,,,,,,,,,,,,,,,,,,,,,,,,,,,,,,,,,,,,,,,
1720524964,100,0,4271.666504,4367.307617,4297.05127,4279.487305,4294.358887,4259.487305,4224.487305,4313.589844,4248.205078,4249.871582,4467.820313,4499.358887,4406.538574,4331.153809,2.288885,3.667717,4.568954,0.584629,0.226168,1.93575,1.933131,2.521297,0.714484,0.330409,3.067044,3.305209,2.705176,0.51608,0.163357,1.425163,2.265784,2.04261,0.763428,0.363732,1.126215,1.001152,0.91848,0.288774,0.135047,0.266029,0.969876,1.533358,0.271252,0.101568,1.293092,1.409296,1.352463,0.514709,0.098913,0.446947,0.378761,0.098247,0.110229,0.149413,1.704461,1.600157,0.523887,0.554764,0.247789,3.78657,3.559397,1.972257,0.772849,0.33952,4.697954,3.317739,3.844186,1.134954,0.72405,3.392639,2.405214,3.776937,0.677431,0.268407,5.588967,4.012865,4.88379,0.930838,0.454784,15.205256,3.317968,5.049396,0.786792,0.467532
1720524964,101,0,4260.641113,4340.897461,4288.205078,4275.384766,4292.94873,4262.563965,4215.641113,4309.358887,4248.717773,4247.94873,4460.897461,4489.871582,4402.820313,4329.743652,,,,,,,,,,,,,,,,,,,,,,,,,,,,,,,,,,,,,,,,,,,,,,,,,,,,,,,,,,,,,,,,,,,,,,
1720524964,102,0,4264.743652,4332.692383,4282.820313,4274.487305,4300.256348,4272.179688,4221.922852,4301.922852,4251.666504,4249.871582,4474.487305,4490.769043,4413.974121,4340.128418,,,,,,,,,,,,,,,,,,,,,,,,,,,,,,,,,,,,,,,,,,,,,,,,,,,,,,,,,,,,,,,,,,,,,,
1720524964,103,0,4273.333496,4337.307617,4287.820313,4282.692383,4303.333496,4277.307617,4232.692383,4315.512695,4261.282227,4251.794922,4483.974121,4503.589844,4418.205078,4358.717773,,,,,,,,,,,,,,,,,,,,,,,,,,,,,,,,,,,,,,,,,,,,,,,,,,,,,,,,,,,,,,,,,,,,,,
1720524964,104,0,4267.563965,4322.94873,4288.333496,4278.846191,4296.025879,4277.94873,4237.692383,4316.794922,4262.436035,4250.128418,4467.307617,4501.282227,4405,4360.769043,,,,,,,,,,,,,,,,,,,,,,,,,,,,,,,,,,,,,,,,,,,,,,,,,,,,,,,,,,,,,,,,,,,,,,
1720524964,105,0,4256.794922,4299.743652,4282.94873,4265,4294.102539,4279.358887,4240.769043,4309.871582,4253.333496,4246.153809,4468.077148,4495.769043,4400.256348,4359.743652,,,,,,,,,,,,,,,,,,,,,,,,,,,,,,,,,,,,,,,,,,,,,,,,,,,,,,,,,,,,,,,,,,,,,,
1720524964,106,0,4261.153809,4300.897461,4289.487305,4264.871582,4298.333496,4282.179688,4246.538574,4312.436035,4249.230957,4250.512695,4490.512695,4506.538574,4412.94873,4368.974121,,,,,,,,,,,,,,,,,,,,,,,,,,,,,,,,,,,,,,,,,,,,,,,,,,,,,,,,,,,,,,,,,,,,,,
1720524964,107,0,4271.538574,4313.846191,4302.436035,4280.512695,4296.538574,4277.692383,4248.333496,4307.692383,4252.307617,4261.666504,4490,4510.769043,4419.358887,4371.282227,,,,,,,,,,,,,,,,,,,,,,,,,,,,,,,,,,,,,,,,,,,,,,,,,,,,,,,,,,,,,,,,,,,,,,
1720524964,108,0,4264.871582,4303.461426,4296.922852,4282.692383,4290.128418,4267.692383,4232.179688,4301.282227,4245.769043,4258.589844,4465.512695,4493.077148,4401.922852,4356.922852,,,,,,,,,,,,,,,,,,,,,,,,,,,,,,,,,,,,,,,,,,,,,,,,,,,,,,,,,,,,,,,,,,,,,,
1720524964,109,0,4249.871582,4283.333496,4281.666504,4265,4286.922852,4261.794922,4213.205078,4304.487305,4234.615234,4242.692383,4451.025879,4479.102539,4384.102539,4344.230957,,,,,,,,,,,,,,,,,,,,,,,,,,,,,,,,,,,,,,,,,,,,,,,,,,,,,,,,,,,,,,,,,,,,,,
1720524964,110,0,4250,4287.692383,4277.94873,4256.153809,4290.769043,4261.794922,4217.820313,4301.025879,4245.512695,4243.589844,4456.410156,4481.025879,4390.128418,4349.487305,,,,,,,,,,,,,,,,,,,,,,,,,,,,,,,,,,,,,,,,,,,,,,,,,,,,,,,,,,,,,,,,,,,,,,
1720524964,111,0,4259.487305,4300.512695,4280.769043,4263.846191,4294.743652,4263.077148,4231.666504,4298.974121,4262.692383,4254.743652,4469.358887,4485.128418,4397.436035,4363.717773,,,,,,,,,,,,,,,,,,,,,,,,,,,,,,,,,,,,,,,,,,,,,,,,,,,,,,,,,,,,,,,,,,,,,,
1720524964,112,0,4257.179688,4285.128418,4279.358887,4265.512695,4292.05127,4266.153809,4230.128418,4309.487305,4256.410156,4242.436035,4474.102539,4483.461426,4387.692383,4365.128418,,,,,,,,,,,,,,,,,,,,,,,,,,,,,,,,,,,,,,,,,,,,,,,,,,,,,,,,,,,,,,,,,,,,,,
1720524964,113,0,4244.743652,4261.922852,4272.692383,4254.615234,4291.025879,4272.436035,4229.102539,4309.871582,4243.974121,4226.794922,4461.538574,4474.230957,4375.769043,4352.94873,,,,,,,,,,,,,,,,,,,,,,,,,,,,,,,,,,,,,,,,,,,,,,,,,,,,,,,,,,,,,,,,,,,,,,
1720524964,114,0,4245.641113,4265.897461,4276.153809,4257.563965,4292.820313,4276.282227,4241.922852,4311.922852,4248.717773,4237.692383,4457.820313,4476.538574,4381.794922,4359.230957,,,,,,,,,,,,,,,,,,,,,,,,,,,,,,,,,,,,,,,,,,,,,,,,,,,,,,,,,,,,,,,,,,,,,,
1720524964,115,0,4245.512695,4261.282227,4281.794922,4265.641113,4290,4277.307617,4251.282227,4316.794922,4251.794922,4245,4460.128418,4483.333496,4384.871582,4371.025879,,,,,,,,,,,,,,,,,,,,,,,,,,,,,,,,,,,,,,,,,,,,,,,,,,,,,,,,,,,,,,,,,,,,,,
1720524964,116,0,4236.666504,4231.666504,4279.102539,4254.102539,4287.563965,4281.025879,4248.846191,4312.179688,4240,4228.461426,4452.563965,4479.358887,4376.922852,4369.102539,2.122619,4.331726,4.289775,0.569783,0.235404,2.014086,2.123232,2.375153,0.725562,0.354479,2.615454,3.761071,2.516628,0.503669,0.159263,1.385372,2.536346,1.968286,0.715495,0.410277,1.000851,1.030855,0.920603,0.242701,0.139644,0.167314,0.994828,1.648309,0.252649,0.111198,1.117188,1.507156,1.454924,0.45851,0.090377,0.455022,0.395993,0.09808,0.104506,0.142704,1.622755,1.770723,0.44566,0.531219,0.254818,3.913373,3.988915,1.834721,0.763423,0.303714,4.614495,3.658211,3.530191,1.151743,0.78511,3.237153,2.71277,3.594839,0.656667,0.25684,4.736957,4.372362,4.736062,0.878773,0.428688,10.931828,3.760131,4.571647,0.71238,0.434052
1720524964,117,0,4248.717773,4232.436035,4288.589844,4255.128418,4292.692383,4283.077148,4248.205078,4312.307617,4231.538574,4226.153809,4462.179688,4489.743652,4388.077148,4385.512695,,,,,,,,,,,,,,,,,,,,,,,,,,,,,,,,,,,,,,,,,,,,,,,,,,,,,,,,,,,,,,,,,,,,,,
1720524964,118,0,4270.897461,4259.102539,4301.153809,4274.615234,4296.538574,4278.589844,4248.461426,4312.692383,4232.692383,4243.974121,4479.230957,4506.282227,4405.512695,4414.102539,,,,,,,,,,,,,,,,,,,,,,,,,,,,,,,,,,,,,,,,,,,,,,,,,,,,,,,,,,,,,,,,,,,,,,
1720524964,119,0,4266.282227,4257.307617,4295.128418,4273.333496,4293.846191,4273.461426,4238.461426,4306.410156,4238.205078,4247.436035,4469.615234,4499.487305,4398.333496,4414.871582,,,,,,,,,,,,,,,,,,,,,,,,,,,,,,,,,,,,,,,,,,,,,,,,,,,,,,,,,,,,,,,,,,,,,,
1720524964,120,0,4244.487305,4241.025879,4283.333496,4256.410156,4290.256348,4275.769043,4228.846191,4302.179688,4245.512695,4239.615234,4457.820313,4482.436035,4385.256348,4400.641113,,,,,,,,,,,,,,,,,,,,,,,,,,,,,,,,,,,,,,,,,,,,,,,,,,,,,,,,,,,,,,,,,,,,,,
1720524964,121,0,4238.205078,4241.538574,4280.128418,4258.846191,4290.256348,4278.589844,4228.846191,4303.717773,4250.384766,4236.410156,4461.153809,4477.563965,4384.615234,4402.179688,,,,,,,,,,,,,,,,,,,,,,,,,,,,,,,,,,,,,,,,,,,,,,,,,,,,,,,,,,,,,,,,,,,,,,
1720524964,122,0,4245,4246.282227,4280,4266.794922,4292.05127,4276.025879,4235.256348,4307.692383,4252.179688,4234.358887,4462.692383,4480.897461,4383.333496,4410.512695,,,,,,,,,,,,,,,,,,,,,,,,,,,,,,,,,,,,,,,,,,,,,,,,,,,,,,,,,,,,,,,,,,,,,,
1720524964,123,0,4249.230957,4242.179688,4283.589844,4257.94873,4291.025879,4276.025879,4243.205078,4311.666504,4251.282227,4234.615234,4466.153809,4483.717773,4383.077148,4413.205078,,,,,,,,,,,,,,,,,,,,,,,,,,,,,,,,,,,,,,,,,,,,,,,,,,,,,,,,,,,,,,,,,,,,,,
1720524964,124,0,4253.846191,4244.102539,4293.077148,4257.436035,4291.410156,4281.666504,4248.333496,4314.230957,4248.205078,4242.05127,4475.256348,4491.794922,4390.384766,4421.922852,,,,,,,,,,,,,,,,,,,,,,,,,,,,,,,,,,,,,,,,,,,,,,,,,,,,,,,,,,,,,,,,,,,,,,
1720524964,125,0,4263.461426,4260.256348,4301.410156,4276.922852,4296.282227,4286.025879,4256.025879,4315.512695,4249.102539,4251.410156,4479.230957,4504.102539,4397.692383,4440.512695,,,,,,,,,,,,,,,,,,,,,,,,,,,,,,,,,,,,,,,,,,,,,,,,,,,,,,,,,,,,,,,,,,,,,,
1720524964,126,0,4275.384766,4268.333496,4307.820313,4287.179688,4299.102539,4283.589844,4262.179688,4313.846191,4249.487305,4253.205078,4481.410156,4511.538574,4403.205078,4456.794922,,,,,,,,,,,,,,,,,,,,,,,,,,,,,,,,,,,,,,,,,,,,,,,,,,,,,,,,,,,,,,,,,,,,,,
1720524964,127,0,4277.94873,4258.717773,4307.692383,4277.05127,4295.256348,4280.128418,4250.769043,4311.153809,4237.179688,4248.333496,4480.512695,4504.871582,4401.025879,4461.538574,,,,,,,,,,,,,,,,,,,,,,,,,,,,,,,,,,,,,,,,,,,,,,,,,,,,,,,,,,,,,,,,,,,,,,
1720524964,0,0,4270.641113,4256.153809,4304.230957,4272.563965,4291.538574,4275,4236.794922,4316.282227,4224.871582,4243.077148,4479.615234,4497.436035,4396.282227,4463.589844,,,,,,,,,,,,,,,,,,,,,,,,,,,,,,,,,,,,,,,,,,,,,,,,,,,,,,,,,,,,,,,,,,,,,,
1720524964,1,0,4265.641113,4264.358887,4301.794922,4279.102539,4293.846191,4268.717773,4239.743652,4310.641113,4231.282227,4242.94873,4482.820313,4497.307617,4396.538574,4466.666504,,,,,,,,,,,,,,,,,,,,,,,,,,,,,,,,,,,,,,,,,,,,,,,,,,,,,,,,,,,,,,,,,,,,,,
1720524964,2,0,4262.563965,4261.410156,4297.436035,4279.743652,4297.179688,4271.922852,4246.025879,4299.743652,4245.384766,4248.205078,4481.282227,4491.025879,4395.897461,4467.179688,,,,,,,,,,,,,,,,,,,,,,,,,,,,,,,,,,,,,,,,,,,,,,,,,,,,,,,,,,,,,,,,,,,,,,
1720524964,3,0,4254.358887,4251.025879,4294.230957,4272.436035,4294.743652,4278.974121,4246.153809,4313.077148,4249.615234,4251.794922,4478.589844,4485.769043,4392.94873,4470.641113,,,,,,,,,,,,,,,,,,,,,,,,,,,,,,,,,,,,,,,,,,,,,,,,,,,,,,,,,,,,,,,,,,,,,,
1720524964,4,0,4245.256348,4244.615234,4288.846191,4261.153809,4289.102539,4278.974121,4246.922852,4314.615234,4244.487305,4242.307617,4467.692383,4478.333496,4381.666504,4467.820313,1.897293,4.738397,3.601604,0.542831,0.24452,2.103557,2.304299,2.006791,0.70073,0.375379,2.18134,3.945476,2.120824,0.494061,0.163485,1.286976,2.649323,1.731899,0.640513,0.442182,0.927583,1.010446,0.852557,0.206137,0.144101,0.153889,0.962593,1.622869,0.234478,0.122053,1.055636,1.52817,1.57524,0.393723,0.086569,0.436329,0.380323,0.119216,0.093908,0.13283,1.518903,1.830389,0.455146,0.515472,0.25146,3.732593,4.012539,1.615039,0.760933,0.266826,4.41771,3.806046,3.093065,1.113401,0.806161,3.16839,2.915645,3.131946,0.637786,0.240282,3.938094,4.390462,4.198252,0.812507,0.398679,8.216855,4.211419,3.894465,0.641492,0.387941
1720524964,5,0,4246.538574,4243.589844,4285.897461,4257.94873,4290.256348,4277.94873,4251.025879,4305.641113,4246.794922,4237.436035,4456.666504,4474.358887,4373.205078,4466.410156,,,,,,,,,,,,,,,,,,,,,,,,,,,,,,,,,,,,,,,,,,,,,,,,,,,,,,,,,,,,,,,,,,,,,,
1720524964,6,0,4251.153809,4247.820313,4293.333496,4263.461426,4291.794922,4282.692383,4255.641113,4316.282227,4253.205078,4247.179688,4462.94873,4482.692383,4378.717773,4478.205078,,,,,,,,,,,,,,,,,,,,,,,,,,,,,,,,,,,,,,,,,,,,,,,,,,,,,,,,,,,,,,,,,,,,,,
1720524964,7,0,4243.205078,4249.230957,4296.666504,4264.358887,4282.436035,4279.615234,4251.153809,4314.743652,4242.820313,4243.717773,4465.641113,4478.717773,4377.94873,4482.179688,,,,,,,,,,,,,,,,,,,,,,,,,,,,,,,,,,,,,,,,,,,,,,,,,,,,,,,,,,,,,,,,,,,,,,
1720524964,8,0,4239.871582,4245.384766,4295,4266.666504,4278.974121,4268.333496,4239.487305,4303.461426,4227.307617,4228.461426,4462.563965,4471.794922,4370.897461,4481.794922,,,,,,,,,,,,,,,,,,,,,,,,,,,,,,,,,,,,,,,,,,,,,,,,,,,,,,,,,,,,,,,,,,,,,,
1720524964,9,0,4256.025879,4251.666504,4300.769043,4268.974121,4290.256348,4262.563965,4236.282227,4309.230957,4229.743652,4234.102539,4471.666504,4485.128418,4377.94873,4491.794922,,,,,,,,,,,,,,,,,,,,,,,,,,,,,,,,,,,,,,,,,,,,,,,,,,,,,,,,,,,,,,,,,,,,,,
1720524964,10,0,4272.05127,4259.871582,4309.487305,4267.179688,4297.179688,4264.615234,4243.846191,4309.615234,4235.897461,4251.794922,4480.512695,4498.589844,4387.692383,4505,,,,,,,,,,,,,,,,,,,,,,,,,,,,,,,,,,,,,,,,,,,,,,,,,,,,,,,,,,,,,,,,,,,,,,
1720524964,11,0,4275.128418,4253.974121,4312.820313,4271.922852,4294.487305,4270.512695,4247.179688,4302.05127,4231.922852,4251.922852,4475.384766,4494.871582,4383.333496,4514.358887,,,,,,,,,,,,,,,,,,,,,,,,,,,,,,,,,,,,,,,,,,,,,,,,,,,,,,,,,,,,,,,,,,,,,,
1720524964,12,0,4275.769043,4254.358887,4314.743652,4279.871582,4293.205078,4273.461426,4243.589844,4312.820313,4234.230957,4245.641113,4472.94873,4496.153809,4377.563965,4525.512695,,,,,,,,,,,,,,,,,,,,,,,,,,,,,,,,,,,,,,,,,,,,,,,,,,,,,,,,,,,,,,,,,,,,,,
1720524964,13,0,4272.692383,4263.717773,4313.974121,4278.077148,4294.615234,4279.358887,4252.307617,4316.666504,4256.666504,4255.128418,4478.333496,4500.512695,4381.282227,4536.025879,,,,,,,,,,,,,,,,,,,,,,,,,,,,,,,,,,,,,,,,,,,,,,,,,,,,,,,,,,,,,,,,,,,,,,
1720524964,14,0,4261.153809,4254.102539,4305.128418,4269.358887,4294.102539,4291.282227,4261.538574,4312.436035,4268.333496,4262.94873,4480.128418,4494.871582,4379.358887,4542.94873,,,,,,,,,,,,,,,,,,,,,,,,,,,,,,,,,,,,,,,,,,,,,,,,,,,,,,,,,,,,,,,,,,,,,,
1720524964,15,0,4256.410156,4241.794922,4297.05127,4262.307617,4293.974121,4294.358887,4253.846191,4317.94873,4252.563965,4251.666504,4472.179688,4492.692383,4366.153809,4551.666504,,,,,,,,,,,,,,,,,,,,,,,,,,,,,,,,,,,,,,,,,,,,,,,,,,,,,,,,,,,,,,,,,,,,,,
1720524965,16,0,4265.897461,4254.358887,4299.615234,4259.871582,4294.102539,4284.615234,4248.974121,4312.307617,4239.358887,4242.563965,4467.307617,4495.641113,4365.128418,4565.769043,,,,,,,,,,,,,,,,,,,,,,,,,,,,,,,,,,,,,,,,,,,,,,,,,,,,,,,,,,,,,,,,,,,,,,
1720524965,17,0,4276.153809,4264.358887,4306.794922,4268.205078,4292.692383,4276.025879,4259.230957,4309.871582,4247.820313,4254.358887,4473.589844,4500.128418,4375.128418,4578.461426,,,,,,,,,,,,,,,,,,,,,,,,,,,,,,,,,,,,,,,,,,,,,,,,,,,,,,,,,,,,,,,,,,,,,,
1720524965,18,0,4277.563965,4264.615234,4305,4274.102539,4293.461426,4276.538574,4267.05127,4315.128418,4255.512695,4265.256348,4478.333496,4501.025879,4373.974121,4579.102539,,,,,,,,,,,,,,,,,,,,,,,,,,,,,,,,,,,,,,,,,,,,,,,,,,,,,,,,,,,,,,,,,,,,,,
1720524965,19,0,4272.179688,4268.846191,4297.179688,4268.333496,4294.871582,4274.871582,4259.102539,4312.307617,4247.436035,4262.05127,4482.179688,4497.820313,4374.743652,4580.128418,,,,,,,,,,,,,,,,,,,,,,,,,,,,,,,,,,,,,,,,,,,,,,,,,,,,,,,,,,,,,,,,,,,,,,
1720524965,20,0,4260.384766,4258.717773,4291.282227,4261.666504,4291.153809,4272.563965,4250.128418,4307.307617,4238.846191,4261.025879,4484.102539,4490.384766,4379.871582,4588.333496,1.653469,4.872636,2.745098,0.534696,0.252566,2.270321,2.576657,1.547382,0.659768,0.39638,1.805956,3.939935,1.705303,0.50165,0.175724,1.213844,2.633413,1.407579,0.570982,0.452531,0.874996,0.963172,0.738246,0.184934,0.147736,0.253311,0.91671,1.491388,0.224378,0.130136,1.125643,1.590468,1.832764,0.343874,0.089906,0.402924,0.358385,0.183357,0.080613,0.124098,1.44614,1.812901,0.646989,0.512938,0.241561,3.385962,3.661958,1.438527,0.763827,0.23932,4.076417,3.823054,2.754375,1.050689,0.783708,3.133538,3.120067,2.647481,0.646145,0.222459,3.311252,4.169755,3.475198,0.744877,0.373593,6.613926,4.561111,3.298677,0.598875,0.33999
1720524965,21,0,4254.487305,4251.025879,4285.384766,4261.410156,4288.589844,4276.153809,4252.05127,4308.717773,4244.487305,4264.743652,4476.153809,4483.461426,4371.410156,4596.666504,,,,,,,,,,,,,,,,,,,,,,,,,,,,,,,,,,,,,,,,,,,,,,,,,,,,,,,,,,,,,,,,,,,,,,
1720524965,22,0,4257.94873,4263.205078,4289.871582,4264.615234,4292.94873,4277.307617,4255.641113,4311.410156,4251.410156,4263.717773,4471.538574,4485.512695,4358.589844,4606.153809,,,,,,,,,,,,,,,,,,,,,,,,,,,,,,,,,,,,,,,,,,,,,,,,,,,,,,,,,,,,,,,,,,,,,,
1720524965,23,0,4255.641113,4270.128418,4297.94873,4261.410156,4296.666504,4274.871582,4248.077148,4305.641113,4245.897461,4258.461426,4477.179688,4483.589844,4357.94873,4616.410156,,,,,,,,,,,,,,,,,,,,,,,,,,,,,,,,,,,,,,,,,,,,,,,,,,,,,,,,,,,,,,,,,,,,,,
1720524965,24,0,4252.307617,4264.871582,4294.871582,4260.897461,4295.897461,4277.436035,4248.589844,4305.256348,4252.563965,4262.820313,4477.692383,4481.410156,4367.436035,4631.794922,,,,,,,,,,,,,,,,,,,,,,,,,,,,,,,,,,,,,,,,,,,,,,,,,,,,,,,,,,,,,,,,,,,,,,
1720524965,25,0,4254.743652,4265.897461,4286.794922,4262.563965,4294.743652,4282.820313,4263.974121,4315.384766,4266.666504,4268.077148,4476.282227,4487.692383,4367.563965,4646.794922,,,,,,,,,,,,,,,,,,,,,,,,,,,,,,,,,,,,,,,,,,,,,,,,,,,,,,,,,,,,,,,,,,,,,,
1720524965,26,0,4253.717773,4264.230957,4278.205078,4253.589844,4294.102539,4282.94873,4259.230957,4314.871582,4253.077148,4253.846191,4472.94873,4482.436035,4345.256348,4645.512695,,,,,,,,,,,,,,,,,,,,,,,,,,,,,,,,,,,,,,,,,,,,,,,,,,,,,,,,,,,,,,,,,,,,,,
1720524965,27,0,4252.820313,4263.717773,4283.461426,4250.897461,4296.410156,4282.820313,4249.358887,4306.153809,4240.641113,4241.794922,4468.461426,4476.153809,4335,4645.769043,,,,,,,,,,,,,,,,,,,,,,,,,,,,,,,,,,,,,,,,,,,,,,,,,,,,,,,,,,,,,,,,,,,,,,
1720524965,28,0,4258.077148,4272.436035,4299.615234,4262.692383,4296.153809,4277.05127,4257.436035,4312.692383,4252.563965,4254.615234,4475.384766,4486.282227,4356.666504,4663.333496,,,,,,,,,,,,,,,,,,,,,,,,,,,,,,,,,,,,,,,,,,,,,,,,,,,,,,,,,,,,,,,,,,,,,,
1720524965,29,0,4256.922852,4268.589844,4298.589844,4265.384766,4289.358887,4263.077148,4258.333496,4314.102539,4256.282227,4263.333496,4477.179688,4489.230957,4357.692383,4669.743652,,,,,,,,,,,,,,,,,,,,,,,,,,,,,,,,,,,,,,,,,,,,,,,,,,,,,,,,,,,,,,,,,,,,,,
1720524965,30,0,4259.102539,4266.666504,4289.871582,4262.307617,4289.615234,4259.102539,4247.436035,4299.230957,4247.692383,4258.333496,4470.769043,4480.769043,4337.307617,4664.615234,,,,,,,,,,,,,,,,,,,,,,,,,,,,,,,,,,,,,,,,,,,,,,,,,,,,,,,,,,,,,,,,,,,,,,
1720524965,31,0,4266.538574,4276.282227,4299.102539,4267.94873,4293.717773,4260.384766,4243.846191,4306.025879,4242.307617,4261.666504,4478.717773,4487.05127,4349.871582,4677.94873,,,,,,,,,,,,,,,,,,,,,,,,,,,,,,,,,,,,,,,,,,,,,,,,,,,,,,,,,,,,,,,,,,,,,,
1720524965,32,0,4262.436035,4276.025879,4305.512695,4264.487305,4291.025879,4259.743652,4246.153809,4312.179688,4238.461426,4265.512695,4491.153809,4494.871582,4368.589844,4688.974121,,,,,,,,,,,,,,,,,,,,,,,,,,,,,,,,,,,,,,,,,,,,,,,,,,,,,,,,,,,,,,,,,,,,,,
1720524965,33,0,4263.205078,4275.512695,4301.282227,4261.410156,4291.666504,4261.794922,4248.461426,4305.128418,4241.794922,4260.512695,4492.820313,4493.333496,4356.922852,4681.282227,,,,,,,,,,,,,,,,,,,,,,,,,,,,,,,,,,,,,,,,,,,,,,,,,,,,,,,,,,,,,,,,,,,,,,
1720524965,34,0,4270.641113,4282.307617,4306.922852,4271.282227,4295.256348,4265.256348,4252.692383,4314.358887,4253.333496,4258.205078,4489.358887,4495.769043,4344.743652,4684.230957,,,,,,,,,,,,,,,,,,,,,,,,,,,,,,,,,,,,,,,,,,,,,,,,,,,,,,,,,,,,,,,,,,,,,,
1720524965,35,0,4258.077148,4277.563965,4305.769043,4262.436035,4294.102539,4271.794922,4251.794922,4316.025879,4250.512695,4255.128418,4477.307617,4485.384766,4340.641113,4685.641113,,,,,,,,,,,,,,,,,,,,,,,,,,,,,,,,,,,,,,,,,,,,,,,,,,,,,,,,,,,,,,,,,,,,,,
1720524965,36,0,4240.128418,4268.974121,4291.538574,4252.05127,4291.538574,4276.153809,4247.692383,4306.538574,4234.487305,4246.153809,4466.153809,4469.615234,4326.538574,4670.897461,1.49583,4.823222,2.0186,0.576672,0.260896,2.676849,3.028124,1.153049,0.628818,0.422256,1.516035,3.919137,1.464026,0.534892,0.192871,1.170691,2.575487,1.103499,0.535417,0.444345,0.920368,0.919468,0.616864,0.180162,0.149188,0.462454,0.911261,1.346633,0.227842,0.133229,1.311808,1.829856,2.336091,0.332673,0.102839,0.3715,0.364296,0.303558,0.069436,0.120261,1.465135,1.775977,1.096665,0.538519,0.233161,3.069737,3.154949,1.424147,0.789332,0.231296,3.640194,3.897356,2.703831,1.012295,0.728184,3.116943,3.514428,2.412168,0.70693,0.210699,2.942966,3.950492,2.865302,0.713378,0.360121,5.805386,4.780322,3.026852,0.606371,0.301749
1720524965,37,0,4244.871582,4276.922852,4289.743652,4260.641113,4290.641113,4266.794922,4247.436035,4310.769043,4232.692383,4242.307617,4468.717773,4473.205078,4319.487305,4673.717773,,,,,,,,,,,,,,,,,,,,,,,,,,,,,,,,,,,,,,,,,,,,,,,,,,,,,,,,,,,,,,,,,,,,,,
1720524965,38,0,4252.820313,4286.025879,4294.102539,4257.307617,4289.871582,4256.025879,4245.897461,4310.769043,4242.820313,4247.692383,4475.512695,4482.179688,4327.820313,4693.846191,,,,,,,,,,,,,,,,,,,,,,,,,,,,,,,,,,,,,,,,,,,,,,,,,,,,,,,,,,,,,,,,,,,,,,
1720524965,39,0,4249.871582,4290.128418,4290.897461,4250.256348,4293.077148,4260.641113,4243.974121,4304.871582,4243.205078,4252.05127,4480,4482.307617,4330.641113,4700.769043,,,,,,,,,,,,,,,,,,,,,,,,,,,,,,,,,,,,,,,,,,,,,,,,,,,,,,,,,,,,,,,,,,,,,,
1720524965,40,0,4254.358887,4295,4292.94873,4262.94873,4294.102539,4262.820313,4239.230957,4312.179688,4234.615234,4248.589844,4479.102539,4483.333496,4322.307617,4702.436035,,,,,,,,,,,,,,,,,,,,,,,,,,,,,,,,,,,,,,,,,,,,,,,,,,,,,,,,,,,,,,,,,,,,,,
1720524965,41,0,4261.025879,4296.025879,4298.717773,4266.922852,4286.410156,4251.794922,4230.897461,4308.077148,4230.769043,4243.333496,4467.436035,4481.153809,4313.974121,4704.358887,,,,,,,,,,,,,,,,,,,,,,,,,,,,,,,,,,,,,,,,,,,,,,,,,,,,,,,,,,,,,,,,,,,,,,
1720524965,42,0,4260.384766,4295,4297.307617,4258.205078,4281.282227,4248.589844,4229.102539,4299.615234,4230,4243.333496,4464.487305,4476.666504,4313.974121,4703.333496,,,,,,,,,,,,,,,,,,,,,,,,,,,,,,,,,,,,,,,,,,,,,,,,,,,,,,,,,,,,,,,,,,,,,,
1720524965,43,0,4263.717773,4300,4297.94873,4265.128418,4280.384766,4256.410156,4233.333496,4309.487305,4233.974121,4247.436035,4476.282227,4484.230957,4317.692383,4708.205078,,,,,,,,,,,,,,,,,,,,,,,,,,,,,,,,,,,,,,,,,,,,,,,,,,,,,,,,,,,,,,,,,,,,,,
1720524965,44,0,4267.05127,4304.743652,4297.94873,4268.717773,4282.05127,4264.230957,4233.461426,4310.641113,4244.358887,4248.846191,4476.410156,4482.05127,4311.538574,4706.025879,,,,,,,,,,,,,,,,,,,,,,,,,,,,,,,,,,,,,,,,,,,,,,,,,,,,,,,,,,,,,,,,,,,,,,
1720524965,45,0,4257.563965,4298.589844,4291.410156,4253.717773,4287.179688,4266.025879,4230.769043,4307.94873,4242.692383,4244.358887,4470.384766,4470.384766,4306.538574,4694.230957,,,,,,,,,,,,,,,,,,,,,,,,,,,,,,,,,,,,,,,,,,,,,,,,,,,,,,,,,,,,,,,,,,,,,,
1720524965,46,0,4253.846191,4296.794922,4291.922852,4244.871582,4289.230957,4262.307617,4231.922852,4308.461426,4234.743652,4240.256348,4473.589844,4473.333496,4310.512695,4692.307617,,,,,,,,,,,,,,,,,,,,,,,,,,,,,,,,,,,,,,,,,,,,,,,,,,,,,,,,,,,,,,,,,,,,,,
1720524965,47,0,4266.666504,4301.922852,4302.692383,4251.282227,4287.692383,4258.333496,4233.717773,4303.717773,4234.487305,4240,4477.692383,4481.282227,4311.025879,4696.153809,,,,,,,,,,,,,,,,,,,,,,,,,,,,,,,,,,,,,,,,,,,,,,,,,,,,,,,,,,,,,,,,,,,,,,
1720524965,48,0,4273.846191,4299.487305,4304.743652,4257.436035,4289.230957,4260.512695,4234.102539,4305.512695,4237.563965,4245,4477.179688,4482.94873,4309.102539,4695.128418,,,,,,,,,,,,,,,,,,,,,,,,,,,,,,,,,,,,,,,,,,,,,,,,,,,,,,,,,,,,,,,,,,,,,,
1720524965,49,0,4270.897461,4303.717773,4297.436035,4253.205078,4288.974121,4261.153809,4235.897461,4309.358887,4237.820313,4247.307617,4478.333496,4483.974121,4313.589844,4695.897461,,,,,,,,,,,,,,,,,,,,,,,,,,,,,,,,,,,,,,,,,,,,,,,,,,,,,,,,,,,,,,,,,,,,,,
1720524965,50,0,4267.05127,4311.282227,4296.153809,4246.666504,4280.897461,4248.974121,4230.128418,4307.307617,4231.025879,4237.05127,4478.461426,4481.538574,4313.461426,4693.717773,,,,,,,,,,,,,,,,,,,,,,,,,,,,,,,,,,,,,,,,,,,,,,,,,,,,,,,,,,,,,,,,,,,,,,
1720524965,51,0,4271.410156,4308.846191,4306.922852,4257.692383,4284.871582,4241.666504,4226.025879,4305.256348,4224.487305,4234.743652,4481.666504,4481.282227,4312.436035,4692.436035,,,,,,,,,,,,,,,,,,,,,,,,,,,,,,,,,,,,,,,,,,,,,,,,,,,,,,,,,,,,,,,,,,,,,,
1720524965,52,0,4290.384766,4319.487305,4323.589844,4278.717773,4298.846191,4250.256348,4238.846191,4309.871582,4232.307617,4256.538574,4497.436035,4497.307617,4325.769043,4709.358887,1.517557,4.707219,1.65951,0.679955,0.270602,3.336864,3.629832,0.944472,0.624482,0.454842,1.365045,3.991378,1.504691,0.589785,0.209303,1.262448,2.534288,0.926187,0.54336,0.426038,1.015885,0.893949,0.522213,0.18786,0.147034,0.74276,0.956071,1.273142,0.243996,0.130734,1.582316,2.249431,3.066422,0.368069,0.126452,0.359446,0.409247,0.468702,0.06498,0.122634,1.58521,1.75559,1.79372,0.595231,0.235576,2.945578,2.716576,1.603651,0.843958,0.247917,3.322124,4.144437,2.999692,1.023701,0.657215,3.159254,4.161505,2.554921,0.819245,0.21004,2.864845,3.911378,2.591968,0.736896,0.360346,5.444261,4.861265,3.161614,0.661853,0.279846
1720524965,53,0,4297.179688,4340.512695,4323.974121,4274.102539,4295.512695,4248.205078,4242.94873,4313.333496,4240.256348,4262.05127,4500.384766,4497.820313,4327.820313,4716.922852,,,,,,,,,,,,,,,,,,,,,,,,,,,,,,,,,,,,,,,,,,,,,,,,,,,,,,,,,,,,,,,,,,,,,,
1720524965,54,0,4267.94873,4340.641113,4301.538574,4246.410156,4281.410156,4235.897461,4221.153809,4304.871582,4226.153809,4227.307617,4470.256348,4463.205078,4296.538574,4687.692383,,,,,,,,,,,,,,,,,,,,,,,,,,,,,,,,,,,,,,,,,,,,,,,,,,,,,,,,,,,,,,,,,,,,,,
1720524965,55,0,4228.974121,4327.307617,4272.05127,4228.717773,4271.153809,4231.922852,4200,4292.563965,4203.333496,4190,4425.897461,4429.615234,4252.820313,4648.589844,,,,,,,,,,,,,,,,,,,,,,,,,,,,,,,,,,,,,,,,,,,,,,,,,,,,,,,,,,,,,,,,,,,,,,
1720524965,56,0,4210.512695,4310,4249.230957,4220.256348,4259.102539,4231.410156,4195,4291.922852,4193.333496,4175.256348,4397.692383,4421.666504,4227.05127,4629.743652,,,,,,,,,,,,,,,,,,,,,,,,,,,,,,,,,,,,,,,,,,,,,,,,,,,,,,,,,,,,,,,,,,,,,,
1720524965,57,0,4216.794922,4298.461426,4249.871582,4210.512695,4258.717773,4236.410156,4198.974121,4296.153809,4198.846191,4186.922852,4407.436035,4429.358887,4237.05127,4633.846191,,,,,,,,,,,,,,,,,,,,,,,,,,,,,,,,,,,,,,,,,,,,,,,,,,,,,,,,,,,,,,,,,,,,,,
1720524965,58,0,4238.846191,4314.102539,4270.897461,4219.615234,4274.615234,4248.205078,4212.94873,4297.179688,4223.974121,4220.256348,4449.615234,4445.769043,4269.615234,4658.589844,,,,,,,,,,,,,,,,,,,,,,,,,,,,,,,,,,,,,,,,,,,,,,,,,,,,,,,,,,,,,,,,,,,,,,
1720524965,59,0,4256.025879,4332.05127,4287.692383,4241.922852,4282.436035,4250.897461,4228.974121,4312.179688,4244.615234,4246.282227,4484.615234,4471.922852,4298.077148,4691.282227,,,,,,,,,,,,,,,,,,,,,,,,,,,,,,,,,,,,,,,,,,,,,,,,,,,,,,,,,,,,,,,,,,,,,,
1720524965,60,0,4265.256348,4327.94873,4297.563965,4247.179688,4280.128418,4250.897461,4235.769043,4316.794922,4239.230957,4249.358887,4490,4487.307617,4307.820313,4709.871582,,,,,,,,,,,,,,,,,,,,,,,,,,,,,,,,,,,,,,,,,,,,,,,,,,,,,,,,,,,,,,,,,,,,,,
1720524965,61,0,4278.333496,4321.794922,4310.128418,4249.358887,4282.179688,4255.641113,4236.922852,4303.333496,4235.512695,4247.05127,4491.153809,4483.846191,4305.512695,4716.794922,,,,,,,,,,,,,,,,,,,,,,,,,,,,,,,,,,,,,,,,,,,,,,,,,,,,,,,,,,,,,,,,,,,,,,
1720524965,62,0,4285.256348,4320.256348,4317.692383,4260,4282.563965,4253.205078,4237.436035,4310.897461,4247.05127,4251.410156,4496.794922,4482.820313,4305.128418,4735.256348,,,,,,,,,,,,,,,,,,,,,,,,,,,,,,,,,,,,,,,,,,,,,,,,,,,,,,,,,,,,,,,,,,,,,,
1720524965,63,0,4278.333496,4308.461426,4314.230957,4255.641113,4281.666504,4251.794922,4240.897461,4316.025879,4246.282227,4252.692383,4494.615234,4486.922852,4307.94873,4758.589844,,,,,,,,,,,,,,,,,,,,,,,,,,,,,,,,,,,,,,,,,,,,,,,,,,,,,,,,,,,,,,,,,,,,,,
1720524965,64,0,4277.05127,4295.897461,4311.794922,4249.871582,4281.922852,4259.871582,4244.871582,4307.692383,4234.487305,4246.794922,4490.256348,4482.436035,4303.205078,4765.641113,,,,,,,,,,,,,,,,,,,,,,,,,,,,,,,,,,,,,,,,,,,,,,,,,,,,,,,,,,,,,,,,,,,,,,
1720524965,65,0,4286.153809,4292.307617,4314.102539,4257.179688,4280,4263.846191,4243.846191,4310.256348,4231.794922,4241.794922,4491.666504,4478.717773,4290.897461,4762.436035,,,,,,,,,,,,,,,,,,,,,,,,,,,,,,,,,,,,,,,,,,,,,,,,,,,,,,,,,,,,,,,,,,,,,,
1720524965,66,0,4286.153809,4288.974121,4315,4250.641113,4285,4268.589844,4242.05127,4312.05127,4234.230957,4242.692383,4489.230957,4482.307617,4292.94873,4763.077148,,,,,,,,,,,,,,,,,,,,,,,,,,,,,,,,,,,,,,,,,,,,,,,,,,,,,,,,,,,,,,,,,,,,,,
1720524965,67,0,4288.846191,4286.538574,4317.436035,4242.94873,4291.282227,4275.769043,4246.410156,4307.563965,4239.487305,4246.794922,4489.871582,4487.179688,4305.641113,4774.743652,,,,,,,,,,,,,,,,,,,,,,,,,,,,,,,,,,,,,,,,,,,,,,,,,,,,,,,,,,,,,,,,,,,,,,
1720524965,68,0,4302.692383,4283.717773,4322.436035,4253.205078,4286.153809,4276.538574,4250.512695,4316.282227,4248.846191,4250.641113,4505.256348,4496.538574,4312.563965,4791.538574,1.693779,4.59419,1.715227,0.822334,0.279634,4.102727,4.216702,0.936718,0.64288,0.489609,1.341757,4.145392,1.78553,0.650066,0.219082,1.394015,2.514005,0.909459,0.57694,0.406134,1.144572,0.882881,0.463463,0.199788,0.140548,1.011209,1.024041,1.308123,0.265156,0.124043,1.849526,2.712318,3.849755,0.432433,0.158031,0.365438,0.477044,0.643159,0.068155,0.130304,1.751198,1.742326,2.605303,0.664213,0.255798,3.024966,2.465624,1.896057,0.908232,0.285087,3.137374,4.530921,3.483866,1.069653,0.585352,3.281835,4.925252,2.979453,0.945492,0.218932,3.004539,4.067712,2.671994,0.796814,0.37295,5.060942,4.803773,3.558288,0.736414,0.273374
1720524965,69,0,4303.205078,4277.436035,4321.025879,4257.05127,4283.717773,4278.333496,4248.846191,4319.871582,4249.358887,4249.358887,4501.922852,4498.846191,4307.820313,4796.410156,,,,,,,,,,,,,,,,,,,,,,,,,,,,,,,,,,,,,,,,,,,,,,,,,,,,,,,,,,,,,,,,,,,,,,
1720524965,70,0,4301.410156,4278.589844,4321.922852,4257.307617,4290.769043,4283.846191,4247.94873,4310.256348,4247.307617,4248.205078,4496.153809,4496.410156,4305.256348,4798.205078,,,,,,,,,,,,,,,,,,,,,,,,,,,,,,,,,,,,,,,,,,,,,,,,,,,,,,,,,,,,,,,,,,,,,,
1720524965,71,0,4316.025879,4286.282227,4330.641113,4263.589844,4290.641113,4281.538574,4250.769043,4317.692383,4251.922852,4249.102539,4519.615234,4501.794922,4311.025879,4809.230957,,,,,,,,,,,,,,,,,,,,,,,,,,,,,,,,,,,,,,,,,,,,,,,,,,,,,,,,,,,,,,,,,,,,,,
1720524965,72,0,4321.794922,4284.871582,4327.179688,4259.487305,4282.563965,4273.333496,4245.384766,4318.077148,4247.820313,4240.128418,4520.897461,4495.384766,4302.307617,4806.538574,,,,,,,,,,,,,,,,,,,,,,,,,,,,,,,,,,,,,,,,,,,,,,,,,,,,,,,,,,,,,,,,,,,,,,
1720524965,73,0,4316.282227,4279.743652,4323.461426,4259.743652,4279.487305,4265.512695,4233.461426,4309.615234,4237.05127,4229.743652,4487.307617,4482.563965,4287.436035,4796.153809,,,,,,,,,,,,,,,,,,,,,,,,,,,,,,,,,,,,,,,,,,,,,,,,,,,,,,,,,,,,,,,,,,,,,,
1720524965,74,0,4321.922852,4279.102539,4330.256348,4265.769043,4279.358887,4264.358887,4231.410156,4313.077148,4238.974121,4232.307617,4479.871582,4485.384766,4288.846191,4799.871582,,,,,,,,,,,,,,,,,,,,,,,,,,,,,,,,,,,,,,,,,,,,,,,,,,,,,,,,,,,,,,,,,,,,,,
1720524965,75,0,4323.461426,4269.358887,4321.794922,4251.538574,4277.820313,4265.897461,4236.410156,4311.794922,4250.769043,4237.436035,4503.333496,4490,4297.94873,4803.205078,,,,,,,,,,,,,,,,,,,,,,,,,,,,,,,,,,,,,,,,,,,,,,,,,,,,,,,,,,,,,,,,,,,,,,
1720524965,76,0,4315.128418,4259.487305,4304.615234,4238.461426,4277.94873,4264.743652,4237.563965,4309.358887,4249.358887,4235.128418,4506.922852,4484.743652,4297.94873,4792.820313,,,,,,,,,,,,,,,,,,,,,,,,,,,,,,,,,,,,,,,,,,,,,,,,,,,,,,,,,,,,,,,,,,,,,,
1720524965,77,0,4317.94873,4268.589844,4305.256348,4253.974121,4279.358887,4268.333496,4239.743652,4308.461426,4234.871582,4228.461426,4489.871582,4476.410156,4288.461426,4773.077148,,,,,,,,,,,,,,,,,,,,,,,,,,,,,,,,,,,,,,,,,,,,,,,,,,,,,,,,,,,,,,,,,,,,,,
1720524965,78,0,4329.615234,4277.307617,4315.128418,4266.025879,4280.897461,4272.179688,4246.922852,4309.743652,4234.358887,4225.897461,4488.333496,4475.512695,4286.794922,4763.589844,,,,,,,,,,,,,,,,,,,,,,,,,,,,,,,,,,,,,,,,,,,,,,,,,,,,,,,,,,,,,,,,,,,,,,
1720524965,79,0,4336.922852,4268.717773,4317.94873,4260,4282.94873,4267.692383,4250.512695,4314.358887,4250,4232.692383,4505.769043,4482.94873,4296.153809,4767.563965,,,,,,,,,,,,,,,,,,,,,,,,,,,,,,,,,,,,,,,,,,,,,,,,,,,,,,,,,,,,,,,,,,,,,,
1720524965,80,0,4337.436035,4260.641113,4310.769043,4257.436035,4281.410156,4263.717773,4246.153809,4313.589844,4252.436035,4236.153809,4510.641113,4484.230957,4296.410156,4757.94873,,,,,,,,,,,,,,,,,,,,,,,,,,,,,,,,,,,,,,,,,,,,,,,,,,,,,,,,,,,,,,,,,,,,,,
1720524965,81,0,4342.563965,4263.846191,4308.589844,4264.743652,4277.94873,4267.05127,4243.846191,4309.871582,4244.230957,4232.820313,4501.922852,4481.666504,4287.94873,4736.666504,,,,,,,,,,,,,,,,,,,,,,,,,,,,,,,,,,,,,,,,,,,,,,,,,,,,,,,,,,,,,,,,,,,,,,
1720524965,82,0,4351.794922,4264.358887,4314.871582,4261.794922,4280.897461,4268.077148,4244.102539,4310.256348,4246.410156,4236.538574,4505.128418,4482.436035,4291.410156,4728.205078,,,,,,,,,,,,,,,,,,,,,,,,,,,,,,,,,,,,,,,,,,,,,,,,,,,,,,,,,,,,,,,,,,,,,,
1720524965,83,0,4358.461426,4262.436035,4311.922852,4248.333496,4280.769043,4262.563965,4238.846191,4310.641113,4243.717773,4238.205078,4505.384766,4478.333496,4297.179688,4725.128418,,,,,,,,,,,,,,,,,,,,,,,,,,,,,,,,,,,,,,,,,,,,,,,,,,,,,,,,,,,,,,,,,,,,,,
1720524965,84,0,4358.077148,4262.436035,4300.769043,4242.436035,4274.358887,4259.102539,4230.256348,4306.666504,4230.384766,4230.897461,4507.820313,4475,4296.153809,4714.487305,2.046734,4.472533,2.089105,0.968025,0.28563,4.631651,4.553507,1.056754,0.670547,0.516833,1.478579,4.262622,2.193515,0.704215,0.219316,1.582169,2.472211,1.051092,0.609466,0.390407,1.210508,0.868784,0.4292,0.210729,0.129938,1.223526,1.079746,1.430596,0.281928,0.116478,2.021821,3.046157,4.438968,0.495873,0.192175,0.379113,0.538073,0.782698,0.076298,0.140847,1.875136,1.709577,3.319578,0.718086,0.296245,3.199066,2.378024,2.183629,0.962237,0.333129,3.156123,4.895011,3.936813,1.124771,0.521078,3.489224,5.528608,3.462738,1.040311,0.232451,3.216689,4.291731,2.979332,0.866835,0.395994,4.767703,4.610196,3.986115,0.801519,0.276401
1720524965,85,0,4348.717773,4251.282227,4297.179688,4239.230957,4272.436035,4260.256348,4230.128418,4306.538574,4229.230957,4228.333496,4521.666504,4474.743652,4290.897461,4696.538574,,,,,,,,,,,,,,,,,,,,,,,,,,,,,,,,,,,,,,,,,,,,,,,,,,,,,,,,,,,,,,,,,,,,,,
1720524965,86,0,4344.871582,4243.589844,4297.94873,4239.615234,4276.666504,4268.974121,4238.717773,4311.025879,4231.666504,4231.538574,4538.974121,4473.205078,4283.333496,4680.384766,,,,,,,,,,,,,,,,,,,,,,,,,,,,,,,,,,,,,,,,,,,,,,,,,,,,,,,,,,,,,,,,,,,,,,
1720524965,87,0,4357.563965,4254.615234,4299.102539,4245.128418,4278.717773,4274.615234,4245.769043,4317.436035,4229.230957,4231.025879,4582.94873,4478.974121,4283.589844,4683.589844,,,,,,,,,,,,,,,,,,,,,,,,,,,,,,,,,,,,,,,,,,,,,,,,,,,,,,,,,,,,,,,,,,,,,,
1720524965,88,0,4375.256348,4263.077148,4305.384766,4247.307617,4278.205078,4272.179688,4247.307617,4314.487305,4241.410156,4231.153809,4638.846191,4488.077148,4288.461426,4690.128418,,,,,,,,,,,,,,,,,,,,,,,,,,,,,,,,,,,,,,,,,,,,,,,,,,,,,,,,,,,,,,,,,,,,,,
1720524965,89,0,4378.717773,4258.846191,4306.282227,4248.205078,4278.974121,4271.666504,4248.077148,4303.461426,4257.05127,4232.692383,4638.205078,4485.128418,4281.794922,4673.846191,,,,,,,,,,,,,,,,,,,,,,,,,,,,,,,,,,,,,,,,,,,,,,,,,,,,,,,,,,,,,,,,,,,,,,
1720524965,90,0,4374.358887,4250.512695,4305,4248.461426,4280,4272.179688,4251.282227,4311.794922,4253.077148,4231.666504,4606.410156,4482.820313,4276.538574,4658.717773,,,,,,,,,,,,,,,,,,,,,,,,,,,,,,,,,,,,,,,,,,,,,,,,,,,,,,,,,,,,,,,,,,,,,,
1720524965,91,0,4379.615234,4247.820313,4305.897461,4243.461426,4279.615234,4266.410156,4252.179688,4316.410156,4246.025879,4232.436035,4608.589844,4485.384766,4287.820313,4663.846191,,,,,,,,,,,,,,,,,,,,,,,,,,,,,,,,,,,,,,,,,,,,,,,,,,,,,,,,,,,,,,,,,,,,,,
1720524965,92,0,4387.94873,4257.436035,4303.205078,4243.205078,4278.974121,4259.102539,4249.871582,4308.333496,4249.230957,4234.487305,4616.025879,4485,4298.717773,4668.717773,,,,,,,,,,,,,,,,,,,,,,,,,,,,,,,,,,,,,,,,,,,,,,,,,,,,,,,,,,,,,,,,,,,,,,
1720524965,93,0,4387.563965,4266.538574,4305.641113,4253.846191,4280.256348,4258.205078,4249.615234,4313.461426,4246.666504,4235.256348,4604.871582,4491.794922,4296.538574,4666.666504,,,,,,,,,,,,,,,,,,,,,,,,,,,,,,,,,,,,,,,,,,,,,,,,,,,,,,,,,,,,,,,,,,,,,,
1720524965,94,0,4378.717773,4259.358887,4303.846191,4252.94873,4278.974121,4254.871582,4246.538574,4311.922852,4233.589844,4230.128418,4590.769043,4483.974121,4280.512695,4653.974121,,,,,,,,,,,,,,,,,,,,,,,,,,,,,,,,,,,,,,,,,,,,,,,,,,,,,,,,,,,,,,,,,,,,,,
1720524965,95,0,4378.717773,4259.358887,4291.538574,4247.436035,4276.538574,4251.410156,4245.256348,4302.307617,4232.563965,4227.563965,4574.102539,4466.794922,4263.846191,4637.692383,,,,,,,,,,,,,,,,,,,,,,,,,,,,,,,,,,,,,,,,,,,,,,,,,,,,,,,,,,,,,,,,,,,,,,
1720524965,96,0,4396.538574,4274.230957,4300.384766,4257.436035,4278.077148,4258.717773,4250.128418,4312.820313,4245,4240.897461,4571.538574,4482.436035,4268.846191,4642.307617,,,,,,,,,,,,,,,,,,,,,,,,,,,,,,,,,,,,,,,,,,,,,,,,,,,,,,,,,,,,,,,,,,,,,,
1720524965,97,0,4410.128418,4273.974121,4320.641113,4265.512695,4280.256348,4260,4253.717773,4321.025879,4253.205078,4260.384766,4586.794922,4503.974121,4280.256348,4649.230957,,,,,,,,,,,,,,,,,,,,,,,,,,,,,,,,,,,,,,,,,,,,,,,,,,,,,,,,,,,,,,,,,,,,,,
1720524965,98,0,4403.333496,4263.717773,4306.922852,4257.05127,4278.589844,4251.666504,4248.846191,4309.871582,4252.179688,4262.436035,4585.769043,4490.512695,4275,4635.769043,,,,,,,,,,,,,,,,,,,,,,,,,,,,,,,,,,,,,,,,,,,,,,,,,,,,,,,,,,,,,,,,,,,,,,
1720524965,99,0,4390.256348,4263.205078,4286.538574,4232.307617,4275.128418,4252.692383,4245.769043,4312.307617,4244.871582,4250.769043,4569.102539,4477.05127,4264.615234,4621.538574,,,,,,,,,,,,,,,,,,,,,,,,,,,,,,,,,,,,,,,,,,,,,,,,,,,,,,,,,,,,,,,,,,,,,,
1720524965,100,0,4386.153809,4263.077148,4292.05127,4209.615234,4273.461426,4262.94873,4255.897461,4318.589844,4242.692383,4249.615234,4567.563965,4487.563965,4262.307617,4618.974121,2.564511,4.289995,2.602185,1.087871,0.289513,4.732052,4.454255,1.19617,0.695488,0.526323,1.791018,4.20811,2.589179,0.751577,0.212231,1.679617,2.359599,1.31642,0.620188,0.381058,1.180782,0.830732,0.399294,0.222876,0.117512,1.352459,1.098943,1.575236,0.287702,0.112442,2.035839,3.105784,4.620875,0.5353,0.222751,0.379458,0.559432,0.850456,0.085579,0.152076,1.869492,1.633715,3.733504,0.737874,0.353532,3.287477,2.34934,2.39024,1.007706,0.382028,3.267885,5.032362,4.218535,1.191632,0.471799,3.739214,5.696349,3.796887,1.080134,0.246485,3.399987,4.413284,3.365431,0.942202,0.428316,5.166438,4.355719,4.255378,0.849887,0.285023
1720524965,101,0,4395,4261.025879,4301.410156,4214.615234,4275.256348,4265.128418,4265.384766,4314.871582,4249.358887,4254.102539,4576.282227,4494.615234,4263.974121,4625.256348,,,,,,,,,,,,,,,,,,,,,,,,,,,,,,,,,,,,,,,,,,,,,,,,,,,,,,,,,,,,,,,,,,,,,,
1720524965,102,0,4407.307617,4264.487305,4305.769043,4239.358887,4275.769043,4261.538574,4265.384766,4317.307617,4253.717773,4252.179688,4577.05127,4494.230957,4265.128418,4634.230957,,,,,,,,,,,,,,,,,,,,,,,,,,,,,,,,,,,,,,,,,,,,,,,,,,,,,,,,,,,,,,,,,,,,,,
1720524965,103,0,4405.641113,4267.94873,4310,4253.974121,4269.102539,4261.922852,4264.615234,4316.794922,4247.820313,4246.922852,4572.436035,4490.384766,4264.102539,4636.153809,,,,,,,,,,,,,,,,,,,,,,,,,,,,,,,,,,,,,,,,,,,,,,,,,,,,,,,,,,,,,,,,,,,,,,
1720524965,104,0,4399.743652,4267.692383,4307.05127,4258.461426,4263.717773,4259.487305,4262.436035,4315.897461,4245.384766,4240.641113,4567.179688,4486.666504,4265.384766,4628.205078,,,,,,,,,,,,,,,,,,,,,,,,,,,,,,,,,,,,,,,,,,,,,,,,,,,,,,,,,,,,,,,,,,,,,,
1720524965,105,0,4402.436035,4263.205078,4300,4263.974121,4266.282227,4254.615234,4252.05127,4315.769043,4247.820313,4231.025879,4557.692383,4483.461426,4262.179688,4613.461426,,,,,,,,,,,,,,,,,,,,,,,,,,,,,,,,,,,,,,,,,,,,,,,,,,,,,,,,,,,,,,,,,,,,,,
1720524965,106,0,4404.871582,4260.512695,4303.717773,4269.487305,4268.589844,4249.102539,4244.615234,4312.94873,4243.461426,4232.436035,4547.692383,4480.769043,4260.769043,4608.461426,,,,,,,,,,,,,,,,,,,,,,,,,,,,,,,,,,,,,,,,,,,,,,,,,,,,,,,,,,,,,,,,,,,,,,
1720524965,107,0,4413.333496,4271.410156,4315.384766,4281.282227,4266.666504,4246.794922,4253.974121,4314.358887,4243.077148,4247.820313,4556.538574,4494.871582,4272.94873,4620.769043,,,,,,,,,,,,,,,,,,,,,,,,,,,,,,,,,,,,,,,,,,,,,,,,,,,,,,,,,,,,,,,,,,,,,,
1720524965,108,0,4422.820313,4278.205078,4318.461426,4293.589844,4265.897461,4255.512695,4258.846191,4316.410156,4242.563965,4248.461426,4562.436035,4504.230957,4277.05127,4616.025879,,,,,,,,,,,,,,,,,,,,,,,,,,,,,,,,,,,,,,,,,,,,,,,,,,,,,,,,,,,,,,,,,,,,,,
1720524965,109,0,4412.563965,4263.974121,4305,4290.512695,4264.743652,4262.307617,4251.153809,4312.94873,4232.05127,4230,4543.589844,4488.333496,4263.077148,4589.102539,,,,,,,,,,,,,,,,,,,,,,,,,,,,,,,,,,,,,,,,,,,,,,,,,,,,,,,,,,,,,,,,,,,,,,
1720524965,110,0,4406.153809,4257.820313,4299.102539,4288.717773,4264.743652,4260.641113,4253.846191,4312.436035,4233.717773,4228.461426,4540.512695,4481.410156,4259.615234,4584.102539,,,,,,,,,,,,,,,,,,,,,,,,,,,,,,,,,,,,,,,,,,,,,,,,,,,,,,,,,,,,,,,,,,,,,,
1720524965,111,0,4415,4268.974121,4308.461426,4296.153809,4268.077148,4259.743652,4266.410156,4316.282227,4252.307617,4247.179688,4559.743652,4492.692383,4268.974121,4592.179688,,,,,,,,,,,,,,,,,,,,,,,,,,,,,,,,,,,,,,,,,,,,,,,,,,,,,,,,,,,,,,,,,,,,,,
1720524965,112,0,4410.256348,4265.641113,4308.717773,4297.307617,4265.256348,4263.846191,4267.563965,4316.666504,4257.563965,4252.436035,4556.410156,4493.205078,4259.871582,4577.436035,,,,,,,,,,,,,,,,,,,,,,,,,,,,,,,,,,,,,,,,,,,,,,,,,,,,,,,,,,,,,,,,,,,,,,
1720524965,113,0,4395.128418,4252.820313,4299.615234,4297.436035,4264.102539,4262.820313,4258.589844,4313.846191,4245.128418,4244.743652,4541.153809,4481.794922,4244.871582,4558.974121,,,,,,,,,,,,,,,,,,,,,,,,,,,,,,,,,,,,,,,,,,,,,,,,,,,,,,,,,,,,,,,,,,,,,,
1720524965,114,0,4387.692383,4250.769043,4291.410156,4300.512695,4264.615234,4254.871582,4252.179688,4311.153809,4236.922852,4241.282227,4540.512695,4476.025879,4243.846191,4551.922852,,,,,,,,,,,,,,,,,,,,,,,,,,,,,,,,,,,,,,,,,,,,,,,,,,,,,,,,,,,,,,,,,,,,,,
1720524965,115,0,4377.94873,4247.563965,4279.615234,4293.974121,4253.333496,4248.846191,4246.025879,4311.922852,4232.692383,4236.666504,4530,4469.615234,4239.487305,4533.974121,,,,,,,,,,,,,,,,,,,,,,,,,,,,,,,,,,,,,,,,,,,,,,,,,,,,,,,,,,,,,,,,,,,,,,
1720524965,116,0,4372.179688,4244.743652,4273.717773,4292.05127,4246.666504,4249.487305,4243.589844,4310,4228.589844,4231.922852,4514.871582,4463.461426,4229.871582,4513.717773,3.183681,4.010243,3.11344,1.167701,0.295965,4.383279,3.883095,1.288401,0.710965,0.511699,2.306096,3.932201,2.900725,0.794806,0.204758,1.753518,2.175325,1.678084,0.600925,0.378286,1.062238,0.763018,0.36373,0.240342,0.106436,1.45111,1.080304,1.66999,0.280374,0.114185,1.920457,2.868723,4.332703,0.542711,0.243675,0.36129,0.526105,0.833824,0.093856,0.162236,1.727707,1.527436,3.75695,0.725449,0.418304,3.297839,2.292646,2.530079,1.060178,0.422238,3.619666,4.866708,4.379561,1.291398,0.446088,4.030052,5.322103,3.923327,1.067023,0.258284,3.537786,4.345881,3.778737,1.034843,0.466284,6.126883,4.140978,4.326717,0.889123,0.300037
1720524965,117,0,4382.820313,4254.487305,4284.871582,4305.897461,4260.512695,4257.05127,4248.846191,4303.461426,4232.563965,4233.974121,4524.487305,4470.384766,4231.153809,4514.487305,,,,,,,,,,,,,,,,,,,,,,,,,,,,,,,,,,,,,,,,,,,,,,,,,,,,,,,,,,,,,,,,,,,,,,
1720524965,118,0,4386.282227,4258.974121,4291.153809,4312.820313,4264.487305,4259.487305,4249.230957,4311.410156,4235.256348,4233.717773,4531.794922,4478.589844,4232.820313,4514.230957,,,,,,,,,,,,,,,,,,,,,,,,,,,,,,,,,,,,,,,,,,,,,,,,,,,,,,,,,,,,,,,,,,,,,,
1720524965,119,0,4375.384766,4248.205078,4281.410156,4311.282227,4252.94873,4258.717773,4245.384766,4316.282227,4230.897461,4229.230957,4523.205078,4475.128418,4226.666504,4498.717773,,,,,,,,,,,,,,,,,,,,,,,,,,,,,,,,,,,,,,,,,,,,,,,,,,,,,,,,,,,,,,,,,,,,,,
1720524965,120,0,4375,4245.897461,4277.436035,4319.102539,4254.102539,4262.436035,4246.666504,4306.538574,4229.487305,4231.922852,4519.871582,4471.410156,4226.922852,4489.102539,,,,,,,,,,,,,,,,,,,,,,,,,,,,,,,,,,,,,,,,,,,,,,,,,,,,,,,,,,,,,,,,,,,,,,
1720524965,121,0,4390,4258.846191,4288.077148,4329.615234,4261.025879,4259.102539,4248.717773,4309.230957,4233.333496,4231.025879,4525.512695,4478.717773,4227.05127,4485.641113,,,,,,,,,,,,,,,,,,,,,,,,,,,,,,,,,,,,,,,,,,,,,,,,,,,,,,,,,,,,,,,,,,,,,,
1720524965,122,0,4395.384766,4268.077148,4295.641113,4329.743652,4261.153809,4253.461426,4247.179688,4314.358887,4235.512695,4225.769043,4524.358887,4482.94873,4219.358887,4474.358887,,,,,,,,,,,,,,,,,,,,,,,,,,,,,,,,,,,,,,,,,,,,,,,,,,,,,,,,,,,,,,,,,,,,,,
1720524965,123,0,4383.589844,4261.410156,4288.333496,4323.717773,4254.358887,4256.025879,4246.153809,4310.256348,4235.128418,4228.333496,4514.871582,4477.563965,4215.641113,4467.692383,,,,,,,,,,,,,,,,,,,,,,,,,,,,,,,,,,,,,,,,,,,,,,,,,,,,,,,,,,,,,,,,,,,,,,
1720524965,124,0,4380.897461,4256.794922,4283.589844,4331.410156,4248.461426,4252.820313,4247.05127,4310.512695,4235.128418,4232.820313,4511.922852,4475,4217.307617,4470.769043,,,,,,,,,,,,,,,,,,,,,,,,,,,,,,,,,,,,,,,,,,,,,,,,,,,,,,,,,,,,,,,,,,,,,,
1720524965,125,0,4390,4262.436035,4289.615234,4348.205078,4254.871582,4245.256348,4248.205078,4309.102539,4234.615234,4233.461426,4517.307617,4476.410156,4217.820313,4465.641113,,,,,,,,,,,,,,,,,,,,,,,,,,,,,,,,,,,,,,,,,,,,,,,,,,,,,,,,,,,,,,,,,,,,,,
1720524965,126,0,4393.461426,4263.717773,4294.230957,4345.384766,4263.333496,4254.230957,4250.897461,4304.230957,4233.333496,4233.333496,4516.025879,4474.743652,4217.05127,4450.769043,,,,,,,,,,,,,,,,,,,,,,,,,,,,,,,,,,,,,,,,,,,,,,,,,,,,,,,,,,,,,,,,,,,,,,
1720524965,127,0,4388.717773,4260.128418,4288.846191,4334.743652,4259.871582,4260.512695,4251.922852,4308.333496,4234.102539,4226.922852,4507.436035,4469.487305,4216.666504,4439.871582,,,,,,,,,,,,,,,,,,,,,,,,,,,,,,,,,,,,,,,,,,,,,,,,,,,,,,,,,,,,,,,,,,,,,,
1720524965,0,0,4386.282227,4259.358887,4280.641113,4345.256348,4257.563965,4249.871582,4250.769043,4307.307617,4234.102539,4215.384766,4505.256348,4466.922852,4215.641113,4432.05127,,,,,,,,,,,,,,,,,,,,,,,,,,,,,,,,,,,,,,,,,,,,,,,,,,,,,,,,,,,,,,,,,,,,,,
1720524965,1,0,4385.897461,4254.358887,4272.307617,4352.307617,4258.461426,4244.102539,4242.820313,4299.871582,4223.974121,4206.666504,4502.692383,4457.94873,4209.102539,4414.230957,,,,,,,,,,,,,,,,,,,,,,,,,,,,,,,,,,,,,,,,,,,,,,,,,,,,,,,,,,,,,,,,,,,,,,
1720524965,2,0,4382.94873,4245.512695,4268.974121,4339.743652,4249.743652,4243.461426,4233.077148,4307.436035,4211.794922,4199.487305,4489.743652,4443.846191,4195,4390.769043,,,,,,,,,,,,,,,,,,,,,,,,,,,,,,,,,,,,,,,,,,,,,,,,,,,,,,,,,,,,,,,,,,,,,,
1720524965,3,0,4385.769043,4253.461426,4272.179688,4343.717773,4250,4240.512695,4237.05127,4309.615234,4220.128418,4202.94873,4484.102539,4444.743652,4195.128418,4384.102539,,,,,,,,,,,,,,,,,,,,,,,,,,,,,,,,,,,,,,,,,,,,,,,,,,,,,,,,,,,,,,,,,,,,,,
1720524965,4,0,4398.077148,4265.897461,4276.922852,4361.538574,4261.282227,4242.307617,4246.538574,4307.94873,4235.384766,4215,4500,4458.205078,4210.769043,4393.205078,3.90704,3.667183,3.569771,1.209554,0.310604,3.674666,2.993714,1.330664,0.71491,0.474545,2.980001,3.509113,3.136146,0.83586,0.205603,1.709151,2.029777,2.120406,0.561132,0.381072,0.907857,0.685137,0.333319,0.2645,0.098976,1.564319,1.049236,1.676436,0.261682,0.120654,1.785918,2.468868,3.704234,0.523921,0.25071,0.333548,0.452051,0.751416,0.100934,0.170158,1.534145,1.436833,3.457363,0.703654,0.476677,3.318609,2.214555,2.686976,1.140276,0.446335,4.737696,4.630423,4.662384,1.450644,0.456304,4.337546,4.541408,3.93234,1.025664,0.268624,3.660235,4.15729,4.251142,1.160128,0.502744,8.650233,4.055402,4.294139,0.929406,0.325762
1720524965,5,0,4402.692383,4265,4278.717773,4365.384766,4263.333496,4245.256348,4246.794922,4311.282227,4233.077148,4216.922852,4510.897461,4459.871582,4213.717773,4389.102539,,,,,,,,,,,,,,,,,,,,,,,,,,,,,,,,,,,,,,,,,,,,,,,,,,,,,,,,,,,,,,,,,,,,,,
1720524965,6,0,4391.538574,4264.871582,4274.230957,4366.153809,4256.538574,4244.358887,4245.384766,4308.589844,4229.230957,4213.974121,4495.256348,4449.487305,4202.692383,4370.256348,,,,,,,,,,,,,,,,,,,,,,,,,,,,,,,,,,,,,,,,,,,,,,,,,,,,,,,,,,,,,,,,,,,,,,
1720524965,7,0,4385,4267.563965,4275.128418,4372.436035,4255.769043,4243.461426,4247.820313,4307.307617,4230.512695,4216.794922,4481.922852,4450.512695,4198.205078,4362.820313,,,,,,,,,,,,,,,,,,,,,,,,,,,,,,,,,,,,,,,,,,,,,,,,,,,,,,,,,,,,,,,,,,,,,,
1720524965,8,0,4391.153809,4264.743652,4281.794922,4376.282227,4263.077148,4247.307617,4246.794922,4306.794922,4226.410156,4218.974121,4495.512695,4456.794922,4204.358887,4365.256348,,,,,,,,,,,,,,,,,,,,,,,,,,,,,,,,,,,,,,,,,,,,,,,,,,,,,,,,,,,,,,,,,,,,,,
1720524965,9,0,4395,4261.410156,4279.358887,4378.205078,4265.384766,4251.025879,4243.846191,4306.153809,4226.282227,4216.538574,4505.384766,4456.410156,4207.563965,4361.538574,,,,,,,,,,,,,,,,,,,,,,,,,,,,,,,,,,,,,,,,,,,,,,,,,,,,,,,,,,,,,,,,,,,,,,
1720524965,10,0,4395.897461,4265.256348,4276.025879,4380.256348,4264.487305,4253.333496,4247.179688,4310,4232.563965,4216.025879,4494.871582,4456.538574,4205,4352.820313,,,,,,,,,,,,,,,,,,,,,,,,,,,,,,,,,,,,,,,,,,,,,,,,,,,,,,,,,,,,,,,,,,,,,,
1720524965,11,0,4393.846191,4270.384766,4278.589844,4384.230957,4265.641113,4255.769043,4252.94873,4313.846191,4235.641113,4217.05127,4491.410156,4458.461426,4203.717773,4350.256348,,,,,,,,,,,,,,,,,,,,,,,,,,,,,,,,,,,,,,,,,,,,,,,,,,,,,,,,,,,,,,,,,,,,,,
1720524965,12,0,4380.256348,4261.538574,4269.871582,4380.512695,4256.025879,4254.102539,4246.922852,4308.589844,4229.102539,4205.128418,4492.307617,4452.307617,4197.179688,4352.820313,,,,,,,,,,,,,,,,,,,,,,,,,,,,,,,,,,,,,,,,,,,,,,,,,,,,,,,,,,,,,,,,,,,,,,
1720524965,13,0,4370.256348,4252.436035,4256.538574,4372.94873,4245.128418,4248.717773,4238.846191,4302.692383,4224.871582,4198.461426,4488.974121,4443.077148,4193.205078,4355.384766,,,,,,,,,,,,,,,,,,,,,,,,,,,,,,,,,,,,,,,,,,,,,,,,,,,,,,,,,,,,,,,,,,,,,,
1720524965,14,0,4385,4266.153809,4267.563965,4382.307617,4256.025879,4248.205078,4247.436035,4305.769043,4240,4220.769043,4498.333496,4450.769043,4204.871582,4362.692383,,,,,,,,,,,,,,,,,,,,,,,,,,,,,,,,,,,,,,,,,,,,,,,,,,,,,,,,,,,,,,,,,,,,,,
1720524965,15,0,4400,4277.563965,4281.025879,4391.538574,4266.025879,4248.717773,4249.743652,4307.179688,4250.769043,4235.897461,4507.94873,4461.282227,4215.897461,4363.589844,,,,,,,,,,,,,,,,,,,,,,,,,,,,,,,,,,,,,,,,,,,,,,,,,,,,,,,,,,,,,,,,,,,,,,
1720524966,16,0,4394.615234,4271.538574,4275,4385.256348,4259.230957,4245.128418,4234.871582,4303.717773,4236.538574,4221.538574,4505.512695,4458.461426,4215.256348,4353.333496,,,,,,,,,,,,,,,,,,,,,,,,,,,,,,,,,,,,,,,,,,,,,,,,,,,,,,,,,,,,,,,,,,,,,,
1720524966,17,0,4394.358887,4278.589844,4272.436035,4390.641113,4259.102539,4243.205078,4230.256348,4294.230957,4225.641113,4215,4501.025879,4455.897461,4214.230957,4346.666504,,,,,,,,,,,,,,,,,,,,,,,,,,,,,,,,,,,,,,,,,,,,,,,,,,,,,,,,,,,,,,,,,,,,,,
1720524966,18,0,4400.256348,4283.846191,4278.846191,4398.077148,4265.128418,4246.922852,4239.487305,4296.922852,4231.922852,4221.794922,4497.05127,4457.692383,4205.897461,4339.871582,,,,,,,,,,,,,,,,,,,,,,,,,,,,,,,,,,,,,,,,,,,,,,,,,,,,,,,,,,,,,,,,,,,,,,
1720524966,19,0,4395.641113,4270.128418,4276.538574,4384.871582,4263.974121,4254.487305,4245.128418,4307.436035,4233.077148,4219.102539,4495.769043,4455,4194.743652,4327.563965,,,,,,,,,,,,,,,,,,,,,,,,,,,,,,,,,,,,,,,,,,,,,,,,,,,,,,,,,,,,,,,,,,,,,,
1720524966,20,0,4392.436035,4264.743652,4268.974121,4378.846191,4263.461426,4263.589844,4249.102539,4301.282227,4236.410156,4217.692383,4507.94873,4455.897461,4207.563965,4323.589844,4.524869,3.344299,3.930959,1.219096,0.336217,2.871394,2.048732,1.339578,0.707331,0.425445,3.701393,3.087636,3.315428,0.872768,0.221387,1.667069,2.062055,2.597546,0.528558,0.388089,0.790046,0.619845,0.326602,0.291469,0.096045,1.731955,1.02178,1.599925,0.237241,0.128892,1.727723,2.091663,2.978932,0.4929,0.243153,0.311982,0.362247,0.638002,0.107174,0.174902,1.398088,1.395136,2.989204,0.695484,0.514135,3.484228,2.178256,2.908074,1.24875,0.451342,7.030555,4.660536,5.244994,1.66362,0.513054,4.631424,3.649842,3.932307,0.982588,0.281699,3.805719,3.986498,4.76927,1.308976,0.528977,11.730486,4.135844,4.282077,0.973736,0.365797
1720524966,21,0,4390,4264.487305,4266.922852,4384.102539,4261.922852,4266.794922,4251.794922,4299.102539,4242.563965,4220.769043,4511.794922,4462.820313,4219.871582,4322.436035,,,,,,,,,,,,,,,,,,,,,,,,,,,,,,,,,,,,,,,,,,,,,,,,,,,,,,,,,,,,,,,,,,,,,,
1720524966,22,0,4387.307617,4266.410156,4268.974121,4387.307617,4261.922852,4266.025879,4249.102539,4305.128418,4236.538574,4215.641113,4494.871582,4459.743652,4202.820313,4305,,,,,,,,,,,,,,,,,,,,,,,,,,,,,,,,,,,,,,,,,,,,,,,,,,,,,,,,,,,,,,,,,,,,,,
1720524966,23,0,4400.384766,4287.307617,4279.230957,4401.282227,4268.077148,4262.563965,4249.615234,4306.538574,4238.205078,4216.025879,4495,4459.743652,4196.538574,4292.94873,,,,,,,,,,,,,,,,,,,,,,,,,,,,,,,,,,,,,,,,,,,,,,,,,,,,,,,,,,,,,,,,,,,,,,
1720524966,24,0,4415.128418,4296.538574,4292.436035,4415.769043,4266.922852,4255.384766,4254.487305,4306.666504,4250.512695,4224.487305,4514.487305,4473.589844,4215.641113,4301.922852,,,,,,,,,,,,,,,,,,,,,,,,,,,,,,,,,,,,,,,,,,,,,,,,,,,,,,,,,,,,,,,,,,,,,,
1720524966,25,0,4415.641113,4280.897461,4288.974121,4414.102539,4262.436035,4248.333496,4252.94873,4306.410156,4244.358887,4224.102539,4513.717773,4474.102539,4213.333496,4301.794922,,,,,,,,,,,,,,,,,,,,,,,,,,,,,,,,,,,,,,,,,,,,,,,,,,,,,,,,,,,,,,,,,,,,,,
1720524966,26,0,4401.538574,4277.05127,4267.820313,4402.563965,4260,4239.487305,4236.282227,4295.384766,4218.077148,4205.641113,4483.077148,4447.563965,4177.05127,4275.641113,,,,,,,,,,,,,,,,,,,,,,,,,,,,,,,,,,,,,,,,,,,,,,,,,,,,,,,,,,,,,,,,,,,,,,
1720524966,27,0,4378.974121,4280.641113,4252.179688,4390.512695,4251.153809,4228.717773,4217.307617,4289.487305,4197.692383,4178.589844,4447.436035,4422.94873,4148.717773,4244.102539,,,,,,,,,,,,,,,,,,,,,,,,,,,,,,,,,,,,,,,,,,,,,,,,,,,,,,,,,,,,,,,,,,,,,,
1720524966,28,0,4367.179688,4266.922852,4252.179688,4386.025879,4245,4226.922852,4213.333496,4295.897461,4193.333496,4165.641113,4439.743652,4423.717773,4147.307617,4232.436035,,,,,,,,,,,,,,,,,,,,,,,,,,,,,,,,,,,,,,,,,,,,,,,,,,,,,,,,,,,,,,,,,,,,,,
1720524966,29,0,4375.128418,4259.743652,4255,4390,4251.153809,4234.230957,4221.153809,4292.820313,4200.641113,4180.897461,4457.820313,4432.436035,4157.692383,4242.05127,,,,,,,,,,,,,,,,,,,,,,,,,,,,,,,,,,,,,,,,,,,,,,,,,,,,,,,,,,,,,,,,,,,,,,
1720524966,30,0,4388.333496,4275,4266.282227,4395.769043,4258.589844,4243.974121,4232.05127,4296.666504,4217.05127,4205.256348,4482.692383,4446.922852,4178.846191,4266.538574,,,,,,,,,,,,,,,,,,,,,,,,,,,,,,,,,,,,,,,,,,,,,,,,,,,,,,,,,,,,,,,,,,,,,,
1720524966,31,0,4397.563965,4293.846191,4282.436035,4406.282227,4268.846191,4256.025879,4246.410156,4304.743652,4233.461426,4217.436035,4506.025879,4468.205078,4207.05127,4290.641113,,,,,,,,,,,,,,,,,,,,,,,,,,,,,,,,,,,,,,,,,,,,,,,,,,,,,,,,,,,,,,,,,,,,,,
1720524966,32,0,4406.410156,4296.666504,4282.436035,4415.384766,4277.436035,4263.974121,4260.128418,4306.922852,4239.230957,4225.512695,4521.922852,4477.692383,4217.94873,4296.794922,,,,,,,,,,,,,,,,,,,,,,,,,,,,,,,,,,,,,,,,,,,,,,,,,,,,,,,,,,,,,,,,,,,,,,
1720524966,33,0,4412.563965,4296.025879,4279.102539,4414.487305,4271.538574,4263.717773,4266.025879,4309.102539,4239.487305,4232.692383,4523.974121,4477.179688,4218.974121,4291.538574,,,,,,,,,,,,,,,,,,,,,,,,,,,,,,,,,,,,,,,,,,,,,,,,,,,,,,,,,,,,,,,,,,,,,,
1720524966,34,0,4407.94873,4301.410156,4282.307617,4411.666504,4265,4259.871582,4261.153809,4302.436035,4234.871582,4225.384766,4513.461426,4471.538574,4217.94873,4285.256348,,,,,,,,,,,,,,,,,,,,,,,,,,,,,,,,,,,,,,,,,,,,,,,,,,,,,,,,,,,,,,,,,,,,,,
