Timestamp,EEG.Counter,EEG.Interpolated,EEG.AF3,EEG.F7,EEG.F3,EEG.FC5,EEG.T7,EEG.P7,EEG.O1,EEG.O2,EEG.P8,EEG.T8,EEG.FC6,EEG.F4,EEG.F8,EEG.AF4,POW.AF3.Theta,POW.AF3.Alpha,POW.AF3.BetaL,POW.AF3.BetaH,POW.AF3.Gamma,POW.F7.Theta,POW.F7.Alpha,POW.F7.BetaL,POW.F7.BetaH,POW.F7.Gamma,POW.F3.Theta,POW.F3.Alpha,POW.F3.BetaL,POW.F3.BetaH,POW.F3.Gamma,POW.FC5.Theta,POW.FC5.Alpha,POW.FC5.BetaL,POW.FC5.BetaH,POW.FC5.Gamma,POW.T7.Theta,POW.T7.Alpha,POW.T7.BetaL,POW.T7.BetaH,POW.T7.Gamma,POW.P7.Theta,POW.P7.Alpha,POW.P7.BetaL,POW.P7.BetaH,POW.P7.Gamma,POW.O1.Theta,POW.O1.Alpha,POW.O1.BetaL,POW.O1.BetaH,POW.O1.Gamma,POW.O2.Theta,POW.O2.Alpha,POW.O2.BetaL,POW.O2.BetaH,POW.O2.Gamma,POW.P8.Theta,POW.P8.Alpha,POW.P8.BetaL,POW.P8.BetaH,POW.P8.Gamma,POW.T8.Theta,POW.T8.Alpha,POW.T8.BetaL,POW.T8.BetaH,POW.T8.Gamma,POW.FC6.Theta,POW.FC6.Alpha,POW.FC6.BetaL,POW.FC6.BetaH,POW.FC6.Gamma,POW.F4.Theta,POW.F4.Alpha,POW.F4.BetaL,POW.F4.BetaH,POW.F4.Gamma,POW.F8.Theta,POW.F8.Alpha,POW.F8.BetaL,POW.F8.BetaH,POW.F8.Gamma,POW.AF4.Theta,POW.AF4.Alpha,POW.AF4.BetaL,POW.AF4.BetaH,POW.AF4.Gamma
1720076091,67,0,4289.871582,4491.282227,4410.897461,4452.94873,4574.615234,4536.410156,4491.922852,4487.94873,4543.205078,4440.897461,4378.205078,4596.025879,4432.179688,4190.769043,,,,,,,,,,,,,,,,,,,,,,,,,,,,,,,,,,,,,,,,,,,,,,,,,,,,,,,,,,,,,,,,,,,,,,
1720076091,68,0,4300.512695,4501.538574,4416.666504,4444.358887,4564.871582,4522.563965,4490.641113,4486.410156,4542.436035,4444.743652,4389.102539,4597.179688,4435.512695,4201.282227,,,,,,,,,,,,,,,,,,,,,,,,,,,,,,,,,,,,,,,,,,,,,,,,,,,,,,,,,,,,,,,,,,,,,,
1720076091,69,0,4311.666504,4502.94873,4425.128418,4457.692383,4567.436035,4516.282227,4490.128418,4484.487305,4539.615234,4442.307617,4400.512695,4603.205078,4440.512695,4206.153809,,,,,,,,,,,,,,,,,,,,,,,,,,,,,,,,,,,,,,,,,,,,,,,,,,,,,,,,,,,,,,,,,,,,,,
1720076091,70,0,4313.717773,4499.871582,4428.717773,4464.102539,4567.94873,4520.897461,4491.538574,4486.922852,4542.563965,4444.102539,4397.307617,4608.461426,4445.897461,4219.871582,,,,,,,,,,,,,,,,,,,,,,,,,,,,,,,,,,,,,,,,,,,,,,,,,,,,,,,,,,,,,,,,,,,,,,
1720076091,71,0,4317.820313,4504.358887,4429.230957,4458.974121,4563.846191,4523.846191,4494.358887,4492.179688,4541.025879,4445,4397.820313,4608.461426,4450.769043,4228.333496,,,,,,,,,,,,,,,,,,,,,,,,,,,,,,,,,,,,,,,,,,,,,,,,,,,,,,,,,,,,,,,,,,,,,,
1720076091,72,0,4320.256348,4502.05127,4426.922852,4460.641113,4564.230957,4521.025879,4494.871582,4490.769043,4528.974121,4434.615234,4394.102539,4600,4442.94873,4220.641113,,,,,,,,,,,,,,,,,,,,,,,,,,,,,,,,,,,,,,,,,,,,,,,,,,,,,,,,,,,,,,,,,,,,,,
1720076091,73,0,4315.384766,4496.410156,4419.743652,4460.897461,4565.256348,4527.05127,4498.333496,4486.538574,4518.974121,4424.230957,4382.820313,4589.487305,4427.820313,4212.563965,,,,,,,,,,,,,,,,,,,,,,,,,,,,,,,,,,,,,,,,,,,,,,,,,,,,,,,,,,,,,,,,,,,,,,
1720076091,74,0,4308.589844,4502.436035,4412.692383,4459.358887,4567.05127,4535.641113,4506.282227,4485,4523.077148,4426.025879,4383.589844,4589.871582,4422.563965,4201.666504,,,,,,,,,,,,,,,,,,,,,,,,,,,,,,,,,,,,,,,,,,,,,,,,,,,,,,,,,,,,,,,,,,,,,,
1720076091,75,0,4304.487305,4504.871582,4408.589844,4460,4569.358887,4533.333496,4504.871582,4484.743652,4532.820313,4430.256348,4388.077148,4592.692383,4424.230957,4166.410156,,,,,,,,,,,,,,,,,,,,,,,,,,,,,,,,,,,,,,,,,,,,,,,,,,,,,,,,,,,,,,,,,,,,,,
1720076091,76,0,4292.436035,4492.692383,4399.358887,4448.461426,4562.692383,4527.179688,4493.461426,4485.256348,4535.128418,4428.333496,4378.205078,4588.974121,4428.717773,4134.743652,,,,,,,,,,,,,,,,,,,,,,,,,,,,,,,,,,,,,,,,,,,,,,,,,,,,,,,,,,,,,,,,,,,,,,
1720076091,77,0,4278.461426,4489.487305,4390.897461,4437.307617,4557.692383,4525.641113,4490.641113,4483.205078,4536.025879,4427.692383,4367.563965,4583.846191,4433.589844,4137.94873,,,,,,,,,,,,,,,,,,,,,,,,,,,,,,,,,,,,,,,,,,,,,,,,,,,,,,,,,,,,,,,,,,,,,,
1720076091,78,0,4285.384766,4499.102539,4400.128418,4449.487305,4563.461426,4525.769043,4494.743652,4486.666504,4537.94873,4428.461426,4376.282227,4594.615234,4440.512695,4159.230957,,,,,,,,,,,,,,,,,,,,,,,,,,,,,,,,,,,,,,,,,,,,,,,,,,,,,,,,,,,,,,,,,,,,,,
1720076091,79,0,4300.256348,4506.025879,4413.205078,4465.769043,4564.871582,4521.666504,4492.05127,4489.615234,4538.846191,4428.846191,4394.358887,4612.179688,4450.897461,4169.871582,,,,,,,,,,,,,,,,,,,,,,,,,,,,,,,,,,,,,,,,,,,,,,,,,,,,,,,,,,,,,,,,,,,,,,
1720076091,80,0,4301.025879,4507.05127,4415.256348,4463.846191,4554.487305,4515.897461,4489.230957,4484.487305,4541.025879,4431.538574,4398.974121,4610,4450.769043,4168.846191,16.359194,4.6431,2.293897,1.210593,0.307028,0.687926,0.440415,0.262542,0.217684,0.168333,3.450479,5.485651,1.144185,0.693178,0.231314,3.180757,1.413895,0.85783,0.70432,0.286576,1.375523,0.967679,0.326107,0.254064,0.23696,1.256339,1.728122,0.422136,0.135794,0.121926,0.964015,1.334231,0.315274,0.195816,0.092719,0.451761,0.802881,0.167541,0.073652,0.091008,2.208239,2.844141,0.617045,0.649904,0.139393,2.927978,6.503307,0.716449,0.692403,0.150546,3.694403,3.357953,0.327501,1.05455,0.307459,2.70893,4.432383,0.405561,1.014303,0.188375,1.092179,1.752784,0.412553,0.404893,0.119493,3.3912,7.867671,0.586068,0.99803,0.189056
1720076091,81,0,4298.461426,4505.897461,4420,4459.102539,4551.794922,4521.666504,4492.436035,4488.205078,4535.384766,4431.794922,4396.282227,4612.307617,4446.666504,4176.410156,,,,,,,,,,,,,,,,,,,,,,,,,,,,,,,,,,,,,,,,,,,,,,,,,,,,,,,,,,,,,,,,,,,,,,
1720076091,82,0,4303.077148,4508.846191,4427.307617,4460,4562.179688,4530.897461,4493.333496,4492.179688,4526.922852,4427.820313,4398.205078,4621.666504,4449.358887,4188.333496,,,,,,,,,,,,,,,,,,,,,,,,,,,,,,,,,,,,,,,,,,,,,,,,,,,,,,,,,,,,,,,,,,,,,,
1720076091,83,0,4306.666504,4510.769043,4426.666504,4460.384766,4568.717773,4529.358887,4494.871582,4482.436035,4529.102539,4427.436035,4394.615234,4612.307617,4448.333496,4188.717773,,,,,,,,,,,,,,,,,,,,,,,,,,,,,,,,,,,,,,,,,,,,,,,,,,,,,,,,,,,,,,,,,,,,,,
1720076091,84,0,4303.589844,4508.974121,4425.641113,4466.282227,4569.102539,4531.794922,4503.717773,4483.846191,4538.589844,4434.102539,4388.205078,4601.282227,4445.897461,4185,,,,,,,,,,,,,,,,,,,,,,,,,,,,,,,,,,,,,,,,,,,,,,,,,,,,,,,,,,,,,,,,,,,,,,
1720076091,85,0,4302.692383,4507.563965,4427.436035,4476.282227,4570.897461,4541.794922,4509.871582,4497.307617,4546.282227,4440.769043,4392.307617,4608.461426,4450.256348,4189.743652,,,,,,,,,,,,,,,,,,,,,,,,,,,,,,,,,,,,,,,,,,,,,,,,,,,,,,,,,,,,,,,,,,,,,,
1720076091,86,0,4308.205078,4508.077148,4427.94873,4479.102539,4571.538574,4540.769043,4508.974121,4497.692383,4555,4443.717773,4402.179688,4615.641113,4452.307617,4197.820313,,,,,,,,,,,,,,,,,,,,,,,,,,,,,,,,,,,,,,,,,,,,,,,,,,,,,,,,,,,,,,,,,,,,,,
1720076091,87,0,4314.102539,4513.333496,4427.692383,4476.794922,4572.94873,4538.077148,4508.205078,4495.256348,4559.230957,4443.461426,4409.487305,4613.205078,4448.205078,4204.358887,,,,,,,,,,,,,,,,,,,,,,,,,,,,,,,,,,,,,,,,,,,,,,,,,,,,,,,,,,,,,,,,,,,,,,
1720076091,88,0,4315.897461,4518.589844,4423.974121,4476.538574,4586.666504,4541.666504,4508.461426,4499.743652,4554.743652,4443.974121,4414.743652,4616.410156,4447.563965,4209.230957,,,,,,,,,,,,,,,,,,,,,,,,,,,,,,,,,,,,,,,,,,,,,,,,,,,,,,,,,,,,,,,,,,,,,,
1720076091,89,0,4316.282227,4520.128418,4420.897461,4472.307617,4602.436035,4540.641113,4506.922852,4498.717773,4554.871582,4448.974121,4416.538574,4622.05127,4450.256348,4213.846191,,,,,,,,,,,,,,,,,,,,,,,,,,,,,,,,,,,,,,,,,,,,,,,,,,,,,,,,,,,,,,,,,,,,,,
1720076091,90,0,4322.179688,4521.025879,4427.05127,4468.205078,4600.256348,4537.307617,4506.153809,4496.666504,4556.794922,4450.384766,4416.153809,4629.102539,4451.794922,4225.641113,,,,,,,,,,,,,,,,,,,,,,,,,,,,,,,,,,,,,,,,,,,,,,,,,,,,,,,,,,,,,,,,,,,,,,
1720076091,91,0,4333.589844,4523.717773,4431.153809,4472.563965,4593.205078,4540.128418,4506.922852,4495.128418,4554.615234,4444.743652,4420.128418,4636.538574,4452.307617,4231.282227,,,,,,,,,,,,,,,,,,,,,,,,,,,,,,,,,,,,,,,,,,,,,,,,,,,,,,,,,,,,,,,,,,,,,,
1720076091,92,0,4342.820313,4523.846191,4431.410156,4476.538574,4596.153809,4544.487305,4508.205078,4496.794922,4554.743652,4442.179688,4425,4640.512695,4455.897461,4228.333496,,,,,,,,,,,,,,,,,,,,,,,,,,,,,,,,,,,,,,,,,,,,,,,,,,,,,,,,,,,,,,,,,,,,,,
1720076091,93,0,4344.230957,4522.563965,4439.102539,4476.666504,4597.307617,4542.05127,4508.589844,4499.743652,4556.538574,4445.512695,4428.846191,4644.358887,4458.589844,4235,,,,,,,,,,,,,,,,,,,,,,,,,,,,,,,,,,,,,,,,,,,,,,,,,,,,,,,,,,,,,,,,,,,,,,
1720076091,94,0,4345.897461,4522.307617,4442.179688,4476.153809,4590.897461,4537.692383,4507.307617,4499.230957,4558.717773,4449.743652,4428.077148,4643.846191,4455.256348,4246.666504,,,,,,,,,,,,,,,,,,,,,,,,,,,,,,,,,,,,,,,,,,,,,,,,,,,,,,,,,,,,,,,,,,,,,,
1720076091,95,0,4349.230957,4522.05127,4438.205078,4477.307617,4591.666504,4543.589844,4507.820313,4501.794922,4557.179688,4455.897461,4422.563965,4638.974121,4451.666504,4251.153809,,,,,,,,,,,,,,,,,,,,,,,,,,,,,,,,,,,,,,,,,,,,,,,,,,,,,,,,,,,,,,,,,,,,,,
1720076091,96,0,4348.333496,4522.820313,4441.153809,4484.743652,4597.94873,4552.05127,4510.512695,4504.358887,4555.769043,4458.333496,4416.794922,4632.820313,4451.794922,4250,15.108251,5.864367,2.305557,1.133189,0.324247,0.637638,0.552338,0.31342,0.219587,0.171056,2.949377,6.917056,1.11117,0.664283,0.231899,2.910417,1.999132,0.869419,0.701435,0.283089,1.300165,1.066945,0.31504,0.225364,0.247419,1.273612,2.365494,0.466497,0.143627,0.125581,0.843229,1.240031,0.327448,0.185873,0.089387,0.524844,0.920437,0.18506,0.074463,0.08775,2.175791,4.432936,0.84795,0.664862,0.147848,3.052758,8.958167,0.989443,0.685959,0.163328,3.495773,5.068113,0.359027,1.006138,0.301236,2.41487,6.252475,0.442624,0.969963,0.185347,0.968053,2.432316,0.418738,0.382411,0.114021,4.289582,10.713766,0.797092,1.150545,0.203781
1720076091,97,0,4346.538574,4523.077148,4445.256348,4492.820313,4593.077148,4553.974121,4509.230957,4500.128418,4555.641113,4449.743652,4413.077148,4627.563965,4449.871582,4245.384766,,,,,,,,,,,,,,,,,,,,,,,,,,,,,,,,,,,,,,,,,,,,,,,,,,,,,,,,,,,,,,,,,,,,,,
1720076091,98,0,4354.487305,4521.666504,4444.102539,4491.538574,4587.563965,4554.743652,4507.05127,4498.077148,4552.563965,4448.846191,4419.871582,4627.820313,4444.871582,4239.743652,,,,,,,,,,,,,,,,,,,,,,,,,,,,,,,,,,,,,,,,,,,,,,,,,,,,,,,,,,,,,,,,,,,,,,
1720076091,99,0,4358.333496,4520.512695,4445,4487.820313,4588.589844,4556.153809,4512.692383,4505.128418,4554.230957,4459.102539,4431.794922,4637.692383,4444.871582,4241.025879,,,,,,,,,,,,,,,,,,,,,,,,,,,,,,,,,,,,,,,,,,,,,,,,,,,,,,,,,,,,,,,,,,,,,,
1720076091,100,0,4323.589844,4520.641113,4446.922852,4483.333496,4589.102539,4557.820313,4520.384766,4511.282227,4564.487305,4461.025879,4433.717773,4643.846191,4449.743652,4244.102539,,,,,,,,,,,,,,,,,,,,,,,,,,,,,,,,,,,,,,,,,,,,,,,,,,,,,,,,,,,,,,,,,,,,,,
1720076091,101,0,4276.025879,4520.384766,4443.205078,4475.256348,4592.05127,4558.846191,4522.820313,4511.666504,4570.769043,4463.205078,4429.487305,4642.05127,4452.179688,4246.282227,,,,,,,,,,,,,,,,,,,,,,,,,,,,,,,,,,,,,,,,,,,,,,,,,,,,,,,,,,,,,,,,,,,,,,
1720076091,102,0,4267.05127,4519.230957,4440.256348,4479.102539,4592.307617,4556.666504,4522.820313,4511.410156,4567.436035,4474.487305,4434.102539,4643.846191,4452.692383,4253.461426,,,,,,,,,,,,,,,,,,,,,,,,,,,,,,,,,,,,,,,,,,,,,,,,,,,,,,,,,,,,,,,,,,,,,,
1720076091,103,0,4282.179688,4519.102539,4440.641113,4490.128418,4586.025879,4553.846191,4521.282227,4511.666504,4566.410156,4475.384766,4443.717773,4647.436035,4453.461426,4262.179688,,,,,,,,,,,,,,,,,,,,,,,,,,,,,,,,,,,,,,,,,,,,,,,,,,,,,,,,,,,,,,,,,,,,,,
1720076091,104,0,4286.922852,4522.94873,4443.589844,4489.871582,4590,4554.615234,4516.025879,4515.769043,4570.897461,4469.487305,4446.410156,4653.717773,4455.769043,4269.615234,,,,,,,,,,,,,,,,,,,,,,,,,,,,,,,,,,,,,,,,,,,,,,,,,,,,,,,,,,,,,,,,,,,,,,
1720076091,105,0,4288.846191,4524.358887,4446.922852,4488.461426,4601.794922,4554.102539,4511.538574,4515.384766,4572.307617,4474.358887,4442.692383,4653.717773,4456.666504,4270.769043,,,,,,,,,,,,,,,,,,,,,,,,,,,,,,,,,,,,,,,,,,,,,,,,,,,,,,,,,,,,,,,,,,,,,,
1720076091,106,0,4298.589844,4524.871582,4447.820313,4491.922852,4602.05127,4550.512695,4508.717773,4510.128418,4570.384766,4474.358887,4441.282227,4646.922852,4453.846191,4265.897461,,,,,,,,,,,,,,,,,,,,,,,,,,,,,,,,,,,,,,,,,,,,,,,,,,,,,,,,,,,,,,,,,,,,,,
1720076091,107,0,4308.974121,4531.025879,4453.717773,4497.436035,4596.922852,4550.256348,4506.922852,4511.922852,4571.025879,4469.230957,4445.641113,4650,4453.974121,4269.487305,,,,,,,,,,,,,,,,,,,,,,,,,,,,,,,,,,,,,,,,,,,,,,,,,,,,,,,,,,,,,,,,,,,,,,
1720076091,108,0,4316.153809,4532.94873,4462.820313,4510.769043,4602.179688,4553.974121,4515,4514.358887,4571.282227,4476.666504,4442.94873,4655.641113,4458.205078,4276.666504,,,,,,,,,,,,,,,,,,,,,,,,,,,,,,,,,,,,,,,,,,,,,,,,,,,,,,,,,,,,,,,,,,,,,,
1720076091,109,0,4315.128418,4528.077148,4459.743652,4525.769043,4610.897461,4559.743652,4521.410156,4511.282227,4563.589844,4478.205078,4434.230957,4648.846191,4456.666504,4272.563965,,,,,,,,,,,,,,,,,,,,,,,,,,,,,,,,,,,,,,,,,,,,,,,,,,,,,,,,,,,,,,,,,,,,,,
1720076091,110,0,4306.794922,4525.128418,4446.538574,4525.897461,4610.897461,4560.512695,4513.077148,4506.794922,4551.794922,4457.307617,4430,4637.05127,4448.589844,4263.077148,,,,,,,,,,,,,,,,,,,,,,,,,,,,,,,,,,,,,,,,,,,,,,,,,,,,,,,,,,,,,,,,,,,,,,
1720076091,111,0,4302.307617,4525.512695,4440.769043,4520,4605.897461,4556.794922,4506.410156,4504.871582,4546.922852,4454.230957,4428.461426,4632.436035,4446.282227,4260.256348,,,,,,,,,,,,,,,,,,,,,,,,,,,,,,,,,,,,,,,,,,,,,,,,,,,,,,,,,,,,,,,,,,,,,,
1720076091,112,0,4314.102539,4526.666504,4447.692383,4522.05127,4605.641113,4557.692383,4512.563965,4510.769043,4549.102539,4471.538574,4433.461426,4642.05127,4452.94873,4272.179688,12.291803,7.038573,2.247577,0.971352,0.325861,0.56311,0.691759,0.371423,0.232064,0.166731,2.452001,8.277816,1.077478,0.591984,0.227212,2.472947,2.776652,0.872538,0.681379,0.279494,1.176391,1.12508,0.330996,0.205354,0.255568,1.224314,3.039124,0.518326,0.151349,0.127296,0.734212,1.084112,0.353954,0.175523,0.088001,0.600244,1.009685,0.195197,0.07275,0.083838,2.074474,6.313876,1.077441,0.652744,0.163296,3.086017,11.02285,1.277169,0.6426,0.176386,3.243593,7.015667,0.445179,0.913783,0.312227,2.256445,8.254991,0.488983,0.866198,0.201814,0.883326,3.222151,0.4263,0.34618,0.111323,5.573402,13.167571,1.301278,1.254147,0.239345
1720076091,113,0,4317.820313,4522.436035,4444.102539,4513.717773,4595.512695,4552.94873,4514.230957,4512.692383,4542.05127,4435.769043,4430.641113,4643.589844,4448.974121,4275.384766,,,,,,,,,,,,,,,,,,,,,,,,,,,,,,,,,,,,,,,,,,,,,,,,,,,,,,,,,,,,,,,,,,,,,,
1720076091,114,0,4289.743652,4509.871582,4421.538574,4486.153809,4572.436035,4533.846191,4501.666504,4501.153809,4523.717773,4361.538574,4408.846191,4617.563965,4428.461426,4252.692383,,,,,,,,,,,,,,,,,,,,,,,,,,,,,,,,,,,,,,,,,,,,,,,,,,,,,,,,,,,,,,,,,,,,,,
1720076091,115,0,4269.102539,4501.025879,4405.641113,4461.666504,4563.589844,4519.615234,4491.666504,4494.743652,4517.179688,4342.563965,4392.436035,4603.589844,4415.897461,4238.077148,,,,,,,,,,,,,,,,,,,,,,,,,,,,,,,,,,,,,,,,,,,,,,,,,,,,,,,,,,,,,,,,,,,,,,
1720076091,116,0,4275.256348,4502.436035,4408.077148,4455.769043,4568.846191,4519.358887,4490.256348,4499.487305,4522.179688,4367.307617,4393.589844,4611.922852,4422.179688,4241.538574,,,,,,,,,,,,,,,,,,,,,,,,,,,,,,,,,,,,,,,,,,,,,,,,,,,,,,,,,,,,,,,,,,,,,,
1720076091,117,0,4284.615234,4504.487305,4412.820313,4463.846191,4566.922852,4520.769043,4491.666504,4498.717773,4520.384766,4367.307617,4393.333496,4611.922852,4431.538574,4243.717773,,,,,,,,,,,,,,,,,,,,,,,,,,,,,,,,,,,,,,,,,,,,,,,,,,,,,,,,,,,,,,,,,,,,,,
1720076091,118,0,4291.153809,4506.025879,4411.282227,4475.128418,4565.641113,4521.410156,4492.692383,4496.794922,4518.333496,4359.615234,4387.05127,4610.128418,4432.436035,4244.487305,,,,,,,,,,,,,,,,,,,,,,,,,,,,,,,,,,,,,,,,,,,,,,,,,,,,,,,,,,,,,,,,,,,,,,
1720076091,119,0,4293.974121,4507.307617,4412.05127,4477.94873,4568.846191,4521.025879,4490.128418,4500.256348,4522.692383,4369.743652,4392.94873,4615.769043,4427.307617,4250.128418,,,,,,,,,,,,,,,,,,,,,,,,,,,,,,,,,,,,,,,,,,,,,,,,,,,,,,,,,,,,,,,,,,,,,,
1720076091,120,0,4293.333496,4510.384766,4419.230957,4472.563965,4569.102539,4524.102539,4486.282227,4501.025879,4521.794922,4376.153809,4407.05127,4618.333496,4427.436035,4257.692383,,,,,,,,,,,,,,,,,,,,,,,,,,,,,,,,,,,,,,,,,,,,,,,,,,,,,,,,,,,,,,,,,,,,,,
1720076091,121,0,4301.922852,4519.487305,4428.846191,4480.384766,4579.487305,4536.922852,4495.128418,4500,4520.641113,4382.179688,4409.743652,4616.922852,4431.282227,4261.666504,,,,,,,,,,,,,,,,,,,,,,,,,,,,,,,,,,,,,,,,,,,,,,,,,,,,,,,,,,,,,,,,,,,,,,
1720076091,122,0,4312.94873,4526.538574,4432.692383,4494.230957,4598.717773,4546.025879,4509.743652,4501.153809,4524.871582,4389.871582,4405.128418,4617.05127,4431.922852,4261.282227,,,,,,,,,,,,,,,,,,,,,,,,,,,,,,,,,,,,,,,,,,,,,,,,,,,,,,,,,,,,,,,,,,,,,,
1720076091,123,0,4305.384766,4518.205078,4423.846191,4488.205078,4597.179688,4538.974121,4499.487305,4501.410156,4517.05127,4384.871582,4400.897461,4614.102539,4428.205078,4259.358887,,,,,,,,,,,,,,,,,,,,,,,,,,,,,,,,,,,,,,,,,,,,,,,,,,,,,,,,,,,,,,,,,,,,,,
1720076091,124,0,4305.769043,4517.05127,4429.358887,4495,4595.128418,4542.307617,4511.153809,4504.871582,4518.974121,4386.922852,4416.025879,4626.666504,4433.077148,4273.333496,,,,,,,,,,,,,,,,,,,,,,,,,,,,,,,,,,,,,,,,,,,,,,,,,,,,,,,,,,,,,,,,,,,,,,
1720076091,125,0,4342.692383,4545.897461,4470.641113,4536.922852,4627.94873,4573.846191,4593.077148,4523.589844,4560.641113,4424.358887,4460.641113,4673.461426,4459.102539,4310.769043,,,,,,,,,,,,,,,,,,,,,,,,,,,,,,,,,,,,,,,,,,,,,,,,,,,,,,,,,,,,,,,,,,,,,,
1720076091,126,0,4372.820313,4566.666504,4506.666504,4562.179688,4661.410156,4602.94873,4667.692383,4544.743652,4605.641113,4467.307617,4499.743652,4712.820313,4486.538574,4343.846191,,,,,,,,,,,,,,,,,,,,,,,,,,,,,,,,,,,,,,,,,,,,,,,,,,,,,,,,,,,,,,,,,,,,,,
1720076091,127,0,4364.871582,4558.717773,4504.871582,4553.077148,4665.512695,4604.615234,4672.179688,4544.615234,4615.384766,4477.179688,4507.05127,4713.205078,4487.692383,4350.256348,,,,,,,,,,,,,,,,,,,,,,,,,,,,,,,,,,,,,,,,,,,,,,,,,,,,,,,,,,,,,,,,,,,,,,
1720076091,0,0,4356.410156,4559.871582,4497.94873,4551.410156,4667.05127,4599.358887,4661.538574,4535.897461,4614.102539,4478.846191,4506.410156,4705.641113,4485.897461,4349.230957,9.07657,7.810874,2.091192,0.767615,0.316012,0.459636,0.830555,0.42391,0.252525,0.157952,2.029083,9.259234,1.05714,0.49987,0.222563,1.891804,3.583325,0.845526,0.664982,0.277578,1.069232,1.143985,0.376679,0.199781,0.262274,1.16719,3.580808,0.588761,0.160671,0.129147,0.637093,0.913059,0.387754,0.166949,0.087746,0.639665,1.053473,0.195834,0.070963,0.082176,1.879283,8.050034,1.259061,0.615752,0.183925,3.006146,12.141854,1.507237,0.583822,0.189537,2.89066,8.687312,0.602565,0.817051,0.351158,2.271225,9.931008,0.569385,0.742359,0.242808,0.816512,3.922538,0.45718,0.313614,0.115536,7.393449,14.823802,2.283947,1.312332,0.296435
1720076091,1,0,4370.384766,4575.769043,4511.794922,4562.436035,4675,4610,4670,4541.922852,4628.974121,4489.615234,4513.077148,4718.461426,4496.025879,4355.384766,,,,,,,,,,,,,,,,,,,,,,,,,,,,,,,,,,,,,,,,,,,,,,,,,,,,,,,,,,,,,,,,,,,,,,
1720076091,2,0,4380.512695,4575,4518.461426,4562.692383,4675.769043,4616.282227,4670.384766,4551.153809,4640.897461,4494.230957,4514.102539,4725.384766,4496.282227,4354.358887,,,,,,,,,,,,,,,,,,,,,,,,,,,,,,,,,,,,,,,,,,,,,,,,,,,,,,,,,,,,,,,,,,,,,,
1720076091,3,0,4379.871582,4568.589844,4508.717773,4567.820313,4671.794922,4605.384766,4661.922852,4543.461426,4635.641113,4496.666504,4511.025879,4712.692383,4486.153809,4348.974121,,,,,,,,,,,,,,,,,,,,,,,,,,,,,,,,,,,,,,,,,,,,,,,,,,,,,,,,,,,,,,,,,,,,,,
1720076091,4,0,4386.410156,4578.333496,4513.717773,4584.358887,4668.077148,4600.897461,4660.256348,4535.897461,4624.487305,4502.692383,4512.436035,4710.769043,4488.333496,4353.077148,,,,,,,,,,,,,,,,,,,,,,,,,,,,,,,,,,,,,,,,,,,,,,,,,,,,,,,,,,,,,,,,,,,,,,
1720076091,5,0,4395.128418,4589.358887,4528.717773,4576.538574,4675.384766,4613.974121,4666.025879,4542.94873,4622.179688,4503.461426,4512.692383,4722.307617,4496.153809,4355.897461,,,,,,,,,,,,,,,,,,,,,,,,,,,,,,,,,,,,,,,,,,,,,,,,,,,,,,,,,,,,,,,,,,,,,,
1720076091,6,0,4395.384766,4590.384766,4529.871582,4551.025879,4693.077148,4625.769043,4672.94873,4545.128418,4624.743652,4502.179688,4512.05127,4724.102539,4489.102539,4350.512695,,,,,,,,,,,,,,,,,,,,,,,,,,,,,,,,,,,,,,,,,,,,,,,,,,,,,,,,,,,,,,,,,,,,,,
1720076091,7,0,4391.922852,4588.589844,4528.846191,4546.794922,4694.358887,4629.743652,4675.897461,4543.589844,4622.692383,4505.897461,4512.692383,4724.358887,4480.128418,4351.794922,,,,,,,,,,,,,,,,,,,,,,,,,,,,,,,,,,,,,,,,,,,,,,,,,,,,,,,,,,,,,,,,,,,,,,
1720076091,8,0,4392.820313,4591.153809,4539.102539,4555.897461,4679.871582,4631.282227,4681.153809,4552.05127,4629.230957,4506.410156,4514.615234,4736.922852,4485.897461,4357.94873,,,,,,,,,,,,,,,,,,,,,,,,,,,,,,,,,,,,,,,,,,,,,,,,,,,,,,,,,,,,,,,,,,,,,,
1720076091,9,0,4399.487305,4594.230957,4542.692383,4556.666504,4675.641113,4629.615234,4684.743652,4560.512695,4640.384766,4506.153809,4515,4746.922852,4493.461426,4360,,,,,,,,,,,,,,,,,,,,,,,,,,,,,,,,,,,,,,,,,,,,,,,,,,,,,,,,,,,,,,,,,,,,,,
1720076091,10,0,4408.077148,4596.410156,4539.358887,4564.102539,4682.692383,4635,4681.666504,4561.410156,4641.666504,4513.589844,4524.615234,4748.333496,4495.641113,4366.025879,,,,,,,,,,,,,,,,,,,,,,,,,,,,,,,,,,,,,,,,,,,,,,,,,,,,,,,,,,,,,,,,,,,,,,
1720076091,11,0,4413.333496,4600,4542.307617,4573.077148,4680,4641.025879,4680.128418,4560.384766,4641.025879,4521.025879,4540.256348,4751.153809,4497.436035,4372.94873,,,,,,,,,,,,,,,,,,,,,,,,,,,,,,,,,,,,,,,,,,,,,,,,,,,,,,,,,,,,,,,,,,,,,,
1720076091,12,0,4409.615234,4599.358887,4540.897461,4560.897461,4669.743652,4630.769043,4678.717773,4560.769043,4645.128418,4521.025879,4536.282227,4750,4496.538574,4371.025879,,,,,,,,,,,,,,,,,,,,,,,,,,,,,,,,,,,,,,,,,,,,,,,,,,,,,,,,,,,,,,,,,,,,,,
1720076091,13,0,4407.692383,4598.077148,4535,4550.128418,4673.589844,4620.256348,4672.820313,4561.794922,4646.538574,4518.846191,4523.333496,4742.94873,4490.512695,4365.512695,,,,,,,,,,,,,,,,,,,,,,,,,,,,,,,,,,,,,,,,,,,,,,,,,,,,,,,,,,,,,,,,,,,,,,
1720076092,14,0,4418.205078,4603.717773,4537.94873,4556.025879,4686.794922,4626.153809,4666.794922,4561.282227,4645.384766,4520.384766,4526.666504,4737.307617,4488.333496,4364.615234,,,,,,,,,,,,,,,,,,,,,,,,,,,,,,,,,,,,,,,,,,,,,,,,,,,,,,,,,,,,,,,,,,,,,,
1720076092,15,0,4424.102539,4607.307617,4546.922852,4566.922852,4689.230957,4633.077148,4663.974121,4559.871582,4650.256348,4523.974121,4534.358887,4742.179688,4492.563965,4372.436035,,,,,,,,,,,,,,,,,,,,,,,,,,,,,,,,,,,,,,,,,,,,,,,,,,,,,,,,,,,,,,,,,,,,,,
1720076092,16,0,4423.205078,4610.384766,4556.922852,4576.025879,4689.358887,4632.94873,4664.102539,4559.230957,4658.589844,4530.897461,4531.922852,4750.641113,4498.589844,4380.128418,6.171772,8.01213,1.870204,0.590853,0.308309,0.396556,0.93163,0.457811,0.272178,0.148088,1.802001,9.598193,1.049879,0.410579,0.222621,1.456611,4.226261,0.778965,0.665282,0.278615,1.161804,1.123405,0.439223,0.210949,0.267287,1.126683,3.818363,0.6765,0.17206,0.133582,0.655858,0.791385,0.436804,0.163379,0.090129,0.656213,1.040135,0.189689,0.071564,0.084645,1.756773,9.144652,1.387975,0.564429,0.205093,3.048102,11.993568,1.651044,0.537454,0.209448,2.675511,9.546642,0.820156,0.746226,0.414343,2.482658,10.77405,0.68732,0.631145,0.301719,0.784284,4.339018,0.524984,0.295651,0.127519,9.180948,15.441187,3.746993,1.33808,0.366614
1720076092,17,0,4440,4619.102539,4562.307617,4575.512695,4695.384766,4633.717773,4664.487305,4560,4659.102539,4535.128418,4524.871582,4747.820313,4494.743652,4379.743652,,,,,,,,,,,,,,,,,,,,,,,,,,,,,,,,,,,,,,,,,,,,,,,,,,,,,,,,,,,,,,,,,,,,,,
1720076092,18,0,4460.512695,4614.615234,4558.077148,4570.384766,4691.538574,4632.820313,4661.666504,4562.179688,4646.666504,4521.666504,4516.922852,4739.743652,4483.333496,4372.820313,,,,,,,,,,,,,,,,,,,,,,,,,,,,,,,,,,,,,,,,,,,,,,,,,,,,,,,,,,,,,,,,,,,,,,
1720076092,19,0,4459.358887,4602.436035,4554.230957,4570.897461,4682.820313,4634.358887,4661.153809,4563.461426,4637.820313,4504.871582,4516.794922,4744.615234,4482.307617,4372.05127,,,,,,,,,,,,,,,,,,,,,,,,,,,,,,,,,,,,,,,,,,,,,,,,,,,,,,,,,,,,,,,,,,,,,,
1720076092,20,0,4453.717773,4608.717773,4558.974121,4572.436035,4685,4639.230957,4666.282227,4564.871582,4642.692383,4504.871582,4530.641113,4757.820313,4493.717773,4380.128418,,,,,,,,,,,,,,,,,,,,,,,,,,,,,,,,,,,,,,,,,,,,,,,,,,,,,,,,,,,,,,,,,,,,,,
1720076092,21,0,4460.512695,4622.307617,4567.05127,4578.077148,4691.922852,4640,4672.436035,4570.897461,4650.897461,4517.436035,4540.769043,4767.94873,4504.871582,4384.615234,,,,,,,,,,,,,,,,,,,,,,,,,,,,,,,,,,,,,,,,,,,,,,,,,,,,,,,,,,,,,,,,,,,,,,
1720076092,22,0,4469.871582,4626.666504,4579.487305,4593.846191,4695,4642.820313,4677.179688,4578.461426,4662.563965,4532.179688,4549.102539,4779.871582,4519.871582,4388.461426,,,,,,,,,,,,,,,,,,,,,,,,,,,,,,,,,,,,,,,,,,,,,,,,,,,,,,,,,,,,,,,,,,,,,,
1720076092,23,0,4468.717773,4633.077148,4583.846191,4600.512695,4694.871582,4646.922852,4681.025879,4579.743652,4674.871582,4542.692383,4564.102539,4789.487305,4539.230957,4395.641113,,,,,,,,,,,,,,,,,,,,,,,,,,,,,,,,,,,,,,,,,,,,,,,,,,,,,,,,,,,,,,,,,,,,,,
1720076092,24,0,4452.692383,4635.256348,4571.410156,4588.333496,4693.333496,4643.717773,4678.717773,4577.563965,4673.974121,4543.077148,4563.589844,4782.307617,4546.153809,4392.307617,,,,,,,,,,,,,,,,,,,,,,,,,,,,,,,,,,,,,,,,,,,,,,,,,,,,,,,,,,,,,,,,,,,,,,
1720076092,25,0,4428.205078,4623.077148,4554.487305,4574.743652,4690.897461,4638.974121,4669.743652,4574.230957,4660.128418,4529.358887,4539.871582,4763.461426,4535.897461,4371.538574,,,,,,,,,,,,,,,,,,,,,,,,,,,,,,,,,,,,,,,,,,,,,,,,,,,,,,,,,,,,,,,,,,,,,,
1720076092,26,0,4409.230957,4611.153809,4540.256348,4558.846191,4686.666504,4635.384766,4661.666504,4566.538574,4646.282227,4506.025879,4513.333496,4741.538574,4517.820313,4347.820313,,,,,,,,,,,,,,,,,,,,,,,,,,,,,,,,,,,,,,,,,,,,,,,,,,,,,,,,,,,,,,,,,,,,,,
1720076092,27,0,4405,4610.512695,4536.538574,4551.794922,4683.846191,4632.307617,4659.102539,4566.410156,4645.897461,4499.358887,4505.769043,4735.256348,4518.461426,4347.179688,,,,,,,,,,,,,,,,,,,,,,,,,,,,,,,,,,,,,,,,,,,,,,,,,,,,,,,,,,,,,,,,,,,,,,
1720076092,28,0,4419.615234,4617.820313,4555.769043,4572.179688,4689.487305,4641.410156,4661.153809,4575.641113,4663.333496,4522.563965,4527.692383,4755.256348,4545.384766,4377.820313,,,,,,,,,,,,,,,,,,,,,,,,,,,,,,,,,,,,,,,,,,,,,,,,,,,,,,,,,,,,,,,,,,,,,,
1720076092,29,0,4435.384766,4626.153809,4575.897461,4590.641113,4701.025879,4657.820313,4668.974121,4581.922852,4680.384766,4545.512695,4553.589844,4770.769043,4562.820313,4403.333496,,,,,,,,,,,,,,,,,,,,,,,,,,,,,,,,,,,,,,,,,,,,,,,,,,,,,,,,,,,,,,,,,,,,,,
1720076092,30,0,4431.794922,4629.871582,4572.94873,4586.410156,4707.820313,4661.410156,4673.717773,4582.436035,4679.615234,4539.615234,4551.153809,4767.436035,4561.794922,4395.769043,,,,,,,,,,,,,,,,,,,,,,,,,,,,,,,,,,,,,,,,,,,,,,,,,,,,,,,,,,,,,,,,,,,,,,
1720076092,31,0,4420.384766,4626.922852,4566.153809,4578.846191,4708.077148,4651.666504,4671.538574,4577.307617,4670.384766,4525.128418,4542.05127,4767.05127,4566.282227,4383.846191,,,,,,,,,,,,,,,,,,,,,,,,,,,,,,,,,,,,,,,,,,,,,,,,,,,,,,,,,,,,,,,,,,,,,,
1720076092,32,0,4421.794922,4627.307617,4571.153809,4585,4709.358887,4652.820313,4675.769043,4584.102539,4668.077148,4524.102539,4553.974121,4783.333496,4580.512695,4397.692383,4.62433,7.76589,1.659887,0.506433,0.319581,0.433117,0.963277,0.462581,0.281074,0.141382,1.97293,9.17581,1.049341,0.340481,0.231125,1.566558,4.579321,0.691333,0.690572,0.284874,1.726166,1.066654,0.499488,0.238518,0.270982,1.345416,3.681097,0.775378,0.186197,0.14314,1.398079,0.882344,0.573757,0.18409,0.105179,0.696517,0.973166,0.186449,0.076671,0.091941,2.082397,9.256202,1.498013,0.50974,0.223269,4.148228,10.638367,1.757231,0.532411,0.251841,2.977206,9.309649,1.056481,0.718949,0.482411,3.034749,10.520078,0.836708,0.552235,0.364392,0.92125,4.342299,0.628493,0.295392,0.145316,10.690866,15.028402,5.417924,1.345242,0.434695
1720076092,33,0,4430.641113,4636.410156,4571.922852,4591.410156,4709.615234,4657.94873,4679.871582,4593.205078,4669.230957,4527.563965,4563.846191,4797.436035,4587.307617,4413.461426,,,,,,,,,,,,,,,,,,,,,,,,,,,,,,,,,,,,,,,,,,,,,,,,,,,,,,,,,,,,,,,,,,,,,,
1720076092,34,0,4431.922852,4637.94873,4563.333496,4592.05127,4700,4647.436035,4671.922852,4582.820313,4666.538574,4526.410156,4559.871582,4794.487305,4582.820313,4407.820313,,,,,,,,,,,,,,,,,,,,,,,,,,,,,,,,,,,,,,,,,,,,,,,,,,,,,,,,,,,,,,,,,,,,,,
1720076092,35,0,4423.205078,4629.358887,4549.871582,4581.153809,4689.871582,4640.256348,4667.563965,4581.538574,4661.282227,4523.077148,4557.05127,4792.436035,4580.769043,4400.256348,,,,,,,,,,,,,,,,,,,,,,,,,,,,,,,,,,,,,,,,,,,,,,,,,,,,,,,,,,,,,,,,,,,,,,
1720076092,36,0,4417.05127,4626.794922,4541.794922,4570.641113,4694.743652,4647.436035,4672.94873,4592.05127,4662.820313,4523.333496,4559.487305,4798.846191,4586.794922,4403.205078,,,,,,,,,,,,,,,,,,,,,,,,,,,,,,,,,,,,,,,,,,,,,,,,,,,,,,,,,,,,,,,,,,,,,,
1720076092,37,0,4424.358887,4635.128418,4548.333496,4580,4703.461426,4653.846191,4676.922852,4588.333496,4672.563965,4534.358887,4568.205078,4804.358887,4591.282227,4412.05127,,,,,,,,,,,,,,,,,,,,,,,,,,,,,,,,,,,,,,,,,,,,,,,,,,,,,,,,,,,,,,,,,,,,,,
1720076092,38,0,4427.179688,4641.794922,4551.282227,4587.179688,4700.256348,4652.307617,4674.102539,4585.256348,4671.410156,4544.743652,4570.897461,4803.461426,4593.717773,4417.94873,,,,,,,,,,,,,,,,,,,,,,,,,,,,,,,,,,,,,,,,,,,,,,,,,,,,,,,,,,,,,,,,,,,,,,
1720076092,39,0,4414.871582,4640.769043,4541.922852,4584.102539,4692.307617,4648.846191,4667.307617,4590.897461,4664.102539,4537.436035,4556.025879,4793.461426,4591.538574,4410.897461,,,,,,,,,,,,,,,,,,,,,,,,,,,,,,,,,,,,,,,,,,,,,,,,,,,,,,,,,,,,,,,,,,,,,,
1720076092,40,0,4406.794922,4635.256348,4534.743652,4582.563965,4684.871582,4645,4660.512695,4586.153809,4662.563965,4526.153809,4528.333496,4776.282227,4577.563965,4396.025879,,,,,,,,,,,,,,,,,,,,,,,,,,,,,,,,,,,,,,,,,,,,,,,,,,,,,,,,,,,,,,,,,,,,,,
1720076092,41,0,4403.974121,4632.436035,4526.153809,4577.179688,4678.205078,4643.589844,4657.05127,4581.666504,4656.025879,4521.153809,4497.05127,4761.410156,4564.358887,4383.205078,,,,,,,,,,,,,,,,,,,,,,,,,,,,,,,,,,,,,,,,,,,,,,,,,,,,,,,,,,,,,,,,,,,,,,
1720076092,42,0,4394.230957,4633.205078,4512.05127,4556.410156,4678.589844,4646.282227,4654.230957,4585,4644.615234,4517.563965,4476.282227,4754.743652,4561.794922,4376.282227,,,,,,,,,,,,,,,,,,,,,,,,,,,,,,,,,,,,,,,,,,,,,,,,,,,,,,,,,,,,,,,,,,,,,,
1720076092,43,0,4386.410156,4627.179688,4506.666504,4529.615234,4679.743652,4644.615234,4649.615234,4584.230957,4641.025879,4507.94873,4472.179688,4756.538574,4561.410156,4378.846191,,,,,,,,,,,,,,,,,,,,,,,,,,,,,,,,,,,,,,,,,,,,,,,,,,,,,,,,,,,,,,,,,,,,,,
1720076092,44,0,4391.922852,4623.333496,4513.077148,4517.563965,4675.512695,4641.153809,4646.282227,4585.769043,4641.153809,4490.512695,4474.871582,4765.512695,4560.128418,4384.615234,,,,,,,,,,,,,,,,,,,,,,,,,,,,,,,,,,,,,,,,,,,,,,,,,,,,,,,,,,,,,,,,,,,,,,
1720076092,45,0,4401.922852,4629.102539,4517.94873,4524.230957,4673.974121,4639.743652,4649.230957,4587.94873,4640.897461,4490.384766,4483.333496,4773.589844,4563.974121,4388.846191,,,,,,,,,,,,,,,,,,,,,,,,,,,,,,,,,,,,,,,,,,,,,,,,,,,,,,,,,,,,,,,,,,,,,,
1720076092,46,0,4406.922852,4633.333496,4524.102539,4537.94873,4667.94873,4638.077148,4653.974121,4589.230957,4642.692383,4514.358887,4492.820313,4782.436035,4567.94873,4396.666504,,,,,,,,,,,,,,,,,,,,,,,,,,,,,,,,,,,,,,,,,,,,,,,,,,,,,,,,,,,,,,,,,,,,,,
1720076092,47,0,4407.307617,4633.461426,4525.769043,4534.615234,4658.205078,4637.05127,4651.025879,4592.307617,4634.230957,4525.897461,4470.512695,4784.487305,4565.512695,4396.538574,,,,,,,,,,,,,,,,,,,,,,,,,,,,,,,,,,,,,,,,,,,,,,,,,,,,,,,,,,,,,,,,,,,,,,
1720076092,48,0,4404.743652,4632.307617,4523.589844,4522.179688,4661.666504,4636.153809,4646.666504,4588.717773,4616.538574,4510,4430,4775.512695,4565.641113,4389.358887,4.833491,7.310453,1.536172,0.544818,0.360155,0.701874,0.912977,0.437735,0.277267,0.141989,2.752742,8.095556,1.060688,0.307405,0.250496,2.74345,4.617198,0.633224,0.753423,0.298702,3.07501,0.988081,0.547827,0.281431,0.275568,1.904444,3.239257,0.869479,0.203642,0.160612,3.763851,1.421136,0.910115,0.264564,0.148219,0.804949,0.877247,0.195749,0.087494,0.103512,3.234348,8.39547,1.63371,0.464373,0.239088,7.297717,8.519632,1.91627,0.593443,0.330741,4.289619,8.114221,1.26456,0.745403,0.531172,4.034788,9.319573,1.008289,0.517967,0.416859,1.423435,3.945503,0.756089,0.312603,0.166179,11.793279,13.797784,6.827466,1.352852,0.483135
1720076092,49,0,4401.922852,4629.871582,4521.282227,4517.179688,4666.538574,4635.769043,4645.897461,4581.538574,4604.615234,4495.128418,4415.769043,4769.102539,4567.307617,4388.461426,,,,,,,,,,,,,,,,,,,,,,,,,,,,,,,,,,,,,,,,,,,,,,,,,,,,,,,,,,,,,,,,,,,,,,
1720076092,50,0,4396.922852,4629.743652,4513.461426,4518.717773,4661.282227,4632.05127,4643.333496,4580.512695,4598.589844,4491.794922,4419.487305,4765.128418,4561.794922,4388.333496,,,,,,,,,,,,,,,,,,,,,,,,,,,,,,,,,,,,,,,,,,,,,,,,,,,,,,,,,,,,,,,,,,,,,,
1720076092,51,0,4397.307617,4631.794922,4508.846191,4524.743652,4655.641113,4631.410156,4640.512695,4583.333496,4597.692383,4489.615234,4423.717773,4760.897461,4554.102539,4384.743652,,,,,,,,,,,,,,,,,,,,,,,,,,,,,,,,,,,,,,,,,,,,,,,,,,,,,,,,,,,,,,,,,,,,,,
1720076092,52,0,4395.641113,4628.077148,4505.128418,4519.615234,4648.333496,4634.102539,4638.077148,4581.922852,4602.820313,4488.974121,4423.205078,4757.05127,4551.025879,4381.666504,,,,,,,,,,,,,,,,,,,,,,,,,,,,,,,,,,,,,,,,,,,,,,,,,,,,,,,,,,,,,,,,,,,,,,
1720076092,53,0,4377.307617,4617.692383,4491.410156,4502.307617,4638.717773,4627.05127,4629.487305,4579.615234,4607.05127,4489.230957,4412.436035,4749.358887,4545.769043,4375.769043,,,,,,,,,,,,,,,,,,,,,,,,,,,,,,,,,,,,,,,,,,,,,,,,,,,,,,,,,,,,,,,,,,,,,,
1720076092,54,0,4363.461426,4614.102539,4481.922852,4502.820313,4640.512695,4619.743652,4620.256348,4582.563965,4610.897461,4493.717773,4408.461426,4741.922852,4540.384766,4365.897461,,,,,,,,,,,,,,,,,,,,,,,,,,,,,,,,,,,,,,,,,,,,,,,,,,,,,,,,,,,,,,,,,,,,,,
1720076092,55,0,4370.641113,4616.410156,4486.922852,4520.769043,4642.179688,4620.897461,4616.922852,4586.282227,4616.410156,4490.128418,4410.641113,4741.025879,4540.769043,4361.410156,,,,,,,,,,,,,,,,,,,,,,,,,,,,,,,,,,,,,,,,,,,,,,,,,,,,,,,,,,,,,,,,,,,,,,
1720076092,56,0,4377.563965,4617.179688,4488.589844,4525.512695,4630.384766,4618.205078,4615.769043,4586.922852,4619.358887,4479.230957,4411.666504,4742.436035,4544.487305,4362.179688,,,,,,,,,,,,,,,,,,,,,,,,,,,,,,,,,,,,,,,,,,,,,,,,,,,,,,,,,,,,,,,,,,,,,,
1720076092,57,0,4371.666504,4613.077148,4482.436035,4514.487305,4623.077148,4612.05127,4613.461426,4588.461426,4616.282227,4477.307617,4422.05127,4742.563965,4548.974121,4360,,,,,,,,,,,,,,,,,,,,,,,,,,,,,,,,,,,,,,,,,,,,,,,,,,,,,,,,,,,,,,,,,,,,,,
1720076092,58,0,4373.077148,4615.256348,4493.717773,4520.128418,4626.666504,4616.282227,4610.384766,4592.436035,4608.461426,4478.589844,4429.871582,4749.743652,4556.666504,4357.820313,,,,,,,,,,,,,,,,,,,,,,,,,,,,,,,,,,,,,,,,,,,,,,,,,,,,,,,,,,,,,,,,,,,,,,
1720076092,59,0,4384.615234,4625.641113,4508.205078,4537.179688,4632.307617,4622.94873,4609.871582,4588.461426,4603.717773,4476.922852,4425,4754.102539,4560.512695,4355.641113,,,,,,,,,,,,,,,,,,,,,,,,,,,,,,,,,,,,,,,,,,,,,,,,,,,,,,,,,,,,,,,,,,,,,,
1720076092,60,0,4380.641113,4626.922852,4501.922852,4531.794922,4630.256348,4621.666504,4611.794922,4584.487305,4602.179688,4474.871582,4425.256348,4746.922852,4553.205078,4341.282227,,,,,,,,,,,,,,,,,,,,,,,,,,,,,,,,,,,,,,,,,,,,,,,,,,,,,,,,,,,,,,,,,,,,,,
1720076092,61,0,4370.769043,4624.230957,4495.897461,4522.307617,4626.025879,4624.615234,4609.743652,4591.922852,4603.205078,4475.512695,4433.461426,4744.743652,4549.487305,4322.307617,,,,,,,,,,,,,,,,,,,,,,,,,,,,,,,,,,,,,,,,,,,,,,,,,,,,,,,,,,,,,,,,,,,,,,
1720076092,62,0,4377.179688,4630.256348,4507.692383,4532.436035,4634.487305,4628.717773,4607.820313,4594.615234,4615,4481.538574,4438.846191,4749.358887,4558.589844,4316.538574,,,,,,,,,,,,,,,,,,,,,,,,,,,,,,,,,,,,,,,,,,,,,,,,,,,,,,,,,,,,,,,,,,,,,,
1720076092,63,0,4385.641113,4635.128418,4513.205078,4540.256348,4648.205078,4633.717773,4611.794922,4593.589844,4630,4489.358887,4448.205078,4752.436035,4567.436035,4324.743652,,,,,,,,,,,,,,,,,,,,,,,,,,,,,,,,,,,,,,,,,,,,,,,,,,,,,,,,,,,,,,,,,,,,,,
1720076092,64,0,4381.410156,4633.461426,4508.717773,4542.307617,4648.333496,4637.05127,4612.820313,4596.538574,4628.589844,4495.256348,4454.358887,4752.94873,4567.307617,4327.94873,6.448678,6.84878,1.509435,0.689575,0.426634,1.260726,0.79302,0.400051,0.271089,0.152,4.439443,6.630276,1.093506,0.333107,0.27996,5.251808,4.389373,0.667127,0.869757,0.320128,5.481689,0.914814,0.591343,0.339146,0.283285,3.199558,2.67425,0.947705,0.226712,0.186699,8.630646,2.535225,1.501857,0.431619,0.227406,1.088232,0.789813,0.222257,0.104724,0.117682,5.748654,6.925873,1.820196,0.455394,0.255748,13.206139,6.250838,2.193079,0.747098,0.446554,7.348389,6.453321,1.409809,0.847582,0.545553,5.99789,7.666069,1.184612,0.543409,0.450555,2.639354,3.308187,0.893724,0.355131,0.188358,12.473269,12.011856,7.520854,1.381428,0.501641
1720076092,65,0,4376.538574,4633.717773,4506.922852,4537.692383,4636.153809,4624.871582,4603.333496,4591.666504,4616.410156,4495.512695,4449.358887,4745.384766,4563.461426,4321.025879,,,,,,,,,,,,,,,,,,,,,,,,,,,,,,,,,,,,,,,,,,,,,,,,,,,,,,,,,,,,,,,,,,,,,,
1720076092,66,0,4379.615234,4633.846191,4506.794922,4514.743652,4630.256348,4614.871582,4596.025879,4588.461426,4615.769043,4498.077148,4458.461426,4744.871582,4568.717773,4324.615234,,,,,,,,,,,,,,,,,,,,,,,,,,,,,,,,,,,,,,,,,,,,,,,,,,,,,,,,,,,,,,,,,,,,,,
1720076092,67,0,4386.282227,4630,4514.230957,4504.743652,4633.717773,4623.077148,4601.538574,4596.538574,4624.487305,4502.436035,4475.769043,4758.717773,4575.256348,4336.282227,,,,,,,,,,,,,,,,,,,,,,,,,,,,,,,,,,,,,,,,,,,,,,,,,,,,,,,,,,,,,,,,,,,,,,
1720076092,68,0,4388.589844,4629.487305,4517.692383,4516.282227,4630.128418,4623.205078,4603.717773,4596.922852,4625.641113,4498.974121,4470.128418,4757.179688,4569.871582,4332.05127,,,,,,,,,,,,,,,,,,,,,,,,,,,,,,,,,,,,,,,,,,,,,,,,,,,,,,,,,,,,,,,,,,,,,,
1720076092,69,0,4381.153809,4627.05127,4508.333496,4513.333496,4621.153809,4611.282227,4596.025879,4591.410156,4618.077148,4490.641113,4454.102539,4742.94873,4566.153809,4322.179688,,,,,,,,,,,,,,,,,,,,,,,,,,,,,,,,,,,,,,,,,,,,,,,,,,,,,,,,,,,,,,,,,,,,,,
1720076092,70,0,4372.94873,4624.615234,4504.230957,4509.358887,4619.358887,4616.025879,4595.384766,4595.769043,4616.794922,4490.897461,4457.05127,4742.436035,4570.897461,4324.743652,,,,,,,,,,,,,,,,,,,,,,,,,,,,,,,,,,,,,,,,,,,,,,,,,,,,,,,,,,,,,,,,,,,,,,
1720076092,71,0,4377.179688,4629.487305,4508.333496,4525.512695,4623.974121,4625.384766,4598.974121,4596.922852,4621.538574,4491.282227,4463.077148,4743.589844,4566.025879,4326.025879,,,,,,,,,,,,,,,,,,,,,,,,,,,,,,,,,,,,,,,,,,,,,,,,,,,,,,,,,,,,,,,,,,,,,,
1720076092,72,0,4376.538574,4628.589844,4504.230957,4525.897461,4619.615234,4621.794922,4597.179688,4589.102539,4617.05127,4481.282227,4456.410156,4732.692383,4554.743652,4318.461426,,,,,,,,,,,,,,,,,,,,,,,,,,,,,,,,,,,,,,,,,,,,,,,,,,,,,,,,,,,,,,,,,,,,,,
1720076092,73,0,4365.769043,4618.205078,4494.615234,4509.102539,4615.641113,4619.615234,4596.025879,4587.563965,4610.256348,4473.461426,4456.922852,4726.922852,4552.692383,4316.153809,,,,,,,,,,,,,,,,,,,,,,,,,,,,,,,,,,,,,,,,,,,,,,,,,,,,,,,,,,,,,,,,,,,,,,
1720076092,74,0,4363.333496,4615.512695,4492.436035,4505,4621.666504,4623.461426,4595.641113,4590.512695,4610.256348,4463.461426,4458.077148,4727.94873,4553.333496,4317.563965,,,,,,,,,,,,,,,,,,,,,,,,,,,,,,,,,,,,,,,,,,,,,,,,,,,,,,,,,,,,,,,,,,,,,,
1720076092,75,0,4367.563965,4614.615234,4488.333496,4501.025879,4616.922852,4620.897461,4587.692383,4583.589844,4605.128418,4449.230957,4445.256348,4718.846191,4545.769043,4309.743652,,,,,,,,,,,,,,,,,,,,,,,,,,,,,,,,,,,,,,,,,,,,,,,,,,,,,,,,,,,,,,,,,,,,,,
1720076092,76,0,4367.307617,4609.102539,4484.358887,4490.512695,4605.384766,4608.589844,4580.384766,4577.307617,4599.102539,4448.205078,4438.333496,4710.641113,4537.692383,4304.358887,,,,,,,,,,,,,,,,,,,,,,,,,,,,,,,,,,,,,,,,,,,,,,,,,,,,,,,,,,,,,,,,,,,,,,
1720076092,77,0,4364.743652,4607.94873,4484.743652,4486.666504,4602.94873,4599.230957,4575.384766,4582.179688,4599.358887,4448.846191,4444.358887,4712.179688,4538.077148,4308.846191,,,,,,,,,,,,,,,,,,,,,,,,,,,,,,,,,,,,,,,,,,,,,,,,,,,,,,,,,,,,,,,,,,,,,,
1720076092,78,0,4365.897461,4608.077148,4485.256348,4493.461426,4604.230957,4599.230957,4574.102539,4582.563965,4602.436035,4445.256348,4445,4711.153809,4541.538574,4311.282227,,,,,,,,,,,,,,,,,,,,,,,,,,,,,,,,,,,,,,,,,,,,,,,,,,,,,,,,,,,,,,,,,,,,,,
1720076092,79,0,4362.05127,4604.743652,4478.846191,4496.410156,4602.05127,4603.846191,4578.461426,4579.102539,4600.384766,4446.666504,4435.128418,4704.487305,4535.128418,4306.025879,,,,,,,,,,,,,,,,,,,,,,,,,,,,,,,,,,,,,,,,,,,,,,,,,,,,,,,,,,,,,,,,,,,,,,
1720076092,80,0,4351.153809,4601.666504,4467.307617,4480,4597.563965,4599.358887,4576.282227,4580.128418,4592.436035,4445.641113,4425,4694.102539,4525.641113,4295.512695,8.514865,6.473035,1.542197,0.889436,0.502482,1.961306,0.640007,0.374996,0.278335,0.169901,6.579612,5.135818,1.173287,0.434699,0.314667,8.718766,3.991375,0.83885,1.050937,0.347229,8.426446,0.866612,0.638103,0.410772,0.293948,4.741044,2.17278,0.998484,0.257479,0.218561,15.135713,4.100633,2.289661,0.67486,0.333949,1.411944,0.7426,0.262917,0.127417,0.132127,9.034582,5.375272,2.047213,0.514691,0.274676,20.636278,4.338973,2.594797,1.007722,0.581616,11.773856,4.953681,1.500571,1.065199,0.526483,8.237783,6.195816,1.344768,0.640608,0.463898,4.465471,2.665823,1.027295,0.43267,0.211217,12.82378,9.935602,7.257646,1.436967,0.492778
1720076092,81,0,4343.846191,4598.333496,4459.230957,4460.641113,4587.820313,4586.410156,4568.333496,4578.077148,4585,4440,4418.333496,4682.563965,4526.666504,4291.794922,,,,,,,,,,,,,,,,,,,,,,,,,,,,,,,,,,,,,,,,,,,,,,,,,,,,,,,,,,,,,,,,,,,,,,
1720076092,82,0,4341.922852,4596.410156,4456.922852,4461.538574,4579.358887,4587.563965,4570.384766,4576.153809,4585.641113,4442.563965,4421.666504,4683.461426,4533.077148,4303.589844,,,,,,,,,,,,,,,,,,,,,,,,,,,,,,,,,,,,,,,,,,,,,,,,,,,,,,,,,,,,,,,,,,,,,,
1720076092,83,0,4351.025879,4597.820313,4462.692383,4476.282227,4585.256348,4600.897461,4575,4580.641113,4594.102539,4446.410156,4433.461426,4693.461426,4532.436035,4312.307617,,,,,,,,,,,,,,,,,,,,,,,,,,,,,,,,,,,,,,,,,,,,,,,,,,,,,,,,,,,,,,,,,,,,,,
1720076092,84,0,4355.256348,4597.94873,4461.538574,4479.102539,4590.512695,4602.692383,4571.666504,4579.230957,4598.461426,4445.256348,4432.94873,4687.307617,4527.05127,4303.205078,,,,,,,,,,,,,,,,,,,,,,,,,,,,,,,,,,,,,,,,,,,,,,,,,,,,,,,,,,,,,,,,,,,,,,
1720076092,85,0,4347.820313,4596.794922,4453.205078,4470.641113,4586.922852,4593.974121,4568.846191,4575.128418,4597.179688,4445.512695,4426.153809,4678.717773,4525.897461,4296.666504,,,,,,,,,,,,,,,,,,,,,,,,,,,,,,,,,,,,,,,,,,,,,,,,,,,,,,,,,,,,,,,,,,,,,,
1720076092,86,0,4350,4598.461426,4455,4462.436035,4584.615234,4590.641113,4572.05127,4580.641113,4590.641113,4444.871582,4427.307617,4691.025879,4529.487305,4307.692383,,,,,,,,,,,,,,,,,,,,,,,,,,,,,,,,,,,,,,,,,,,,,,,,,,,,,,,,,,,,,,,,,,,,,,
1720076092,87,0,4358.461426,4596.794922,4460,4460.384766,4586.153809,4587.436035,4572.692383,4582.307617,4585.897461,4444.102539,4427.820313,4694.615234,4530.897461,4312.820313,,,,,,,,,,,,,,,,,,,,,,,,,,,,,,,,,,,,,,,,,,,,,,,,,,,,,,,,,,,,,,,,,,,,,,
1720076092,88,0,4355.512695,4593.717773,4461.410156,4469.358887,4586.538574,4584.871582,4572.307617,4576.794922,4592.05127,4447.692383,4429.615234,4682.307617,4525.769043,4304.615234,,,,,,,,,,,,,,,,,,,,,,,,,,,,,,,,,,,,,,,,,,,,,,,,,,,,,,,,,,,,,,,,,,,,,,
1720076092,89,0,4348.974121,4590.128418,4459.358887,4474.743652,4579.871582,4591.282227,4573.077148,4579.871582,4596.794922,4448.589844,4435.897461,4686.153809,4523.461426,4303.717773,,,,,,,,,,,,,,,,,,,,,,,,,,,,,,,,,,,,,,,,,,,,,,,,,,,,,,,,,,,,,,,,,,,,,,
1720076092,90,0,4342.94873,4584.743652,4448.974121,4465.769043,4571.025879,4589.871582,4567.436035,4578.461426,4586.282227,4444.358887,4430.897461,4687.436035,4523.717773,4303.077148,,,,,,,,,,,,,,,,,,,,,,,,,,,,,,,,,,,,,,,,,,,,,,,,,,,,,,,,,,,,,,,,,,,,,,
1720076092,91,0,4331.153809,4582.05127,4433.589844,4455.256348,4570.512695,4582.436035,4557.436035,4568.461426,4573.205078,4442.563965,4416.282227,4667.563965,4514.871582,4292.820313,,,,,,,,,,,,,,,,,,,,,,,,,,,,,,,,,,,,,,,,,,,,,,,,,,,,,,,,,,,,,,,,,,,,,,
1720076092,92,0,4328.205078,4578.717773,4429.358887,4448.077148,4573.333496,4586.410156,4555.256348,4569.615234,4571.794922,4443.846191,4412.692383,4661.922852,4505.512695,4291.282227,,,,,,,,,,,,,,,,,,,,,,,,,,,,,,,,,,,,,,,,,,,,,,,,,,,,,,,,,,,,,,,,,,,,,,
1720076092,93,0,4332.179688,4573.846191,4428.461426,4437.436035,4568.333496,4588.717773,4557.179688,4574.230957,4572.436035,4444.871582,4414.743652,4663.974121,4503.205078,4289.487305,,,,,,,,,,,,,,,,,,,,,,,,,,,,,,,,,,,,,,,,,,,,,,,,,,,,,,,,,,,,,,,,,,,,,,
1720076092,94,0,4327.307617,4569.743652,4420.769043,4432.820313,4556.025879,4579.102539,4556.410156,4567.563965,4569.487305,4443.333496,4408.077148,4647.692383,4501.538574,4276.666504,,,,,,,,,,,,,,,,,,,,,,,,,,,,,,,,,,,,,,,,,,,,,,,,,,,,,,,,,,,,,,,,,,,,,,
1720076092,95,0,4320.128418,4562.436035,4409.743652,4430.897461,4545.641113,4571.282227,4553.974121,4557.436035,4563.846191,4433.589844,4389.358887,4629.102539,4493.461426,4265.128418,,,,,,,,,,,,,,,,,,,,,,,,,,,,,,,,,,,,,,,,,,,,,,,,,,,,,,,,,,,,,,,,,,,,,,
1720076092,96,0,4309.871582,4553.461426,4394.743652,4414.487305,4536.666504,4563.461426,4547.94873,4551.922852,4550.769043,4419.230957,4371.538574,4617.179688,4483.077148,4253.846191,10.047012,6.130681,1.579892,1.079062,0.565119,2.774414,0.501965,0.381163,0.308231,0.190655,8.979041,3.910122,1.316954,0.604871,0.347532,12.592295,3.498718,1.15487,1.285136,0.378077,11.484719,0.862237,0.695389,0.488907,0.304547,6.537435,1.846955,1.022171,0.293033,0.250026,22.208891,5.73048,3.085047,0.937882,0.441584,1.836815,0.744735,0.306656,0.151958,0.144407,12.80483,4.168194,2.271989,0.656394,0.292707,28.096287,3.010142,3.047104,1.353352,0.703432,17.57478,4.050308,1.584902,1.422761,0.488943,10.927032,5.367981,1.466026,0.802041,0.461125,6.962709,2.210631,1.149653,0.544678,0.234281,12.890445,7.788175,6.153416,1.508982,0.468918
1720076092,97,0,4304.230957,4552.436035,4389.102539,4403.589844,4530.128418,4552.307617,4540.769043,4554.615234,4541.794922,4414.743652,4371.282227,4612.436035,4479.487305,4245.769043,,,,,,,,,,,,,,,,,,,,,,,,,,,,,,,,,,,,,,,,,,,,,,,,,,,,,,,,,,,,,,,,,,,,,,
1720076092,98,0,4312.94873,4553.333496,4394.871582,4414.487305,4528.461426,4552.563965,4539.615234,4557.94873,4543.205078,4417.307617,4376.922852,4614.102539,4483.589844,4248.077148,,,,,,,,,,,,,,,,,,,,,,,,,,,,,,,,,,,,,,,,,,,,,,,,,,,,,,,,,,,,,,,,,,,,,,
1720076092,99,0,4311.538574,4545.128418,4392.179688,4415.512695,4526.922852,4555.128418,4540.512695,4551.282227,4537.692383,4414.487305,4372.820313,4610.384766,4485.512695,4249.230957,,,,,,,,,,,,,,,,,,,,,,,,,,,,,,,,,,,,,,,,,,,,,,,,,,,,,,,,,,,,,,,,,,,,,,
1720076092,100,0,4283.077148,4537.563965,4381.282227,4396.666504,4520.256348,4548.717773,4538.846191,4546.282227,4524.487305,4408.589844,4363.333496,4599.358887,4484.102539,4245.256348,,,,,,,,,,,,,,,,,,,,,,,,,,,,,,,,,,,,,,,,,,,,,,,,,,,,,,,,,,,,,,,,,,,,,,
1720076092,101,0,4262.436035,4539.102539,4379.358887,4392.94873,4520.128418,4550.128418,4539.102539,4549.230957,4524.871582,4408.717773,4361.410156,4595.512695,4483.846191,4244.230957,,,,,,,,,,,,,,,,,,,,,,,,,,,,,,,,,,,,,,,,,,,,,,,,,,,,,,,,,,,,,,,,,,,,,,
1720076092,102,0,4271.794922,4542.692383,4383.461426,4401.282227,4530.512695,4560.897461,4540.641113,4550.641113,4535.384766,4414.615234,4365.769043,4598.717773,4480.128418,4244.743652,,,,,,,,,,,,,,,,,,,,,,,,,,,,,,,,,,,,,,,,,,,,,,,,,,,,,,,,,,,,,,,,,,,,,,
1720076092,103,0,4275.769043,4535.897461,4376.410156,4395.128418,4536.666504,4561.794922,4540.897461,4548.974121,4536.153809,4411.410156,4358.461426,4590.512695,4468.589844,4239.358887,,,,,,,,,,,,,,,,,,,,,,,,,,,,,,,,,,,,,,,,,,,,,,,,,,,,,,,,,,,,,,,,,,,,,,
1720076092,104,0,4261.282227,4525.769043,4367.436035,4385.769043,4536.922852,4555.769043,4540.256348,4544.102539,4531.922852,4402.563965,4350.384766,4575.256348,4457.563965,4233.846191,,,,,,,,,,,,,,,,,,,,,,,,,,,,,,,,,,,,,,,,,,,,,,,,,,,,,,,,,,,,,,,,,,,,,,
1720076092,105,0,4262.820313,4531.153809,4369.615234,4390.128418,4540,4557.820313,4538.333496,4541.538574,4535.256348,4404.358887,4357.436035,4575.128418,4460.384766,4233.589844,,,,,,,,,,,,,,,,,,,,,,,,,,,,,,,,,,,,,,,,,,,,,,,,,,,,,,,,,,,,,,,,,,,,,,
1720076092,106,0,4277.563965,4537.05127,4372.436035,4393.461426,4538.461426,4560.641113,4538.205078,4546.538574,4540.384766,4412.179688,4358.974121,4584.358887,4466.666504,4232.436035,,,,,,,,,,,,,,,,,,,,,,,,,,,,,,,,,,,,,,,,,,,,,,,,,,,,,,,,,,,,,,,,,,,,,,
1720076092,107,0,4281.794922,4527.563965,4370.897461,4384.358887,4532.692383,4557.179688,4538.589844,4550.128418,4542.692383,4414.358887,4348.333496,4585.256348,4466.410156,4228.717773,,,,,,,,,,,,,,,,,,,,,,,,,,,,,,,,,,,,,,,,,,,,,,,,,,,,,,,,,,,,,,,,,,,,,,
1720076092,108,0,4281.922852,4522.94873,4369.743652,4378.205078,4526.666504,4554.102539,4532.05127,4543.077148,4541.538574,4409.358887,4347.563965,4576.922852,4465.769043,4226.794922,,,,,,,,,,,,,,,,,,,,,,,,,,,,,,,,,,,,,,,,,,,,,,,,,,,,,,,,,,,,,,,,,,,,,,
1720076092,109,0,4287.820313,4527.692383,4371.282227,4383.717773,4518.589844,4552.05127,4522.692383,4539.743652,4535.128418,4406.025879,4355.769043,4571.538574,4466.153809,4230.384766,,,,,,,,,,,,,,,,,,,,,,,,,,,,,,,,,,,,,,,,,,,,,,,,,,,,,,,,,,,,,,,,,,,,,,
1720076092,110,0,4293.077148,4525.512695,4375.128418,4392.307617,4518.717773,4550.384766,4521.794922,4541.794922,4529.358887,4407.820313,4356.922852,4573.974121,4464.743652,4235.641113,,,,,,,,,,,,,,,,,,,,,,,,,,,,,,,,,,,,,,,,,,,,,,,,,,,,,,,,,,,,,,,,,,,,,,
1720076092,111,0,4292.563965,4522.820313,4376.922852,4399.358887,4521.410156,4554.487305,4525.897461,4537.05127,4523.974121,4407.179688,4353.077148,4576.410156,4460.128418,4237.05127,,,,,,,,,,,,,,,,,,,,,,,,,,,,,,,,,,,,,,,,,,,,,,,,,,,,,,,,,,,,,,,,,,,,,,
1720076092,112,0,4287.563965,4524.743652,4374.102539,4398.205078,4511.538574,4556.794922,4521.025879,4531.922852,4512.05127,4399.358887,4347.94873,4573.333496,4456.282227,4233.846191,10.480294,5.728488,1.582849,1.200282,0.594937,3.309827,0.415797,0.417649,0.354838,0.206916,10.571524,3.085474,1.502947,0.802317,0.370405,15.641789,2.96048,1.550176,1.524752,0.411039,13.440489,0.902441,0.749554,0.559304,0.310276,7.67042,1.686121,1.018792,0.325436,0.274049,27.14607,6.91636,3.647301,1.14005,0.516421,2.061375,0.774846,0.337382,0.17227,0.152399,15.465428,3.4438,2.421618,0.858362,0.303218,32.900593,2.226438,3.406103,1.711352,0.776055,22.929544,3.790046,1.695225,1.889103,0.450924,12.632919,5.241927,1.525667,0.98858,0.44766,9.190744,1.991629,1.245661,0.671146,0.255209,12.47342,5.725389,4.607121,1.564016,0.444108
1720076092,113,0,4284.615234,4522.436035,4369.102539,4382.307617,4511.282227,4553.205078,4510.384766,4530.128418,4505.641113,4398.333496,4341.538574,4563.077148,4456.153809,4226.025879,,,,,,,,,,,,,,,,,,,,,,,,,,,,,,,,,,,,,,,,,,,,,,,,,,,,,,,,,,,,,,,,,,,,,,
1720076092,114,0,4289.230957,4522.436035,4366.922852,4371.410156,4520.769043,4556.282227,4506.410156,4531.025879,4511.282227,4402.05127,4336.922852,4556.666504,4453.717773,4223.461426,,,,,,,,,,,,,,,,,,,,,,,,,,,,,,,,,,,,,,,,,,,,,,,,,,,,,,,,,,,,,,,,,,,,,,
1720076092,115,0,4300.512695,4523.077148,4363.717773,4377.692383,4516.282227,4562.436035,4509.487305,4535.384766,4516.922852,4393.461426,4340.897461,4561.538574,4447.94873,4229.871582,,,,,,,,,,,,,,,,,,,,,,,,,,,,,,,,,,,,,,,,,,,,,,,,,,,,,,,,,,,,,,,,,,,,,,
1720076092,116,0,4298.077148,4515,4353.846191,4370.128418,4502.307617,4557.179688,4509.615234,4531.666504,4519.487305,4390.256348,4346.282227,4553.205078,4438.717773,4223.717773,,,,,,,,,,,,,,,,,,,,,,,,,,,,,,,,,,,,,,,,,,,,,,,,,,,,,,,,,,,,,,,,,,,,,,
1720076092,117,0,4263.461426,4504.871582,4340.641113,4338.717773,4494.615234,4551.153809,4500.897461,4524.230957,4521.538574,4392.820313,4332.94873,4530.512695,4428.077148,4207.307617,,,,,,,,,,,,,,,,,,,,,,,,,,,,,,,,,,,,,,,,,,,,,,,,,,,,,,,,,,,,,,,,,,,,,,
1720076092,118,0,4234.487305,4500.256348,4337.307617,4323.077148,4491.025879,4548.589844,4492.692383,4529.102539,4521.922852,4387.820313,4318.333496,4526.282227,4424.230957,4206.922852,,,,,,,,,,,,,,,,,,,,,,,,,,,,,,,,,,,,,,,,,,,,,,,,,,,,,,,,,,,,,,,,,,,,,,
1720076092,119,0,4248.205078,4500.512695,4340.897461,4325,4489.102539,4543.974121,4491.922852,4532.436035,4522.307617,4388.461426,4321.666504,4531.922852,4422.94873,4212.563965,,,,,,,,,,,,,,,,,,,,,,,,,,,,,,,,,,,,,,,,,,,,,,,,,,,,,,,,,,,,,,,,,,,,,,
1720076092,120,0,4272.436035,4503.717773,4340.512695,4319.487305,4490.769043,4542.179688,4494.615234,4526.538574,4525.641113,4397.563965,4331.025879,4529.615234,4422.307617,4215.769043,,,,,,,,,,,,,,,,,,,,,,,,,,,,,,,,,,,,,,,,,,,,,,,,,,,,,,,,,,,,,,,,,,,,,,
1720076092,121,0,4280.897461,4508.461426,4344.615234,4323.974121,4491.794922,4544.358887,4495.256348,4528.205078,4524.743652,4400.769043,4334.743652,4535,4426.282227,4226.666504,,,,,,,,,,,,,,,,,,,,,,,,,,,,,,,,,,,,,,,,,,,,,,,,,,,,,,,,,,,,,,,,,,,,,,
1720076092,122,0,4286.410156,4504.871582,4352.436035,4344.358887,4488.077148,4541.666504,4492.692383,4531.025879,4513.974121,4392.436035,4333.589844,4541.410156,4428.461426,4232.563965,,,,,,,,,,,,,,,,,,,,,,,,,,,,,,,,,,,,,,,,,,,,,,,,,,,,,,,,,,,,,,,,,,,,,,
1720076092,123,0,4296.153809,4494.230957,4351.282227,4347.820313,4477.94873,4538.461426,4489.743652,4524.102539,4498.717773,4383.589844,4326.794922,4534.358887,4426.922852,4225.641113,,,,,,,,,,,,,,,,,,,,,,,,,,,,,,,,,,,,,,,,,,,,,,,,,,,,,,,,,,,,,,,,,,,,,,
1720076092,124,0,4309.743652,4491.025879,4349.102539,4334.102539,4473.077148,4540.897461,4490.512695,4517.307617,4488.333496,4380.897461,4315.384766,4525.256348,4424.230957,4220.256348,,,,,,,,,,,,,,,,,,,,,,,,,,,,,,,,,,,,,,,,,,,,,,,,,,,,,,,,,,,,,,,,,,,,,,
1720076092,125,0,4325.128418,4490.641113,4347.692383,4326.922852,4476.538574,4542.307617,4490,4514.871582,4484.487305,4379.102539,4309.871582,4518.846191,4418.589844,4218.717773,,,,,,,,,,,,,,,,,,,,,,,,,,,,,,,,,,,,,,,,,,,,,,,,,,,,,,,,,,,,,,,,,,,,,,
1720076092,126,0,4319.102539,4481.153809,4327.179688,4323.461426,4471.666504,4538.077148,4480.128418,4511.153809,4472.05127,4363.717773,4298.461426,4503.077148,4405.384766,4206.922852,,,,,,,,,,,,,,,,,,,,,,,,,,,,,,,,,,,,,,,,,,,,,,,,,,,,,,,,,,,,,,,,,,,,,,
1720076092,127,0,4294.102539,4463.077148,4309.102539,4306.794922,4453.333496,4527.563965,4468.846191,4503.974121,4456.025879,4346.922852,4271.025879,4478.333496,4392.05127,4183.589844,,,,,,,,,,,,,,,,,,,,,,,,,,,,,,,,,,,,,,,,,,,,,,,,,,,,,,,,,,,,,,,,,,,,,,
1720076092,0,0,4291.922852,4454.102539,4305.769043,4290.897461,4441.538574,4520,4467.94873,4498.333496,4459.487305,4339.487305,4254.358887,4468.077148,4392.820313,4172.692383,9.859385,5.246316,1.535109,1.216894,0.583499,3.603169,0.392105,0.463025,0.397941,0.212185,11.149117,2.632813,1.668288,0.965394,0.376352,17.184013,2.418229,1.923383,1.706209,0.444136,13.927666,0.977119,0.783993,0.602687,0.306565,8.064915,1.600344,1.010492,0.345636,0.28571,28.755119,7.249501,3.788623,1.212683,0.532202,2.171166,0.795711,0.345256,0.182143,0.154991,16.641432,3.056127,2.451103,1.064303,0.300346,33.802116,1.776517,3.518712,1.976558,0.77581,27.191652,3.892299,1.820307,2.362887,0.423039,13.465334,5.532617,1.498416,1.137434,0.427513,10.97977,1.930775,1.288932,0.774526,0.269441,11.525567,3.939732,3.096869,1.563539,0.426662
1720076092,1,0,4316.025879,4464.871582,4254.743652,4299.487305,4452.179688,4522.820313,4474.358887,4500.512695,4475.128418,4336.410156,4272.692383,4482.05127,4409.358887,4188.717773,,,,,,,,,,,,,,,,,,,,,,,,,,,,,,,,,,,,,,,,,,,,,,,,,,,,,,,,,,,,,,,,,,,,,,
1720076092,2,0,4328.717773,4477.563965,4171.538574,4314.487305,4459.871582,4531.282227,4476.794922,4507.94873,4483.846191,4353.461426,4300.384766,4499.743652,4421.410156,4208.717773,,,,,,,,,,,,,,,,,,,,,,,,,,,,,,,,,,,,,,,,,,,,,,,,,,,,,,,,,,,,,,,,,,,,,,
1720076092,3,0,4328.974121,4472.820313,4150.897461,4317.307617,4445.256348,4539.102539,4474.230957,4507.436035,4488.461426,4382.179688,4305.641113,4501.282227,4418.589844,4209.487305,,,,,,,,,,,,,,,,,,,,,,,,,,,,,,,,,,,,,,,,,,,,,,,,,,,,,,,,,,,,,,,,,,,,,,
1720076092,4,0,4337.692383,4465,4177.692383,4319.358887,4435.769043,4539.615234,4472.563965,4502.563965,4488.461426,4386.153809,4299.871582,4493.205078,4416.794922,4204.871582,,,,,,,,,,,,,,,,,,,,,,,,,,,,,,,,,,,,,,,,,,,,,,,,,,,,,,,,,,,,,,,,,,,,,,
1720076092,5,0,4349.102539,4473.205078,4182.179688,4322.436035,4441.282227,4537.436035,4475.641113,4505.128418,4480.128418,4374.487305,4299.743652,4492.820313,4417.05127,4208.846191,,,,,,,,,,,,,,,,,,,,,,,,,,,,,,,,,,,,,,,,,,,,,,,,,,,,,,,,,,,,,,,,,,,,,,
1720076092,6,0,4356.666504,4477.563965,4181.794922,4324.102539,4444.230957,4540.128418,4478.717773,4507.436035,4475.641113,4378.846191,4298.461426,4497.820313,4412.692383,4213.589844,,,,,,,,,,,,,,,,,,,,,,,,,,,,,,,,,,,,,,,,,,,,,,,,,,,,,,,,,,,,,,,,,,,,,,
1720076092,7,0,4361.922852,4464.487305,4189.871582,4321.922852,4442.820313,4542.05127,4472.820313,4502.307617,4472.05127,4382.692383,4285.128418,4491.666504,4409.615234,4216.025879,,,,,,,,,,,,,,,,,,,,,,,,,,,,,,,,,,,,,,,,,,,,,,,,,,,,,,,,,,,,,,,,,,,,,,
1720076092,8,0,4358.461426,4456.025879,4185.769043,4311.282227,4439.487305,4534.871582,4461.410156,4496.794922,4457.820313,4363.077148,4276.153809,4480.256348,4405.897461,4215.897461,,,,,,,,,,,,,,,,,,,,,,,,,,,,,,,,,,,,,,,,,,,,,,,,,,,,,,,,,,,,,,,,,,,,,,
1720076092,9,0,4355.897461,4459.358887,4184.230957,4311.666504,4431.410156,4528.461426,4457.307617,4493.717773,4446.794922,4339.743652,4281.025879,4477.05127,4399.871582,4211.153809,,,,,,,,,,,,,,,,,,,,,,,,,,,,,,,,,,,,,,,,,,,,,,,,,,,,,,,,,,,,,,,,,,,,,,
1720076092,10,0,4368.333496,4462.179688,4188.077148,4326.153809,4427.05127,4527.307617,4460.512695,4492.820313,4444.102539,4333.846191,4278.461426,4475.128418,4398.717773,4206.922852,,,,,,,,,,,,,,,,,,,,,,,,,,,,,,,,,,,,,,,,,,,,,,,,,,,,,,,,,,,,,,,,,,,,,,
1720076092,11,0,4370.769043,4461.282227,4187.692383,4320.512695,4430.128418,4530.512695,4460.512695,4495,4447.307617,4340.256348,4272.05127,4470.641113,4401.666504,4208.333496,,,,,,,,,,,,,,,,,,,,,,,,,,,,,,,,,,,,,,,,,,,,,,,,,,,,,,,,,,,,,,,,,,,,,,
1720076092,12,0,4350.769043,4461.538574,4194.615234,4308.717773,4430.769043,4536.410156,4459.230957,4497.05127,4450.256348,4341.666504,4275.769043,4473.974121,4400.897461,4211.410156,,,,,,,,,,,,,,,,,,,,,,,,,,,,,,,,,,,,,,,,,,,,,,,,,,,,,,,,,,,,,,,,,,,,,,
1720076092,13,0,4343.205078,4461.538574,4209.871582,4322.436035,4426.538574,4532.307617,4459.487305,4492.94873,4449.615234,4339.102539,4278.846191,4477.692383,4398.333496,4211.666504,,,,,,,,,,,,,,,,,,,,,,,,,,,,,,,,,,,,,,,,,,,,,,,,,,,,,,,,,,,,,,,,,,,,,,
1720076093,14,0,4354.487305,4461.282227,4213.461426,4331.794922,4426.794922,4525.769043,4459.487305,4491.282227,4452.820313,4344.358887,4279.487305,4475.512695,4399.102539,4215.256348,,,,,,,,,,,,,,,,,,,,,,,,,,,,,,,,,,,,,,,,,,,,,,,,,,,,,,,,,,,,,,,,,,,,,,
1720076093,15,0,4355.769043,4461.666504,4205.512695,4317.563965,4428.077148,4529.102539,4458.077148,4498.205078,4459.615234,4355.512695,4281.153809,4475.897461,4398.461426,4220.256348,,,,,,,,,,,,,,,,,,,,,,,,,,,,,,,,,,,,,,,,,,,,,,,,,,,,,,,,,,,,,,,,,,,,,,
1720076093,16,0,4346.794922,4454.487305,4195.512695,4307.563965,4427.94873,4527.563965,4450.641113,4492.436035,4461.538574,4361.025879,4274.358887,4463.461426,4390.512695,4212.563965,8.527454,4.725792,1.433031,1.131743,0.538221,3.46833,0.408585,0.487933,0.411957,0.20376,10.336359,2.449943,1.752709,1.038301,0.362516,16.789272,1.92043,2.17241,1.770714,0.474411,12.618303,1.053585,0.784559,0.602981,0.291737,7.332549,1.489567,1.007494,0.344223,0.283615,26.139891,6.596799,3.440428,1.127779,0.482938,1.989905,0.765802,0.320684,0.177168,0.152418,15.624817,2.761503,2.342505,1.199294,0.282548,30.442694,1.462817,3.290147,2.046757,0.701831,28.726366,3.978259,1.877911,2.700103,0.404267,12.843429,5.807256,1.357834,1.185356,0.403007,11.492142,1.907499,1.245088,0.811038,0.271538,10.199873,2.666714,1.975339,1.473821,0.414891
1720076093,17,0,4357.692383,4446.153809,4191.794922,4310.897461,4426.538574,4521.666504,4442.692383,4483.846191,4457.179688,4358.589844,4266.410156,4450.256348,4389.230957,4206.666504,,,,,,,,,,,,,,,,,,,,,,,,,,,,,,,,,,,,,,,,,,,,,,,,,,,,,,,,,,,,,,,,,,,,,,
1720076093,18,0,4379.230957,4447.05127,4191.922852,4312.05127,4419.743652,4520.897461,4443.589844,4491.025879,4450.641113,4353.974121,4263.205078,4455.897461,4390.641113,4212.94873,,,,,,,,,,,,,,,,,,,,,,,,,,,,,,,,,,,,,,,,,,,,,,,,,,,,,,,,,,,,,,,,,,,,,,
1720076093,19,0,4386.153809,4449.230957,4189.743652,4309.487305,4409.871582,4514.102539,4446.153809,4490,4445,4350.641113,4259.871582,4453.333496,4375.256348,4212.179688,,,,,,,,,,,,,,,,,,,,,,,,,,,,,,,,,,,,,,,,,,,,,,,,,,,,,,,,,,,,,,,,,,,,,,
1720076093,20,0,4389.871582,4443.846191,4190.897461,4310.769043,4407.179688,4503.333496,4442.307617,4480.128418,4439.358887,4342.179688,4257.94873,4443.077148,4362.820313,4213.461426,,,,,,,,,,,,,,,,,,,,,,,,,,,,,,,,,,,,,,,,,,,,,,,,,,,,,,,,,,,,,,,,,,,,,,
1720076093,21,0,4398.461426,4440.256348,4194.871582,4315,4409.358887,4509.230957,4441.025879,4483.205078,4431.153809,4331.410156,4256.153809,4447.179688,4367.436035,4221.666504,,,,,,,,,,,,,,,,,,,,,,,,,,,,,,,,,,,,,,,,,,,,,,,,,,,,,,,,,,,,,,,,,,,,,,
1720076093,22,0,4404.230957,4444.743652,4197.05127,4314.102539,4406.153809,4512.179688,4442.692383,4484.615234,4418.846191,4323.974121,4248.846191,4448.077148,4362.94873,4217.94873,,,,,,,,,,,,,,,,,,,,,,,,,,,,,,,,,,,,,,,,,,,,,,,,,,,,,,,,,,,,,,,,,,,,,,
1720076093,23,0,4403.846191,4441.922852,4195.769043,4310.512695,4401.282227,4500.769043,4436.282227,4476.794922,4402.820313,4314.871582,4240.256348,4441.025879,4346.282227,4214.615234,,,,,,,,,,,,,,,,,,,,,,,,,,,,,,,,,,,,,,,,,,,,,,,,,,,,,,,,,,,,,,,,,,,,,,
1720076093,24,0,4402.436035,4430.769043,4192.692383,4311.538574,4400.256348,4500.641113,4427.563965,4473.717773,4394.230957,4308.461426,4235.641113,4441.282227,4339.358887,4221.538574,,,,,,,,,,,,,,,,,,,,,,,,,,,,,,,,,,,,,,,,,,,,,,,,,,,,,,,,,,,,,,,,,,,,,,
1720076093,25,0,4398.974121,4427.307617,4186.282227,4308.846191,4395.897461,4508.077148,4424.358887,4469.615234,4398.205078,4312.179688,4233.461426,4432.94873,4336.410156,4219.743652,,,,,,,,,,,,,,,,,,,,,,,,,,,,,,,,,,,,,,,,,,,,,,,,,,,,,,,,,,,,,,,,,,,,,,
1720076093,26,0,4394.871582,4422.436035,4180,4295.256348,4386.794922,4505.897461,4420.512695,4465.769043,4396.025879,4321.794922,4230.128418,4420.128418,4329.230957,4213.077148,,,,,,,,,,,,,,,,,,,,,,,,,,,,,,,,,,,,,,,,,,,,,,,,,,,,,,,,,,,,,,,,,,,,,,
1720076093,27,0,4398.333496,4413.717773,4177.307617,4287.179688,4380.769043,4497.692383,4417.692383,4470.256348,4397.692383,4329.102539,4221.538574,4420.641113,4327.692383,4214.102539,,,,,,,,,,,,,,,,,,,,,,,,,,,,,,,,,,,,,,,,,,,,,,,,,,,,,,,,,,,,,,,,,,,,,,
1720076093,28,0,4403.589844,4413.461426,4171.538574,4291.282227,4381.794922,4493.461426,4421.666504,4476.025879,4410,4331.025879,4214.487305,4417.307617,4331.153809,4212.05127,,,,,,,,,,,,,,,,,,,,,,,,,,,,,,,,,,,,,,,,,,,,,,,,,,,,,,,,,,,,,,,,,,,,,,
1720076093,29,0,4400.769043,4414.743652,4166.025879,4289.102539,4380.641113,4493.846191,4421.538574,4476.538574,4408.846191,4330.512695,4211.538574,4405.769043,4328.077148,4200.256348,,,,,,,,,,,,,,,,,,,,,,,,,,,,,,,,,,,,,,,,,,,,,,,,,,,,,,,,,,,,,,,,,,,,,,
1720076093,30,0,4400.512695,4412.307617,4166.025879,4286.025879,4374.230957,4490.769043,4415.897461,4473.846191,4404.871582,4335.384766,4209.487305,4405.512695,4323.333496,4195.769043,,,,,,,,,,,,,,,,,,,,,,,,,,,,,,,,,,,,,,,,,,,,,,,,,,,,,,,,,,,,,,,,,,,,,,
1720076093,31,0,4407.05127,4413.205078,4169.871582,4297.179688,4371.794922,4488.717773,4419.230957,4476.153809,4412.563965,4339.615234,4213.461426,4410.256348,4323.589844,4201.538574,,,,,,,,,,,,,,,,,,,,,,,,,,,,,,,,,,,,,,,,,,,,,,,,,,,,,,,,,,,,,,,,,,,,,,
1720076093,32,0,4406.282227,4413.846191,4168.205078,4295.769043,4372.307617,4490.512695,4428.205078,4481.153809,4408.974121,4330.769043,4217.692383,4403.589844,4323.333496,4201.410156,6.950662,4.206673,1.330017,0.990565,0.482171,3.080505,0.432723,0.477748,0.381989,0.184669,8.676535,2.54665,1.74404,1.010814,0.336558,14.667375,1.546023,2.259991,1.694665,0.498586,10.01013,1.115444,0.74972,0.558371,0.269257,5.873679,1.316688,1.00129,0.318569,0.270081,20.422201,5.180562,2.711416,0.914105,0.386383,1.685431,0.674158,0.268608,0.158159,0.146188,13.004183,2.489928,2.104176,1.208916,0.254079,24.131193,1.253016,2.790325,1.890004,0.577467,27.376005,3.809407,1.833533,2.791056,0.386892,11.131082,5.716386,1.151559,1.109175,0.376889,10.862193,1.827893,1.123842,0.764748,0.258348,8.383341,1.921177,1.364115,1.29758,0.400805
1720076093,33,0,4406.282227,4412.05127,4169.743652,4279.743652,4367.94873,4492.94873,4431.538574,4482.692383,4398.077148,4323.717773,4216.538574,4401.538574,4326.410156,4202.436035,,,,,,,,,,,,,,,,,,,,,,,,,,,,,,,,,,,,,,,,,,,,,,,,,,,,,,,,,,,,,,,,,,,,,,
1720076093,34,0,4417.94873,4410.641113,4181.282227,4282.820313,4367.692383,4493.846191,4432.307617,4482.05127,4397.563965,4327.05127,4213.589844,4408.333496,4330.512695,4211.922852,,,,,,,,,,,,,,,,,,,,,,,,,,,,,,,,,,,,,,,,,,,,,,,,,,,,,,,,,,,,,,,,,,,,,,
1720076093,35,0,4427.05127,4409.358887,4186.282227,4295.897461,4372.820313,4491.410156,4433.846191,4481.410156,4390.384766,4325.256348,4215.641113,4408.589844,4325.384766,4216.794922,,,,,,,,,,,,,,,,,,,,,,,,,,,,,,,,,,,,,,,,,,,,,,,,,,,,,,,,,,,,,,,,,,,,,,
1720076093,36,0,4433.077148,4413.205078,4189.230957,4300.256348,4368.077148,4488.717773,4433.333496,4483.077148,4380.384766,4319.743652,4218.205078,4405.769043,4324.487305,4212.179688,,,,,,,,,,,,,,,,,,,,,,,,,,,,,,,,,,,,,,,,,,,,,,,,,,,,,,,,,,,,,,,,,,,,,,
1720076093,37,0,4443.333496,4420.384766,4200,4306.410156,4361.794922,4490.384766,4434.102539,4485.769043,4388.205078,4326.538574,4227.307617,4411.922852,4337.692383,4214.358887,,,,,,,,,,,,,,,,,,,,,,,,,,,,,,,,,,,,,,,,,,,,,,,,,,,,,,,,,,,,,,,,,,,,,,
1720076093,38,0,4453.333496,4421.538574,4205.641113,4314.487305,4362.563965,4493.717773,4433.974121,4485.769043,4399.102539,4338.717773,4239.871582,4423.077148,4343.846191,4229.487305,,,,,,,,,,,,,,,,,,,,,,,,,,,,,,,,,,,,,,,,,,,,,,,,,,,,,,,,,,,,,,,,,,,,,,
1720076093,39,0,4459.230957,4418.974121,4203.717773,4314.230957,4361.922852,4491.282227,4428.974121,4483.589844,4398.461426,4342.05127,4238.974121,4422.94873,4336.025879,4236.153809,,,,,,,,,,,,,,,,,,,,,,,,,,,,,,,,,,,,,,,,,,,,,,,,,,,,,,,,,,,,,,,,,,,,,,
1720076093,40,0,4457.436035,4414.615234,4202.94873,4309.102539,4366.282227,4489.871582,4427.05127,4485.897461,4394.743652,4341.666504,4237.563965,4416.282227,4334.487305,4233.589844,,,,,,,,,,,,,,,,,,,,,,,,,,,,,,,,,,,,,,,,,,,,,,,,,,,,,,,,,,,,,,,,,,,,,,
1720076093,41,0,4456.025879,4411.794922,4201.538574,4308.846191,4374.102539,4492.563965,4429.871582,4486.922852,4396.410156,4343.846191,4242.307617,4413.333496,4338.589844,4234.871582,,,,,,,,,,,,,,,,,,,,,,,,,,,,,,,,,,,,,,,,,,,,,,,,,,,,,,,,,,,,,,,,,,,,,,
1720076093,42,0,4459.487305,4411.282227,4200.641113,4310.128418,4369.871582,4489.871582,4430.641113,4477.692383,4398.077148,4348.333496,4232.563965,4406.666504,4331.025879,4230,,,,,,,,,,,,,,,,,,,,,,,,,,,,,,,,,,,,,,,,,,,,,,,,,,,,,,,,,,,,,,,,,,,,,,
1720076093,43,0,4451.410156,4406.794922,4201.922852,4303.974121,4360.769043,4493.205078,4430.512695,4479.615234,4398.717773,4347.94873,4217.94873,4402.820313,4323.717773,4220.512695,,,,,,,,,,,,,,,,,,,,,,,,,,,,,,,,,,,,,,,,,,,,,,,,,,,,,,,,,,,,,,,,,,,,,,
1720076093,44,0,4426.282227,4400.256348,4193.717773,4294.358887,4357.307617,4494.743652,4430.384766,4486.025879,4400.641113,4346.666504,4212.563965,4397.820313,4325.384766,4214.743652,,,,,,,,,,,,,,,,,,,,,,,,,,,,,,,,,,,,,,,,,,,,,,,,,,,,,,,,,,,,,,,,,,,,,,
1720076093,45,0,4406.153809,4397.436035,4182.94873,4287.307617,4354.102539,4486.666504,4426.666504,4476.282227,4400.256348,4343.846191,4207.05127,4381.538574,4322.05127,4209.358887,,,,,,,,,,,,,,,,,,,,,,,,,,,,,,,,,,,,,,,,,,,,,,,,,,,,,,,,,,,,,,,,,,,,,,
1720076093,46,0,4412.692383,4396.794922,4187.436035,4283.846191,4350.897461,4484.871582,4425.128418,4472.179688,4397.94873,4331.282227,4208.077148,4380.128418,4321.794922,4214.487305,,,,,,,,,,,,,,,,,,,,,,,,,,,,,,,,,,,,,,,,,,,,,,,,,,,,,,,,,,,,,,,,,,,,,,
1720076093,47,0,4437.94873,4394.487305,4200.769043,4286.025879,4349.615234,4484.102539,4426.538574,4480.384766,4394.615234,4317.94873,4215,4396.153809,4326.794922,4226.666504,,,,,,,,,,,,,,,,,,,,,,,,,,,,,,,,,,,,,,,,,,,,,,,,,,,,,,,,,,,,,,,,,,,,,,
1720076093,48,0,4455.641113,4393.589844,4208.717773,4290.769043,4350.641113,4477.94873,4425,4475.512695,4389.743652,4317.05127,4213.077148,4400.512695,4324.102539,4230.769043,5.634669,3.782862,1.292139,0.856153,0.444628,2.621537,0.438356,0.455342,0.31481,0.163507,7.830534,3.066797,1.666049,0.934149,0.317783,11.780693,1.369542,2.237212,1.504562,0.513461,7.135471,1.154615,0.696588,0.480812,0.246308,4.164308,1.120516,0.990782,0.274125,0.249822,13.55392,3.474385,1.842902,0.644669,0.275784,1.325128,0.548109,0.205928,0.131138,0.138853,9.749271,2.380292,1.767205,1.089709,0.223442,17.156567,1.268445,2.195955,1.55566,0.441757,23.760483,3.382787,1.740079,2.611529,0.364897,9.052902,5.149847,1.00336,0.936239,0.35345,9.289802,1.665193,0.981631,0.656748,0.231824,6.629825,1.55159,1.160279,1.064967,0.376514
1720076093,49,0,4459.230957,4394.358887,4213.974121,4293.589844,4351.538574,4479.102539,4423.974121,4466.410156,4385.769043,4323.205078,4210.769043,4399.615234,4322.307617,4235.256348,,,,,,,,,,,,,,,,,,,,,,,,,,,,,,,,,,,,,,,,,,,,,,,,,,,,,,,,,,,,,,,,,,,,,,
1720076093,50,0,4461.025879,4392.179688,4218.717773,4290.384766,4345.897461,4481.922852,4421.025879,4462.820313,4377.820313,4322.307617,4210.769043,4398.461426,4323.974121,4237.692383,,,,,,,,,,,,,,,,,,,,,,,,,,,,,,,,,,,,,,,,,,,,,,,,,,,,,,,,,,,,,,,,,,,,,,
1720076093,51,0,4464.102539,4387.436035,4214.230957,4281.794922,4339.487305,4476.153809,4413.333496,4460.641113,4369.230957,4318.333496,4208.589844,4396.282227,4323.205078,4239.230957,,,,,,,,,,,,,,,,,,,,,,,,,,,,,,,,,,,,,,,,,,,,,,,,,,,,,,,,,,,,,,,,,,,,,,
1720076093,52,0,4459.871582,4385.769043,4207.05127,4278.461426,4337.436035,4473.077148,4412.307617,4462.692383,4370.384766,4319.487305,4211.794922,4403.333496,4325.384766,4245.384766,,,,,,,,,,,,,,,,,,,,,,,,,,,,,,,,,,,,,,,,,,,,,,,,,,,,,,,,,,,,,,,,,,,,,,
1720076093,53,0,4449.871582,4384.358887,4204.358887,4279.871582,4332.563965,4465.769043,4413.461426,4451.794922,4368.077148,4322.307617,4205.641113,4392.436035,4320,4235.512695,,,,,,,,,,,,,,,,,,,,,,,,,,,,,,,,,,,,,,,,,,,,,,,,,,,,,,,,,,,,,,,,,,,,,,
1720076093,54,0,4444.487305,4380,4201.025879,4268.589844,4327.179688,4458.333496,4406.410156,4444.487305,4358.717773,4319.871582,4190.256348,4375.769043,4310.512695,4224.230957,,,,,,,,,,,,,,,,,,,,,,,,,,,,,,,,,,,,,,,,,,,,,,,,,,,,,,,,,,,,,,,,,,,,,,
1720076093,55,0,4447.179688,4377.307617,4198.589844,4258.205078,4329.102539,4464.743652,4405.641113,4456.922852,4366.410156,4317.563965,4188.205078,4385.384766,4314.358887,4234.230957,,,,,,,,,,,,,,,,,,,,,,,,,,,,,,,,,,,,,,,,,,,,,,,,,,,,,,,,,,,,,,,,,,,,,,
1720076093,56,0,4449.230957,4373.461426,4200.897461,4265.641113,4330.641113,4466.025879,4413.205078,4460,4377.820313,4320.384766,4191.153809,4385.897461,4315.897461,4236.922852,,,,,,,,,,,,,,,,,,,,,,,,,,,,,,,,,,,,,,,,,,,,,,,,,,,,,,,,,,,,,,,,,,,,,,
1720076093,57,0,4446.025879,4369.230957,4199.358887,4267.692383,4326.538574,4458.589844,4410.512695,4454.230957,4367.563965,4319.487305,4186.282227,4370.897461,4309.358887,4224.743652,,,,,,,,,,,,,,,,,,,,,,,,,,,,,,,,,,,,,,,,,,,,,,,,,,,,,,,,,,,,,,,,,,,,,,
1720076093,58,0,4442.436035,4371.025879,4189.230957,4261.410156,4325.512695,4459.358887,4402.94873,4450.384766,4361.922852,4316.666504,4176.538574,4362.179688,4302.692383,4218.589844,,,,,,,,,,,,,,,,,,,,,,,,,,,,,,,,,,,,,,,,,,,,,,,,,,,,,,,,,,,,,,,,,,,,,,
1720076093,59,0,4441.410156,4371.282227,4183.974121,4259.358887,4322.179688,4463.333496,4402.307617,4448.717773,4371.025879,4315.769043,4168.461426,4359.871582,4301.282227,4221.153809,,,,,,,,,,,,,,,,,,,,,,,,,,,,,,,,,,,,,,,,,,,,,,,,,,,,,,,,,,,,,,,,,,,,,,
1720076093,60,0,4443.717773,4367.05127,4186.538574,4259.358887,4312.307617,4455.128418,4400.512695,4447.820313,4365.769043,4312.307617,4167.05127,4354.743652,4303.461426,4221.538574,,,,,,,,,,,,,,,,,,,,,,,,,,,,,,,,,,,,,,,,,,,,,,,,,,,,,,,,,,,,,,,,,,,,,,
1720076093,61,0,4446.538574,4367.94873,4187.05127,4259.743652,4313.846191,4448.717773,4397.692383,4441.410156,4348.846191,4307.307617,4168.077148,4349.230957,4298.589844,4218.974121,,,,,,,,,,,,,,,,,,,,,,,,,,,,,,,,,,,,,,,,,,,,,,,,,,,,,,,,,,,,,,,,,,,,,,
1720076093,62,0,4445.256348,4371.410156,4185.897461,4258.717773,4320.897461,4452.179688,4396.666504,4434.743652,4340.512695,4304.102539,4166.538574,4348.846191,4295.256348,4220,,,,,,,,,,,,,,,,,,,,,,,,,,,,,,,,,,,,,,,,,,,,,,,,,,,,,,,,,,,,,,,,,,,,,,
1720076093,63,0,4448.846191,4372.563965,4192.820313,4262.307617,4314.871582,4449.615234,4390.897461,4432.179688,4340.641113,4303.589844,4162.563965,4350.256348,4299.487305,4220,,,,,,,,,,,,,,,,,,,,,,,,,,,,,,,,,,,,,,,,,,,,,,,,,,,,,,,,,,,,,,,,,,,,,,
1720076093,64,0,4456.922852,4375.641113,4201.025879,4266.922852,4309.743652,4440.769043,4387.820313,4430,4340.897461,4308.846191,4163.333496,4351.282227,4296.153809,4217.692383,4.886821,3.594608,1.343104,0.775726,0.445763,2.244954,0.424624,0.458592,0.231812,0.150108,9.136354,4.215407,1.605968,0.890616,0.325556,8.835886,1.435624,2.201404,1.257293,0.516624,4.592934,1.15911,0.652043,0.39272,0.229425,2.756787,0.944699,0.982591,0.223271,0.227888,7.499366,1.971231,1.087116,0.400826,0.184036,1.046023,0.435167,0.154163,0.104467,0.132961,6.720887,2.648393,1.388071,0.887988,0.199094,11.241118,1.686388,1.697231,1.15147,0.331783,18.678711,2.89598,1.667234,2.227987,0.339236,7.039002,4.293338,1.015409,0.728508,0.338029,7.26263,1.464775,0.879943,0.530537,0.199401,5.142108,1.461141,1.172352,0.823845,0.341507
1720076093,65,0,4458.333496,4376.538574,4202.307617,4269.743652,4315.641113,4442.436035,4391.666504,4429.102539,4340.769043,4318.205078,4168.461426,4352.820313,4282.563965,4223.205078,,,,,,,,,,,,,,,,,,,,,,,,,,,,,,,,,,,,,,,,,,,,,,,,,,,,,,,,,,,,,,,,,,,,,,
1720076093,66,0,4456.922852,4372.179688,4202.563965,4273.205078,4313.461426,4448.589844,4392.179688,4433.333496,4337.820313,4321.794922,4171.025879,4354.487305,4278.205078,4228.461426,,,,,,,,,,,,,,,,,,,,,,,,,,,,,,,,,,,,,,,,,,,,,,,,,,,,,,,,,,,,,,,,,,,,,,
1720076093,67,0,4459.102539,4369.871582,4204.871582,4278.974121,4308.717773,4444.102539,4388.333496,4430.384766,4336.922852,4318.461426,4168.846191,4347.307617,4278.333496,4222.436035,,,,,,,,,,,,,,,,,,,,,,,,,,,,,,,,,,,,,,,,,,,,,,,,,,,,,,,,,,,,,,,,,,,,,,
1720076093,68,0,4460.897461,4371.794922,4204.615234,4278.333496,4315.512695,4442.307617,4388.077148,4428.333496,4344.358887,4321.153809,4170.256348,4341.410156,4273.333496,4216.538574,,,,,,,,,,,,,,,,,,,,,,,,,,,,,,,,,,,,,,,,,,,,,,,,,,,,,,,,,,,,,,,,,,,,,,
1720076093,69,0,4461.153809,4371.794922,4202.179688,4265.512695,4317.179688,4446.282227,4390.512695,4436.538574,4349.230957,4328.717773,4173.461426,4346.538574,4275.512695,4220,,,,,,,,,,,,,,,,,,,,,,,,,,,,,,,,,,,,,,,,,,,,,,,,,,,,,,,,,,,,,,,,,,,,,,
1720076093,70,0,4456.410156,4366.538574,4198.589844,4258.077148,4308.333496,4439.230957,4389.615234,4430.641113,4344.358887,4325.769043,4167.05127,4338.974121,4275.128418,4216.025879,,,,,,,,,,,,,,,,,,,,,,,,,,,,,,,,,,,,,,,,,,,,,,,,,,,,,,,,,,,,,,,,,,,,,,
1720076093,71,0,4453.974121,4360.769043,4191.282227,4262.563965,4305,4429.615234,4386.666504,4420.897461,4340.641113,4318.205078,4157.307617,4328.461426,4267.820313,4208.974121,,,,,,,,,,,,,,,,,,,,,,,,,,,,,,,,,,,,,,,,,,,,,,,,,,,,,,,,,,,,,,,,,,,,,,
1720076093,72,0,4453.717773,4355.897461,4186.410156,4265.897461,4303.974121,4429.743652,4385.384766,4425.128418,4344.615234,4322.436035,4153.717773,4330.128418,4267.436035,4208.974121,,,,,,,,,,,,,,,,,,,,,,,,,,,,,,,,,,,,,,,,,,,,,,,,,,,,,,,,,,,,,,,,,,,,,,
1720076093,73,0,4451.153809,4352.179688,4185.256348,4266.153809,4296.538574,4430.897461,4385.641113,4421.794922,4345.641113,4324.871582,4155.128418,4319.102539,4264.230957,4203.974121,,,,,,,,,,,,,,,,,,,,,,,,,,,,,,,,,,,,,,,,,,,,,,,,,,,,,,,,,,,,,,,,,,,,,,
1720076093,74,0,4448.846191,4351.025879,4182.820313,4263.461426,4289.487305,4429.743652,4382.436035,4412.307617,4337.179688,4313.205078,4152.436035,4302.563965,4256.410156,4198.461426,,,,,,,,,,,,,,,,,,,,,,,,,,,,,,,,,,,,,,,,,,,,,,,,,,,,,,,,,,,,,,,,,,,,,,
1720076093,75,0,4447.563965,4348.077148,4180.512695,4254.230957,4288.846191,4425.769043,4377.94873,4408.077148,4328.333496,4307.179688,4142.563965,4301.794922,4257.05127,4198.077148,,,,,,,,,,,,,,,,,,,,,,,,,,,,,,,,,,,,,,,,,,,,,,,,,,,,,,,,,,,,,,,,,,,,,,
1720076093,76,0,4449.615234,4345.897461,4183.077148,4249.743652,4291.282227,4421.410156,4378.974121,4404.358887,4326.538574,4316.794922,4138.461426,4306.922852,4261.794922,4201.410156,,,,,,,,,,,,,,,,,,,,,,,,,,,,,,,,,,,,,,,,,,,,,,,,,,,,,,,,,,,,,,,,,,,,,,
1720076093,77,0,4455.384766,4349.871582,4190.641113,4259.230957,4292.94873,4420.641113,4379.102539,4404.743652,4328.077148,4321.282227,4139.230957,4311.282227,4260.897461,4209.487305,,,,,,,,,,,,,,,,,,,,,,,,,,,,,,,,,,,,,,,,,,,,,,,,,,,,,,,,,,,,,,,,,,,,,,
1720076093,78,0,4461.282227,4352.563965,4197.820313,4268.589844,4293.717773,4422.05127,4373.205078,4407.563965,4325.897461,4317.692383,4137.179688,4311.025879,4257.692383,4215.384766,,,,,,,,,,,,,,,,,,,,,,,,,,,,,,,,,,,,,,,,,,,,,,,,,,,,,,,,,,,,,,,,,,,,,,
1720076093,79,0,4466.922852,4351.025879,4203.974121,4276.538574,4295.769043,4423.333496,4370.641113,4401.794922,4324.743652,4320.897461,4142.692383,4305,4253.589844,4213.846191,,,,,,,,,,,,,,,,,,,,,,,,,,,,,,,,,,,,,,,,,,,,,,,,,,,,,,,,,,,,,,,,,,,,,,
1720076093,80,0,4470.128418,4351.410156,4205.256348,4277.94873,4298.333496,4424.743652,4378.717773,4402.692383,4325,4322.307617,4149.871582,4309.487305,4252.307617,4207.563965,4.70459,3.759093,1.49076,0.764274,0.484546,2.125244,0.412993,0.509742,0.157089,0.149338,13.013001,5.948853,1.650694,0.932124,0.365324,6.867851,1.699576,2.220295,1.009272,0.506705,3.196382,1.114708,0.630045,0.31616,0.220724,1.983833,0.796408,0.973716,0.179076,0.207909,3.628511,0.97634,0.602233,0.234258,0.129038,0.91064,0.374103,0.128388,0.083291,0.130071,4.772769,3.39777,1.030931,0.664815,0.185102,7.438108,2.613115,1.403546,0.786218,0.266245,14.027283,2.590748,1.675861,1.754207,0.31554,5.773785,3.467941,1.217757,0.543759,0.332621,5.595465,1.297724,0.849263,0.425548,0.170282,4.243198,1.649555,1.253174,0.621966,0.302401
1720076093,81,0,4471.153809,4352.94873,4200.897461,4271.666504,4296.153809,4418.461426,4380.769043,4405.769043,4320.256348,4316.538574,4141.410156,4310.128418,4251.410156,4201.794922,,,,,,,,,,,,,,,,,,,,,,,,,,,,,,,,,,,,,,,,,,,,,,,,,,,,,,,,,,,,,,,,,,,,,,
1720076093,82,0,4474.102539,4352.307617,4200.256348,4269.487305,4293.205078,4408.205078,4372.563965,4399.615234,4311.410156,4310.897461,4128.974121,4297.94873,4249.230957,4199.102539,,,,,,,,,,,,,,,,,,,,,,,,,,,,,,,,,,,,,,,,,,,,,,,,,,,,,,,,,,,,,,,,,,,,,,
1720076093,83,0,4474.230957,4348.974121,4198.974121,4267.563965,4293.077148,4412.436035,4376.922852,4400.769043,4308.205078,4311.153809,4131.922852,4301.794922,4252.563965,4198.461426,,,,,,,,,,,,,,,,,,,,,,,,,,,,,,,,,,,,,,,,,,,,,,,,,,,,,,,,,,,,,,,,,,,,,,
1720076093,84,0,4467.05127,4340.256348,4189.487305,4260.641113,4290,4415.512695,4382.05127,4400.512695,4313.717773,4316.282227,4135.256348,4307.307617,4250.256348,4193.974121,,,,,,,,,,,,,,,,,,,,,,,,,,,,,,,,,,,,,,,,,,,,,,,,,,,,,,,,,,,,,,,,,,,,,,
1720076093,85,0,4465.128418,4335,4179.615234,4259.615234,4289.487305,4409.743652,4374.102539,4395,4318.461426,4316.538574,4126.538574,4296.538574,4239.487305,4189.102539,,,,,,,,,,,,,,,,,,,,,,,,,,,,,,,,,,,,,,,,,,,,,,,,,,,,,,,,,,,,,,,,,,,,,,
1720076093,86,0,4468.333496,4339.743652,4182.05127,4261.025879,4294.615234,4410.897461,4373.333496,4395.384766,4320.512695,4315.512695,4119.871582,4291.025879,4235.641113,4187.05127,,,,,,,,,,,,,,,,,,,,,,,,,,,,,,,,,,,,,,,,,,,,,,,,,,,,,,,,,,,,,,,,,,,,,,
1720076093,87,0,4470,4342.820313,4192.05127,4260.512695,4297.436035,4414.743652,4382.436035,4397.692383,4322.94873,4321.538574,4130.256348,4298.461426,4237.436035,4193.717773,,,,,,,,,,,,,,,,,,,,,,,,,,,,,,,,,,,,,,,,,,,,,,,,,,,,,,,,,,,,,,,,,,,,,,
1720076093,88,0,4475,4340,4198.846191,4267.692383,4297.307617,4412.436035,4377.563965,4398.333496,4326.282227,4330.128418,4137.94873,4302.94873,4238.846191,4207.05127,,,,,,,,,,,,,,,,,,,,,,,,,,,,,,,,,,,,,,,,,,,,,,,,,,,,,,,,,,,,,,,,,,,,,,
1720076093,89,0,4482.563965,4343.333496,4205.256348,4279.102539,4298.846191,4407.563965,4368.333496,4395.256348,4327.820313,4333.717773,4131.794922,4301.153809,4240.128418,4209.487305,,,,,,,,,,,,,,,,,,,,,,,,,,,,,,,,,,,,,,,,,,,,,,,,,,,,,,,,,,,,,,,,,,,,,,
1720076093,90,0,4490.897461,4348.717773,4214.358887,4282.307617,4299.743652,4417.692383,4375,4395.128418,4326.153809,4336.153809,4138.974121,4306.666504,4247.179688,4212.692383,,,,,,,,,,,,,,,,,,,,,,,,,,,,,,,,,,,,,,,,,,,,,,,,,,,,,,,,,,,,,,,,,,,,,,
1720076093,91,0,4493.077148,4347.05127,4223.205078,4284.102539,4298.077148,4427.05127,4382.94873,4398.589844,4326.922852,4339.487305,4148.077148,4313.717773,4251.410156,4220.384766,,,,,,,,,,,,,,,,,,,,,,,,,,,,,,,,,,,,,,,,,,,,,,,,,,,,,,,,,,,,,,,,,,,,,,
1720076093,92,0,4489.615234,4346.538574,4227.307617,4289.358887,4302.05127,4420.641113,4381.794922,4398.461426,4326.794922,4338.717773,4142.94873,4313.717773,4247.179688,4220.512695,,,,,,,,,,,,,,,,,,,,,,,,,,,,,,,,,,,,,,,,,,,,,,,,,,,,,,,,,,,,,,,,,,,,,,
1720076093,93,0,4493.846191,4350.769043,4229.102539,4291.410156,4309.743652,4420.641113,4382.436035,4397.563965,4318.461426,4339.871582,4147.563965,4315,4247.05127,4221.922852,,,,,,,,,,,,,,,,,,,,,,,,,,,,,,,,,,,,,,,,,,,,,,,,,,,,,,,,,,,,,,,,,,,,,,
1720076093,94,0,4496.922852,4350.897461,4230.897461,4289.102539,4313.717773,4430.769043,4386.538574,4401.410156,4309.102539,4342.563965,4156.666504,4322.692383,4252.05127,4228.205078,,,,,,,,,,,,,,,,,,,,,,,,,,,,,,,,,,,,,,,,,,,,,,,,,,,,,,,,,,,,,,,,,,,,,,
1720076093,95,0,4490.769043,4349.102539,4232.179688,4293.589844,4312.436035,4427.436035,4386.538574,4398.461426,4308.974121,4343.717773,4151.025879,4323.205078,4252.179688,4227.820313,,,,,,,,,,,,,,,,,,,,,,,,,,,,,,,,,,,,,,,,,,,,,,,,,,,,,,,,,,,,,,,,,,,,,,
1720076093,96,0,4495.384766,4352.692383,4235.256348,4308.846191,4311.922852,4423.846191,4387.307617,4391.410156,4311.153809,4342.563965,4149.615234,4318.717773,4248.077148,4229.230957,4.90626,4.26221,1.72186,0.801151,0.538269,2.164226,0.419976,0.601798,0.104845,0.157774,18.606567,7.885891,1.814975,1.051031,0.421751,5.70802,2.013746,2.296696,0.796204,0.482427,2.593843,1.010782,0.625633,0.26355,0.216511,1.696535,0.661248,0.953003,0.149293,0.190611,1.771882,0.513602,0.398121,0.149732,0.108199,0.876339,0.375685,0.132173,0.068631,0.130231,3.690744,4.487305,0.748345,0.471774,0.180128,5.272442,3.911136,1.306307,0.524112,0.240262,10.09107,2.562358,1.781286,1.303134,0.296219,4.942042,2.914232,1.541019,0.411025,0.332441,4.298656,1.191335,0.869034,0.357929,0.150514,3.844934,2.062299,1.371615,0.484609,0.2669
1720076093,97,0,4505,4353.333496,4234.871582,4312.179688,4313.333496,4432.307617,4388.333496,4395.128418,4308.077148,4338.461426,4157.820313,4324.743652,4248.589844,4237.563965,,,,,,,,,,,,,,,,,,,,,,,,,,,,,,,,,,,,,,,,,,,,,,,,,,,,,,,,,,,,,,,,,,,,,,
1720076093,98,0,4495.641113,4346.153809,4231.538574,4301.666504,4310.512695,4422.820313,4384.487305,4393.974121,4306.794922,4340.897461,4150,4319.102539,4243.974121,4227.820313,,,,,,,,,,,,,,,,,,,,,,,,,,,,,,,,,,,,,,,,,,,,,,,,,,,,,,,,,,,,,,,,,,,,,,
1720076093,99,0,4481.025879,4342.05127,4229.102539,4301.666504,4303.717773,4409.358887,4380.384766,4388.846191,4310,4346.025879,4138.846191,4302.179688,4233.461426,4213.077148,,,,,,,,,,,,,,,,,,,,,,,,,,,,,,,,,,,,,,,,,,,,,,,,,,,,,,,,,,,,,,,,,,,,,,
1720076093,100,0,4484.487305,4341.282227,4228.077148,4310.256348,4302.94873,4417.436035,4377.692383,4392.820313,4311.666504,4346.410156,4140.256348,4304.358887,4232.94873,4219.230957,,,,,,,,,,,,,,,,,,,,,,,,,,,,,,,,,,,,,,,,,,,,,,,,,,,,,,,,,,,,,,,,,,,,,,
1720076093,101,0,4492.436035,4335.256348,4229.102539,4311.922852,4307.692383,4421.025879,4375.897461,4390.641113,4310.256348,4346.153809,4142.05127,4309.102539,4235.128418,4221.794922,,,,,,,,,,,,,,,,,,,,,,,,,,,,,,,,,,,,,,,,,,,,,,,,,,,,,,,,,,,,,,,,,,,,,,
1720076093,102,0,4493.461426,4328.846191,4233.333496,4309.871582,4303.077148,4413.205078,4378.205078,4386.153809,4306.666504,4347.179688,4136.410156,4305,4232.692383,4214.487305,,,,,,,,,,,,,,,,,,,,,,,,,,,,,,,,,,,,,,,,,,,,,,,,,,,,,,,,,,,,,,,,,,,,,,
1720076093,103,0,4486.410156,4327.436035,4233.846191,4304.743652,4291.922852,4406.922852,4375.641113,4387.820313,4299.230957,4337.820313,4127.692383,4300.641113,4224.871582,4211.538574,,,,,,,,,,,,,,,,,,,,,,,,,,,,,,,,,,,,,,,,,,,,,,,,,,,,,,,,,,,,,,,,,,,,,,
1720076093,104,0,4478.589844,4326.282227,4227.307617,4291.538574,4289.487305,4401.410156,4363.589844,4379.358887,4288.846191,4321.153809,4118.205078,4289.871582,4212.436035,4203.589844,,,,,,,,,,,,,,,,,,,,,,,,,,,,,,,,,,,,,,,,,,,,,,,,,,,,,,,,,,,,,,,,,,,,,,
1720076093,105,0,4489.358887,4329.230957,4236.794922,4295,4296.282227,4403.461426,4366.025879,4372.692383,4290.769043,4326.025879,4121.922852,4295.512695,4213.333496,4209.615234,,,,,,,,,,,,,,,,,,,,,,,,,,,,,,,,,,,,,,,,,,,,,,,,,,,,,,,,,,,,,,,,,,,,,,
1720076093,106,0,4513.077148,4340.128418,4262.05127,4318.846191,4307.563965,4415.769043,4381.282227,4386.025879,4307.436035,4348.461426,4146.025879,4332.179688,4232.179688,4247.692383,,,,,,,,,,,,,,,,,,,,,,,,,,,,,,,,,,,,,,,,,,,,,,,,,,,,,,,,,,,,,,,,,,,,,,
1720076093,107,0,4517.563965,4347.307617,4273.333496,4330.128418,4312.820313,4415,4383.205078,4386.922852,4315.641113,4359.102539,4162.94873,4344.230957,4240.897461,4267.436035,,,,,,,,,,,,,,,,,,,,,,,,,,,,,,,,,,,,,,,,,,,,,,,,,,,,,,,,,,,,,,,,,,,,,,
1720076093,108,0,4508.846191,4349.230957,4272.05127,4326.922852,4310.512695,4412.94873,4378.974121,4378.333496,4309.615234,4355.897461,4158.205078,4328.461426,4232.563965,4252.820313,,,,,,,,,,,,,,,,,,,,,,,,,,,,,,,,,,,,,,,,,,,,,,,,,,,,,,,,,,,,,,,,,,,,,,
1720076093,109,0,4512.563965,4347.179688,4275.384766,4327.436035,4313.461426,4422.563965,4381.410156,4383.077148,4306.794922,4357.692383,4149.358887,4326.538574,4227.307617,4242.692383,,,,,,,,,,,,,,,,,,,,,,,,,,,,,,,,,,,,,,,,,,,,,,,,,,,,,,,,,,,,,,,,,,,,,,
1720076093,110,0,4512.05127,4343.717773,4275.641113,4331.282227,4319.358887,4423.461426,4383.077148,4384.358887,4309.871582,4365.128418,4155,4326.153809,4228.717773,4250.512695,,,,,,,,,,,,,,,,,,,,,,,,,,,,,,,,,,,,,,,,,,,,,,,,,,,,,,,,,,,,,,,,,,,,,,
1720076093,111,0,4488.077148,4344.871582,4268.589844,4328.461426,4323.333496,4419.102539,4382.436035,4379.358887,4312.179688,4365.641113,4166.282227,4324.102539,4230.769043,4263.846191,,,,,,,,,,,,,,,,,,,,,,,,,,,,,,,,,,,,,,,,,,,,,,,,,,,,,,,,,,,,,,,,,,,,,,
1720076093,112,0,4467.436035,4346.410156,4263.717773,4327.563965,4326.410156,4415.384766,4382.563965,4379.230957,4313.077148,4367.563965,4165.128418,4327.692383,4230.512695,4267.179688,5.085682,4.988059,1.984996,0.845511,0.574594,2.281132,0.453239,0.697127,0.076313,0.165836,23.46537,9.483163,2.028381,1.183073,0.466134,5.384763,2.240536,2.367611,0.631665,0.442789,2.495023,0.847301,0.61548,0.234585,0.209461,1.690975,0.524886,0.901935,0.132703,0.174264,1.308958,0.387048,0.367837,0.117394,0.105389,0.930234,0.419737,0.155959,0.05844,0.132275,3.303733,5.560921,0.575653,0.331188,0.179084,4.111448,5.22372,1.30664,0.371921,0.234585,7.810288,2.722267,1.914484,0.945952,0.278178,4.392195,2.700369,1.832967,0.328921,0.329605,3.791691,1.128511,0.887012,0.32024,0.140716,3.540793,2.551802,1.468204,0.409108,0.239007
1720076093,113,0,4469.871582,4341.410156,4262.05127,4333.461426,4322.307617,4410.128418,4376.666504,4377.94873,4312.307617,4374.487305,4155.384766,4321.410156,4227.563965,4260.384766,,,,,,,,,,,,,,,,,,,,,,,,,,,,,,,,,,,,,,,,,,,,,,,,,,,,,,,,,,,,,,,,,,,,,,
1720076093,114,0,4474.358887,4334.358887,4260,4328.846191,4318.077148,4406.153809,4371.410156,4371.153809,4312.05127,4376.538574,4147.692383,4308.077148,4223.077148,4255,,,,,,,,,,,,,,,,,,,,,,,,,,,,,,,,,,,,,,,,,,,,,,,,,,,,,,,,,,,,,,,,,,,,,,
1720076093,115,0,4472.692383,4337.692383,4255.512695,4313.717773,4320,4406.666504,4372.94873,4368.717773,4319.230957,4375.256348,4146.538574,4304.615234,4218.846191,4255.769043,,,,,,,,,,,,,,,,,,,,,,,,,,,,,,,,,,,,,,,,,,,,,,,,,,,,,,,,,,,,,,,,,,,,,,
1720076093,116,0,4484.615234,4342.05127,4248.846191,4307.436035,4317.94873,4408.205078,4373.461426,4372.05127,4323.077148,4375.641113,4146.794922,4307.820313,4215.128418,4251.794922,,,,,,,,,,,,,,,,,,,,,,,,,,,,,,,,,,,,,,,,,,,,,,,,,,,,,,,,,,,,,,,,,,,,,,
1720076093,117,0,4503.846191,4334.743652,4246.922852,4309.871582,4311.153809,4403.333496,4371.922852,4369.230957,4314.871582,4373.077148,4146.410156,4303.077148,4213.205078,4244.358887,,,,,,,,,,,,,,,,,,,,,,,,,,,,,,,,,,,,,,,,,,,,,,,,,,,,,,,,,,,,,,,,,,,,,,
1720076093,118,0,4509.487305,4329.102539,4253.205078,4308.717773,4309.358887,4400.897461,4372.307617,4362.692383,4308.589844,4368.461426,4141.794922,4299.743652,4216.410156,4247.692383,,,,,,,,,,,,,,,,,,,,,,,,,,,,,,,,,,,,,,,,,,,,,,,,,,,,,,,,,,,,,,,,,,,,,,
1720076093,119,0,4508.461426,4335,4260.897461,4312.307617,4312.307617,4406.025879,4375.512695,4365.128418,4311.282227,4367.05127,4138.846191,4307.692383,4221.666504,4256.538574,,,,,,,,,,,,,,,,,,,,,,,,,,,,,,,,,,,,,,,,,,,,,,,,,,,,,,,,,,,,,,,,,,,,,,
1720076093,120,0,4514.230957,4340.128418,4263.846191,4324.230957,4315.897461,4410.384766,4380.512695,4371.794922,4312.94873,4363.333496,4141.410156,4315.256348,4218.205078,4259.743652,,,,,,,,,,,,,,,,,,,,,,,,,,,,,,,,,,,,,,,,,,,,,,,,,,,,,,,,,,,,,,,,,,,,,,
1720076093,121,0,4521.410156,4338.846191,4263.077148,4328.717773,4317.05127,4408.077148,4382.563965,4367.563965,4309.871582,4358.077148,4141.025879,4315.128418,4211.922852,4258.333496,,,,,,,,,,,,,,,,,,,,,,,,,,,,,,,,,,,,,,,,,,,,,,,,,,,,,,,,,,,,,,,,,,,,,,
1720076093,122,0,4521.410156,4337.563965,4266.153809,4325.128418,4317.307617,4406.538574,4381.922852,4365.128418,4307.563965,4354.871582,4143.333496,4317.307617,4213.974121,4260,,,,,,,,,,,,,,,,,,,,,,,,,,,,,,,,,,,,,,,,,,,,,,,,,,,,,,,,,,,,,,,,,,,,,,
1720076093,123,0,4521.410156,4336.794922,4275.256348,4324.743652,4319.487305,4404.102539,4383.589844,4368.846191,4308.077148,4356.153809,4152.05127,4320.641113,4223.333496,4266.282227,,,,,,,,,,,,,,,,,,,,,,,,,,,,,,,,,,,,,,,,,,,,,,,,,,,,,,,,,,,,,,,,,,,,,,
1720076093,124,0,4524.487305,4338.077148,4276.153809,4331.794922,4313.974121,4398.846191,4385.128418,4363.974121,4310,4364.615234,4156.153809,4316.538574,4229.615234,4270.897461,,,,,,,,,,,,,,,,,,,,,,,,,,,,,,,,,,,,,,,,,,,,,,,,,,,,,,,,,,,,,,,,,,,,,,
1720076093,125,0,4524.358887,4338.846191,4268.846191,4330.256348,4308.077148,4400.256348,4381.794922,4361.025879,4308.974121,4365.897461,4152.94873,4319.102539,4227.692383,4272.563965,,,,,,,,,,,,,,,,,,,,,,,,,,,,,,,,,,,,,,,,,,,,,,,,,,,,,,,,,,,,,,,,,,,,,,
1720076093,126,0,4523.846191,4333.717773,4262.692383,4319.102539,4308.077148,4398.974121,4375,4363.077148,4308.461426,4357.179688,4155.128418,4318.974121,4228.205078,4269.615234,,,,,,,,,,,,,,,,,,,,,,,,,,,,,,,,,,,,,,,,,,,,,,,,,,,,,,,,,,,,,,,,,,,,,,
1720076093,127,0,4525.512695,4328.333496,4256.153809,4311.538574,4301.922852,4396.794922,4373.461426,4361.282227,4315.897461,4360.512695,4158.205078,4306.153809,4233.461426,4265.512695,,,,,,,,,,,,,,,,,,,,,,,,,,,,,,,,,,,,,,,,,,,,,,,,,,,,,,,,,,,,,,,,,,,,,,
1720076093,0,0,4523.333496,4325.512695,4248.333496,4302.692383,4299.743652,4400.769043,4373.974121,4361.794922,4321.410156,4369.615234,4151.922852,4307.05127,4230.769043,4265,4.984657,5.725491,2.205041,0.856337,0.568639,2.345666,0.522206,0.747437,0.063512,0.164029,25.924107,10.283487,2.175424,1.242584,0.472431,5.191311,2.33663,2.348106,0.513555,0.389873,2.409083,0.657272,0.577895,0.219995,0.194214,1.663877,0.391546,0.809878,0.124093,0.158188,1.215109,0.371877,0.376063,0.101396,0.105389,0.977013,0.470902,0.183444,0.050022,0.134445,3.045481,6.201451,0.509976,0.24077,0.177053,3.266317,6.128173,1.292589,0.300368,0.231697,6.381035,2.881912,1.96223,0.695853,0.257101,3.765038,2.731633,1.937214,0.277896,0.318949,3.479296,1.072252,0.847938,0.292304,0.137379,3.042976,2.946751,1.476355,0.370469,0.218624
1720076093,1,0,4516.666504,4322.179688,4245.384766,4293.461426,4305.769043,4397.179688,4371.153809,4358.077148,4313.717773,4363.461426,4144.743652,4309.871582,4220.641113,4261.282227,,,,,,,,,,,,,,,,,,,,,,,,,,,,,,,,,,,,,,,,,,,,,,,,,,,,,,,,,,,,,,,,,,,,,,
1720076093,2,0,4514.871582,4323.846191,4246.153809,4297.05127,4307.307617,4391.153809,4373.077148,4351.922852,4305.769043,4352.692383,4134.358887,4297.436035,4221.282227,4254.871582,,,,,,,,,,,,,,,,,,,,,,,,,,,,,,,,,,,,,,,,,,,,,,,,,,,,,,,,,,,,,,,,,,,,,,
1720076093,3,0,4508.974121,4326.153809,4244.615234,4307.820313,4306.922852,4394.743652,4379.487305,4353.589844,4308.846191,4348.077148,4122.94873,4289.871582,4225.128418,4251.025879,,,,,,,,,,,,,,,,,,,,,,,,,,,,,,,,,,,,,,,,,,,,,,,,,,,,,,,,,,,,,,,,,,,,,,
1720076093,4,0,4493.974121,4319.615234,4241.153809,4309.358887,4304.230957,4397.436035,4376.538574,4353.589844,4305.897461,4342.307617,4118.461426,4290,4219.230957,4246.922852,,,,,,,,,,,,,,,,,,,,,,,,,,,,,,,,,,,,,,,,,,,,,,,,,,,,,,,,,,,,,,,,,,,,,,
1720076093,5,0,4495.769043,4315.769043,4239.102539,4305.897461,4298.717773,4392.563965,4370.128418,4348.589844,4295.256348,4336.922852,4124.358887,4288.974121,4220.512695,4246.666504,,,,,,,,,,,,,,,,,,,,,,,,,,,,,,,,,,,,,,,,,,,,,,,,,,,,,,,,,,,,,,,,,,,,,,
1720076093,6,0,4506.025879,4323.333496,4247.436035,4307.820313,4303.461426,4393.077148,4375.256348,4353.077148,4296.282227,4340.256348,4134.358887,4293.589844,4233.205078,4253.846191,,,,,,,,,,,,,,,,,,,,,,,,,,,,,,,,,,,,,,,,,,,,,,,,,,,,,,,,,,,,,,,,,,,,,,
1720076093,7,0,4498.846191,4327.179688,4259.358887,4315,4313.333496,4399.102539,4382.692383,4357.05127,4305.256348,4351.922852,4138.461426,4297.692383,4239.871582,4257.820313,,,,,,,,,,,,,,,,,,,,,,,,,,,,,,,,,,,,,,,,,,,,,,,,,,,,,,,,,,,,,,,,,,,,,,
1720076093,8,0,4493.461426,4324.230957,4263.974121,4327.05127,4309.871582,4400,4382.563965,4355.512695,4308.589844,4360.512695,4134.487305,4301.538574,4238.205078,4257.436035,,,,,,,,,,,,,,,,,,,,,,,,,,,,,,,,,,,,,,,,,,,,,,,,,,,,,,,,,,,,,,,,,,,,,,
1720076093,9,0,4505.128418,4326.025879,4269.487305,4334.230957,4307.436035,4396.410156,4380.769043,4359.358887,4306.410156,4362.05127,4134.871582,4314.871582,4240,4260.769043,,,,,,,,,,,,,,,,,,,,,,,,,,,,,,,,,,,,,,,,,,,,,,,,,,,,,,,,,,,,,,,,,,,,,,
1720076093,10,0,4516.538574,4331.282227,4277.563965,4336.153809,4317.563965,4393.333496,4380.384766,4359.487305,4306.922852,4365.384766,4148.461426,4321.922852,4245.512695,4267.692383,,,,,,,,,,,,,,,,,,,,,,,,,,,,,,,,,,,,,,,,,,,,,,,,,,,,,,,,,,,,,,,,,,,,,,
1720076093,11,0,4526.666504,4335.641113,4280.512695,4348.333496,4325.512695,4395.128418,4382.05127,4357.307617,4310.128418,4372.307617,4161.410156,4325.512695,4246.538574,4279.358887,,,,,,,,,,,,,,,,,,,,,,,,,,,,,,,,,,,,,,,,,,,,,,,,,,,,,,,,,,,,,,,,,,,,,,
1720076093,12,0,4539.871582,4338.333496,4281.922852,4363.717773,4327.820313,4397.820313,4380.128418,4356.922852,4312.692383,4374.358887,4162.436035,4331.794922,4242.179688,4287.820313,,,,,,,,,,,,,,,,,,,,,,,,,,,,,,,,,,,,,,,,,,,,,,,,,,,,,,,,,,,,,,,,,,,,,,
1720076093,13,0,4537.94873,4335.769043,4284.102539,4360.897461,4327.692383,4395.641113,4375.769043,4352.692383,4312.692383,4371.794922,4159.358887,4331.282227,4240.384766,4284.358887,,,,,,,,,,,,,,,,,,,,,,,,,,,,,,,,,,,,,,,,,,,,,,,,,,,,,,,,,,,,,,,,,,,,,,
1720076093,14,0,4524.871582,4331.153809,4280.641113,4351.922852,4325.256348,4392.179688,4375.769043,4349.487305,4316.282227,4367.692383,4156.025879,4320.641113,4235.128418,4273.589844,,,,,,,,,,,,,,,,,,,,,,,,,,,,,,,,,,,,,,,,,,,,,,,,,,,,,,,,,,,,,,,,,,,,,,
1720076094,15,0,4526.282227,4335.256348,4282.179688,4364.102539,4332.179688,4398.974121,4383.846191,4356.025879,4329.743652,4373.846191,4154.487305,4314.871582,4225.512695,4270.256348,,,,,,,,,,,,,,,,,,,,,,,,,,,,,,,,,,,,,,,,,,,,,,,,,,,,,,,,,,,,,,,,,,,,,,
1720076094,16,0,4542.179688,4348.846191,4295,4388.846191,4350.256348,4414.102539,4394.487305,4366.025879,4343.333496,4389.743652,4158.717773,4323.974121,4226.922852,4281.666504,4.471777,6.220975,2.313102,0.813154,0.517324,2.305233,0.636995,0.724411,0.057397,0.149187,24.650911,10.103766,2.155243,1.172164,0.431776,5.0212,2.332826,2.187664,0.44009,0.330497,2.131542,0.498473,0.510802,0.210735,0.171438,1.569167,0.289178,0.680974,0.120344,0.145224,1.203799,0.390361,0.354007,0.087349,0.104329,1.034184,0.50688,0.202902,0.042481,0.135665,2.793024,6.164949,0.533872,0.188755,0.173193,2.738207,6.337467,1.199928,0.274635,0.223398,5.763664,2.929073,1.850686,0.531218,0.233963,3.014163,2.88942,1.810661,0.245755,0.303763,3.275116,1.00011,0.733983,0.262711,0.136758,2.402559,3.188013,1.381122,0.350325,0.206332
1720076094,17,0,4547.820313,4354.230957,4299.487305,4396.153809,4355.897461,4418.974121,4397.820313,4366.282227,4345.384766,4393.846191,4162.94873,4326.025879,4225.384766,4283.333496,,,,,,,,,,,,,,,,,,,,,,,,,,,,,,,,,,,,,,,,,,,,,,,,,,,,,,,,,,,,,,,,,,,,,,
1720076094,18,0,4539.102539,4346.282227,4291.922852,4391.666504,4344.102539,4411.666504,4391.922852,4360.769043,4337.179688,4386.666504,4158.205078,4316.666504,4212.820313,4274.615234,,,,,,,,,,,,,,,,,,,,,,,,,,,,,,,,,,,,,,,,,,,,,,,,,,,,,,,,,,,,,,,,,,,,,,
1720076094,19,0,4542.307617,4340,4289.871582,4401.153809,4340.641113,4409.615234,4386.153809,4360,4328.333496,4383.589844,4153.846191,4315.128418,4210.641113,4278.461426,,,,,,,,,,,,,,,,,,,,,,,,,,,,,,,,,,,,,,,,,,,,,,,,,,,,,,,,,,,,,,,,,,,,,,
1720076094,20,0,4554.743652,4343.077148,4295.256348,4415.641113,4348.205078,4409.102539,4386.538574,4360.128418,4324.487305,4383.333496,4159.871582,4321.282227,4218.846191,4283.846191,,,,,,,,,,,,,,,,,,,,,,,,,,,,,,,,,,,,,,,,,,,,,,,,,,,,,,,,,,,,,,,,,,,,,,
1720076094,21,0,4557.692383,4341.794922,4295.512695,4407.307617,4348.205078,4407.307617,4387.820313,4353.589844,4323.717773,4382.436035,4168.461426,4320.641113,4220.512695,4278.846191,,,,,,,,,,,,,,,,,,,,,,,,,,,,,,,,,,,,,,,,,,,,,,,,,,,,,,,,,,,,,,,,,,,,,,
1720076094,22,0,4554.871582,4331.282227,4290.641113,4387.820313,4338.461426,4407.307617,4388.333496,4351.794922,4320.384766,4382.436035,4173.077148,4317.820313,4220.769043,4279.871582,,,,,,,,,,,,,,,,,,,,,,,,,,,,,,,,,,,,,,,,,,,,,,,,,,,,,,,,,,,,,,,,,,,,,,
1720076094,23,0,4553.461426,4330.769043,4290.641113,4391.410156,4335.769043,4401.922852,4390,4356.538574,4316.666504,4384.743652,4171.922852,4322.307617,4222.692383,4284.487305,,,,,,,,,,,,,,,,,,,,,,,,,,,,,,,,,,,,,,,,,,,,,,,,,,,,,,,,,,,,,,,,,,,,,,
1720076094,24,0,4556.410156,4340.769043,4296.922852,4406.282227,4340.256348,4391.666504,4387.436035,4349.230957,4318.461426,4389.487305,4169.102539,4322.820313,4218.333496,4279.871582,,,,,,,,,,,,,,,,,,,,,,,,,,,,,,,,,,,,,,,,,,,,,,,,,,,,,,,,,,,,,,,,,,,,,,
1720076094,25,0,4565,4345.897461,4310.256348,4407.436035,4341.410156,4396.666504,4385.256348,4346.666504,4325,4395.128418,4177.307617,4331.538574,4224.358887,4290.769043,,,,,,,,,,,,,,,,,,,,,,,,,,,,,,,,,,,,,,,,,,,,,,,,,,,,,,,,,,,,,,,,,,,,,,
1720076094,26,0,4574.358887,4344.871582,4325.384766,4414.230957,4348.205078,4412.820313,4390.128418,4356.025879,4333.461426,4397.436035,4190.769043,4347.563965,4235.641113,4308.077148,,,,,,,,,,,,,,,,,,,,,,,,,,,,,,,,,,,,,,,,,,,,,,,,,,,,,,,,,,,,,,,,,,,,,,
1720076094,27,0,4570.384766,4342.05127,4324.102539,4425.512695,4358.461426,4411.025879,4390.897461,4353.846191,4335.769043,4396.025879,4185,4342.307617,4228.717773,4299.358887,,,,,,,,,,,,,,,,,,,,,,,,,,,,,,,,,,,,,,,,,,,,,,,,,,,,,,,,,,,,,,,,,,,,,,
1720076094,28,0,4558.846191,4343.461426,4311.538574,4419.230957,4357.05127,4403.077148,4386.410156,4347.94873,4330.384766,4395.769043,4169.102539,4328.077148,4232.307617,4292.820313,,,,,,,,,,,,,,,,,,,,,,,,,,,,,,,,,,,,,,,,,,,,,,,,,,,,,,,,,,,,,,,,,,,,,,
1720076094,29,0,4554.871582,4351.794922,4309.487305,4410.769043,4350,4410.384766,4391.794922,4352.692383,4331.922852,4401.282227,4169.358887,4331.153809,4249.358887,4301.282227,,,,,,,,,,,,,,,,,,,,,,,,,,,,,,,,,,,,,,,,,,,,,,,,,,,,,,,,,,,,,,,,,,,,,,
1720076094,30,0,4557.94873,4353.974121,4311.794922,4413.589844,4348.461426,4410.897461,4397.692383,4352.94873,4341.922852,4406.410156,4175,4333.077148,4219.615234,4297.94873,,,,,,,,,,,,,,,,,,,,,,,,,,,,,,,,,,,,,,,,,,,,,,,,,,,,,,,,,,,,,,,,,,,,,,
1720076094,31,0,4563.461426,4347.563965,4312.05127,4414.230957,4349.358887,4401.153809,4391.153809,4349.871582,4344.487305,4404.358887,4171.922852,4325.384766,4164.487305,4293.333496,,,,,,,,,,,,,,,,,,,,,,,,,,,,,,,,,,,,,,,,,,,,,,,,,,,,,,,,,,,,,,,,,,,,,,
1720076094,32,0,4569.102539,4347.307617,4322.05127,4411.410156,4354.230957,4402.692383,4386.282227,4356.025879,4340,4400.897461,4172.692383,4330.384766,4155,4297.307617,3.763479,6.302806,2.28537,0.719662,0.437482,2.183033,0.795939,0.633374,0.052726,0.125345,20.652393,9.178725,1.945088,0.976379,0.354229,4.605054,2.317449,1.900205,0.410008,0.273322,1.951756,0.438778,0.431858,0.200736,0.145916,1.427627,0.256942,0.538955,0.119755,0.13877,1.101605,0.436618,0.295197,0.075112,0.104391,1.013378,0.519283,0.208147,0.036405,0.135473,2.572481,5.463489,0.599366,0.165306,0.168704,2.454889,5.784708,1.025882,0.26745,0.206535,5.315203,2.850262,1.573786,0.420793,0.214226,2.407064,3.074476,1.501244,0.231707,0.291574,2.89621,0.925854,0.56753,0.234337,0.135995,1.940826,3.290367,1.2067,0.344,0.204173
1720076094,33,0,4568.717773,4349.871582,4329.358887,4406.922852,4359.102539,4405.128418,4388.846191,4357.05127,4340,4400.384766,4178.333496,4339.743652,4165.384766,4286.025879,,,,,,,,,,,,,,,,,,,,,,,,,,,,,,,,,,,,,,,,,,,,,,,,,,,,,,,,,,,,,,,,,,,,,,
1720076094,34,0,4561.282227,4348.205078,4322.307617,4402.692383,4358.333496,4404.102539,4390.897461,4354.615234,4343.077148,4402.94873,4182.436035,4346.794922,4163.846191,4271.922852,,,,,,,,,,,,,,,,,,,,,,,,,,,,,,,,,,,,,,,,,,,,,,,,,,,,,,,,,,,,,,,,,,,,,,
1720076094,35,0,4556.538574,4346.025879,4322.436035,4410,4357.820313,4413.717773,4391.153809,4355.128418,4344.743652,4407.179688,4188.589844,4358.717773,4168.589844,4278.974121,,,,,,,,,,,,,,,,,,,,,,,,,,,,,,,,,,,,,,,,,,,,,,,,,,,,,,,,,,,,,,,,,,,,,,
1720076094,36,0,4555.256348,4343.333496,4326.025879,4408.077148,4350.256348,4414.102539,4383.461426,4350,4337.436035,4402.436035,4191.153809,4358.974121,4169.487305,4288.589844,,,,,,,,,,,,,,,,,,,,,,,,,,,,,,,,,,,,,,,,,,,,,,,,,,,,,,,,,,,,,,,,,,,,,,
1720076094,37,0,4553.077148,4340.769043,4321.666504,4392.436035,4342.307617,4399.487305,4371.025879,4347.05127,4330.128418,4396.153809,4184.487305,4350.897461,4162.179688,4288.461426,,,,,,,,,,,,,,,,,,,,,,,,,,,,,,,,,,,,,,,,,,,,,,,,,,,,,,,,,,,,,,,,,,,,,,
1720076094,38,0,4555.128418,4339.871582,4323.589844,4402.05127,4347.820313,4394.358887,4370.256348,4348.077148,4334.102539,4405.256348,4182.05127,4352.692383,4165.512695,4289.230957,,,,,,,,,,,,,,,,,,,,,,,,,,,,,,,,,,,,,,,,,,,,,,,,,,,,,,,,,,,,,,,,,,,,,,
1720076094,39,0,4554.102539,4339.615234,4328.589844,4417.563965,4352.820313,4397.05127,4373.974121,4346.666504,4340.256348,4414.871582,4186.153809,4355.384766,4171.153809,4292.94873,,,,,,,,,,,,,,,,,,,,,,,,,,,,,,,,,,,,,,,,,,,,,,,,,,,,,,,,,,,,,,,,,,,,,,
1720076094,40,0,4546.410156,4340.256348,4319.871582,4413.589844,4348.589844,4396.666504,4371.794922,4342.563965,4340.641113,4406.794922,4182.94873,4342.563965,4167.692383,4290.769043,,,,,,,,,,,,,,,,,,,,,,,,,,,,,,,,,,,,,,,,,,,,,,,,,,,,,,,,,,,,,,,,,,,,,,
1720076094,41,0,4542.05127,4338.974121,4310.128418,4419.871582,4349.230957,4398.333496,4370.641113,4342.436035,4333.461426,4395.256348,4172.692383,4330.897461,4165.512695,4285,,,,,,,,,,,,,,,,,,,,,,,,,,,,,,,,,,,,,,,,,,,,,,,,,,,,,,,,,,,,,,,,,,,,,,
1720076094,42,0,4541.153809,4337.179688,4310.897461,4429.358887,4356.922852,4399.871582,4375.256348,4345.897461,4324.871582,4393.589844,4161.153809,4329.615234,4163.846191,4280,,,,,,,,,,,,,,,,,,,,,,,,,,,,,,,,,,,,,,,,,,,,,,,,,,,,,,,,,,,,,,,,,,,,,,
1720076094,43,0,4537.179688,4337.307617,4313.717773,4422.307617,4357.820313,4399.102539,4380,4345.897461,4326.410156,4396.666504,4154.358887,4326.538574,4160.769043,4276.666504,,,,,,,,,,,,,,,,,,,,,,,,,,,,,,,,,,,,,,,,,,,,,,,,,,,,,,,,,,,,,,,,,,,,,,
1720076094,44,0,4537.820313,4340.128418,4317.820313,4427.436035,4355.641113,4401.410156,4383.717773,4344.102539,4339.230957,4399.487305,4162.179688,4328.333496,4162.820313,4280.512695,,,,,,,,,,,,,,,,,,,,,,,,,,,,,,,,,,,,,,,,,,,,,,,,,,,,,,,,,,,,,,,,,,,,,,
1720076094,45,0,4539.871582,4340.384766,4322.179688,4432.820313,4356.666504,4401.282227,4379.743652,4345.897461,4345.128418,4398.205078,4172.94873,4333.846191,4163.461426,4285,,,,,,,,,,,,,,,,,,,,,,,,,,,,,,,,,,,,,,,,,,,,,,,,,,,,,,,,,,,,,,,,,,,,,,
1720076094,46,0,4536.282227,4338.589844,4323.974121,4418.333496,4358.077148,4398.077148,4373.205078,4349.230957,4341.666504,4400.256348,4171.922852,4333.974121,4161.410156,4285.384766,,,,,,,,,,,,,,,,,,,,,,,,,,,,,,,,,,,,,,,,,,,,,,,,,,,,,,,,,,,,,,,,,,,,,,
1720076094,47,0,4533.846191,4340.641113,4325.128418,4417.94873,4355.512695,4398.717773,4377.05127,4348.974121,4342.563965,4408.846191,4166.538574,4334.102539,4167.94873,4284.871582,,,,,,,,,,,,,,,,,,,,,,,,,,,,,,,,,,,,,,,,,,,,,,,,,,,,,,,,,,,,,,,,,,,,,,
1720076094,48,0,4534.358887,4342.563965,4327.436035,4426.282227,4353.333496,4397.692383,4378.846191,4345.897461,4344.871582,4407.94873,4172.436035,4342.692383,4172.692383,4287.692383,3.198972,5.979656,2.166537,0.603011,0.355542,1.944172,0.986055,0.508583,0.049612,0.10099,14.800657,7.965154,1.594646,0.716869,0.263283,3.9582,2.384946,1.556186,0.419074,0.227319,1.680807,0.500338,0.360893,0.188998,0.123808,1.256303,0.304004,0.412534,0.121284,0.139631,0.949337,0.509076,0.215304,0.066945,0.10727,0.960192,0.508617,0.200921,0.033116,0.13341,2.232648,4.324027,0.663741,0.165742,0.164204,2.45746,4.683423,0.824355,0.270937,0.183913,4.751793,2.761918,1.21369,0.350598,0.203361,1.860315,3.286419,1.121021,0.2409,0.287572,2.356044,0.919159,0.410331,0.223353,0.134619,1.705007,3.351678,1.013385,0.358909,0.213685
1720076094,49,0,4535.128418,4340.769043,4330.769043,4420.256348,4356.282227,4392.692383,4371.794922,4342.179688,4342.436035,4400.641113,4181.410156,4350.128418,4167.563965,4305.256348,,,,,,,,,,,,,,,,,,,,,,,,,,,,,,,,,,,,,,,,,,,,,,,,,,,,,,,,,,,,,,,,,,,,,,
1720076094,50,0,4541.538574,4340.641113,4334.487305,4421.025879,4355.641113,4394.615234,4370,4342.94873,4339.487305,4403.077148,4177.692383,4349.358887,4165.256348,4332.563965,,,,,,,,,,,,,,,,,,,,,,,,,,,,,,,,,,,,,,,,,,,,,,,,,,,,,,,,,,,,,,,,,,,,,,
1720076094,51,0,4539.871582,4342.563965,4336.666504,4431.025879,4352.692383,4399.871582,4373.333496,4348.974121,4340.512695,4406.794922,4172.820313,4351.410156,4172.05127,4350.769043,,,,,,,,,,,,,,,,,,,,,,,,,,,,,,,,,,,,,,,,,,,,,,,,,,,,,,,,,,,,,,,,,,,,,,
1720076094,52,0,4523.333496,4342.307617,4336.922852,4432.05127,4355.897461,4394.230957,4373.717773,4346.025879,4341.410156,4408.589844,4182.179688,4354.615234,4175.641113,4352.307617,,,,,,,,,,,,,,,,,,,,,,,,,,,,,,,,,,,,,,,,,,,,,,,,,,,,,,,,,,,,,,,,,,,,,,
1720076094,53,0,4512.94873,4342.179688,4337.307617,4430.512695,4360.512695,4391.282227,4379.487305,4343.974121,4341.922852,4416.666504,4192.179688,4357.307617,4177.307617,4355.384766,,,,,,,,,,,,,,,,,,,,,,,,,,,,,,,,,,,,,,,,,,,,,,,,,,,,,,,,,,,,,,,,,,,,,,
1720076094,54,0,4514.871582,4342.436035,4335.769043,4432.307617,4358.077148,4391.666504,4384.230957,4351.410156,4343.333496,4413.846191,4181.410156,4358.589844,4179.615234,4359.871582,,,,,,,,,,,,,,,,,,,,,,,,,,,,,,,,,,,,,,,,,,,,,,,,,,,,,,,,,,,,,,,,,,,,,,
1720076094,55,0,4521.153809,4342.94873,4329.871582,4430.641113,4354.871582,4383.717773,4376.922852,4347.307617,4339.487305,4402.307617,4166.666504,4346.666504,4171.922852,4347.307617,,,,,,,,,,,,,,,,,,,,,,,,,,,,,,,,,,,,,,,,,,,,,,,,,,,,,,,,,,,,,,,,,,,,,,
1720076094,56,0,4532.05127,4343.589844,4326.666504,4419.743652,4356.666504,4385.384766,4374.487305,4341.153809,4335.256348,4405.512695,4170.641113,4338.077148,4165.897461,4338.205078,,,,,,,,,,,,,,,,,,,,,,,,,,,,,,,,,,,,,,,,,,,,,,,,,,,,,,,,,,,,,,,,,,,,,,
1720076094,57,0,4541.410156,4340.769043,4322.05127,4403.846191,4355.897461,4389.871582,4372.94873,4344.230957,4335.897461,4410.512695,4175.512695,4339.102539,4171.794922,4340.256348,,,,,,,,,,,,,,,,,,,,,,,,,,,,,,,,,,,,,,,,,,,,,,,,,,,,,,,,,,,,,,,,,,,,,,
1720076094,58,0,4539.615234,4340.769043,4314.871582,4402.94873,4352.563965,4382.692383,4361.922852,4343.461426,4337.436035,4403.461426,4169.230957,4331.794922,4173.846191,4335.128418,,,,,,,,,,,,,,,,,,,,,,,,,,,,,,,,,,,,,,,,,,,,,,,,,,,,,,,,,,,,,,,,,,,,,,
1720076094,59,0,4537.563965,4346.538574,4317.179688,4413.974121,4353.974121,4378.974121,4355.384766,4342.820313,4340.512695,4403.461426,4169.358887,4328.333496,4175.641113,4334.743652,,,,,,,,,,,,,,,,,,,,,,,,,,,,,,,,,,,,,,,,,,,,,,,,,,,,,,,,,,,,,,,,,,,,,,
1720076094,60,0,4544.358887,4347.563965,4327.692383,4414.743652,4352.307617,4381.410156,4356.922852,4347.307617,4343.205078,4413.589844,4182.307617,4345.256348,4189.743652,4348.205078,,,,,,,,,,,,,,,,,,,,,,,,,,,,,,,,,,,,,,,,,,,,,,,,,,,,,,,,,,,,,,,,,,,,,,
1720076094,61,0,4545.256348,4343.461426,4329.615234,4413.717773,4343.717773,4374.743652,4358.717773,4345.512695,4342.179688,4415,4188.846191,4355,4195.128418,4347.692383,,,,,,,,,,,,,,,,,,,,,,,,,,,,,,,,,,,,,,,,,,,,,,,,,,,,,,,,,,,,,,,,,,,,,,
1720076094,62,0,4538.717773,4341.410156,4323.461426,4417.94873,4341.282227,4374.871582,4363.461426,4343.589844,4338.077148,4406.922852,4185.512695,4348.589844,4184.358887,4337.307617,,,,,,,,,,,,,,,,,,,,,,,,,,,,,,,,,,,,,,,,,,,,,,,,,,,,,,,,,,,,,,,,,,,,,,
1720076094,63,0,4535.512695,4340.769043,4326.538574,4419.487305,4352.820313,4388.717773,4370.641113,4348.974121,4333.589844,4404.487305,4185,4348.717773,4180.256348,4342.820313,,,,,,,,,,,,,,,,,,,,,,,,,,,,,,,,,,,,,,,,,,,,,,,,,,,,,,,,,,,,,,,,,,,,,,
1720076094,64,0,4539.230957,4344.358887,4335.641113,4424.102539,4365,4392.692383,4371.282227,4349.487305,4331.282227,4408.846191,4186.025879,4353.846191,4182.307617,4348.333496,3.11524,5.398445,2.006328,0.49767,0.296124,1.746663,1.175983,0.39036,0.050409,0.085436,9.264434,6.875434,1.221183,0.478589,0.184684,3.337765,2.576375,1.233475,0.456448,0.202023,1.725681,0.660579,0.311616,0.179416,0.110575,1.160615,0.414675,0.323781,0.123174,0.146394,0.791378,0.602824,0.138014,0.065632,0.113118,0.826433,0.48005,0.188055,0.033851,0.129247,2.100656,3.093009,0.70306,0.184609,0.160635,2.600281,3.404928,0.667154,0.285344,0.16348,4.192575,2.788763,0.874327,0.322845,0.204276,1.721488,3.544233,0.779679,0.272463,0.292036,1.895248,1.08691,0.322235,0.245952,0.137261,1.857726,3.437549,0.84296,0.398504,0.234422
1720076094,65,0,4541.025879,4348.205078,4339.743652,4427.692383,4367.179688,4392.436035,4369.743652,4349.358887,4333.333496,4411.282227,4181.538574,4358.077148,4186.282227,4344.743652,,,,,,,,,,,,,,,,,,,,,,,,,,,,,,,,,,,,,,,,,,,,,,,,,,,,,,,,,,,,,,,,,,,,,,
1720076094,66,0,4538.205078,4345.641113,4339.358887,4423.333496,4366.538574,4393.205078,4371.410156,4352.692383,4338.333496,4410.384766,4178.589844,4358.333496,4187.692383,4343.846191,,,,,,,,,,,,,,,,,,,,,,,,,,,,,,,,,,,,,,,,,,,,,,,,,,,,,,,,,,,,,,,,,,,,,,
1720076094,67,0,4536.153809,4343.717773,4338.589844,4422.179688,4370.897461,4389.871582,4369.743652,4351.538574,4340,4410.512695,4182.563965,4352.179688,4183.077148,4346.666504,,,,,,,,,,,,,,,,,,,,,,,,,,,,,,,,,,,,,,,,,,,,,,,,,,,,,,,,,,,,,,,,,,,,,,
1720076094,68,0,4535.128418,4348.589844,4340.641113,4427.307617,4375.641113,4388.205078,4363.461426,4347.05127,4339.487305,4413.333496,4186.410156,4351.666504,4183.205078,4347.94873,,,,,,,,,,,,,,,,,,,,,,,,,,,,,,,,,,,,,,,,,,,,,,,,,,,,,,,,,,,,,,,,,,,,,,
1720076094,69,0,4536.794922,4356.025879,4342.05127,4432.05127,4371.794922,4388.077148,4358.589844,4342.94873,4340.128418,4417.436035,4185.512695,4356.922852,4191.282227,4350.384766,,,,,,,,,,,,,,,,,,,,,,,,,,,,,,,,,,,,,,,,,,,,,,,,,,,,,,,,,,,,,,,,,,,,,,
1720076094,70,0,4536.794922,4356.025879,4340.512695,4427.05127,4367.307617,4387.94873,4358.974121,4344.358887,4337.820313,4416.153809,4180.384766,4354.230957,4193.333496,4353.846191,,,,,,,,,,,,,,,,,,,,,,,,,,,,,,,,,,,,,,,,,,,,,,,,,,,,,,,,,,,,,,,,,,,,,,
1720076094,71,0,4537.179688,4350.384766,4338.589844,4417.94873,4373.846191,4388.461426,4356.410156,4345.384766,4337.436035,4409.871582,4178.461426,4347.820313,4187.563965,4352.563965,,,,,,,,,,,,,,,,,,,,,,,,,,,,,,,,,,,,,,,,,,,,,,,,,,,,,,,,,,,,,,,,,,,,,,
1720076094,72,0,4539.487305,4350.384766,4340.769043,4413.846191,4376.025879,4390.641113,4355.256348,4346.025879,4344.615234,4411.794922,4182.436035,4352.563965,4189.102539,4355,,,,,,,,,,,,,,,,,,,,,,,,,,,,,,,,,,,,,,,,,,,,,,,,,,,,,,,,,,,,,,,,,,,,,,
1720076094,73,0,4535.256348,4354.102539,4343.589844,4418.717773,4368.589844,4390.128418,4360.769043,4350.641113,4351.666504,4415.641113,4188.589844,4361.538574,4196.794922,4361.282227,,,,,,,,,,,,,,,,,,,,,,,,,,,,,,,,,,,,,,,,,,,,,,,,,,,,,,,,,,,,,,,,,,,,,,
1720076094,74,0,4535.769043,4351.794922,4342.436035,4425.384766,4361.153809,4383.333496,4362.563965,4353.846191,4353.077148,4414.615234,4195.384766,4365.384766,4204.102539,4364.871582,,,,,,,,,,,,,,,,,,,,,,,,,,,,,,,,,,,,,,,,,,,,,,,,,,,,,,,,,,,,,,,,,,,,,,
1720076094,75,0,4539.230957,4348.589844,4343.077148,4428.461426,4359.102539,4378.077148,4363.461426,4354.230957,4354.615234,4423.077148,4198.589844,4369.102539,4205.897461,4363.461426,,,,,,,,,,,,,,,,,,,,,,,,,,,,,,,,,,,,,,,,,,,,,,,,,,,,,,,,,,,,,,,,,,,,,,
1720076094,76,0,4535,4352.05127,4346.153809,4429.615234,4358.717773,4381.410156,4368.205078,4356.410156,4353.077148,4428.205078,4198.205078,4369.358887,4202.820313,4357.94873,,,,,,,,,,,,,,,,,,,,,,,,,,,,,,,,,,,,,,,,,,,,,,,,,,,,,,,,,,,,,,,,,,,,,,
1720076094,77,0,4527.563965,4354.102539,4343.205078,4429.487305,4357.307617,4383.717773,4368.333496,4354.487305,4344.102539,4415,4199.615234,4364.230957,4200.897461,4355.512695,,,,,,,,,,,,,,,,,,,,,,,,,,,,,,,,,,,,,,,,,,,,,,,,,,,,,,,,,,,,,,,,,,,,,,
1720076094,78,0,4527.307617,4354.102539,4338.846191,4432.307617,4361.794922,4384.487305,4367.820313,4349.615234,4339.487305,4410.128418,4200.256348,4363.589844,4202.179688,4362.436035,,,,,,,,,,,,,,,,,,,,,,,,,,,,,,,,,,,,,,,,,,,,,,,,,,,,,,,,,,,,,,,,,,,,,,
1720076094,79,0,4534.102539,4358.205078,4345.128418,4434.102539,4373.205078,4389.102539,4371.794922,4355.512695,4344.743652,4412.05127,4197.05127,4370.384766,4206.794922,4372.179688,,,,,,,,,,,,,,,,,,,,,,,,,,,,,,,,,,,,,,,,,,,,,,,,,,,,,,,,,,,,,,,,,,,,,,
1720076094,80,0,4525.897461,4352.94873,4341.666504,4420.256348,4374.615234,4381.153809,4362.692383,4351.794922,4342.692383,4377.820313,4181.666504,4361.282227,4198.077148,4359.230957,3.592993,4.73996,1.836762,0.428939,0.269257,1.525855,1.318283,0.304718,0.056406,0.083627,5.166077,6.065786,0.924424,0.32648,0.134916,2.911786,2.844564,0.977534,0.501731,0.203395,1.771886,0.847095,0.287624,0.177806,0.108908,1.069679,0.549414,0.281072,0.124244,0.156496,0.621481,0.705358,0.086981,0.072511,0.120203,0.677943,0.438917,0.175864,0.03863,0.122897,1.949296,2.078298,0.717299,0.214254,0.158735,2.720454,2.306055,0.598878,0.308685,0.15171,3.521007,2.972659,0.622721,0.334557,0.215077,1.717069,3.835996,0.545688,0.312591,0.300086,1.518054,1.51278,0.340888,0.313011,0.151652,2.258785,3.562076,0.71197,0.452113,0.261952
1720076094,81,0,4497.820313,4333.974121,4313.461426,4394.487305,4358.077148,4363.333496,4345.128418,4333.717773,4327.563965,4336.538574,4156.282227,4330.512695,4173.846191,4326.666504,,,,,,,,,,,,,,,,,,,,,,,,,,,,,,,,,,,,,,,,,,,,,,,,,,,,,,,,,,,,,,,,,,,,,,
1720076094,82,0,4484.230957,4323.717773,4300.641113,4380.769043,4349.871582,4364.487305,4344.230957,4331.282227,4319.230957,4350.256348,4148.077148,4322.563965,4166.666504,4321.025879,,,,,,,,,,,,,,,,,,,,,,,,,,,,,,,,,,,,,,,,,,,,,,,,,,,,,,,,,,,,,,,,,,,,,,
1720076094,83,0,4499.230957,4333.205078,4320.641113,4395.769043,4361.410156,4376.410156,4353.589844,4335,4333.461426,4387.307617,4166.538574,4340.128418,4181.025879,4340.384766,,,,,,,,,,,,,,,,,,,,,,,,,,,,,,,,,,,,,,,,,,,,,,,,,,,,,,,,,,,,,,,,,,,,,,
1720076094,84,0,4517.179688,4345.384766,4340.256348,4413.846191,4369.358887,4379.871582,4361.538574,4335.897461,4349.871582,4398.846191,4181.025879,4350.384766,4190.769043,4348.461426,,,,,,,,,,,,,,,,,,,,,,,,,,,,,,,,,,,,,,,,,,,,,,,,,,,,,,,,,,,,,,,,,,,,,,
1720076094,85,0,4517.94873,4348.205078,4342.820313,4402.692383,4370,4378.846191,4370.128418,4343.846191,4352.436035,4399.487305,4182.692383,4353.077148,4193.205078,4346.153809,,,,,,,,,,,,,,,,,,,,,,,,,,,,,,,,,,,,,,,,,,,,,,,,,,,,,,,,,,,,,,,,,,,,,,
1720076094,86,0,4508.205078,4342.563965,4331.538574,4373.974121,4368.205078,4375.128418,4371.538574,4343.205078,4352.179688,4397.436035,4177.05127,4349.871582,4190.769043,4339.358887,,,,,,,,,,,,,,,,,,,,,,,,,,,,,,,,,,,,,,,,,,,,,,,,,,,,,,,,,,,,,,,,,,,,,,
1720076094,87,0,4508.077148,4339.102539,4323.077148,4372.307617,4365.897461,4373.077148,4370.769043,4335.384766,4348.077148,4396.025879,4173.077148,4347.307617,4189.871582,4333.717773,,,,,,,,,,,,,,,,,,,,,,,,,,,,,,,,,,,,,,,,,,,,,,,,,,,,,,,,,,,,,,,,,,,,,,
1720076094,88,0,4538.589844,4353.589844,4348.077148,4406.025879,4378.846191,4390.641113,4384.615234,4352.436035,4343.077148,4418.846191,4203.717773,4376.025879,4211.410156,4356.666504,,,,,,,,,,,,,,,,,,,,,,,,,,,,,,,,,,,,,,,,,,,,,,,,,,,,,,,,,,,,,,,,,,,,,,
1720076094,89,0,4568.589844,4376.282227,4387.179688,4431.666504,4405.384766,4412.05127,4400,4372.179688,4348.846191,4449.230957,4248.974121,4415.769043,4236.666504,4387.563965,,,,,,,,,,,,,,,,,,,,,,,,,,,,,,,,,,,,,,,,,,,,,,,,,,,,,,,,,,,,,,,,,,,,,,
1720076094,90,0,4571.153809,4383.461426,4397.179688,4437.436035,4415.384766,4415.128418,4401.153809,4369.615234,4357.820313,4453.333496,4257.563965,4424.487305,4241.025879,4392.94873,,,,,,,,,,,,,,,,,,,,,,,,,,,,,,,,,,,,,,,,,,,,,,,,,,,,,,,,,,,,,,,,,,,,,,
1720076094,91,0,4568.974121,4378.717773,4393.205078,4444.743652,4403.846191,4409.102539,4397.179688,4365.512695,4357.692383,4446.025879,4250.128418,4423.589844,4240.512695,4389.871582,,,,,,,,,,,,,,,,,,,,,,,,,,,,,,,,,,,,,,,,,,,,,,,,,,,,,,,,,,,,,,,,,,,,,,
1720076094,92,0,4574.615234,4378.974121,4398.846191,4449.615234,4394.743652,4401.153809,4390.128418,4363.205078,4355,4444.358887,4248.846191,4422.307617,4240.384766,4377.179688,,,,,,,,,,,,,,,,,,,,,,,,,,,,,,,,,,,,,,,,,,,,,,,,,,,,,,,,,,,,,,,,,,,,,,
1720076094,93,0,4573.333496,4381.410156,4393.461426,4440.512695,4396.666504,4398.717773,4384.487305,4363.077148,4355.641113,4443.974121,4241.538574,4410.641113,4232.563965,4351.794922,,,,,,,,,,,,,,,,,,,,,,,,,,,,,,,,,,,,,,,,,,,,,,,,,,,,,,,,,,,,,,,,,,,,,,
1720076094,94,0,4562.820313,4377.179688,4379.358887,4429.102539,4401.922852,4408.846191,4386.666504,4363.846191,4358.461426,4443.589844,4234.871582,4405.384766,4224.871582,4343.461426,,,,,,,,,,,,,,,,,,,,,,,,,,,,,,,,,,,,,,,,,,,,,,,,,,,,,,,,,,,,,,,,,,,,,,
1720076094,95,0,4554.358887,4373.333496,4376.922852,4427.563965,4401.025879,4416.538574,4382.563965,4357.94873,4360.769043,4439.102539,4237.692383,4406.282227,4221.282227,4348.077148,,,,,,,,,,,,,,,,,,,,,,,,,,,,,,,,,,,,,,,,,,,,,,,,,,,,,,,,,,,,,,,,,,,,,,
1720076094,96,0,4546.666504,4370.897461,4376.282227,4431.153809,4396.153809,4410.128418,4372.94873,4353.846191,4356.538574,4435.641113,4233.846191,4397.179688,4220.384766,4341.025879,4.394864,4.130566,1.661778,0.405949,0.267237,1.432853,1.363506,0.256465,0.066309,0.093631,3.134242,5.458289,0.74616,0.275636,0.115192,2.964218,3.098468,0.810418,0.532352,0.22974,1.996253,0.985529,0.285839,0.188156,0.117084,1.034195,0.663515,0.283011,0.126066,0.166925,0.555081,0.799923,0.081487,0.086363,0.125867,0.529867,0.39324,0.169366,0.045978,0.114746,2.047096,1.434038,0.705905,0.245793,0.158524,2.771305,1.582424,0.602771,0.334381,0.150545,3.036267,3.262598,0.472052,0.367086,0.230141,1.985168,4.112545,0.446803,0.34047,0.304939,1.673208,2.189242,0.479674,0.421236,0.183051,2.816501,3.725636,0.627678,0.499696,0.288209
1720076094,97,0,4540.128418,4368.589844,4367.94873,4433.205078,4401.410156,4406.025879,4372.436035,4355.897461,4357.436035,4443.077148,4221.538574,4385.384766,4218.077148,4334.743652,,,,,,,,,,,,,,,,,,,,,,,,,,,,,,,,,,,,,,,,,,,,,,,,,,,,,,,,,,,,,,,,,,,,,,
1720076094,98,0,4534.871582,4365.512695,4361.794922,4423.461426,4405,4411.794922,4366.922852,4356.538574,4363.589844,4442.94873,4215.769043,4384.230957,4213.974121,4338.205078,,,,,,,,,,,,,,,,,,,,,,,,,,,,,,,,,,,,,,,,,,,,,,,,,,,,,,,,,,,,,,,,,,,,,,
