Timestamp,EEG.Counter,EEG.Interpolated,EEG.AF3,EEG.F7,EEG.F3,EEG.FC5,EEG.T7,EEG.P7,EEG.O1,EEG.O2,EEG.P8,EEG.T8,EEG.FC6,EEG.F4,EEG.F8,EEG.AF4,POW.AF3.Theta,POW.AF3.Alpha,POW.AF3.BetaL,POW.AF3.BetaH,POW.AF3.Gamma,POW.F7.Theta,POW.F7.Alpha,POW.F7.BetaL,POW.F7.BetaH,POW.F7.Gamma,POW.F3.Theta,POW.F3.Alpha,POW.F3.BetaL,POW.F3.BetaH,POW.F3.Gamma,POW.FC5.Theta,POW.FC5.Alpha,POW.FC5.BetaL,POW.FC5.BetaH,POW.FC5.Gamma,POW.T7.Theta,POW.T7.Alpha,POW.T7.BetaL,POW.T7.BetaH,POW.T7.Gamma,POW.P7.Theta,POW.P7.Alpha,POW.P7.BetaL,POW.P7.BetaH,POW.P7.Gamma,POW.O1.Theta,POW.O1.Alpha,POW.O1.BetaL,POW.O1.BetaH,POW.O1.Gamma,POW.O2.Theta,POW.O2.Alpha,POW.O2.BetaL,POW.O2.BetaH,POW.O2.Gamma,POW.P8.Theta,POW.P8.Alpha,POW.P8.BetaL,POW.P8.BetaH,POW.P8.Gamma,POW.T8.Theta,POW.T8.Alpha,POW.T8.BetaL,POW.T8.BetaH,POW.T8.Gamma,POW.FC6.Theta,POW.FC6.Alpha,POW.FC6.BetaL,POW.FC6.BetaH,POW.FC6.Gamma,POW.F4.Theta,POW.F4.Alpha,POW.F4.BetaL,POW.F4.BetaH,POW.F4.Gamma,POW.F8.Theta,POW.F8.Alpha,POW.F8.BetaL,POW.F8.BetaH,POW.F8.Gamma,POW.AF4.Theta,POW.AF4.Alpha,POW.AF4.BetaL,POW.AF4.BetaH,POW.AF4.Gamma
1720081472,65,0,4343.717773,4357.436035,4303.717773,4343.974121,4376.410156,4354.487305,4354.102539,4580.128418,4251.153809,4620.384766,4338.717773,4497.94873,4317.05127,4284.487305,,,,,,,,,,,,,,,,,,,,,,,,,,,,,,,,,,,,,,,,,,,,,,,,,,,,,,,,,,,,,,,,,,,,,,
1720081472,66,0,4341.282227,4353.974121,4307.436035,4342.563965,4381.282227,4354.102539,4351.410156,4566.282227,4264.230957,4616.282227,4341.666504,4495,4324.487305,4287.820313,,,,,,,,,,,,,,,,,,,,,,,,,,,,,,,,,,,,,,,,,,,,,,,,,,,,,,,,,,,,,,,,,,,,,,
1720081472,67,0,4328.333496,4343.333496,4309.102539,4343.333496,4378.846191,4356.153809,4350.128418,4566.410156,4268.077148,4609.743652,4351.410156,4499.358887,4329.615234,4325,,,,,,,,,,,,,,,,,,,,,,,,,,,,,,,,,,,,,,,,,,,,,,,,,,,,,,,,,,,,,,,,,,,,,,
1720081472,68,0,4321.666504,4338.974121,4298.333496,4342.307617,4373.717773,4356.922852,4356.282227,4551.410156,4265.769043,4592.563965,4331.282227,4485.384766,4304.358887,4297.436035,,,,,,,,,,,,,,,,,,,,,,,,,,,,,,,,,,,,,,,,,,,,,,,,,,,,,,,,,,,,,,,,,,,,,,
1720081472,69,0,4326.410156,4336.410156,4289.102539,4341.153809,4376.153809,4361.025879,4372.05127,4538.974121,4278.846191,4583.717773,4310.384766,4471.538574,4286.794922,4253.333496,,,,,,,,,,,,,,,,,,,,,,,,,,,,,,,,,,,,,,,,,,,,,,,,,,,,,,,,,,,,,,,,,,,,,,
1720081472,70,0,4312.179688,4323.461426,4281.025879,4343.717773,4370.769043,4364.743652,4382.05127,4555.128418,4293.717773,4582.05127,4314.358887,4468.846191,4292.563965,4260,,,,,,,,,,,,,,,,,,,,,,,,,,,,,,,,,,,,,,,,,,,,,,,,,,,,,,,,,,,,,,,,,,,,,,
1720081472,71,0,4297.436035,4317.692383,4266.410156,4342.179688,4362.05127,4356.025879,4376.282227,4530.769043,4297.436035,4571.922852,4312.563965,4454.230957,4292.307617,4253.974121,,,,,,,,,,,,,,,,,,,,,,,,,,,,,,,,,,,,,,,,,,,,,,,,,,,,,,,,,,,,,,,,,,,,,,
1720081472,72,0,4310.897461,4326.282227,4277.94873,4339.487305,4365.641113,4352.307617,4367.179688,4511.922852,4296.666504,4562.307617,4315.256348,4464.358887,4293.333496,4237.94873,,,,,,,,,,,,,,,,,,,,,,,,,,,,,,,,,,,,,,,,,,,,,,,,,,,,,,,,,,,,,,,,,,,,,,
1720081472,73,0,4332.05127,4339.358887,4305.512695,4343.974121,4374.615234,4359.102539,4363.589844,4541.922852,4294.358887,4561.794922,4332.563965,4499.615234,4300.641113,4260,,,,,,,,,,,,,,,,,,,,,,,,,,,,,,,,,,,,,,,,,,,,,,,,,,,,,,,,,,,,,,,,,,,,,,
1720081472,74,0,4344.230957,4351.153809,4303.717773,4344.487305,4381.794922,4356.025879,4358.589844,4519.871582,4297.179688,4553.205078,4338.846191,4495,4311.153809,4280.641113,,,,,,,,,,,,,,,,,,,,,,,,,,,,,,,,,,,,,,,,,,,,,,,,,,,,,,,,,,,,,,,,,,,,,,
1720081472,75,0,4350.641113,4354.102539,4299.102539,4343.077148,4382.05127,4353.846191,4354.743652,4502.436035,4304.487305,4541.666504,4342.05127,4481.922852,4325,4285.897461,,,,,,,,,,,,,,,,,,,,,,,,,,,,,,,,,,,,,,,,,,,,,,,,,,,,,,,,,,,,,,,,,,,,,,
1720081472,76,0,4352.436035,4352.05127,4303.205078,4345,4378.717773,4355.384766,4360,4515.897461,4314.102539,4539.358887,4351.410156,4487.692383,4335.769043,4311.282227,,,,,,,,,,,,,,,,,,,,,,,,,,,,,,,,,,,,,,,,,,,,,,,,,,,,,,,,,,,,,,,,,,,,,,
1720081472,77,0,4345.128418,4349.230957,4296.410156,4344.743652,4379.102539,4355.512695,4365,4501.153809,4317.436035,4533.333496,4346.922852,4482.307617,4333.461426,4322.94873,17.163811,4.082223,1.355293,1.669492,1.040486,5.26319,1.316135,0.283854,0.644329,0.407455,2.851354,0.602254,0.490595,0.387765,0.281372,0.025762,0.040927,0.015818,0.017842,0.079579,0.345469,0.461903,0.321676,0.218651,0.172022,0.669485,0.383628,0.166315,0.161233,0.099765,0.967117,0.451564,0.608919,0.33131,0.138922,0.756975,0.606241,0.234246,0.222061,1.524977,1.501476,0.563815,0.958248,0.549042,0.383691,1.99965,0.914463,0.618133,0.336411,0.229084,4.459755,1.876462,1.761691,0.7704,0.688078,5.939915,1.315593,0.941002,0.631867,0.705635,6.508303,2.638031,2.975727,0.88761,0.849601,25.132025,8.995112,4.820349,5.689271,3.885649
1720081472,78,0,4338.205078,4348.461426,4299.871582,4346.794922,4381.666504,4365.512695,4371.538574,4493.461426,4320.512695,4525.897461,4333.077148,4478.589844,4318.846191,4301.794922,,,,,,,,,,,,,,,,,,,,,,,,,,,,,,,,,,,,,,,,,,,,,,,,,,,,,,,,,,,,,,,,,,,,,,
1720081472,79,0,4346.410156,4349.358887,4302.179688,4347.436035,4385.128418,4376.153809,4385.512695,4490,4324.615234,4518.974121,4323.205078,4472.307617,4309.487305,4289.743652,,,,,,,,,,,,,,,,,,,,,,,,,,,,,,,,,,,,,,,,,,,,,,,,,,,,,,,,,,,,,,,,,,,,,,
1720081472,80,0,4343.461426,4344.358887,4290.384766,4345.256348,4386.538574,4371.922852,4391.538574,4485.384766,4324.102539,4508.717773,4315,4461.666504,4310.512695,4288.589844,,,,,,,,,,,,,,,,,,,,,,,,,,,,,,,,,,,,,,,,,,,,,,,,,,,,,,,,,,,,,,,,,,,,,,
1720081472,81,0,4325.641113,4338.461426,4287.692383,4344.743652,4382.179688,4360.384766,4385.769043,4480.641113,4330,4503.205078,4311.666504,4462.692383,4306.666504,4264.102539,,,,,,,,,,,,,,,,,,,,,,,,,,,,,,,,,,,,,,,,,,,,,,,,,,,,,,,,,,,,,,,,,,,,,,
1720081472,82,0,4328.077148,4339.487305,4295.128418,4344.487305,4376.282227,4361.922852,4378.846191,4470.128418,4335.384766,4502.179688,4312.563965,4473.077148,4292.820313,4228.589844,,,,,,,,,,,,,,,,,,,,,,,,,,,,,,,,,,,,,,,,,,,,,,,,,,,,,,,,,,,,,,,,,,,,,,
1720081472,83,0,4341.153809,4342.692383,4302.563965,4345.384766,4376.282227,4365.641113,4370.897461,4464.615234,4331.794922,4489.743652,4319.230957,4480.384766,4295.384766,4229.358887,,,,,,,,,,,,,,,,,,,,,,,,,,,,,,,,,,,,,,,,,,,,,,,,,,,,,,,,,,,,,,,,,,,,,,
1720081472,84,0,4342.820313,4345.128418,4307.05127,4348.077148,4383.717773,4356.666504,4365.384766,4465.897461,4329.358887,4472.05127,4330.128418,4478.846191,4315.641113,4266.282227,,,,,,,,,,,,,,,,,,,,,,,,,,,,,,,,,,,,,,,,,,,,,,,,,,,,,,,,,,,,,,,,,,,,,,
1720081472,85,0,4344.743652,4351.410156,4303.589844,4348.333496,4391.025879,4353.333496,4372.307617,4447.820313,4338.333496,4470.897461,4330.256348,4469.743652,4321.282227,4294.230957,,,,,,,,,,,,,,,,,,,,,,,,,,,,,,,,,,,,,,,,,,,,,,,,,,,,,,,,,,,,,,,,,,,,,,
1720081472,86,0,4351.282227,4356.922852,4308.205078,4346.666504,4388.461426,4365.512695,4375.512695,4453.077148,4349.487305,4477.94873,4328.974121,4473.974121,4323.077148,4296.538574,,,,,,,,,,,,,,,,,,,,,,,,,,,,,,,,,,,,,,,,,,,,,,,,,,,,,,,,,,,,,,,,,,,,,,
1720081472,87,0,4352.436035,4352.692383,4310.769043,4345.641113,4380.256348,4370.384766,4367.05127,4476.538574,4350,4471.922852,4335.512695,4480.256348,4328.717773,4284.871582,,,,,,,,,,,,,,,,,,,,,,,,,,,,,,,,,,,,,,,,,,,,,,,,,,,,,,,,,,,,,,,,,,,,,,
1720081472,88,0,4345.897461,4346.153809,4293.846191,4341.410156,4381.153809,4360,4367.179688,4432.179688,4342.820313,4451.794922,4327.692383,4456.025879,4320.512695,4282.563965,,,,,,,,,,,,,,,,,,,,,,,,,,,,,,,,,,,,,,,,,,,,,,,,,,,,,,,,,,,,,,,,,,,,,,
1720081472,89,0,4326.153809,4340.256348,4293.974121,4343.461426,4385.256348,4367.307617,4385.641113,4419.230957,4340.256348,4444.102539,4316.410156,4450.256348,4308.846191,4286.538574,,,,,,,,,,,,,,,,,,,,,,,,,,,,,,,,,,,,,,,,,,,,,,,,,,,,,,,,,,,,,,,,,,,,,,
1720081472,90,0,4323.205078,4338.846191,4304.615234,4346.153809,4387.94873,4379.871582,4403.333496,4446.794922,4345.641113,4445.128418,4321.666504,4466.282227,4315,4269.230957,,,,,,,,,,,,,,,,,,,,,,,,,,,,,,,,,,,,,,,,,,,,,,,,,,,,,,,,,,,,,,,,,,,,,,
1720081472,91,0,4350,4344.743652,4295.897461,4342.563965,4387.563965,4371.666504,4399.487305,4422.05127,4342.820313,4433.461426,4323.333496,4453.333496,4322.05127,4269.102539,,,,,,,,,,,,,,,,,,,,,,,,,,,,,,,,,,,,,,,,,,,,,,,,,,,,,,,,,,,,,,,,,,,,,,
1720081472,92,0,4360.512695,4349.615234,4292.179688,4345.897461,4379.743652,4363.974121,4385.384766,4414.871582,4339.871582,4424.102539,4319.102539,4445.769043,4312.820313,4296.153809,,,,,,,,,,,,,,,,,,,,,,,,,,,,,,,,,,,,,,,,,,,,,,,,,,,,,,,,,,,,,,,,,,,,,,
1720081472,93,0,4340.641113,4344.358887,4295,4347.307617,4377.94873,4362.563965,4379.743652,4420,4346.410156,4422.436035,4314.487305,4452.05127,4302.820313,4278.846191,9.136811,3.817998,1.008053,1.305862,0.953178,2.809699,1.197153,0.229501,0.519973,0.367311,1.896698,0.676134,0.552546,0.426203,0.255193,0.03474,0.048914,0.019016,0.020632,0.083334,0.37839,0.460309,0.316784,0.207404,0.162125,0.489547,0.389772,0.169055,0.180211,0.096578,0.830339,0.586987,0.665065,0.397336,0.148252,4.161255,2.010233,0.707637,0.465046,1.547916,2.650851,1.033754,1.156838,0.619679,0.378035,7.873687,3.129763,1.365435,0.704669,0.300932,3.368926,1.750902,1.539569,0.800352,0.705599,4.576479,1.401414,1.050826,0.748954,0.69155,3.890871,2.117934,2.619026,0.797345,0.888411,12.238658,8.855862,4.63342,5.342452,3.837602
1720081472,94,0,4326.666504,4338.077148,4297.05127,4343.461426,4388.846191,4365.128418,4381.282227,4405.512695,4348.974121,4416.538574,4312.692383,4456.794922,4302.307617,4241.025879,,,,,,,,,,,,,,,,,,,,,,,,,,,,,,,,,,,,,,,,,,,,,,,,,,,,,,,,,,,,,,,,,,,,,,
1720081472,95,0,4349.230957,4354.230957,4313.205078,4346.794922,4403.974121,4373.205078,4381.922852,4411.025879,4352.436035,4411.153809,4324.743652,4472.05127,4312.563965,4249.871582,,,,,,,,,,,,,,,,,,,,,,,,,,,,,,,,,,,,,,,,,,,,,,,,,,,,,,,,,,,,,,,,,,,,,,
1720081472,96,0,4382.820313,4377.563965,4325.384766,4349.358887,4408.333496,4373.717773,4381.410156,4412.692383,4363.846191,4410.897461,4337.05127,4476.282227,4332.307617,4288.846191,,,,,,,,,,,,,,,,,,,,,,,,,,,,,,,,,,,,,,,,,,,,,,,,,,,,,,,,,,,,,,,,,,,,,,
1720081472,97,0,4375.641113,4370.769043,4311.410156,4343.846191,4400.256348,4365.512695,4379.358887,4389.743652,4368.205078,4405.256348,4326.410156,4453.205078,4333.333496,4299.871582,,,,,,,,,,,,,,,,,,,,,,,,,,,,,,,,,,,,,,,,,,,,,,,,,,,,,,,,,,,,,,,,,,,,,,
1720081473,98,0,4348.205078,4348.333496,4297.820313,4344.615234,4391.538574,4364.615234,4370.641113,4408.461426,4363.461426,4400.384766,4309.615234,4444.615234,4312.179688,4286.922852,,,,,,,,,,,,,,,,,,,,,,,,,,,,,,,,,,,,,,,,,,,,,,,,,,,,,,,,,,,,,,,,,,,,,,
1720081473,99,0,4351.666504,4349.230957,4294.102539,4346.922852,4391.410156,4366.922852,4370.512695,4417.94873,4369.102539,4399.230957,4315,4449.615234,4315.128418,4290.641113,,,,,,,,,,,,,,,,,,,,,,,,,,,,,,,,,,,,,,,,,,,,,,,,,,,,,,,,,,,,,,,,,,,,,,
1720081473,100,0,4359.615234,4357.307617,4291.153809,4343.589844,4395.641113,4367.820313,4387.94873,4378.461426,4372.94873,4389.358887,4326.282227,4439.487305,4333.974121,4301.538574,,,,,,,,,,,,,,,,,,,,,,,,,,,,,,,,,,,,,,,,,,,,,,,,,,,,,,,,,,,,,,,,,,,,,,
1720081473,101,0,4343.205078,4345,4291.922852,4346.410156,4393.717773,4374.743652,4402.563965,4382.436035,4357.692383,4375.256348,4310.897461,4429.615234,4315.769043,4275.512695,,,,,,,,,,,,,,,,,,,,,,,,,,,,,,,,,,,,,,,,,,,,,,,,,,,,,,,,,,,,,,,,,,,,,,
1720081473,102,0,4336.282227,4337.05127,4287.820313,4347.563965,4392.307617,4374.871582,4402.820313,4387.05127,4346.153809,4365.384766,4278.717773,4419.871582,4283.333496,4242.820313,,,,,,,,,,,,,,,,,,,,,,,,,,,,,,,,,,,,,,,,,,,,,,,,,,,,,,,,,,,,,,,,,,,,,,
1720081473,103,0,4342.307617,4342.307617,4285.641113,4345.769043,4389.615234,4369.871582,4395.384766,4367.94873,4347.179688,4358.589844,4274.615234,4419.358887,4287.05127,4249.615234,,,,,,,,,,,,,,,,,,,,,,,,,,,,,,,,,,,,,,,,,,,,,,,,,,,,,,,,,,,,,,,,,,,,,,
1720081473,104,0,4342.820313,4344.743652,4288.077148,4347.563965,4384.102539,4365.256348,4384.487305,4369.615234,4350.769043,4355.512695,4293.333496,4435.897461,4303.717773,4232.94873,,,,,,,,,,,,,,,,,,,,,,,,,,,,,,,,,,,,,,,,,,,,,,,,,,,,,,,,,,,,,,,,,,,,,,
1720081473,105,0,4341.410156,4345,4292.307617,4346.410156,4385,4358.846191,4374.358887,4369.358887,4364.102539,4360.384766,4306.538574,4446.666504,4310.512695,4212.307617,,,,,,,,,,,,,,,,,,,,,,,,,,,,,,,,,,,,,,,,,,,,,,,,,,,,,,,,,,,,,,,,,,,,,,
1720081473,106,0,4340,4345.769043,4302.820313,4345.256348,4393.077148,4360.769043,4371.025879,4372.692383,4385.128418,4370.384766,4322.692383,4454.487305,4328.589844,4264.487305,,,,,,,,,,,,,,,,,,,,,,,,,,,,,,,,,,,,,,,,,,,,,,,,,,,,,,,,,,,,,,,,,,,,,,
1720081473,107,0,4338.333496,4344.487305,4300.897461,4346.794922,4397.179688,4364.615234,4371.153809,4372.94873,4391.922852,4369.871582,4323.846191,4448.974121,4339.615234,4307.05127,,,,,,,,,,,,,,,,,,,,,,,,,,,,,,,,,,,,,,,,,,,,,,,,,,,,,,,,,,,,,,,,,,,,,,
1720081473,108,0,4340,4341.410156,4285.512695,4344.615234,4387.179688,4362.307617,4370.128418,4364.871582,4386.025879,4358.461426,4304.358887,4427.307617,4319.487305,4275.384766,,,,,,,,,,,,,,,,,,,,,,,,,,,,,,,,,,,,,,,,,,,,,,,,,,,,,,,,,,,,,,,,,,,,,,
1720081473,109,0,4343.077148,4338.974121,4281.025879,4343.717773,4380.128418,4362.820313,4376.794922,4364.743652,4393.077148,4354.487305,4301.153809,4422.692383,4303.589844,4249.743652,4.174461,3.543876,0.896295,0.999909,0.874256,1.550148,1.101333,0.270641,0.399879,0.333121,1.344945,0.77631,0.655312,0.473644,0.245765,0.059763,0.058089,0.02325,0.024253,0.081645,0.531864,0.43379,0.355608,0.208129,0.156257,0.500205,0.404672,0.247649,0.217588,0.098575,0.799528,0.786008,0.777596,0.507665,0.163784,13.166332,5.375533,1.890759,0.991905,1.646741,5.818512,2.322728,1.773511,0.755057,0.406631,22.921288,8.340217,3.294363,1.543905,0.483164,2.538942,1.675656,1.343822,0.825896,0.738148,4.038135,1.665626,1.282093,0.891881,0.713196,2.357186,1.730469,2.275052,0.689458,0.932094,4.85289,8.911003,4.653386,4.78609,3.805861
1720081473,110,0,4343.974121,4341.538574,4285.256348,4346.538574,4384.102539,4370.384766,4394.871582,4366.922852,4404.358887,4358.077148,4309.487305,4434.102539,4311.153809,4268.717773,,,,,,,,,,,,,,,,,,,,,,,,,,,,,,,,,,,,,,,,,,,,,,,,,,,,,,,,,,,,,,,,,,,,,,
1720081473,111,0,4340.128418,4342.05127,4286.538574,4345,4386.025879,4375,4411.025879,4360.769043,4394.743652,4351.922852,4305.384766,4436.025879,4312.692383,4267.94873,,,,,,,,,,,,,,,,,,,,,,,,,,,,,,,,,,,,,,,,,,,,,,,,,,,,,,,,,,,,,,,,,,,,,,
1720081473,112,0,4335.256348,4335.641113,4292.563965,4344.358887,4382.820313,4376.666504,4413.846191,4363.974121,4380.128418,4340.256348,4305.256348,4434.102539,4311.538574,4254.230957,,,,,,,,,,,,,,,,,,,,,,,,,,,,,,,,,,,,,,,,,,,,,,,,,,,,,,,,,,,,,,,,,,,,,,
1720081473,113,0,4334.871582,4332.94873,4287.563965,4344.615234,4383.589844,4373.589844,4409.230957,4344.487305,4380.384766,4333.461426,4301.410156,4419.102539,4309.358887,4247.563965,,,,,,,,,,,,,,,,,,,,,,,,,,,,,,,,,,,,,,,,,,,,,,,,,,,,,,,,,,,,,,,,,,,,,,
1720081473,114,0,4333.974121,4333.333496,4279.743652,4344.743652,4382.436035,4365.897461,4397.692383,4324.358887,4377.94873,4327.692383,4288.333496,4409.487305,4296.794922,4236.282227,,,,,,,,,,,,,,,,,,,,,,,,,,,,,,,,,,,,,,,,,,,,,,,,,,,,,,,,,,,,,,,,,,,,,,
1720081473,115,0,4342.179688,4337.94873,4296.922852,4349.230957,4379.615234,4365.256348,4381.153809,4355.256348,4370.256348,4322.179688,4304.102539,4434.743652,4307.307617,4258.205078,,,,,,,,,,,,,,,,,,,,,,,,,,,,,,,,,,,,,,,,,,,,,,,,,,,,,,,,,,,,,,,,,,,,,,
1720081473,116,0,4362.179688,4353.974121,4309.358887,4348.974121,4390.128418,4363.589844,4377.820313,4351.025879,4384.102539,4324.615234,4330.384766,4454.743652,4337.94873,4291.153809,,,,,,,,,,,,,,,,,,,,,,,,,,,,,,,,,,,,,,,,,,,,,,,,,,,,,,,,,,,,,,,,,,,,,,
1720081473,117,0,4361.794922,4358.846191,4309.358887,4348.461426,4394.871582,4362.179688,4379.230957,4330.769043,4402.307617,4331.922852,4330.256348,4461.410156,4342.692383,4277.05127,,,,,,,,,,,,,,,,,,,,,,,,,,,,,,,,,,,,,,,,,,,,,,,,,,,,,,,,,,,,,,,,,,,,,,
1720081473,118,0,4351.153809,4346.153809,4307.563965,4351.538574,4388.205078,4363.333496,4371.282227,4345.641113,4403.333496,4331.025879,4319.358887,4462.179688,4325.769043,4254.487305,,,,,,,,,,,,,,,,,,,,,,,,,,,,,,,,,,,,,,,,,,,,,,,,,,,,,,,,,,,,,,,,,,,,,,
1720081473,119,0,4355,4342.820313,4301.282227,4348.974121,4391.282227,4364.358887,4376.666504,4339.102539,4412.179688,4326.538574,4314.871582,4447.94873,4320,4272.94873,,,,,,,,,,,,,,,,,,,,,,,,,,,,,,,,,,,,,,,,,,,,,,,,,,,,,,,,,,,,,,,,,,,,,,
1720081473,120,0,4343.974121,4340.512695,4301.794922,4347.179688,4393.589844,4370.641113,4393.333496,4336.153809,4430,4331.410156,4319.102539,4446.794922,4323.461426,4273.846191,,,,,,,,,,,,,,,,,,,,,,,,,,,,,,,,,,,,,,,,,,,,,,,,,,,,,,,,,,,,,,,,,,,,,,
1720081473,121,0,4329.871582,4331.538574,4300.512695,4348.717773,4389.358887,4377.94873,4404.358887,4349.487305,4433.717773,4330.897461,4317.820313,4450.769043,4316.794922,4240.897461,,,,,,,,,,,,,,,,,,,,,,,,,,,,,,,,,,,,,,,,,,,,,,,,,,,,,,,,,,,,,,,,,,,,,,
1720081473,122,0,4338.205078,4335,4291.666504,4345.641113,4389.743652,4380.128418,4420.769043,4336.410156,4427.179688,4317.307617,4309.102539,4434.358887,4311.410156,4255.256348,,,,,,,,,,,,,,,,,,,,,,,,,,,,,,,,,,,,,,,,,,,,,,,,,,,,,,,,,,,,,,,,,,,,,,
1720081473,123,0,4343.974121,4341.538574,4294.615234,4342.179688,4390.769043,4381.922852,4434.743652,4320.897461,4416.538574,4307.820313,4310.897461,4428.974121,4320.512695,4285.769043,,,,,,,,,,,,,,,,,,,,,,,,,,,,,,,,,,,,,,,,,,,,,,,,,,,,,,,,,,,,,,,,,,,,,,
1720081473,124,0,4346.282227,4344.615234,4307.179688,4347.94873,4388.974121,4383.717773,4421.282227,4331.922852,4396.025879,4300.256348,4316.410156,4444.487305,4323.717773,4278.589844,,,,,,,,,,,,,,,,,,,,,,,,,,,,,,,,,,,,,,,,,,,,,,,,,,,,,,,,,,,,,,,,,,,,,,
1720081473,125,0,4367.563965,4358.846191,4303.717773,4352.692383,4397.820313,4374.615234,4394.358887,4318.205078,4386.794922,4290.897461,4310.384766,4438.461426,4316.153809,4277.05127,2.171789,3.292046,1.046183,0.80012,0.815804,1.296871,1.080631,0.426081,0.314868,0.30972,1.121276,0.923605,0.797534,0.532994,0.248867,0.101101,0.067533,0.027846,0.028181,0.074176,0.813408,0.379946,0.449955,0.224413,0.151,0.635629,0.419066,0.399877,0.267904,0.107639,0.908258,1.057772,1.063286,0.667284,0.186294,28.477974,10.878716,3.852083,1.81455,1.828648,11.301213,4.577847,2.844695,0.971939,0.466949,48.44548,16.754095,6.54863,2.884556,0.78554,2.034888,1.758337,1.252975,0.828444,0.765676,4.340142,2.18297,1.634952,1.022979,0.753589,1.709934,1.582493,2.087276,0.584283,0.967848,1.901115,8.940838,5.043669,4.204268,3.821146
1720081473,126,0,4386.794922,4374.743652,4304.615234,4351.025879,4411.666504,4367.820313,4384.102539,4314.230957,4410.384766,4299.615234,4320.897461,4441.025879,4329.743652,4301.666504,,,,,,,,,,,,,,,,,,,,,,,,,,,,,,,,,,,,,,,,,,,,,,,,,,,,,,,,,,,,,,,,,,,,,,
1720081473,127,0,4386.666504,4373.077148,4312.820313,4348.846191,4413.717773,4366.410156,4381.153809,4334.230957,4429.102539,4313.717773,4340,4460.769043,4348.205078,4308.333496,,,,,,,,,,,,,,,,,,,,,,,,,,,,,,,,,,,,,,,,,,,,,,,,,,,,,,,,,,,,,,,,,,,,,,
1720081473,0,0,4364.871582,4355.769043,4297.692383,4348.205078,4398.205078,4356.922852,4365.384766,4316.282227,4409.102539,4298.717773,4317.94873,4442.05127,4322.820313,4285.128418,,,,,,,,,,,,,,,,,,,,,,,,,,,,,,,,,,,,,,,,,,,,,,,,,,,,,,,,,,,,,,,,,,,,,,
1720081473,1,0,4338.717773,4337.179688,4286.153809,4349.102539,4380.512695,4351.025879,4353.589844,4306.794922,4392.94873,4278.846191,4291.153809,4422.307617,4293.589844,4258.974121,,,,,,,,,,,,,,,,,,,,,,,,,,,,,,,,,,,,,,,,,,,,,,,,,,,,,,,,,,,,,,,,,,,,,,
1720081473,2,0,4343.717773,4337.563965,4288.205078,4345.897461,4382.179688,4352.820313,4364.102539,4315.256348,4414.615234,4285.897461,4297.179688,4431.794922,4300.641113,4225.641113,,,,,,,,,,,,,,,,,,,,,,,,,,,,,,,,,,,,,,,,,,,,,,,,,,,,,,,,,,,,,,,,,,,,,,
1720081473,3,0,4332.05127,4331.153809,4279.487305,4344.358887,4384.102539,4358.589844,4385.769043,4315,4434.615234,4297.820313,4297.436035,4430,4300.897461,4204.615234,,,,,,,,,,,,,,,,,,,,,,,,,,,,,,,,,,,,,,,,,,,,,,,,,,,,,,,,,,,,,,,,,,,,,,
1720081473,4,0,4296.282227,4309.487305,4271.153809,4346.794922,4379.871582,4365.128418,4404.743652,4314.615234,4435.641113,4298.077148,4289.615234,4419.230957,4291.282227,4217.179688,,,,,,,,,,,,,,,,,,,,,,,,,,,,,,,,,,,,,,,,,,,,,,,,,,,,,,,,,,,,,,,,,,,,,,
1720081473,5,0,4309.743652,4313.974121,4275.256348,4346.282227,4383.974121,4366.410156,4413.077148,4307.307617,4428.205078,4289.615234,4288.974121,4420.128418,4291.538574,4233.205078,,,,,,,,,,,,,,,,,,,,,,,,,,,,,,,,,,,,,,,,,,,,,,,,,,,,,,,,,,,,,,,,,,,,,,
1720081473,6,0,4340.897461,4332.179688,4275.128418,4344.230957,4387.05127,4360.769043,4402.820313,4297.563965,4409.487305,4278.974121,4283.717773,4414.871582,4285.897461,4230.641113,,,,,,,,,,,,,,,,,,,,,,,,,,,,,,,,,,,,,,,,,,,,,,,,,,,,,,,,,,,,,,,,,,,,,,
1720081473,7,0,4343.077148,4338.205078,4275,4344.358887,4389.230957,4356.410156,4388.333496,4292.563965,4393.974121,4271.025879,4288.974121,4410.897461,4290.256348,4239.871582,,,,,,,,,,,,,,,,,,,,,,,,,,,,,,,,,,,,,,,,,,,,,,,,,,,,,,,,,,,,,,,,,,,,,,
1720081473,8,0,4345.128418,4346.538574,4293.974121,4347.692383,4398.846191,4361.666504,4382.94873,4293.205078,4394.358887,4268.717773,4312.94873,4432.94873,4318.461426,4274.230957,,,,,,,,,,,,,,,,,,,,,,,,,,,,,,,,,,,,,,,,,,,,,,,,,,,,,,,,,,,,,,,,,,,,,,
1720081473,9,0,4351.153809,4356.666504,4309.615234,4350.769043,4402.563965,4366.666504,4379.871582,4293.974121,4399.615234,4270,4325.128418,4451.282227,4330.384766,4290.641113,,,,,,,,,,,,,,,,,,,,,,,,,,,,,,,,,,,,,,,,,,,,,,,,,,,,,,,,,,,,,,,,,,,,,,
1720081473,10,0,4347.436035,4354.487305,4306.794922,4350.384766,4396.410156,4367.307617,4383.333496,4297.05127,4411.922852,4275.641113,4323.589844,4447.820313,4320.641113,4275.897461,,,,,,,,,,,,,,,,,,,,,,,,,,,,,,,,,,,,,,,,,,,,,,,,,,,,,,,,,,,,,,,,,,,,,,
1720081473,11,0,4360.256348,4356.666504,4305.128418,4346.922852,4401.153809,4370.256348,4393.205078,4300.384766,4435.897461,4288.333496,4330.384766,4449.358887,4328.205078,4273.717773,,,,,,,,,,,,,,,,,,,,,,,,,,,,,,,,,,,,,,,,,,,,,,,,,,,,,,,,,,,,,,,,,,,,,,
1720081473,12,0,4373.461426,4365.897461,4311.410156,4348.461426,4406.794922,4372.820313,4395,4314.102539,4446.922852,4295.384766,4336.666504,4458.077148,4335.256348,4289.743652,,,,,,,,,,,,,,,,,,,,,,,,,,,,,,,,,,,,,,,,,,,,,,,,,,,,,,,,,,,,,,,,,,,,,,
1720081473,13,0,4363.205078,4358.974121,4302.94873,4349.358887,4400.897461,4368.846191,4399.743652,4306.666504,4445,4290.769043,4321.282227,4444.358887,4317.179688,4273.974121,1.899529,3.104507,1.413202,0.73229,0.786437,1.555684,1.165136,0.694798,0.285011,0.298384,1.089004,1.129321,0.985989,0.606248,0.257798,0.151844,0.075142,0.031967,0.031682,0.06269,1.166126,0.318138,0.58931,0.258747,0.142906,0.831129,0.436381,0.602734,0.322581,0.123095,1.110143,1.419388,1.664719,0.859051,0.212957,47.824436,17.580622,6.244086,2.782675,2.05599,18.153276,7.468766,4.180298,1.240916,0.541192,80.654442,26.9121,10.568439,4.481923,1.153751,1.846969,2.065013,1.342329,0.804576,0.769408,5.209494,2.956113,2.095351,1.117078,0.789465,1.532613,1.708299,2.161181,0.504235,0.984446,1.203841,8.867818,5.887229,3.772425,3.873313
1720081473,14,0,4351.794922,4348.974121,4287.820313,4346.025879,4395.384766,4368.077148,4412.94873,4275.641113,4448.589844,4282.307617,4300.641113,4424.230957,4300.641113,4228.589844,,,,,,,,,,,,,,,,,,,,,,,,,,,,,,,,,,,,,,,,,,,,,,,,,,,,,,,,,,,,,,,,,,,,,,
1720081473,15,0,4337.563965,4339.230957,4291.282227,4350.512695,4387.563965,4377.94873,4417.436035,4303.589844,4443.846191,4275.128418,4299.102539,4431.153809,4290.641113,4209.487305,,,,,,,,,,,,,,,,,,,,,,,,,,,,,,,,,,,,,,,,,,,,,,,,,,,,,,,,,,,,,,,,,,,,,,
1720081473,16,0,4322.692383,4329.230957,4282.563965,4350,4383.205078,4371.922852,4407.94873,4310.256348,4431.025879,4263.461426,4294.487305,4418.461426,4278.205078,4225.897461,,,,,,,,,,,,,,,,,,,,,,,,,,,,,,,,,,,,,,,,,,,,,,,,,,,,,,,,,,,,,,,,,,,,,,
1720081473,17,0,4324.615234,4328.846191,4270.897461,4345,4391.153809,4357.436035,4396.666504,4270,4425.897461,4253.589844,4284.871582,4394.358887,4278.205078,4252.436035,,,,,,,,,,,,,,,,,,,,,,,,,,,,,,,,,,,,,,,,,,,,,,,,,,,,,,,,,,,,,,,,,,,,,,
1720081473,18,0,4347.179688,4346.410156,4293.717773,4348.974121,4399.487305,4361.922852,4391.410156,4283.846191,4420.128418,4248.461426,4302.179688,4419.615234,4298.461426,4261.922852,,,,,,,,,,,,,,,,,,,,,,,,,,,,,,,,,,,,,,,,,,,,,,,,,,,,,,,,,,,,,,,,,,,,,,
1720081473,19,0,4370.128418,4367.179688,4308.333496,4348.077148,4398.077148,4369.358887,4388.717773,4289.102539,4408.205078,4237.563965,4316.922852,4442.692383,4306.922852,4249.358887,,,,,,,,,,,,,,,,,,,,,,,,,,,,,,,,,,,,,,,,,,,,,,,,,,,,,,,,,,,,,,,,,,,,,,
1720081473,20,0,4362.563965,4359.743652,4301.794922,4344.487305,4395.256348,4370,4384.487305,4270.897461,4408.717773,4238.461426,4310,4437.692383,4297.307617,4245.512695,,,,,,,,,,,,,,,,,,,,,,,,,,,,,,,,,,,,,,,,,,,,,,,,,,,,,,,,,,,,,,,,,,,,,,
1720081473,21,0,4343.461426,4342.820313,4300.256348,4347.94873,4395,4371.922852,4383.205078,4285.384766,4419.743652,4246.153809,4302.692383,4437.307617,4291.538574,4236.410156,,,,,,,,,,,,,,,,,,,,,,,,,,,,,,,,,,,,,,,,,,,,,,,,,,,,,,,,,,,,,,,,,,,,,,
1720081473,22,0,4344.487305,4347.307617,4297.05127,4347.307617,4394.358887,4373.205078,4390,4286.794922,4422.563965,4238.589844,4293.717773,4433.717773,4284.102539,4213.461426,,,,,,,,,,,,,,,,,,,,,,,,,,,,,,,,,,,,,,,,,,,,,,,,,,,,,,,,,,,,,,,,,,,,,,
1720081473,23,0,4346.922852,4351.025879,4289.230957,4343.461426,4392.692383,4374.615234,4401.025879,4267.179688,4428.205078,4234.102539,4291.922852,4424.102539,4278.205078,4237.94873,,,,,,,,,,,,,,,,,,,,,,,,,,,,,,,,,,,,,,,,,,,,,,,,,,,,,,,,,,,,,,,,,,,,,,
1720081473,24,0,4343.846191,4342.307617,4291.922852,4346.794922,4389.871582,4379.230957,4411.538574,4291.282227,4433.077148,4239.743652,4303.589844,4424.871582,4282.179688,4285.512695,,,,,,,,,,,,,,,,,,,,,,,,,,,,,,,,,,,,,,,,,,,,,,,,,,,,,,,,,,,,,,,,,,,,,,
1720081473,25,0,4352.820313,4346.538574,4291.538574,4346.666504,4394.615234,4380,4417.05127,4292.436035,4428.717773,4236.410156,4296.794922,4418.846191,4279.871582,4258.205078,,,,,,,,,,,,,,,,,,,,,,,,,,,,,,,,,,,,,,,,,,,,,,,,,,,,,,,,,,,,,,,,,,,,,,
1720081473,26,0,4353.717773,4354.743652,4284.102539,4344.487305,4398.205078,4377.05127,4409.743652,4264.871582,4433.333496,4231.538574,4286.666504,4411.922852,4273.077148,4202.94873,,,,,,,,,,,,,,,,,,,,,,,,,,,,,,,,,,,,,,,,,,,,,,,,,,,,,,,,,,,,,,,,,,,,,,
1720081473,27,0,4342.05127,4345.256348,4289.102539,4348.974121,4388.974121,4372.94873,4396.025879,4281.922852,4442.307617,4237.820313,4298.333496,4419.615234,4276.922852,4213.589844,,,,,,,,,,,,,,,,,,,,,,,,,,,,,,,,,,,,,,,,,,,,,,,,,,,,,,,,,,,,,,,,,,,,,,
1720081473,28,0,4340.641113,4338.846191,4287.692383,4346.025879,4385,4365.384766,4390.384766,4277.179688,4433.077148,4235.769043,4296.922852,4410.897461,4281.538574,4244.743652,,,,,,,,,,,,,,,,,,,,,,,,,,,,,,,,,,,,,,,,,,,,,,,,,,,,,,,,,,,,,,,,,,,,,,
1720081473,29,0,4336.282227,4340.512695,4278.205078,4341.025879,4390.641113,4368.333496,4388.846191,4260.256348,4411.794922,4222.563965,4285.769043,4397.05127,4275.512695,4239.230957,2.189573,3.031518,1.967939,0.772047,0.7855,1.842966,1.359716,1.082181,0.307623,0.297486,1.143343,1.379807,1.234746,0.685396,0.267033,0.198195,0.078949,0.035572,0.034149,0.050202,1.502576,0.27438,0.743677,0.311471,0.131992,1.000429,0.478733,0.814266,0.370075,0.140943,1.307698,1.941176,2.698761,1.04734,0.237296,66.126015,23.62076,8.399058,3.628052,2.254184,24.451317,10.298354,5.429523,1.491934,0.605147,111.090683,36.003021,14.235781,5.889409,1.483599,1.93896,2.556579,1.67014,0.76842,0.743226,6.270805,3.862714,2.635979,1.168463,0.801363,1.486873,2.060272,2.551636,0.468298,0.980718,1.17599,8.745189,7.250243,3.558678,3.9126
1720081473,30,0,4333.461426,4342.05127,4281.538574,4346.538574,4394.615234,4374.487305,4385,4265.128418,4403.974121,4216.025879,4295.769043,4402.307617,4277.179688,4230.769043,,,,,,,,,,,,,,,,,,,,,,,,,,,,,,,,,,,,,,,,,,,,,,,,,,,,,,,,,,,,,,,,,,,,,,
1720081473,31,0,4347.94873,4349.102539,4288.846191,4349.487305,4397.692383,4372.820313,4386.922852,4265.256348,4412.436035,4221.922852,4311.922852,4417.94873,4294.743652,4238.077148,,,,,,,,,,,,,,,,,,,,,,,,,,,,,,,,,,,,,,,,,,,,,,,,,,,,,,,,,,,,,,,,,,,,,,
1720081473,32,0,4349.615234,4348.974121,4290.384766,4345.769043,4398.846191,4373.717773,4395,4269.230957,4425,4231.922852,4317.307617,4428.077148,4301.538574,4250.256348,,,,,,,,,,,,,,,,,,,,,,,,,,,,,,,,,,,,,,,,,,,,,,,,,,,,,,,,,,,,,,,,,,,,,,
1720081473,33,0,4326.410156,4331.922852,4279.230957,4342.05127,4390.512695,4374.358887,4402.05127,4269.871582,4431.410156,4233.846191,4309.358887,4416.410156,4286.025879,4235,,,,,,,,,,,,,,,,,,,,,,,,,,,,,,,,,,,,,,,,,,,,,,,,,,,,,,,,,,,,,,,,,,,,,,
1720081473,34,0,4309.871582,4320,4265.256348,4340.256348,4382.436035,4370.641113,4403.461426,4268.974121,4428.974121,4228.846191,4294.358887,4406.410156,4271.538574,4190.512695,,,,,,,,,,,,,,,,,,,,,,,,,,,,,,,,,,,,,,,,,,,,,,,,,,,,,,,,,,,,,,,,,,,,,,
1720081473,35,0,4313.717773,4322.563965,4263.461426,4341.410156,4384.102539,4367.820313,4399.871582,4265.769043,4427.563965,4226.282227,4286.794922,4406.794922,4273.974121,4190.769043,,,,,,,,,,,,,,,,,,,,,,,,,,,,,,,,,,,,,,,,,,,,,,,,,,,,,,,,,,,,,,,,,,,,,,
1720081473,36,0,4320.128418,4325.512695,4268.461426,4343.077148,4386.282227,4366.282227,4394.102539,4262.436035,4424.230957,4227.179688,4292.436035,4402.820313,4280.641113,4242.179688,,,,,,,,,,,,,,,,,,,,,,,,,,,,,,,,,,,,,,,,,,,,,,,,,,,,,,,,,,,,,,,,,,,,,,
1720081473,37,0,4314.615234,4321.538574,4266.666504,4341.538574,4381.025879,4360.897461,4381.025879,4261.282227,4413.461426,4221.666504,4292.05127,4395.769043,4273.333496,4255,,,,,,,,,,,,,,,,,,,,,,,,,,,,,,,,,,,,,,,,,,,,,,,,,,,,,,,,,,,,,,,,,,,,,,
1720081473,38,0,4309.743652,4322.436035,4262.05127,4342.05127,4376.410156,4355.769043,4363.846191,4261.153809,4404.743652,4212.05127,4283.974121,4391.410156,4262.692383,4221.666504,,,,,,,,,,,,,,,,,,,,,,,,,,,,,,,,,,,,,,,,,,,,,,,,,,,,,,,,,,,,,,,,,,,,,,
1720081473,39,0,4321.922852,4332.307617,4265.512695,4343.077148,4385.384766,4359.743652,4368.205078,4249.102539,4415.512695,4215.128418,4292.179688,4391.153809,4271.794922,4227.436035,,,,,,,,,,,,,,,,,,,,,,,,,,,,,,,,,,,,,,,,,,,,,,,,,,,,,,,,,,,,,,,,,,,,,,
1720081473,40,0,4335.512695,4337.179688,4279.743652,4345.256348,4394.230957,4372.94873,4389.615234,4259.871582,4426.153809,4222.692383,4315.897461,4413.461426,4290.128418,4257.436035,,,,,,,,,,,,,,,,,,,,,,,,,,,,,,,,,,,,,,,,,,,,,,,,,,,,,,,,,,,,,,,,,,,,,,
1720081473,41,0,4336.153809,4336.666504,4288.846191,4347.820313,4393.589844,4384.102539,4400.128418,4283.717773,4418.717773,4218.717773,4313.077148,4435.128418,4279.358887,4235.641113,,,,,,,,,,,,,,,,,,,,,,,,,,,,,,,,,,,,,,,,,,,,,,,,,,,,,,,,,,,,,,,,,,,,,,
1720081473,42,0,4334.615234,4339.358887,4277.436035,4341.666504,4395.512695,4382.692383,4406.794922,4246.538574,4419.230957,4214.871582,4289.102539,4417.05127,4262.94873,4201.538574,,,,,,,,,,,,,,,,,,,,,,,,,,,,,,,,,,,,,,,,,,,,,,,,,,,,,,,,,,,,,,,,,,,,,,
1720081473,43,0,4335,4339.230957,4276.538574,4340.512695,4395.128418,4380.384766,4411.282227,4242.179688,4428.846191,4218.205078,4293.333496,4408.974121,4270.512695,4213.846191,,,,,,,,,,,,,,,,,,,,,,,,,,,,,,,,,,,,,,,,,,,,,,,,,,,,,,,,,,,,,,,,,,,,,,
1720081473,44,0,4338.717773,4339.487305,4284.615234,4344.102539,4388.974121,4380.384766,4402.94873,4274.102539,4431.025879,4220,4309.358887,4419.102539,4275.256348,4234.871582,,,,,,,,,,,,,,,,,,,,,,,,,,,,,,,,,,,,,,,,,,,,,,,,,,,,,,,,,,,,,,,,,,,,,,
1720081473,45,0,4345.384766,4344.871582,4274.358887,4340.384766,4388.077148,4378.205078,4395.641113,4250.256348,4431.282227,4219.102539,4301.922852,4403.974121,4269.871582,4239.230957,2.657861,3.169275,2.676581,0.868929,0.80437,2.089909,1.681901,1.587346,0.362914,0.304078,1.300926,1.659324,1.552102,0.751234,0.274516,0.227537,0.078536,0.039609,0.035204,0.039653,1.7295,0.274864,0.882532,0.378412,0.122256,1.08793,0.559609,0.986924,0.399595,0.155401,1.429129,2.669921,4.198617,1.190701,0.253124,77.230911,27.013288,9.606751,4.072867,2.343669,28.097776,12.340055,6.253369,1.653309,0.639521,129.395172,41.046131,16.344814,6.644015,1.666086,2.162792,3.120209,2.236395,0.744717,0.696534,7.02665,4.719115,3.216883,1.187737,0.781735,1.436071,2.550267,3.225632,0.487467,0.964432,1.51957,8.836389,9.078096,3.511411,3.890935
1720081473,46,0,4330.641113,4335.384766,4265.256348,4341.410156,4386.153809,4375.128418,4392.692383,4245.128418,4423.461426,4213.717773,4284.743652,4392.820313,4258.717773,4231.538574,,,,,,,,,,,,,,,,,,,,,,,,,,,,,,,,,,,,,,,,,,,,,,,,,,,,,,,,,,,,,,,,,,,,,,
1720081473,47,0,4297.436035,4315.128418,4262.05127,4343.589844,4381.794922,4366.282227,4382.307617,4253.974121,4406.282227,4200.769043,4278.461426,4397.820313,4250.128418,4180.256348,,,,,,,,,,,,,,,,,,,,,,,,,,,,,,,,,,,,,,,,,,,,,,,,,,,,,,,,,,,,,,,,,,,,,,
1720081473,48,0,4297.692383,4319.230957,4267.692383,4343.333496,4387.820313,4365.384766,4374.358887,4242.179688,4401.666504,4199.743652,4284.230957,4401.025879,4252.307617,4159.487305,,,,,,,,,,,,,,,,,,,,,,,,,,,,,,,,,,,,,,,,,,,,,,,,,,,,,,,,,,,,,,,,,,,,,,
1720081473,49,0,4332.820313,4338.205078,4276.794922,4344.102539,4394.487305,4378.077148,4382.820313,4248.077148,4417.820313,4211.410156,4290.641113,4397.94873,4263.461426,4235.256348,,,,,,,,,,,,,,,,,,,,,,,,,,,,,,,,,,,,,,,,,,,,,,,,,,,,,,,,,,,,,,,,,,,,,,
1720081473,50,0,4348.974121,4342.692383,4269.358887,4342.436035,4389.615234,4378.333496,4392.820313,4253.077148,4427.563965,4210.512695,4291.794922,4390,4276.794922,4282.436035,,,,,,,,,,,,,,,,,,,,,,,,,,,,,,,,,,,,,,,,,,,,,,,,,,,,,,,,,,,,,,,,,,,,,,
1720081473,51,0,4337.820313,4337.05127,4263.717773,4342.692383,4387.179688,4373.333496,4395.512695,4240.384766,4418.846191,4199.230957,4291.922852,4386.025879,4274.358887,4248.077148,,,,,,,,,,,,,,,,,,,,,,,,,,,,,,,,,,,,,,,,,,,,,,,,,,,,,,,,,,,,,,,,,,,,,,
1720081473,52,0,4333.077148,4337.820313,4275.128418,4347.307617,4393.077148,4380.897461,4396.538574,4254.230957,4413.974121,4200.897461,4297.563965,4397.692383,4263.333496,4234.358887,,,,,,,,,,,,,,,,,,,,,,,,,,,,,,,,,,,,,,,,,,,,,,,,,,,,,,,,,,,,,,,,,,,,,,
1720081473,53,0,4344.615234,4345.897461,4278.333496,4344.871582,4397.307617,4380,4396.794922,4259.487305,4424.102539,4212.05127,4300.769043,4406.282227,4272.05127,4257.563965,,,,,,,,,,,,,,,,,,,,,,,,,,,,,,,,,,,,,,,,,,,,,,,,,,,,,,,,,,,,,,,,,,,,,,
1720081473,54,0,4343.717773,4341.538574,4271.153809,4339.487305,4392.436035,4370.384766,4396.666504,4239.230957,4433.461426,4216.025879,4297.436035,4398.589844,4281.282227,4251.410156,,,,,,,,,,,,,,,,,,,,,,,,,,,,,,,,,,,,,,,,,,,,,,,,,,,,,,,,,,,,,,,,,,,,,,
1720081473,55,0,4328.846191,4327.692383,4277.94873,4344.871582,4384.358887,4376.153809,4395.512695,4256.794922,4431.922852,4216.794922,4293.717773,4400.128418,4262.94873,4220.384766,,,,,,,,,,,,,,,,,,,,,,,,,,,,,,,,,,,,,,,,,,,,,,,,,,,,,,,,,,,,,,,,,,,,,,
1720081473,56,0,4333.077148,4335,4282.179688,4347.179688,4388.974121,4382.436035,4393.974121,4254.487305,4424.102539,4213.589844,4294.487305,4409.358887,4259.871582,4215,,,,,,,,,,,,,,,,,,,,,,,,,,,,,,,,,,,,,,,,,,,,,,,,,,,,,,,,,,,,,,,,,,,,,,
1720081473,57,0,4357.94873,4354.871582,4284.743652,4345.384766,4396.025879,4382.05127,4393.205078,4236.025879,4411.410156,4206.153809,4303.077148,4418.077148,4283.974121,4245.128418,,,,,,,,,,,,,,,,,,,,,,,,,,,,,,,,,,,,,,,,,,,,,,,,,,,,,,,,,,,,,,,,,,,,,,
1720081473,58,0,4359.230957,4351.922852,4291.666504,4345.641113,4392.563965,4382.94873,4391.794922,4244.102539,4403.077148,4201.666504,4301.153809,4416.666504,4280.769043,4259.615234,,,,,,,,,,,,,,,,,,,,,,,,,,,,,,,,,,,,,,,,,,,,,,,,,,,,,,,,,,,,,,,,,,,,,,
1720081473,59,0,4338.077148,4337.692383,4281.282227,4343.589844,4389.871582,4381.153809,4389.871582,4239.102539,4412.692383,4198.974121,4288.077148,4403.333496,4259.358887,4237.94873,,,,,,,,,,,,,,,,,,,,,,,,,,,,,,,,,,,,,,,,,,,,,,,,,,,,,,,,,,,,,,,,,,,,,,
1720081473,60,0,4338.589844,4340.769043,4277.436035,4343.461426,4395.769043,4380.384766,4393.589844,4243.077148,4427.179688,4202.820313,4296.922852,4414.358887,4266.922852,4221.282227,,,,,,,,,,,,,,,,,,,,,,,,,,,,,,,,,,,,,,,,,,,,,,,,,,,,,,,,,,,,,,,,,,,,,,
1720081473,61,0,4349.615234,4350.897461,4292.179688,4344.487305,4400.512695,4381.922852,4400.128418,4249.102539,4428.717773,4211.410156,4308.974121,4432.94873,4277.307617,4214.230957,3.009173,3.595269,3.488618,0.994288,0.828721,2.207915,2.157374,2.18488,0.432873,0.315002,1.503581,1.9636,1.930965,0.782617,0.280674,0.229213,0.074835,0.045196,0.034834,0.032725,1.779894,0.340656,0.985898,0.449616,0.118231,1.088437,0.675575,1.085132,0.404298,0.161732,1.454771,3.531578,6.027792,1.256236,0.257226,77.356171,26.584061,9.450207,3.958315,2.276414,27.778095,13.122792,6.482226,1.688522,0.639643,129.256989,40.342152,16.175596,6.480189,1.638151,2.465254,3.657802,2.982943,0.758144,0.64849,7.187881,5.407676,3.789596,1.189992,0.736898,1.50829,3.092925,4.069313,0.563884,0.945509,2.054842,9.331826,11.093261,3.522498,3.785195
1720081473,62,0,4343.333496,4348.333496,4292.436035,4344.487305,4393.717773,4385.256348,4393.461426,4244.358887,4422.05127,4211.410156,4297.179688,4423.974121,4263.846191,4219.358887,,,,,,,,,,,,,,,,,,,,,,,,,,,,,,,,,,,,,,,,,,,,,,,,,,,,,,,,,,,,,,,,,,,,,,
1720081473,63,0,4345.256348,4345.128418,4284.615234,4345.128418,4390.128418,4390.897461,4390.256348,4247.436035,4422.820313,4202.820313,4297.179688,4413.974121,4264.487305,4258.205078,,,,,,,,,,,,,,,,,,,,,,,,,,,,,,,,,,,,,,,,,,,,,,,,,,,,,,,,,,,,,,,,,,,,,,
1720081473,64,0,4361.538574,4352.820313,4287.692383,4345.128418,4396.153809,4394.358887,4403.974121,4245.512695,4422.307617,4201.794922,4307.692383,4416.410156,4276.922852,4280.512695,,,,,,,,,,,,,,,,,,,,,,,,,,,,,,,,,,,,,,,,,,,,,,,,,,,,,,,,,,,,,,,,,,,,,,
1720081473,65,0,4360,4354.871582,4287.436035,4344.615234,4397.820313,4393.846191,4408.589844,4235.897461,4415.641113,4204.358887,4294.102539,4409.102539,4264.487305,4252.05127,,,,,,,,,,,,,,,,,,,,,,,,,,,,,,,,,,,,,,,,,,,,,,,,,,,,,,,,,,,,,,,,,,,,,,
1720081473,66,0,4349.487305,4348.589844,4283.589844,4347.05127,4395.128418,4392.94873,4401.410156,4247.179688,4418.717773,4202.692383,4287.179688,4402.94873,4256.153809,4238.974121,,,,,,,,,,,,,,,,,,,,,,,,,,,,,,,,,,,,,,,,,,,,,,,,,,,,,,,,,,,,,,,,,,,,,,
1720081473,67,0,4357.563965,4351.153809,4280.128418,4343.846191,4396.538574,4382.436035,4399.358887,4238.333496,4422.307617,4201.666504,4303.205078,4403.846191,4275.641113,4258.717773,,,,,,,,,,,,,,,,,,,,,,,,,,,,,,,,,,,,,,,,,,,,,,,,,,,,,,,,,,,,,,,,,,,,,,
1720081473,68,0,4362.307617,4356.794922,4280.256348,4341.794922,4396.410156,4371.794922,4396.153809,4218.333496,4413.846191,4200.641113,4307.436035,4408.077148,4280.384766,4258.717773,,,,,,,,,,,,,,,,,,,,,,,,,,,,,,,,,,,,,,,,,,,,,,,,,,,,,,,,,,,,,,,,,,,,,,
1720081473,69,0,4357.05127,4354.743652,4292.94873,4350.256348,4388.974121,4379.487305,4387.179688,4254.487305,4408.846191,4201.282227,4307.307617,4428.333496,4273.205078,4244.487305,,,,,,,,,,,,,,,,,,,,,,,,,,,,,,,,,,,,,,,,,,,,,,,,,,,,,,,,,,,,,,,,,,,,,,
1720081473,70,0,4355.512695,4353.717773,4290.256348,4346.025879,4387.307617,4380.769043,4385.256348,4246.538574,4410.897461,4198.589844,4305,4427.436035,4272.436035,4221.666504,,,,,,,,,,,,,,,,,,,,,,,,,,,,,,,,,,,,,,,,,,,,,,,,,,,,,,,,,,,,,,,,,,,,,,
1720081473,71,0,4349.358887,4351.025879,4280.769043,4340.641113,4386.282227,4377.307617,4386.538574,4213.589844,4409.102539,4194.358887,4291.025879,4409.358887,4260.128418,4192.307617,,,,,,,,,,,,,,,,,,,,,,,,,,,,,,,,,,,,,,,,,,,,,,,,,,,,,,,,,,,,,,,,,,,,,,
1720081473,72,0,4346.666504,4345.897461,4285.128418,4348.333496,4386.410156,4385.769043,4386.794922,4239.487305,4408.333496,4197.307617,4290.384766,4408.589844,4254.487305,4209.615234,,,,,,,,,,,,,,,,,,,,,,,,,,,,,,,,,,,,,,,,,,,,,,,,,,,,,,,,,,,,,,,,,,,,,,
1720081473,73,0,4358.461426,4354.615234,4284.615234,4347.307617,4393.589844,4389.230957,4388.717773,4238.717773,4416.538574,4201.666504,4302.692383,4412.307617,4265.128418,4258.846191,,,,,,,,,,,,,,,,,,,,,,,,,,,,,,,,,,,,,,,,,,,,,,,,,,,,,,,,,,,,,,,,,,,,,,
1720081473,74,0,4367.94873,4364.871582,4289.871582,4342.563965,4394.358887,4384.358887,4383.077148,4228.205078,4426.153809,4207.820313,4304.358887,4421.666504,4265.769043,4260.769043,,,,,,,,,,,,,,,,,,,,,,,,,,,,,,,,,,,,,,,,,,,,,,,,,,,,,,,,,,,,,,,,,,,,,,
1720081473,75,0,4366.922852,4361.025879,4295.256348,4343.717773,4390.256348,4382.179688,4375.641113,4238.717773,4433.461426,4212.94873,4297.94873,4420.512695,4260.384766,4240,,,,,,,,,,,,,,,,,,,,,,,,,,,,,,,,,,,,,,,,,,,,,,,,,,,,,,,,,,,,,,,,,,,,,,
1720081473,76,0,4363.717773,4357.692383,4287.436035,4343.461426,4388.205078,4381.282227,4382.179688,4235.641113,4427.820313,4207.692383,4297.820313,4403.333496,4264.230957,4258.846191,,,,,,,,,,,,,,,,,,,,,,,,,,,,,,,,,,,,,,,,,,,,,,,,,,,,,,,,,,,,,,,,,,,,,,
1720081473,77,0,4366.922852,4362.436035,4288.205078,4343.077148,4388.333496,4387.179688,4394.615234,4234.102539,4412.307617,4199.487305,4301.538574,4404.487305,4266.794922,4279.743652,3.147644,4.307233,4.307929,1.136879,0.845913,2.143454,2.772289,2.804018,0.505829,0.328247,1.728736,2.286621,2.333542,0.76802,0.28713,0.202148,0.069777,0.052743,0.03338,0.029573,1.6545,0.474347,1.048497,0.507731,0.121993,1.01354,0.810524,1.106871,0.385199,0.158508,1.40856,4.346116,7.91854,1.23619,0.251459,66.363266,22.520796,8.024689,3.328404,2.062194,23.613232,12.606427,6.199805,1.614186,0.614087,110.681587,34.237968,13.871145,5.470829,1.411772,2.69082,4.085806,3.80499,0.820735,0.618352,6.665024,5.847404,4.309437,1.197256,0.68327,1.571257,3.588362,4.937702,0.685223,0.932606,2.653611,10.148962,12.892069,3.539272,3.627209
1720081473,78,0,4379.102539,4367.179688,4297.563965,4344.615234,4392.94873,4393.717773,4400,4234.102539,4411.282227,4200.769043,4301.666504,4416.410156,4265.384766,4265,,,,,,,,,,,,,,,,,,,,,,,,,,,,,,,,,,,,,,,,,,,,,,,,,,,,,,,,,,,,,,,,,,,,,,
1720081473,79,0,4381.153809,4365.897461,4292.820313,4342.05127,4392.820313,4385,4395.769043,4222.820313,4411.153809,4201.538574,4301.410156,4411.666504,4265.256348,4248.205078,,,,,,,,,,,,,,,,,,,,,,,,,,,,,,,,,,,,,,,,,,,,,,,,,,,,,,,,,,,,,,,,,,,,,,
1720081473,80,0,4363.461426,4360.128418,4281.794922,4343.974121,4381.153809,4378.717773,4390.769043,4229.743652,4400,4199.487305,4299.102539,4406.922852,4265.384766,4251.282227,,,,,,,,,,,,,,,,,,,,,,,,,,,,,,,,,,,,,,,,,,,,,,,,,,,,,,,,,,,,,,,,,,,,,,
1720081473,81,0,4352.436035,4354.358887,4277.307617,4347.436035,4378.717773,4382.692383,4389.358887,4235.897461,4401.666504,4202.179688,4292.820313,4404.230957,4262.563965,4257.94873,,,,,,,,,,,,,,,,,,,,,,,,,,,,,,,,,,,,,,,,,,,,,,,,,,,,,,,,,,,,,,,,,,,,,,
1720081473,82,0,4360.897461,4353.461426,4275.641113,4343.205078,4384.358887,4376.410156,4381.025879,4211.666504,4411.025879,4201.922852,4287.563965,4395.128418,4254.230957,4243.846191,,,,,,,,,,,,,,,,,,,,,,,,,,,,,,,,,,,,,,,,,,,,,,,,,,,,,,,,,,,,,,,,,,,,,,
1720081473,83,0,4365.641113,4355,4280.641113,4343.974121,4375.256348,4369.871582,4367.820313,4222.179688,4400.384766,4197.436035,4284.487305,4399.487305,4244.615234,4220.256348,,,,,,,,,,,,,,,,,,,,,,,,,,,,,,,,,,,,,,,,,,,,,,,,,,,,,,,,,,,,,,,,,,,,,,
1720081473,84,0,4362.179688,4357.820313,4281.282227,4346.922852,4370.897461,4373.461426,4372.05127,4229.871582,4395.897461,4198.589844,4281.153809,4400.256348,4245.256348,4233.589844,,,,,,,,,,,,,,,,,,,,,,,,,,,,,,,,,,,,,,,,,,,,,,,,,,,,,,,,,,,,,,,,,,,,,,
1720081473,85,0,4368.333496,4362.05127,4282.563965,4344.358887,4386.282227,4380.641113,4385.384766,4215.769043,4412.563965,4205.641113,4285,4401.538574,4247.563965,4242.436035,,,,,,,,,,,,,,,,,,,,,,,,,,,,,,,,,,,,,,,,,,,,,,,,,,,,,,,,,,,,,,,,,,,,,,
1720081473,86,0,4375.512695,4361.282227,4290.641113,4343.461426,4393.846191,4383.077148,4384.102539,4230.256348,4416.794922,4211.153809,4290.256348,4413.205078,4245.769043,4212.563965,,,,,,,,,,,,,,,,,,,,,,,,,,,,,,,,,,,,,,,,,,,,,,,,,,,,,,,,,,,,,,,,,,,,,,
1720081473,87,0,4374.102539,4362.179688,4289.743652,4343.461426,4387.820313,4380.256348,4385.128418,4230.128418,4420.769043,4214.743652,4294.871582,4409.871582,4258.205078,4237.307617,,,,,,,,,,,,,,,,,,,,,,,,,,,,,,,,,,,,,,,,,,,,,,,,,,,,,,,,,,,,,,,,,,,,,,
1720081473,88,0,4376.153809,4368.333496,4292.820313,4343.077148,4387.436035,4387.820313,4400.769043,4226.410156,4427.307617,4215.128418,4300,4407.820313,4265.897461,4281.794922,,,,,,,,,,,,,,,,,,,,,,,,,,,,,,,,,,,,,,,,,,,,,,,,,,,,,,,,,,,,,,,,,,,,,,
1720081473,89,0,4389.230957,4377.94873,4303.461426,4343.717773,4394.487305,4396.025879,4409.615234,4230.256348,4412.307617,4211.922852,4297.820313,4423.333496,4256.538574,4245,,,,,,,,,,,,,,,,,,,,,,,,,,,,,,,,,,,,,,,,,,,,,,,,,,,,,,,,,,,,,,,,,,,,,,
1720081473,90,0,4403.333496,4389.230957,4309.487305,4345.769043,4397.820313,4391.794922,4406.794922,4223.589844,4395.897461,4207.563965,4302.436035,4432.94873,4261.922852,4231.410156,,,,,,,,,,,,,,,,,,,,,,,,,,,,,,,,,,,,,,,,,,,,,,,,,,,,,,,,,,,,,,,,,,,,,,
1720081473,91,0,4402.307617,4388.205078,4307.563965,4347.05127,4397.436035,4386.666504,4396.025879,4223.974121,4400.641113,4205.897461,4307.692383,4424.358887,4270,4283.974121,,,,,,,,,,,,,,,,,,,,,,,,,,,,,,,,,,,,,,,,,,,,,,,,,,,,,,,,,,,,,,,,,,,,,,
1720081473,92,0,4387.05127,4375.512695,4300.769043,4346.282227,4397.307617,4384.358887,4382.94873,4225.769043,4401.153809,4201.794922,4296.153809,4412.692383,4254.358887,4278.333496,,,,,,,,,,,,,,,,,,,,,,,,,,,,,,,,,,,,,,,,,,,,,,,,,,,,,,,,,,,,,,,,,,,,,,
1720081473,93,0,4376.922852,4370,4296.410156,4345.128418,4398.077148,4383.205078,4382.307617,4219.743652,4393.589844,4197.820313,4289.615234,4413.589844,4241.538574,4235.384766,3.125376,5.193812,4.962755,1.287899,0.854659,2.018685,3.436517,3.313735,0.573606,0.344683,1.954771,2.599443,2.669055,0.708039,0.295325,0.157391,0.065002,0.061296,0.031394,0.029469,1.410567,0.654333,1.073261,0.535074,0.13182,0.931214,0.931115,1.077784,0.351716,0.148035,1.342572,4.88014,9.530458,1.146225,0.23989,48.095592,16.250278,5.854972,2.404253,1.763248,17.044695,11.158005,5.676371,1.484297,0.575153,80.099281,24.895565,10.297939,3.983567,1.067766,2.81047,4.336055,4.501422,0.913407,0.615409,5.623837,5.99207,4.681588,1.213237,0.638879,1.742913,3.939281,5.60838,0.818039,0.927632,3.134899,11.142397,14.018497,3.601808,3.501234
1720081473,94,0,4371.666504,4367.307617,4300.128418,4346.282227,4395.256348,4383.717773,4387.563965,4230.384766,4401.538574,4206.282227,4298.333496,4426.153809,4247.436035,4233.333496,,,,,,,,,,,,,,,,,,,,,,,,,,,,,,,,,,,,,,,,,,,,,,,,,,,,,,,,,,,,,,,,,,,,,,
1720081473,95,0,4365,4363.717773,4298.205078,4343.461426,4392.94873,4383.077148,4384.487305,4233.205078,4413.974121,4214.871582,4296.153809,4422.563965,4246.922852,4233.077148,,,,,,,,,,,,,,,,,,,,,,,,,,,,,,,,,,,,,,,,,,,,,,,,,,,,,,,,,,,,,,,,,,,,,,
1720081473,96,0,4365.128418,4358.461426,4278.846191,4338.077148,4389.743652,4376.410156,4378.846191,4203.461426,4405.769043,4206.025879,4272.307617,4392.820313,4225.641113,4213.974121,,,,,,,,,,,,,,,,,,,,,,,,,,,,,,,,,,,,,,,,,,,,,,,,,,,,,,,,,,,,,,,,,,,,,,
1720081473,97,0,4359.358887,4343.589844,4272.692383,4344.487305,4378.846191,4376.153809,4379.487305,4223.717773,4390.384766,4194.487305,4254.102539,4382.307617,4200.641113,4204.743652,,,,,,,,,,,,,,,,,,,,,,,,,,,,,,,,,,,,,,,,,,,,,,,,,,,,,,,,,,,,,,,,,,,,,,
1720081474,98,0,4352.179688,4341.153809,4279.487305,4346.025879,4376.025879,4381.794922,4391.153809,4237.563965,4399.230957,4199.102539,4258.461426,4388.333496,4204.871582,4219.743652,,,,,,,,,,,,,,,,,,,,,,,,,,,,,,,,,,,,,,,,,,,,,,,,,,,,,,,,,,,,,,,,,,,,,,
1720081474,99,0,4366.025879,4360.384766,4283.205078,4339.743652,4383.589844,4383.333496,4404.615234,4206.153809,4408.974121,4204.871582,4271.922852,4393.846191,4225.512695,4248.717773,,,,,,,,,,,,,,,,,,,,,,,,,,,,,,,,,,,,,,,,,,,,,,,,,,,,,,,,,,,,,,,,,,,,,,
1720081474,100,0,4381.666504,4366.410156,4286.025879,4344.102539,4386.153809,4382.179688,4399.615234,4219.102539,4392.563965,4200.512695,4275.384766,4403.846191,4227.563965,4259.871582,,,,,,,,,,,,,,,,,,,,,,,,,,,,,,,,,,,,,,,,,,,,,,,,,,,,,,,,,,,,,,,,,,,,,,
1720081474,101,0,4386.153809,4363.974121,4286.025879,4345.512695,4387.179688,4375.512695,4388.717773,4224.615234,4384.102539,4199.487305,4283.205078,4408.333496,4234.487305,4253.589844,,,,,,,,,,,,,,,,,,,,,,,,,,,,,,,,,,,,,,,,,,,,,,,,,,,,,,,,,,,,,,,,,,,,,,
1720081474,102,0,4401.666504,4383.846191,4302.563965,4345,4395.384766,4376.666504,4391.410156,4215.256348,4394.615234,4206.410156,4311.282227,4425.641113,4261.153809,4250,,,,,,,,,,,,,,,,,,,,,,,,,,,,,,,,,,,,,,,,,,,,,,,,,,,,,,,,,,,,,,,,,,,,,,
1720081474,103,0,4422.05127,4403.846191,4319.487305,4348.077148,4407.94873,4388.333496,4398.717773,4226.282227,4398.717773,4212.820313,4320.897461,4444.358887,4268.077148,4259.871582,,,,,,,,,,,,,,,,,,,,,,,,,,,,,,,,,,,,,,,,,,,,,,,,,,,,,,,,,,,,,,,,,,,,,,
1720081474,104,0,4417.307617,4397.563965,4313.077148,4348.205078,4410,4392.179688,4401.153809,4222.94873,4401.922852,4214.230957,4306.794922,4439.358887,4257.179688,4269.871582,,,,,,,,,,,,,,,,,,,,,,,,,,,,,,,,,,,,,,,,,,,,,,,,,,,,,,,,,,,,,,,,,,,,,,
1720081474,105,0,4386.410156,4377.563965,4300.897461,4347.436035,4399.358887,4390.384766,4398.205078,4220.128418,4411.922852,4216.922852,4301.794922,4428.589844,4248.974121,4245.128418,,,,,,,,,,,,,,,,,,,,,,,,,,,,,,,,,,,,,,,,,,,,,,,,,,,,,,,,,,,,,,,,,,,,,,
1720081474,106,0,4351.153809,4360.512695,4292.436035,4345.769043,4394.358887,4388.589844,4399.487305,4229.102539,4413.846191,4219.102539,4298.077148,4418.846191,4239.102539,4225.256348,,,,,,,,,,,,,,,,,,,,,,,,,,,,,,,,,,,,,,,,,,,,,,,,,,,,,,,,,,,,,,,,,,,,,,
1720081474,107,0,4354.487305,4360.384766,4291.282227,4344.871582,4401.025879,4387.692383,4409.487305,4222.05127,4414.230957,4218.205078,4293.846191,4415.128418,4239.230957,4245.128418,,,,,,,,,,,,,,,,,,,,,,,,,,,,,,,,,,,,,,,,,,,,,,,,,,,,,,,,,,,,,,,,,,,,,,
1720081474,108,0,4382.563965,4378.589844,4295.128418,4349.743652,4401.153809,4388.077148,4413.589844,4222.436035,4414.102539,4217.692383,4298.077148,4422.820313,4243.205078,4243.974121,,,,,,,,,,,,,,,,,,,,,,,,,,,,,,,,,,,,,,,,,,,,,,,,,,,,,,,,,,,,,,,,,,,,,,
1720081474,109,0,4380.641113,4405.512695,4294.743652,4352.179688,4397.563965,4384.487305,4409.487305,4236.025879,4412.692383,4218.846191,4300.512695,4423.077148,4243.717773,4236.538574,2.979145,5.993404,5.24168,1.43474,0.859526,1.84043,3.977153,3.560683,0.630119,0.363987,2.126139,2.842092,2.821644,0.615069,0.304799,0.106902,0.060766,0.068542,0.029326,0.031564,1.129517,0.837503,1.059794,0.520921,0.143993,0.888176,1.012737,1.033242,0.31708,0.135011,1.298167,4.98803,10.538827,1.016584,0.226458,28.793142,9.794561,3.650736,1.476699,1.463838,10.335445,9.334713,5.206215,1.359123,0.532952,48.062408,15.331562,6.63754,2.49655,0.716291,2.809554,4.363943,4.827288,0.991142,0.632275,4.472411,5.847017,4.779943,1.218891,0.613909,1.931682,4.060743,5.836763,0.916416,0.921706,3.451345,12.042309,14.050488,3.783345,3.487931
1720081474,110,0,4370.384766,4427.179688,4290.641113,4345.384766,4400.897461,4376.282227,4407.05127,4211.153809,4411.538574,4219.487305,4307.820313,4418.077148,4260.769043,4274.358887,,,,,,,,,,,,,,,,,,,,,,,,,,,,,,,,,,,,,,,,,,,,,,,,,,,,,,,,,,,,,,,,,,,,,,
1720081474,111,0,4369.102539,4423.589844,4296.410156,4345.769043,4398.717773,4378.589844,4397.436035,4211.666504,4397.820313,4215.128418,4318.846191,4431.025879,4270.512695,4288.974121,,,,,,,,,,,,,,,,,,,,,,,,,,,,,,,,,,,,,,,,,,,,,,,,,,,,,,,,,,,,,,,,,,,,,,
1720081474,112,0,4351.153809,4407.436035,4292.94873,4350.384766,4389.615234,4379.102539,4379.230957,4228.974121,4380.897461,4209.487305,4302.436035,4419.743652,4246.153809,4250.641113,,,,,,,,,,,,,,,,,,,,,,,,,,,,,,,,,,,,,,,,,,,,,,,,,,,,,,,,,,,,,,,,,,,,,,
1720081474,113,0,4337.94873,4404.358887,4274.487305,4347.692383,4386.922852,4369.743652,4371.025879,4207.94873,4380.128418,4208.846191,4281.025879,4383.077148,4233.846191,4246.538574,,,,,,,,,,,,,,,,,,,,,,,,,,,,,,,,,,,,,,,,,,,,,,,,,,,,,,,,,,,,,,,,,,,,,,
1720081474,114,0,4354.358887,4411.922852,4275.769043,4347.179688,4392.179688,4375.128418,4381.153809,4212.820313,4388.846191,4213.717773,4295.897461,4393.205078,4257.05127,4272.179688,,,,,,,,,,,,,,,,,,,,,,,,,,,,,,,,,,,,,,,,,,,,,,,,,,,,,,,,,,,,,,,,,,,,,,
1720081474,115,0,4375.769043,4421.666504,4293.589844,4347.820313,4400,4390.641113,4404.871582,4226.666504,4402.179688,4223.717773,4315.769043,4425.512695,4269.743652,4267.307617,,,,,,,,,,,,,,,,,,,,,,,,,,,,,,,,,,,,,,,,,,,,,,,,,,,,,,,,,,,,,,,,,,,,,,
1720081474,116,0,4367.436035,4418.077148,4297.179688,4348.077148,4400.769043,4397.179688,4419.230957,4224.871582,4406.794922,4227.563965,4313.717773,4426.153809,4255.769043,4250.512695,,,,,,,,,,,,,,,,,,,,,,,,,,,,,,,,,,,,,,,,,,,,,,,,,,,,,,,,,,,,,,,,,,,,,,
1720081474,117,0,4345.384766,4398.846191,4277.307617,4346.025879,4395.384766,4390.897461,4408.461426,4222.94873,4398.205078,4218.974121,4296.410156,4403.717773,4237.436035,4245,,,,,,,,,,,,,,,,,,,,,,,,,,,,,,,,,,,,,,,,,,,,,,,,,,,,,,,,,,,,,,,,,,,,,,
1720081474,118,0,4325.384766,4383.077148,4257.307617,4341.410156,4391.025879,4380.769043,4392.05127,4219.615234,4399.743652,4215.641113,4278.205078,4387.94873,4225,4221.153809,,,,,,,,,,,,,,,,,,,,,,,,,,,,,,,,,,,,,,,,,,,,,,,,,,,,,,,,,,,,,,,,,,,,,,
1720081474,119,0,4299.102539,4373.717773,4256.025879,4343.717773,4383.846191,4379.230957,4386.666504,4221.794922,4407.563965,4221.410156,4275.897461,4389.615234,4216.410156,4185.897461,,,,,,,,,,,,,,,,,,,,,,,,,,,,,,,,,,,,,,,,,,,,,,,,,,,,,,,,,,,,,,,,,,,,,,
1720081474,120,0,4297.692383,4370.769043,4263.333496,4351.666504,4380.384766,4382.307617,4386.410156,4221.282227,4402.05127,4220.128418,4282.179688,4396.794922,4215.512695,4184.615234,,,,,,,,,,,,,,,,,,,,,,,,,,,,,,,,,,,,,,,,,,,,,,,,,,,,,,,,,,,,,,,,,,,,,,
1720081474,121,0,4329.358887,4382.692383,4269.871582,4349.871582,4389.102539,4384.743652,4391.666504,4212.563965,4390.897461,4213.333496,4287.307617,4403.589844,4227.692383,4209.743652,,,,,,,,,,,,,,,,,,,,,,,,,,,,,,,,,,,,,,,,,,,,,,,,,,,,,,,,,,,,,,,,,,,,,,
1720081474,122,0,4343.077148,4394.230957,4284.358887,4346.282227,4396.666504,4386.025879,4395.256348,4221.153809,4384.230957,4215.512695,4301.153809,4419.358887,4244.230957,4241.666504,,,,,,,,,,,,,,,,,,,,,,,,,,,,,,,,,,,,,,,,,,,,,,,,,,,,,,,,,,,,,,,,,,,,,,
1720081474,123,0,4342.563965,4395,4298.333496,4348.461426,4395.512695,4378.846191,4385.769043,4231.282227,4380.512695,4219.230957,4313.589844,4431.282227,4247.94873,4262.436035,,,,,,,,,,,,,,,,,,,,,,,,,,,,,,,,,,,,,,,,,,,,,,,,,,,,,,,,,,,,,,,,,,,,,,
1720081474,124,0,4363.077148,4402.94873,4286.025879,4341.794922,4396.282227,4367.307617,4374.230957,4199.743652,4381.922852,4211.922852,4301.410156,4414.743652,4240.641113,4250.897461,,,,,,,,,,,,,,,,,,,,,,,,,,,,,,,,,,,,,,,,,,,,,,,,,,,,,,,,,,,,,,,,,,,,,,
1720081474,125,0,4361.153809,4399.871582,4274.615234,4342.563965,4391.282227,4374.358887,4376.922852,4208.717773,4378.205078,4206.666504,4280.769043,4400.769043,4220.897461,4236.282227,2.746018,6.442319,5.020006,1.552264,0.860304,1.702998,4.222874,3.450116,0.668862,0.381678,2.199467,2.961472,2.715765,0.509397,0.312612,0.066437,0.056369,0.072293,0.0274,0.035022,0.887974,0.983451,1.007046,0.467104,0.15465,0.882565,1.049829,0.992855,0.291819,0.124097,1.268603,4.670441,10.717667,0.87556,0.213038,13.248024,4.812781,1.969553,0.776111,1.228467,5.112373,7.5913,4.933672,1.269377,0.492985,22.477478,7.977712,3.829791,1.381918,0.445879,2.658483,4.161755,4.645132,1.009784,0.649661,3.460117,5.466715,4.536771,1.191698,0.606323,2.110775,3.907809,5.489229,0.943456,0.902721,3.435922,12.533872,12.797939,4.08908,3.621814
1720081474,126,0,4324.615234,4377.307617,4269.871582,4347.820313,4383.846191,4386.794922,4395.897461,4233.974121,4372.820313,4206.922852,4271.025879,4395,4201.025879,4241.410156,,,,,,,,,,,,,,,,,,,,,,,,,,,,,,,,,,,,,,,,,,,,,,,,,,,,,,,,,,,,,,,,,,,,,,
1720081474,127,0,4317.05127,4370.256348,4258.205078,4342.179688,4388.974121,4382.563965,4413.974121,4206.666504,4392.05127,4211.153809,4267.05127,4382.94873,4204.102539,4235,,,,,,,,,,,,,,,,,,,,,,,,,,,,,,,,,,,,,,,,,,,,,,,,,,,,,,,,,,,,,,,,,,,,,,
1720081474,0,0,4333.077148,4378.589844,4266.282227,4343.589844,4392.563965,4376.794922,4413.974121,4217.436035,4415,4221.025879,4274.102539,4395.897461,4215.769043,4208.077148,,,,,,,,,,,,,,,,,,,,,,,,,,,,,,,,,,,,,,,,,,,,,,,,,,,,,,,,,,,,,,,,,,,,,,
1720081474,1,0,4345.384766,4385.256348,4279.230957,4346.922852,4390.128418,4376.666504,4400.128418,4234.871582,4412.307617,4225.512695,4285.256348,4414.102539,4218.717773,4204.487305,,,,,,,,,,,,,,,,,,,,,,,,,,,,,,,,,,,,,,,,,,,,,,,,,,,,,,,,,,,,,,,,,,,,,,
1720081474,2,0,4340.256348,4383.461426,4274.615234,4345.769043,4390.128418,4377.179688,4387.179688,4218.205078,4393.077148,4220,4282.692383,4411.794922,4212.436035,4206.666504,,,,,,,,,,,,,,,,,,,,,,,,,,,,,,,,,,,,,,,,,,,,,,,,,,,,,,,,,,,,,,,,,,,,,,
1720081474,3,0,4323.077148,4375.641113,4269.743652,4346.153809,4393.461426,4379.102539,4382.692383,4217.820313,4381.538574,4210.384766,4268.974121,4404.358887,4203.589844,4187.692383,,,,,,,,,,,,,,,,,,,,,,,,,,,,,,,,,,,,,,,,,,,,,,,,,,,,,,,,,,,,,,,,,,,,,,
1720081474,4,0,4332.05127,4379.487305,4271.922852,4345.128418,4397.94873,4378.589844,4382.820313,4214.743652,4383.846191,4208.205078,4266.922852,4400,4204.487305,4197.179688,,,,,,,,,,,,,,,,,,,,,,,,,,,,,,,,,,,,,,,,,,,,,,,,,,,,,,,,,,,,,,,,,,,,,,
1720081474,5,0,4350.897461,4390.128418,4278.589844,4345.769043,4398.205078,4374.871582,4380.641113,4209.358887,4381.794922,4210.512695,4278.589844,4403.205078,4215.897461,4239.487305,,,,,,,,,,,,,,,,,,,,,,,,,,,,,,,,,,,,,,,,,,,,,,,,,,,,,,,,,,,,,,,,,,,,,,
1720081474,6,0,4346.025879,4387.179688,4282.94873,4349.743652,4395.384766,4375.897461,4383.461426,4220.897461,4374.871582,4209.102539,4280.256348,4408.717773,4220.128418,4238.205078,,,,,,,,,,,,,,,,,,,,,,,,,,,,,,,,,,,,,,,,,,,,,,,,,,,,,,,,,,,,,,,,,,,,,,
1720081474,7,0,4338.717773,4380.128418,4272.820313,4347.179688,4393.333496,4374.615234,4392.692383,4207.563965,4375.897461,4202.94873,4272.563965,4396.922852,4211.282227,4207.05127,,,,,,,,,,,,,,,,,,,,,,,,,,,,,,,,,,,,,,,,,,,,,,,,,,,,,,,,,,,,,,,,,,,,,,
1720081474,8,0,4344.230957,4378.077148,4259.230957,4343.589844,4391.282227,4372.436035,4397.179688,4197.94873,4383.717773,4201.538574,4268.333496,4381.538574,4204.487305,4214.358887,,,,,,,,,,,,,,,,,,,,,,,,,,,,,,,,,,,,,,,,,,,,,,,,,,,,,,,,,,,,,,,,,,,,,,
1720081474,9,0,4339.871582,4371.153809,4262.692383,4348.461426,4386.025879,4377.820313,4400.128418,4236.922852,4389.871582,4211.794922,4271.025879,4390.384766,4204.230957,4240.256348,,,,,,,,,,,,,,,,,,,,,,,,,,,,,,,,,,,,,,,,,,,,,,,,,,,,,,,,,,,,,,,,,,,,,,
1720081474,10,0,4332.94873,4369.871582,4262.307617,4346.410156,4382.820313,4377.307617,4402.05127,4228.589844,4393.846191,4216.153809,4271.282227,4396.538574,4204.871582,4244.743652,,,,,,,,,,,,,,,,,,,,,,,,,,,,,,,,,,,,,,,,,,,,,,,,,,,,,,,,,,,,,,,,,,,,,,
1720081474,11,0,4348.974121,4380.641113,4262.692383,4344.102539,4385.512695,4373.717773,4392.94873,4203.077148,4392.563965,4210.641113,4268.717773,4397.94873,4202.179688,4223.205078,,,,,,,,,,,,,,,,,,,,,,,,,,,,,,,,,,,,,,,,,,,,,,,,,,,,,,,,,,,,,,,,,,,,,,
1720081474,12,0,4362.820313,4386.666504,4273.846191,4345.512695,4392.307617,4375.641113,4383.077148,4222.436035,4389.102539,4204.230957,4269.230957,4403.974121,4201.025879,4201.153809,,,,,,,,,,,,,,,,,,,,,,,,,,,,,,,,,,,,,,,,,,,,,,,,,,,,,,,,,,,,,,,,,,,,,,
1720081474,13,0,4348.333496,4377.563965,4271.922852,4341.410156,4393.589844,4375.128418,4387.179688,4221.025879,4387.820313,4201.922852,4265,4395.256348,4197.692383,4211.410156,2.450505,6.519819,4.350839,1.632324,0.85248,1.647652,4.136214,3.022282,0.699133,0.392611,2.145594,2.950576,2.360122,0.416456,0.31647,0.041129,0.051577,0.07163,0.025747,0.039026,0.723721,1.078697,0.911719,0.38898,0.161637,0.89242,1.058207,0.953582,0.279848,0.118905,1.221666,4.039073,10.025969,0.749156,0.203172,4.339935,1.955721,1.021674,0.380309,1.077582,2.212166,6.16483,4.809839,1.203785,0.456985,7.843429,3.730143,2.225276,0.763733,0.289229,2.41881,3.799996,4.015733,0.960227,0.649719,2.844846,4.934973,3.989877,1.130491,0.607501,2.205016,3.581001,4.649453,0.89744,0.865623,3.134722,12.619392,10.492343,4.415438,3.862972
1720081474,14,0,4331.794922,4365.256348,4263.974121,4342.563965,4387.820313,4376.025879,4393.077148,4214.230957,4377.692383,4200.256348,4257.436035,4386.282227,4190,4229.487305,,,,,,,,,,,,,,,,,,,,,,,,,,,,,,,,,,,,,,,,,,,,,,,,,,,,,,,,,,,,,,,,,,,,,,
1720081474,15,0,4339.230957,4369.358887,4265.512695,4347.563965,4392.94873,4381.025879,4395.769043,4214.358887,4369.871582,4198.205078,4255.641113,4388.589844,4191.153809,4222.05127,,,,,,,,,,,,,,,,,,,,,,,,,,,,,,,,,,,,,,,,,,,,,,,,,,,,,,,,,,,,,,,,,,,,,,
1720081474,16,0,4345.256348,4378.589844,4271.025879,4346.922852,4400.128418,4382.820313,4401.922852,4213.205078,4381.025879,4202.563965,4261.922852,4398.077148,4194.615234,4214.487305,,,,,,,,,,,,,,,,,,,,,,,,,,,,,,,,,,,,,,,,,,,,,,,,,,,,,,,,,,,,,,,,,,,,,,
1720081474,17,0,4342.307617,4378.333496,4276.025879,4343.589844,4395.641113,4382.05127,4411.153809,4222.307617,4395.512695,4214.743652,4277.692383,4412.94873,4202.692383,4220.256348,,,,,,,,,,,,,,,,,,,,,,,,,,,,,,,,,,,,,,,,,,,,,,,,,,,,,,,,,,,,,,,,,,,,,,
1720081474,18,0,4352.563965,4378.461426,4280.641113,4343.333496,4393.461426,4382.820313,4415.384766,4224.487305,4397.05127,4223.461426,4295.769043,4422.307617,4219.487305,4237.179688,,,,,,,,,,,,,,,,,,,,,,,,,,,,,,,,,,,,,,,,,,,,,,,,,,,,,,,,,,,,,,,,,,,,,,
1720081474,19,0,4367.692383,4384.615234,4283.205078,4343.461426,4394.487305,4383.461426,4411.794922,4220.256348,4395.769043,4222.692383,4298.461426,4420.641113,4222.94873,4264.871582,,,,,,,,,,,,,,,,,,,,,,,,,,,,,,,,,,,,,,,,,,,,,,,,,,,,,,,,,,,,,,,,,,,,,,
1720081474,20,0,4367.563965,4392.436035,4291.922852,4345,4395.769043,4386.282227,4413.974121,4227.307617,4406.538574,4232.05127,4296.410156,4425.641113,4219.871582,4265.256348,,,,,,,,,,,,,,,,,,,,,,,,,,,,,,,,,,,,,,,,,,,,,,,,,,,,,,,,,,,,,,,,,,,,,,
1720081474,21,0,4357.94873,4394.487305,4296.794922,4346.410156,4402.436035,4386.922852,4412.820313,4221.794922,4414.615234,4245.128418,4306.410156,4432.692383,4232.436035,4246.922852,,,,,,,,,,,,,,,,,,,,,,,,,,,,,,,,,,,,,,,,,,,,,,,,,,,,,,,,,,,,,,,,,,,,,,
1720081474,22,0,4360.128418,4391.666504,4289.487305,4345.128418,4404.743652,4382.436035,4399.487305,4218.077148,4407.307617,4243.077148,4311.922852,4425.641113,4241.410156,4257.05127,,,,,,,,,,,,,,,,,,,,,,,,,,,,,,,,,,,,,,,,,,,,,,,,,,,,,,,,,,,,,,,,,,,,,,
1720081474,23,0,4365.256348,4386.153809,4287.436035,4348.974121,4395.769043,4384.871582,4393.333496,4249.230957,4398.333496,4241.153809,4303.077148,4421.666504,4227.436035,4265.384766,,,,,,,,,,,,,,,,,,,,,,,,,,,,,,,,,,,,,,,,,,,,,,,,,,,,,,,,,,,,,,,,,,,,,,
1720081474,24,0,4353.974121,4378.333496,4276.025879,4346.282227,4391.538574,4383.974121,4397.820313,4228.077148,4396.922852,4240.384766,4288.333496,4409.615234,4216.410156,4248.333496,,,,,,,,,,,,,,,,,,,,,,,,,,,,,,,,,,,,,,,,,,,,,,,,,,,,,,,,,,,,,,,,,,,,,,
1720081474,25,0,4343.461426,4372.692383,4267.692383,4342.563965,4396.666504,4376.922852,4398.974121,4202.692383,4395.769043,4237.563965,4288.589844,4403.205078,4222.692383,4252.05127,,,,,,,,,,,,,,,,,,,,,,,,,,,,,,,,,,,,,,,,,,,,,,,,,,,,,,,,,,,,,,,,,,,,,,
1720081474,26,0,4347.05127,4375,4277.820313,4346.282227,4397.05127,4383.077148,4403.717773,4238.461426,4395.384766,4238.205078,4300.128418,4415.769043,4226.282227,4267.05127,,,,,,,,,,,,,,,,,,,,,,,,,,,,,,,,,,,,,,,,,,,,,,,,,,,,,,,,,,,,,,,,,,,,,,
1720081474,27,0,4349.615234,4378.333496,4279.871582,4343.974121,4395.128418,4391.410156,4414.871582,4229.871582,4397.307617,4239.615234,4296.410156,4412.94873,4220,4255.384766,,,,,,,,,,,,,,,,,,,,,,,,,,,,,,,,,,,,,,,,,,,,,,,,,,,,,,,,,,,,,,,,,,,,,,
1720081474,28,0,4343.974121,4373.717773,4278.461426,4342.563965,4396.922852,4386.282227,4410.769043,4213.974121,4394.487305,4236.666504,4287.94873,4408.846191,4215.128418,4251.794922,,,,,,,,,,,,,,,,,,,,,,,,,,,,,,,,,,,,,,,,,,,,,,,,,,,,,,,,,,,,,,,,,,,,,,
1720081474,29,0,4350.769043,4374.871582,4281.025879,4343.333496,4397.563965,4379.615234,4399.743652,4228.846191,4392.94873,4235.641113,4292.692383,4414.102539,4219.102539,4262.05127,2.158006,6.383488,3.463892,1.714564,0.834551,1.739849,3.837605,2.452899,0.754828,0.394432,1.996363,2.851442,1.871925,0.3666,0.316257,0.030661,0.046126,0.0673,0.024711,0.042851,0.633167,1.128164,0.779387,0.312978,0.164425,0.860939,1.066685,0.899685,0.280705,0.120094,1.122081,3.288053,8.661446,0.668334,0.198835,0.755874,0.828103,0.647346,0.221677,0.991124,1.09159,5.056817,4.669338,1.129721,0.425513,2.115276,1.966016,1.55522,0.525278,0.222358,2.158383,3.427467,3.169797,0.887714,0.626696,2.604387,4.368533,3.281512,1.075688,0.610802,2.241144,3.284657,3.58937,0.827837,0.815132,2.688292,12.672163,7.781489,4.612446,4.102851
1720081474,30,0,4365,4384.102539,4285.384766,4342.307617,4395.512695,4380.897461,4398.205078,4224.358887,4395,4237.436035,4296.794922,4414.102539,4222.436035,4257.94873,,,,,,,,,,,,,,,,,,,,,,,,,,,,,,,,,,,,,,,,,,,,,,,,,,,,,,,,,,,,,,,,,,,,,,
1720081474,31,0,4363.974121,4385.897461,4291.282227,4343.846191,4397.307617,4380.641113,4398.333496,4224.743652,4398.974121,4242.307617,4296.922852,4419.615234,4228.717773,4253.333496,,,,,,,,,,,,,,,,,,,,,,,,,,,,,,,,,,,,,,,,,,,,,,,,,,,,,,,,,,,,,,,,,,,,,,
1720081474,32,0,4363.974121,4385.769043,4288.717773,4343.846191,4402.307617,4377.307617,4400.256348,4232.179688,4411.538574,4251.666504,4313.333496,4434.358887,4247.05127,4256.410156,,,,,,,,,,,,,,,,,,,,,,,,,,,,,,,,,,,,,,,,,,,,,,,,,,,,,,,,,,,,,,,,,,,,,,
1720081474,33,0,4372.94873,4386.282227,4284.102539,4343.205078,4395.128418,4377.94873,4402.436035,4230.769043,4419.743652,4252.179688,4323.974121,4435.384766,4251.282227,4263.461426,,,,,,,,,,,,,,,,,,,,,,,,,,,,,,,,,,,,,,,,,,,,,,,,,,,,,,,,,,,,,,,,,,,,,,
1720081474,34,0,4366.794922,4379.230957,4281.282227,4345,4384.358887,4377.05127,4399.487305,4233.589844,4408.205078,4243.717773,4306.025879,4417.179688,4234.871582,4271.153809,,,,,,,,,,,,,,,,,,,,,,,,,,,,,,,,,,,,,,,,,,,,,,,,,,,,,,,,,,,,,,,,,,,,,,
1720081474,35,0,4353.589844,4373.589844,4272.179688,4344.615234,4387.179688,4372.820313,4396.794922,4229.358887,4398.205078,4242.436035,4292.94873,4403.333496,4227.307617,4272.307617,,,,,,,,,,,,,,,,,,,,,,,,,,,,,,,,,,,,,,,,,,,,,,,,,,,,,,,,,,,,,,,,,,,,,,
1720081474,36,0,4359.230957,4377.179688,4268.974121,4341.666504,4393.333496,4371.410156,4402.179688,4217.307617,4398.974121,4243.589844,4299.230957,4405.641113,4232.179688,4272.179688,,,,,,,,,,,,,,,,,,,,,,,,,,,,,,,,,,,,,,,,,,,,,,,,,,,,,,,,,,,,,,,,,,,,,,
1720081474,37,0,4362.05127,4377.563965,4285.256348,4343.846191,4392.820313,4379.615234,4408.461426,4239.743652,4395.384766,4240.897461,4304.102539,4421.922852,4230.769043,4271.794922,,,,,,,,,,,,,,,,,,,,,,,,,,,,,,,,,,,,,,,,,,,,,,,,,,,,,,,,,,,,,,,,,,,,,,
1720081474,38,0,4352.179688,4376.153809,4293.717773,4343.846191,4388.974121,4380.641113,4410.769043,4240.256348,4399.230957,4239.487305,4302.436035,4425,4230.384766,4270.641113,,,,,,,,,,,,,,,,,,,,,,,,,,,,,,,,,,,,,,,,,,,,,,,,,,,,,,,,,,,,,,,,,,,,,,
1720081474,39,0,4356.282227,4380,4290.769043,4341.666504,4389.743652,4375.897461,4412.179688,4221.538574,4411.282227,4247.307617,4305.384766,4422.692383,4237.05127,4279.230957,,,,,,,,,,,,,,,,,,,,,,,,,,,,,,,,,,,,,,,,,,,,,,,,,,,,,,,,,,,,,,,,,,,,,,
1720081474,40,0,4371.410156,4381.666504,4295.384766,4343.846191,4390.641113,4379.102539,4410.641113,4237.94873,4405.384766,4251.282227,4305.128418,4431.410156,4233.846191,4273.846191,,,,,,,,,,,,,,,,,,,,,,,,,,,,,,,,,,,,,,,,,,,,,,,,,,,,,,,,,,,,,,,,,,,,,,
1720081474,41,0,4374.615234,4379.358887,4296.410156,4344.102539,4390.769043,4377.563965,4406.922852,4230.512695,4384.487305,4240.512695,4298.974121,4429.871582,4226.410156,4244.487305,,,,,,,,,,,,,,,,,,,,,,,,,,,,,,,,,,,,,,,,,,,,,,,,,,,,,,,,,,,,,,,,,,,,,,
1720081474,42,0,4364.230957,4378.846191,4294.102539,4345.256348,4397.820313,4379.102539,4407.94873,4227.563965,4384.871582,4239.871582,4300.512695,4433.589844,4227.692383,4234.358887,,,,,,,,,,,,,,,,,,,,,,,,,,,,,,,,,,,,,,,,,,,,,,,,,,,,,,,,,,,,,,,,,,,,,,
1720081474,43,0,4360.641113,4380.256348,4288.333496,4344.487305,4407.692383,4388.077148,4414.871582,4243.333496,4406.538574,4256.538574,4298.333496,4439.615234,4227.05127,4232.436035,,,,,,,,,,,,,,,,,,,,,,,,,,,,,,,,,,,,,,,,,,,,,,,,,,,,,,,,,,,,,,,,,,,,,,
1720081474,44,0,4362.563965,4377.692383,4282.307617,4341.153809,4404.743652,4386.794922,4416.025879,4239.615234,4415.897461,4261.794922,4297.563965,4432.563965,4225.512695,4233.974121,,,,,,,,,,,,,,,,,,,,,,,,,,,,,,,,,,,,,,,,,,,,,,,,,,,,,,,,,,,,,,,,,,,,,,
1720081474,45,0,4366.153809,4375.512695,4285.256348,4342.436035,4391.153809,4376.282227,4412.820313,4241.410156,4410.256348,4253.589844,4311.666504,4429.358887,4234.102539,4274.102539,1.95447,6.236222,2.650378,1.862764,0.812906,2.019834,3.520105,1.95912,0.87294,0.389588,1.826908,2.726447,1.420882,0.381769,0.313286,0.028823,0.040296,0.061209,0.024832,0.046006,0.594929,1.146016,0.63337,0.261944,0.163112,0.763894,1.091841,0.819554,0.289572,0.125292,0.968423,2.613735,7.014715,0.657873,0.197839,0.150061,0.543309,0.522161,0.171572,0.934754,0.832075,4.160995,4.387878,1.018124,0.398988,1.056771,1.3838,1.289968,0.447534,0.19585,1.94447,3.194771,2.376598,0.862263,0.58624,2.63653,3.886233,2.591646,1.083934,0.614403,2.247015,3.209537,2.635489,0.806654,0.75896,2.303946,12.996248,5.412529,4.563838,4.20755
1720081474,46,0,4371.410156,4377.307617,4285.769043,4344.230957,4384.358887,4374.102539,4412.820313,4241.153809,4406.666504,4253.974121,4312.94873,4427.692383,4238.974121,4303.205078,,,,,,,,,,,,,,,,,,,,,,,,,,,,,,,,,,,,,,,,,,,,,,,,,,,,,,,,,,,,,,,,,,,,,,
1720081474,47,0,4356.282227,4368.846191,4276.794922,4342.820313,4381.538574,4378.461426,4410.256348,4230.256348,4398.717773,4252.563965,4290.512695,4416.410156,4223.846191,4271.025879,,,,,,,,,,,,,,,,,,,,,,,,,,,,,,,,,,,,,,,,,,,,,,,,,,,,,,,,,,,,,,,,,,,,,,
1720081474,48,0,4337.05127,4355.512695,4268.717773,4342.179688,4381.666504,4375.256348,4402.179688,4234.871582,4386.922852,4240.641113,4280.384766,4411.025879,4212.820313,4245.384766,,,,,,,,,,,,,,,,,,,,,,,,,,,,,,,,,,,,,,,,,,,,,,,,,,,,,,,,,,,,,,,,,,,,,,
1720081474,49,0,4349.358887,4363.205078,4269.230957,4341.410156,4389.230957,4369.743652,4398.333496,4240.897461,4393.333496,4246.794922,4293.974121,4423.461426,4223.974121,4261.666504,,,,,,,,,,,,,,,,,,,,,,,,,,,,,,,,,,,,,,,,,,,,,,,,,,,,,,,,,,,,,,,,,,,,,,
1720081474,50,0,4359.871582,4376.666504,4278.589844,4339.230957,4397.05127,4367.307617,4400.256348,4227.820313,4404.743652,4260.256348,4308.077148,4439.743652,4236.666504,4254.743652,,,,,,,,,,,,,,,,,,,,,,,,,,,,,,,,,,,,,,,,,,,,,,,,,,,,,,,,,,,,,,,,,,,,,,
1720081474,51,0,4336.282227,4365.769043,4291.794922,4345,4395.256348,4369.487305,4392.820313,4249.743652,4394.871582,4252.563965,4311.538574,4446.794922,4235.512695,4227.94873,,,,,,,,,,,,,,,,,,,,,,,,,,,,,,,,,,,,,,,,,,,,,,,,,,,,,,,,,,,,,,,,,,,,,,
1720081474,52,0,4331.794922,4353.077148,4278.846191,4344.743652,4396.025879,4367.436035,4385.128418,4253.205078,4388.077148,4242.307617,4296.794922,4418.333496,4226.794922,4232.436035,,,,,,,,,,,,,,,,,,,,,,,,,,,,,,,,,,,,,,,,,,,,,,,,,,,,,,,,,,,,,,,,,,,,,,
1720081474,53,0,4357.692383,4365.128418,4268.461426,4337.820313,4409.487305,4364.743652,4388.846191,4223.333496,4396.794922,4247.05127,4291.025879,4397.94873,4231.538574,4260.641113,,,,,,,,,,,,,,,,,,,,,,,,,,,,,,,,,,,,,,,,,,,,,,,,,,,,,,,,,,,,,,,,,,,,,,
1720081474,54,0,4367.692383,4381.282227,4294.743652,4342.820313,4406.922852,4372.179688,4397.179688,4242.307617,4394.358887,4251.666504,4310.128418,4431.410156,4245.128418,4270.769043,,,,,,,,,,,,,,,,,,,,,,,,,,,,,,,,,,,,,,,,,,,,,,,,,,,,,,,,,,,,,,,,,,,,,,
1720081474,55,0,4368.205078,4380.256348,4298.974121,4345.512695,4386.794922,4377.05127,4411.794922,4243.461426,4383.717773,4242.94873,4308.077148,4447.307617,4236.922852,4256.538574,,,,,,,,,,,,,,,,,,,,,,,,,,,,,,,,,,,,,,,,,,,,,,,,,,,,,,,,,,,,,,,,,,,,,,
1720081474,56,0,4375.256348,4375.897461,4289.102539,4343.974121,4380.256348,4382.307617,4429.102539,4231.153809,4388.461426,4240.512695,4294.743652,4440.512695,4224.615234,4256.538574,,,,,,,,,,,,,,,,,,,,,,,,,,,,,,,,,,,,,,,,,,,,,,,,,,,,,,,,,,,,,,,,,,,,,,
1720081474,57,0,4384.230957,4385.384766,4300.641113,4344.230957,4391.922852,4388.205078,4437.436035,4248.461426,4401.794922,4251.922852,4304.358887,4448.846191,4239.743652,4276.282227,,,,,,,,,,,,,,,,,,,,,,,,,,,,,,,,,,,,,,,,,,,,,,,,,,,,,,,,,,,,,,,,,,,,,,
1720081474,58,0,4387.820313,4395.256348,4302.179688,4342.179688,4404.230957,4383.077148,4425,4245.512695,4400.641113,4256.922852,4313.589844,4438.846191,4252.692383,4285.769043,,,,,,,,,,,,,,,,,,,,,,,,,,,,,,,,,,,,,,,,,,,,,,,,,,,,,,,,,,,,,,,,,,,,,,
1720081474,59,0,4380.897461,4390.641113,4289.230957,4343.589844,4409.102539,4377.05127,4400.641113,4239.871582,4390.128418,4250.769043,4308.974121,4417.692383,4241.153809,4282.307617,,,,,,,,,,,,,,,,,,,,,,,,,,,,,,,,,,,,,,,,,,,,,,,,,,,,,,,,,,,,,,,,,,,,,,
1720081474,60,0,4374.615234,4384.487305,4283.974121,4343.846191,4412.692383,4378.205078,4388.589844,4246.794922,4391.666504,4249.230957,4306.410156,4420.769043,4240.128418,4272.563965,,,,,,,,,,,,,,,,,,,,,,,,,,,,,,,,,,,,,,,,,,,,,,,,,,,,,,,,,,,,,,,,,,,,,,
1720081474,61,0,4374.230957,4384.487305,4287.820313,4342.692383,4413.717773,4379.102539,4389.487305,4241.410156,4398.205078,4256.153809,4308.846191,4435.641113,4247.05127,4252.05127,1.907332,6.193626,2.107604,2.106932,0.794733,2.463573,3.332947,1.682389,1.061191,0.38179,1.697408,2.622436,1.14219,0.463347,0.309073,0.030609,0.035479,0.055438,0.02645,0.048126,0.592174,1.141553,0.507474,0.245878,0.15865,0.619574,1.12546,0.714434,0.299168,0.131196,0.805345,2.129472,5.503469,0.722987,0.19741,0.114136,0.459309,0.441469,0.142109,0.891212,0.679257,3.465014,4.00044,0.876766,0.380408,0.921167,1.108786,1.099117,0.387413,0.17632,1.803023,3.167418,1.810564,0.933322,0.540368,2.739634,3.567062,2.063543,1.188781,0.619371,2.276947,3.390529,2.001275,0.883763,0.703304,2.056909,13.54655,3.862858,4.233969,4.090032
1720081474,62,0,4364.102539,4376.794922,4288.333496,4346.410156,4402.436035,4377.05127,4389.871582,4245.384766,4393.717773,4256.282227,4310,4438.846191,4236.922852,4244.487305,,,,,,,,,,,,,,,,,,,,,,,,,,,,,,,,,,,,,,,,,,,,,,,,,,,,,,,,,,,,,,,,,,,,,,
1720081474,63,0,4352.307617,4368.589844,4286.025879,4346.666504,4393.205078,4377.94873,4397.179688,4256.794922,4393.077148,4256.153809,4309.487305,4437.94873,4234.743652,4255,,,,,,,,,,,,,,,,,,,,,,,,,,,,,,,,,,,,,,,,,,,,,,,,,,,,,,,,,,,,,,,,,,,,,,
1720081474,64,0,4358.333496,4374.102539,4290.256348,4340.384766,4401.410156,4382.563965,4416.025879,4235,4403.717773,4262.179688,4307.436035,4434.230957,4248.077148,4260.384766,,,,,,,,,,,,,,,,,,,,,,,,,,,,,,,,,,,,,,,,,,,,,,,,,,,,,,,,,,,,,,,,,,,,,,
1720081474,65,0,4367.307617,4377.307617,4298.205078,4342.94873,4400.128418,4391.410156,4424.230957,4242.05127,4397.436035,4261.922852,4311.666504,4430.256348,4247.563965,4276.282227,,,,,,,,,,,,,,,,,,,,,,,,,,,,,,,,,,,,,,,,,,,,,,,,,,,,,,,,,,,,,,,,,,,,,,
1720081474,66,0,4373.461426,4379.230957,4295.128418,4345.384766,4391.666504,4393.717773,4423.461426,4260.384766,4389.230957,4259.487305,4318.461426,4434.615234,4246.153809,4291.794922,,,,,,,,,,,,,,,,,,,,,,,,,,,,,,,,,,,,,,,,,,,,,,,,,,,,,,,,,,,,,,,,,,,,,,
1720081474,67,0,4369.102539,4380.128418,4286.025879,4339.487305,4397.307617,4385,4418.333496,4235.769043,4395.384766,4260.769043,4303.846191,4434.743652,4240.384766,4263.717773,,,,,,,,,,,,,,,,,,,,,,,,,,,,,,,,,,,,,,,,,,,,,,,,,,,,,,,,,,,,,,,,,,,,,,
1720081474,68,0,4335.128418,4356.282227,4275.128418,4339.871582,4392.05127,4374.487305,4397.563965,4234.358887,4383.461426,4253.077148,4276.922852,4418.589844,4211.922852,4225.512695,,,,,,,,,,,,,,,,,,,,,,,,,,,,,,,,,,,,,,,,,,,,,,,,,,,,,,,,,,,,,,,,,,,,,,
1720081474,69,0,4319.102539,4338.846191,4259.487305,4341.666504,4375.641113,4363.974121,4384.871582,4241.153809,4368.974121,4245.256348,4271.410156,4397.307617,4200.512695,4225.769043,,,,,,,,,,,,,,,,,,,,,,,,,,,,,,,,,,,,,,,,,,,,,,,,,,,,,,,,,,,,,,,,,,,,,,
1720081474,70,0,4347.94873,4357.307617,4261.153809,4340,4380.641113,4366.538574,4392.307617,4236.538574,4375.128418,4252.563965,4283.461426,4399.102539,4214.230957,4236.666504,,,,,,,,,,,,,,,,,,,,,,,,,,,,,,,,,,,,,,,,,,,,,,,,,,,,,,,,,,,,,,,,,,,,,,
1720081474,71,0,4374.615234,4380.384766,4281.794922,4342.179688,4394.487305,4376.538574,4397.179688,4241.025879,4382.94873,4260,4290.128418,4419.358887,4224.487305,4254.615234,,,,,,,,,,,,,,,,,,,,,,,,,,,,,,,,,,,,,,,,,,,,,,,,,,,,,,,,,,,,,,,,,,,,,,
1720081474,72,0,4379.615234,4385.384766,4295.641113,4344.487305,4396.153809,4376.666504,4391.282227,4242.436035,4386.538574,4262.820313,4303.205078,4433.717773,4238.846191,4266.666504,,,,,,,,,,,,,,,,,,,,,,,,,,,,,,,,,,,,,,,,,,,,,,,,,,,,,,,,,,,,,,,,,,,,,,
1720081474,73,0,4376.025879,4382.820313,4301.153809,4343.205078,4394.615234,4376.922852,4389.743652,4244.871582,4385.128418,4266.410156,4317.820313,4439.615234,4253.205078,4267.179688,,,,,,,,,,,,,,,,,,,,,,,,,,,,,,,,,,,,,,,,,,,,,,,,,,,,,,,,,,,,,,,,,,,,,,
1720081474,74,0,4373.974121,4381.666504,4304.615234,4344.615234,4393.717773,4383.589844,4402.820313,4246.666504,4375.384766,4263.461426,4312.05127,4441.153809,4248.974121,4295.512695,,,,,,,,,,,,,,,,,,,,,,,,,,,,,,,,,,,,,,,,,,,,,,,,,,,,,,,,,,,,,,,,,,,,,,
1720081474,75,0,4374.871582,4378.974121,4297.563965,4344.487305,4391.922852,4388.077148,4412.307617,4240.769043,4378.717773,4259.615234,4307.436035,4437.563965,4246.538574,4315,,,,,,,,,,,,,,,,,,,,,,,,,,,,,,,,,,,,,,,,,,,,,,,,,,,,,,,,,,,,,,,,,,,,,,
1720081474,76,0,4370.769043,4374.358887,4287.563965,4339.871582,4388.974121,4391.922852,4413.461426,4251.282227,4395.256348,4267.94873,4316.153809,4432.436035,4253.461426,4290.641113,,,,,,,,,,,,,,,,,,,,,,,,,,,,,,,,,,,,,,,,,,,,,,,,,,,,,,,,,,,,,,,,,,,,,,
1720081474,77,0,4364.230957,4368.717773,4288.077148,4342.179688,4384.102539,4395.128418,4420.641113,4269.102539,4398.846191,4275.128418,4315.769043,4432.436035,4248.846191,4281.410156,2.036522,6.233922,1.863817,2.41194,0.781852,2.96151,3.302927,1.619686,1.284115,0.372308,1.65931,2.545586,1.072522,0.58977,0.304434,0.034832,0.032923,0.05091,0.029282,0.048922,0.609682,1.117642,0.426467,0.263384,0.152146,0.483393,1.138829,0.59738,0.304321,0.135393,0.711057,1.851326,4.427113,0.844744,0.194757,0.109181,0.417664,0.374836,0.123508,0.864648,0.587685,3.108205,3.669503,0.746568,0.371953,0.767242,0.969236,0.937732,0.335094,0.161662,1.737694,3.312191,1.480596,1.098536,0.499835,2.842335,3.389627,1.728652,1.37862,0.623494,2.289968,3.733514,1.688051,1.055159,0.649569,1.946088,14.0604,3.242555,3.701142,3.753458
1720081474,78,0,4365.769043,4368.461426,4283.333496,4341.282227,4383.589844,4387.179688,4426.922852,4239.102539,4397.692383,4271.282227,4310.641113,4426.282227,4247.307617,4287.307617,,,,,,,,,,,,,,,,,,,,,,,,,,,,,,,,,,,,,,,,,,,,,,,,,,,,,,,,,,,,,,,,,,,,,,
1720081474,79,0,4368.333496,4371.410156,4286.282227,4338.589844,4386.153809,4383.589844,4417.179688,4240,4397.436035,4271.794922,4317.692383,4433.333496,4256.666504,4271.538574,,,,,,,,,,,,,,,,,,,,,,,,,,,,,,,,,,,,,,,,,,,,,,,,,,,,,,,,,,,,,,,,,,,,,,
1720081474,80,0,4373.333496,4376.410156,4296.794922,4341.410156,4392.05127,4390.512695,4406.538574,4270.769043,4391.153809,4276.410156,4320.897461,4449.487305,4258.077148,4268.974121,,,,,,,,,,,,,,,,,,,,,,,,,,,,,,,,,,,,,,,,,,,,,,,,,,,,,,,,,,,,,,,,,,,,,,
1720081474,81,0,4386.153809,4384.615234,4296.025879,4341.666504,4400,4388.461426,4406.538574,4247.307617,4391.538574,4276.922852,4314.743652,4445.897461,4256.025879,4277.05127,,,,,,,,,,,,,,,,,,,,,,,,,,,,,,,,,,,,,,,,,,,,,,,,,,,,,,,,,,,,,,,,,,,,,,
1720081474,82,0,4375.897461,4381.538574,4300.256348,4343.333496,4401.025879,4385.512695,4405.384766,4247.05127,4396.794922,4278.077148,4323.461426,4449.871582,4262.436035,4271.794922,,,,,,,,,,,,,,,,,,,,,,,,,,,,,,,,,,,,,,,,,,,,,,,,,,,,,,,,,,,,,,,,,,,,,,
1720081474,83,0,4348.333496,4370.256348,4301.025879,4342.94873,4395.769043,4386.666504,4407.692383,4262.563965,4398.589844,4280.384766,4325.641113,4450.256348,4262.563965,4269.615234,,,,,,,,,,,,,,,,,,,,,,,,,,,,,,,,,,,,,,,,,,,,,,,,,,,,,,,,,,,,,,,,,,,,,,
1720081474,84,0,4348.077148,4365.897461,4294.743652,4339.487305,4391.153809,4386.666504,4413.205078,4249.358887,4392.692383,4278.974121,4308.205078,4435.897461,4247.436035,4270,,,,,,,,,,,,,,,,,,,,,,,,,,,,,,,,,,,,,,,,,,,,,,,,,,,,,,,,,,,,,,,,,,,,,,
1720081474,85,0,4365.897461,4370,4297.820313,4340.512695,4390.256348,4385.641113,4408.717773,4250.512695,4380.641113,4273.717773,4306.153809,4436.794922,4242.307617,4276.538574,,,,,,,,,,,,,,,,,,,,,,,,,,,,,,,,,,,,,,,,,,,,,,,,,,,,,,,,,,,,,,,,,,,,,,
1720081474,86,0,4373.974121,4371.282227,4292.820313,4340,4390.128418,4382.820313,4406.794922,4253.846191,4378.205078,4270.256348,4321.410156,4439.743652,4253.589844,4281.922852,,,,,,,,,,,,,,,,,,,,,,,,,,,,,,,,,,,,,,,,,,,,,,,,,,,,,,,,,,,,,,,,,,,,,,
1720081474,87,0,4363.717773,4362.05127,4279.487305,4337.563965,4384.743652,4380.512695,4413.333496,4254.102539,4386.153809,4273.205078,4318.846191,4432.94873,4252.820313,4264.487305,,,,,,,,,,,,,,,,,,,,,,,,,,,,,,,,,,,,,,,,,,,,,,,,,,,,,,,,,,,,,,,,,,,,,,
1720081474,88,0,4344.487305,4350.256348,4274.102539,4338.077148,4382.94873,4385,4413.974121,4260.256348,4393.205078,4280.512695,4301.410156,4428.717773,4240.897461,4245.641113,,,,,,,,,,,,,,,,,,,,,,,,,,,,,,,,,,,,,,,,,,,,,,,,,,,,,,,,,,,,,,,,,,,,,,
1720081474,89,0,4344.615234,4353.461426,4277.179688,4338.717773,4388.589844,4390.641113,4410.512695,4257.05127,4398.461426,4282.307617,4300.769043,4421.538574,4243.974121,4265.256348,,,,,,,,,,,,,,,,,,,,,,,,,,,,,,,,,,,,,,,,,,,,,,,,,,,,,,,,,,,,,,,,,,,,,,
1720081474,90,0,4365.897461,4370.897461,4290,4342.563965,4393.974121,4392.94873,4414.230957,4258.589844,4400.897461,4280.512695,4314.743652,4423.589844,4257.94873,4295.512695,,,,,,,,,,,,,,,,,,,,,,,,,,,,,,,,,,,,,,,,,,,,,,,,,,,,,,,,,,,,,,,,,,,,,,
1720081474,91,0,4372.05127,4374.230957,4295.384766,4345.897461,4393.846191,4395.897461,4415.512695,4268.333496,4392.307617,4276.922852,4315.256348,4438.333496,4256.922852,4290.512695,,,,,,,,,,,,,,,,,,,,,,,,,,,,,,,,,,,,,,,,,,,,,,,,,,,,,,,,,,,,,,,,,,,,,,
1720081474,92,0,4351.794922,4358.974121,4270.641113,4337.563965,4387.94873,4388.205078,4401.794922,4238.333496,4376.794922,4268.077148,4301.153809,4420.512695,4244.743652,4265.256348,,,,,,,,,,,,,,,,,,,,,,,,,,,,,,,,,,,,,,,,,,,,,,,,,,,,,,,,,,,,,,,,,,,,,,
1720081474,93,0,4336.538574,4348.461426,4262.692383,4335.512695,4382.94873,4385,4392.563965,4235.256348,4371.153809,4263.717773,4301.666504,4408.717773,4244.743652,4250.641113,2.293789,6.257817,1.806708,2.673198,0.771406,3.317467,3.353904,1.654384,1.46656,0.360084,1.692336,2.480363,1.154432,0.718634,0.299766,0.039985,0.03246,0.047238,0.032431,0.048351,0.63312,1.069374,0.403578,0.30765,0.145125,0.39935,1.099395,0.491299,0.302969,0.136311,0.710399,1.691962,3.900487,0.985666,0.187009,0.09932,0.400846,0.33259,0.119441,0.859008,0.539482,3.053157,3.464437,0.663842,0.370921,0.812174,0.951424,0.834128,0.301088,0.154912,1.738472,3.514452,1.299347,1.300507,0.470403,2.869937,3.273117,1.557715,1.605073,0.621464,2.301332,4.062734,1.55249,1.257808,0.595742,1.924825,14.194081,3.367286,3.120877,3.274175
1720081474,94,0,4340.128418,4354.230957,4281.794922,4343.974121,4386.538574,4395.897461,4403.974121,4269.230957,4380.128418,4267.05127,4310.769043,4435.897461,4249.358887,4237.820313,,,,,,,,,,,,,,,,,,,,,,,,,,,,,,,,,,,,,,,,,,,,,,,,,,,,,,,,,,,,,,,,,,,,,,
1720081474,95,0,4341.025879,4356.410156,4274.615234,4344.358887,4384.230957,4397.179688,4413.333496,4251.282227,4385.512695,4263.589844,4300.769043,4431.410156,4243.974121,4233.205078,,,,,,,,,,,,,,,,,,,,,,,,,,,,,,,,,,,,,,,,,,,,,,,,,,,,,,,,,,,,,,,,,,,,,,
1720081474,96,0,4334.358887,4349.230957,4265.384766,4340.512695,4374.358887,4395.769043,4415.769043,4242.307617,4373.717773,4255.641113,4293.077148,4409.358887,4241.025879,4271.153809,,,,,,,,,,,,,,,,,,,,,,,,,,,,,,,,,,,,,,,,,,,,,,,,,,,,,,,,,,,,,,,,,,,,,,
1720081474,97,0,4348.717773,4358.717773,4283.461426,4339.230957,4384.743652,4401.282227,4426.794922,4255.512695,4369.871582,4255.384766,4304.615234,4428.077148,4249.487305,4288.333496,,,,,,,,,,,,,,,,,,,,,,,,,,,,,,,,,,,,,,,,,,,,,,,,,,,,,,,,,,,,,,,,,,,,,,
1720081475,98,0,4367.94873,4372.05127,4291.794922,4340.769043,4394.615234,4401.794922,4427.692383,4254.871582,4387.436035,4264.102539,4312.94873,4448.589844,4255.384766,4262.05127,,,,,,,,,,,,,,,,,,,,,,,,,,,,,,,,,,,,,,,,,,,,,,,,,,,,,,,,,,,,,,,,,,,,,,
1720081475,99,0,4357.436035,4362.563965,4279.102539,4341.922852,4379.358887,4389.358887,4403.333496,4260.256348,4392.94873,4267.179688,4305,4428.461426,4249.487305,4265.769043,,,,,,,,,,,,,,,,,,,,,,,,,,,,,,,,,,,,,,,,,,,,,,,,,,,,,,,,,,,,,,,,,,,,,,
1720081475,100,0,4351.922852,4356.410156,4272.307617,4338.974121,4375.384766,4378.461426,4384.615234,4257.820313,4382.94873,4262.563965,4297.563965,4409.102539,4247.307617,4284.102539,,,,,,,,,,,,,,,,,,,,,,,,,,,,,,,,,,,,,,,,,,,,,,,,,,,,,,,,,,,,,,,,,,,,,,
1720081475,101,0,4360,4365.641113,4278.461426,4338.077148,4387.563965,4384.230957,4386.153809,4254.871582,4381.922852,4262.563965,4300.256348,4421.410156,4248.974121,4270.256348,,,,,,,,,,,,,,,,,,,,,,,,,,,,,,,,,,,,,,,,,,,,,,,,,,,,,,,,,,,,,,,,,,,,,,
1720081475,102,0,4355,4366.794922,4292.179688,4342.05127,4387.820313,4395.256348,4394.743652,4260.128418,4381.025879,4262.94873,4307.820313,4439.615234,4248.974121,4253.077148,,,,,,,,,,,,,,,,,,,,,,,,,,,,,,,,,,,,,,,,,,,,,,,,,,,,,,,,,,,,,,,,,,,,,,
1720081475,103,0,4356.153809,4368.205078,4304.358887,4340.256348,4385.256348,4396.538574,4408.077148,4250.256348,4373.589844,4258.846191,4313.846191,4442.307617,4258.717773,4265.769043,,,,,,,,,,,,,,,,,,,,,,,,,,,,,,,,,,,,,,,,,,,,,,,,,,,,,,,,,,,,,,,,,,,,,,
1720081475,104,0,4365.769043,4375.641113,4300.128418,4337.307617,4390.641113,4395.128418,4414.743652,4246.025879,4373.717773,4260.897461,4313.974121,4439.487305,4266.666504,4284.743652,,,,,,,,,,,,,,,,,,,,,,,,,,,,,,,,,,,,,,,,,,,,,,,,,,,,,,,,,,,,,,,,,,,,,,
1720081475,105,0,4361.410156,4370.128418,4291.025879,4344.230957,4387.05127,4395.512695,4402.820313,4279.487305,4368.589844,4263.717773,4307.563965,4437.05127,4255.128418,4293.333496,,,,,,,,,,,,,,,,,,,,,,,,,,,,,,,,,,,,,,,,,,,,,,,,,,,,,,,,,,,,,,,,,,,,,,
1720081475,106,0,4361.794922,4364.358887,4278.461426,4341.282227,4381.538574,4390.512695,4397.692383,4262.94873,4361.794922,4255.256348,4295,4416.794922,4241.922852,4285.128418,,,,,,,,,,,,,,,,,,,,,,,,,,,,,,,,,,,,,,,,,,,,,,,,,,,,,,,,,,,,,,,,,,,,,,
1720081475,107,0,4370.769043,4370.384766,4277.94873,4334.743652,4385.769043,4395.128418,4411.410156,4234.358887,4372.692383,4252.820313,4295.384766,4415.641113,4250.384766,4267.820313,,,,,,,,,,,,,,,,,,,,,,,,,,,,,,,,,,,,,,,,,,,,,,,,,,,,,,,,,,,,,,,,,,,,,,
1720081475,108,0,4366.410156,4371.666504,4291.538574,4342.94873,4391.794922,4405.512695,4415,4267.307617,4382.05127,4261.410156,4309.615234,4442.05127,4259.743652,4264.230957,,,,,,,,,,,,,,,,,,,,,,,,,,,,,,,,,,,,,,,,,,,,,,,,,,,,,,,,,,,,,,,,,,,,,,
1720081475,109,0,4362.307617,4368.589844,4286.538574,4344.358887,4392.820313,4398.333496,4399.102539,4263.974121,4373.974121,4261.538574,4310,4436.794922,4255.897461,4271.282227,2.57956,6.086845,1.797516,2.780962,0.763656,3.425033,3.323801,1.65876,1.539255,0.346307,1.751791,2.372674,1.316187,0.806941,0.295431,0.043708,0.032316,0.044077,0.034493,0.046554,0.641116,0.98511,0.441757,0.372555,0.139466,0.388306,0.991534,0.416313,0.293656,0.133906,0.795003,1.56246,3.827801,1.098974,0.173736,0.103855,0.391772,0.310949,0.128517,0.869151,0.534799,3.081872,3.305789,0.643338,0.370576,0.941639,0.998735,0.780905,0.287218,0.15667,1.772416,3.620641,1.171543,1.463347,0.453971,2.801956,3.102311,1.508654,1.80855,0.609057,2.254073,4.190362,1.451547,1.415264,0.541763,1.948824,13.621971,3.943513,2.661205,2.760009
1720081475,110,0,4357.94873,4364.871582,4279.871582,4338.974121,4383.717773,4390,4385.256348,4251.282227,4367.05127,4260,4300.897461,4418.846191,4253.077148,4280.512695,,,,,,,,,,,,,,,,,,,,,,,,,,,,,,,,,,,,,,,,,,,,,,,,,,,,,,,,,,,,,,,,,,,,,,
1720081475,111,0,4347.436035,4359.358887,4282.820313,4340,4376.282227,4391.666504,4385.897461,4266.666504,4376.410156,4265.641113,4296.410156,4420.769043,4249.743652,4258.846191,,,,,,,,,,,,,,,,,,,,,,,,,,,,,,,,,,,,,,,,,,,,,,,,,,,,,,,,,,,,,,,,,,,,,,
1720081475,112,0,4347.820313,4360,4280,4342.307617,4381.794922,4390.512695,4389.102539,4264.743652,4389.615234,4272.307617,4297.436035,4425.384766,4247.436035,4227.436035,,,,,,,,,,,,,,,,,,,,,,,,,,,,,,,,,,,,,,,,,,,,,,,,,,,,,,,,,,,,,,,,,,,,,,
1720081475,113,0,4351.922852,4359.487305,4275.384766,4342.179688,4386.025879,4385.512695,4381.922852,4260.256348,4382.307617,4266.025879,4299.102539,4421.025879,4246.153809,4248.461426,,,,,,,,,,,,,,,,,,,,,,,,,,,,,,,,,,,,,,,,,,,,,,,,,,,,,,,,,,,,,,,,,,,,,,
1720081475,114,0,4345.512695,4353.974121,4271.025879,4339.871582,4385.256348,4387.179688,4382.307617,4255.128418,4362.05127,4251.666504,4292.94873,4408.846191,4242.820313,4281.410156,,,,,,,,,,,,,,,,,,,,,,,,,,,,,,,,,,,,,,,,,,,,,,,,,,,,,,,,,,,,,,,,,,,,,,
1720081475,115,0,4331.922852,4350.769043,4272.94873,4340,4385,4394.743652,4404.230957,4255.256348,4359.487305,4252.05127,4282.307617,4407.179688,4236.410156,4246.666504,,,,,,,,,,,,,,,,,,,,,,,,,,,,,,,,,,,,,,,,,,,,,,,,,,,,,,,,,,,,,,,,,,,,,,
1720081475,116,0,4324.487305,4347.05127,4275,4341.538574,4382.820313,4396.282227,4420.512695,4263.461426,4371.282227,4262.05127,4282.307617,4416.410156,4235.897461,4206.538574,,,,,,,,,,,,,,,,,,,,,,,,,,,,,,,,,,,,,,,,,,,,,,,,,,,,,,,,,,,,,,,,,,,,,,
1720081475,117,0,4338.717773,4349.487305,4274.871582,4340.769043,4385.641113,4392.436035,4412.307617,4259.615234,4372.05127,4261.538574,4301.282227,4417.820313,4258.974121,4254.230957,,,,,,,,,,,,,,,,,,,,,,,,,,,,,,,,,,,,,,,,,,,,,,,,,,,,,,,,,,,,,,,,,,,,,,
1720081475,118,0,4363.077148,4365.897461,4284.102539,4343.461426,4394.871582,4389.358887,4402.563965,4255.641113,4366.666504,4259.871582,4321.282227,4419.487305,4284.615234,4312.05127,,,,,,,,,,,,,,,,,,,,,,,,,,,,,,,,,,,,,,,,,,,,,,,,,,,,,,,,,,,,,,,,,,,,,,
1720081475,119,0,4355.256348,4365.256348,4281.794922,4346.282227,4389.230957,4383.589844,4391.410156,4269.615234,4355,4259.487305,4308.077148,4416.153809,4269.358887,4291.538574,,,,,,,,,,,,,,,,,,,,,,,,,,,,,,,,,,,,,,,,,,,,,,,,,,,,,,,,,,,,,,,,,,,,,,
1720081475,120,0,4336.025879,4349.358887,4257.307617,4339.102539,4376.410156,4368.974121,4373.974121,4251.538574,4348.077148,4253.974121,4279.230957,4394.230957,4243.974121,4251.025879,,,,,,,,,,,,,,,,,,,,,,,,,,,,,,,,,,,,,,,,,,,,,,,,,,,,,,,,,,,,,,,,,,,,,,
1720081475,121,0,4338.846191,4351.666504,4264.487305,4337.820313,4381.666504,4370.384766,4377.179688,4245.641113,4367.692383,4263.077148,4294.102539,4405.384766,4262.307617,4250,,,,,,,,,,,,,,,,,,,,,,,,,,,,,,,,,,,,,,,,,,,,,,,,,,,,,,,,,,,,,,,,,,,,,,
1720081475,122,0,4338.333496,4358.589844,4293.589844,4345.256348,4391.922852,4386.153809,4395.769043,4286.282227,4389.102539,4282.307617,4322.94873,4442.436035,4279.230957,4269.743652,,,,,,,,,,,,,,,,,,,,,,,,,,,,,,,,,,,,,,,,,,,,,,,,,,,,,,,,,,,,,,,,,,,,,,
1720081475,123,0,4331.410156,4354.743652,4281.282227,4341.153809,4390,4386.282227,4398.846191,4272.692383,4385,4279.743652,4309.230957,4430.384766,4264.102539,4279.487305,,,,,,,,,,,,,,,,,,,,,,,,,,,,,,,,,,,,,,,,,,,,,,,,,,,,,,,,,,,,,,,,,,,,,,
1720081475,124,0,4332.94873,4349.615234,4263.461426,4339.102539,4384.230957,4385.641113,4392.563965,4254.487305,4372.692383,4267.307617,4293.846191,4410.128418,4258.205078,4265.256348,,,,,,,,,,,,,,,,,,,,,,,,,,,,,,,,,,,,,,,,,,,,,,,,,,,,,,,,,,,,,,,,,,,,,,
1720081475,125,0,4343.461426,4351.922852,4270.128418,4341.666504,4380.897461,4389.871582,4397.179688,4270.897461,4374.358887,4269.871582,4295.769043,4414.230957,4260.641113,4249.743652,2.862846,5.611598,1.751694,2.683572,0.763734,3.262041,3.073724,1.570743,1.475891,0.336244,1.819981,2.185787,1.51331,0.83445,0.293679,0.044695,0.030637,0.041522,0.034248,0.044162,0.63887,0.867767,0.538848,0.45055,0.137986,0.451689,0.840676,0.387906,0.278991,0.129074,0.930224,1.469724,4.014731,1.157437,0.157794,0.121512,0.375791,0.293299,0.146044,0.885156,0.556848,2.991407,3.03735,0.67577,0.365477,1.123732,1.033567,0.737627,0.288107,0.164412,1.846094,3.519753,1.053777,1.530825,0.450728,2.678737,2.812309,1.54721,1.94382,0.588344,2.235348,3.997909,1.32993,1.475876,0.492391,2.032428,12.202427,4.699482,2.403745,2.31039
1720081475,126,0,4341.410156,4354.358887,4271.922852,4337.05127,4376.922852,4390.384766,4407.94873,4267.05127,4374.871582,4273.846191,4294.615234,4414.743652,4257.94873,4239.871582,,,,,,,,,,,,,,,,,,,,,,,,,,,,,,,,,,,,,,,,,,,,,,,,,,,,,,,,,,,,,,,,,,,,,,
1720081475,127,0,4321.538574,4347.307617,4268.205078,4336.025879,4375.897461,4390,4407.179688,4268.077148,4363.846191,4270.512695,4297.563965,4419.230957,4260.769043,4227.94873,,,,,,,,,,,,,,,,,,,,,,,,,,,,,,,,,,,,,,,,,,,,,,,,,,,,,,,,,,,,,,,,,,,,,,
1720081475,0,0,4311.538574,4342.820313,4269.615234,4339.487305,4381.410156,4388.333496,4400.256348,4269.230957,4362.179688,4270.512695,4301.410156,4424.615234,4263.717773,4238.077148,,,,,,,,,,,,,,,,,,,,,,,,,,,,,,,,,,,,,,,,,,,,,,,,,,,,,,,,,,,,,,,,,,,,,,
1720081475,1,0,4323.205078,4350,4276.794922,4340,4384.487305,4389.615234,4396.794922,4267.563965,4368.589844,4275.512695,4303.205078,4422.307617,4264.102539,4270,,,,,,,,,,,,,,,,,,,,,,,,,,,,,,,,,,,,,,,,,,,,,,,,,,,,,,,,,,,,,,,,,,,,,,
1720081475,2,0,4336.922852,4356.025879,4280.512695,4342.05127,4379.743652,4390.641113,4389.615234,4278.077148,4365.128418,4277.563965,4304.487305,4419.743652,4267.05127,4284.230957,,,,,,,,,,,,,,,,,,,,,,,,,,,,,,,,,,,,,,,,,,,,,,,,,,,,,,,,,,,,,,,,,,,,,,
1720081475,3,0,4334.358887,4347.436035,4265.897461,4342.94873,4369.743652,4381.282227,4376.025879,4268.205078,4353.974121,4271.410156,4288.205078,4406.666504,4260.128418,4269.358887,,,,,,,,,,,,,,,,,,,,,,,,,,,,,,,,,,,,,,,,,,,,,,,,,,,,,,,,,,,,,,,,,,,,,,
1720081475,4,0,4328.974121,4344.615234,4254.358887,4337.563965,4369.615234,4372.94873,4372.563965,4245.641113,4362.307617,4271.153809,4278.974121,4401.153809,4256.410156,4255.384766,,,,,,,,,,,,,,,,,,,,,,,,,,,,,,,,,,,,,,,,,,,,,,,,,,,,,,,,,,,,,,,,,,,,,,
1720081475,5,0,4324.487305,4349.743652,4279.230957,4342.307617,4376.538574,4387.563965,4384.615234,4281.666504,4380.256348,4284.358887,4305,4435.897461,4263.846191,4257.692383,,,,,,,,,,,,,,,,,,,,,,,,,,,,,,,,,,,,,,,,,,,,,,,,,,,,,,,,,,,,,,,,,,,,,,
1720081475,6,0,4326.538574,4349.487305,4289.871582,4344.102539,4377.05127,4396.538574,4394.871582,4295.641113,4378.461426,4289.871582,4314.487305,4443.205078,4263.846191,4270.256348,,,,,,,,,,,,,,,,,,,,,,,,,,,,,,,,,,,,,,,,,,,,,,,,,,,,,,,,,,,,,,,,,,,,,,
1720081475,7,0,4332.436035,4345.897461,4266.410156,4336.666504,4373.205078,4385.897461,4393.589844,4256.410156,4367.563965,4281.282227,4296.666504,4408.589844,4265.769043,4276.794922,,,,,,,,,,,,,,,,,,,,,,,,,,,,,,,,,,,,,,,,,,,,,,,,,,,,,,,,,,,,,,,,,,,,,,
1720081475,8,0,4323.077148,4339.615234,4265,4340.641113,4372.307617,4385.769043,4389.615234,4273.333496,4368.205078,4283.461426,4304.487305,4414.743652,4280.512695,4262.307617,,,,,,,,,,,,,,,,,,,,,,,,,,,,,,,,,,,,,,,,,,,,,,,,,,,,,,,,,,,,,,,,,,,,,,
1720081475,9,0,4312.563965,4334.102539,4268.205078,4340.256348,4376.410156,4392.436035,4393.333496,4283.974121,4376.025879,4291.666504,4314.615234,4427.94873,4284.615234,4241.922852,,,,,,,,,,,,,,,,,,,,,,,,,,,,,,,,,,,,,,,,,,,,,,,,,,,,,,,,,,,,,,,,,,,,,,
1720081475,10,0,4313.846191,4334.615234,4265.897461,4335.384766,4376.922852,4393.077148,4399.615234,4266.922852,4376.922852,4291.538574,4306.666504,4420.512695,4277.307617,4256.153809,,,,,,,,,,,,,,,,,,,,,,,,,,,,,,,,,,,,,,,,,,,,,,,,,,,,,,,,,,,,,,,,,,,,,,
1720081475,11,0,4314.102539,4341.025879,4274.358887,4339.871582,4372.94873,4391.794922,4396.794922,4276.538574,4365.769043,4288.205078,4305.897461,4425.384766,4279.358887,4281.025879,,,,,,,,,,,,,,,,,,,,,,,,,,,,,,,,,,,,,,,,,,,,,,,,,,,,,,,,,,,,,,,,,,,,,,
1720081475,12,0,4313.974121,4343.846191,4274.871582,4341.794922,4374.230957,4394.230957,4397.179688,4274.743652,4355.897461,4283.974121,4306.794922,4426.410156,4283.717773,4270.769043,,,,,,,,,,,,,,,,,,,,,,,,,,,,,,,,,,,,,,,,,,,,,,,,,,,,,,,,,,,,,,,,,,,,,,
1720081475,13,0,4316.794922,4340.512695,4271.794922,4341.922852,4377.563965,4397.436035,4402.179688,4270.512695,4360.641113,4286.410156,4304.230957,4420.641113,4278.461426,4257.307617,3.157438,4.864646,1.660089,2.412243,0.773357,2.945024,2.591008,1.403591,1.303506,0.334625,1.911823,1.918736,1.71531,0.812002,0.29836,0.042774,0.027233,0.0401,0.031619,0.042287,0.640932,0.733944,0.676778,0.529078,0.14364,0.562579,0.692396,0.414462,0.264432,0.123486,1.067143,1.463159,4.308911,1.156502,0.147392,0.152395,0.350262,0.266385,0.167444,0.89604,0.590179,2.72315,2.566963,0.736048,0.35624,1.254356,1.006453,0.670059,0.296262,0.173928,1.94855,3.186732,0.945107,1.489105,0.459621,2.565888,2.409556,1.64596,1.99488,0.571681,2.234854,3.50365,1.19887,1.430885,0.454832,2.224418,10.126797,5.444289,2.339067,1.984639
1720081475,14,0,4302.692383,4330.641113,4266.666504,4340.897461,4368.846191,4391.282227,4391.794922,4273.717773,4359.358887,4286.794922,4297.436035,4416.410156,4266.153809,4246.794922,,,,,,,,,,,,,,,,,,,,,,,,,,,,,,,,,,,,,,,,,,,,,,,,,,,,,,,,,,,,,,,,,,,,,,
1720081475,15,0,4290.897461,4325.384766,4263.974121,4337.05127,4359.743652,4384.743652,4381.282227,4269.358887,4349.102539,4281.025879,4290.128418,4415.256348,4261.666504,4230.897461,,,,,,,,,,,,,,,,,,,,,,,,,,,,,,,,,,,,,,,,,,,,,,,,,,,,,,,,,,,,,,,,,,,,,,
1720081475,16,0,4308.205078,4335.128418,4276.410156,4339.358887,4368.461426,4388.974121,4391.153809,4275.384766,4358.205078,4286.922852,4297.692383,4424.871582,4273.846191,4243.205078,,,,,,,,,,,,,,,,,,,,,,,,,,,,,,,,,,,,,,,,,,,,,,,,,,,,,,,,,,,,,,,,,,,,,,
1720081475,17,0,4323.077148,4345.641113,4280.769043,4342.179688,4380.256348,4394.615234,4398.205078,4280,4372.05127,4293.077148,4305.384766,4429.743652,4281.794922,4263.333496,,,,,,,,,,,,,,,,,,,,,,,,,,,,,,,,,,,,,,,,,,,,,,,,,,,,,,,,,,,,,,,,,,,,,,
1720081475,18,0,4325.128418,4350.897461,4275,4339.871582,4382.436035,4392.94873,4389.615234,4268.077148,4369.230957,4288.974121,4303.077148,4423.589844,4279.871582,4258.974121,,,,,,,,,,,,,,,,,,,,,,,,,,,,,,,,,,,,,,,,,,,,,,,,,,,,,,,,,,,,,,,,,,,,,,
1720081475,19,0,4333.846191,4353.461426,4286.666504,4343.717773,4381.922852,4395.384766,4390.769043,4284.102539,4369.358887,4294.615234,4310.384766,4433.205078,4283.205078,4268.846191,,,,,,,,,,,,,,,,,,,,,,,,,,,,,,,,,,,,,,,,,,,,,,,,,,,,,,,,,,,,,,,,,,,,,,
1720081475,20,0,4332.179688,4347.179688,4292.563965,4343.077148,4381.666504,4393.589844,4401.410156,4286.794922,4376.666504,4301.410156,4312.94873,4436.794922,4285.769043,4291.282227,,,,,,,,,,,,,,,,,,,,,,,,,,,,,,,,,,,,,,,,,,,,,,,,,,,,,,,,,,,,,,,,,,,,,,
1720081475,21,0,4319.102539,4338.461426,4277.307617,4336.153809,4380.641113,4389.871582,4395.769043,4261.025879,4373.717773,4294.615234,4298.717773,4418.205078,4279.358887,4288.205078,,,,,,,,,,,,,,,,,,,,,,,,,,,,,,,,,,,,,,,,,,,,,,,,,,,,,,,,,,,,,,,,,,,,,,
1720081475,22,0,4322.179688,4339.487305,4273.846191,4339.743652,4376.025879,4411.666504,4382.820313,4280.384766,4365.512695,4293.461426,4301.025879,4417.05127,4278.205078,4278.717773,,,,,,,,,,,,,,,,,,,,,,,,,,,,,,,,,,,,,,,,,,,,,,,,,,,,,,,,,,,,,,,,,,,,,,
1720081475,23,0,4332.94873,4346.794922,4278.205078,4341.666504,4374.102539,4435.512695,4381.025879,4284.615234,4363.717773,4294.102539,4307.307617,4423.077148,4280,4276.922852,,,,,,,,,,,,,,,,,,,,,,,,,,,,,,,,,,,,,,,,,,,,,,,,,,,,,,,,,,,,,,,,,,,,,,
1720081475,24,0,4331.410156,4349.487305,4280.512695,4336.410156,4379.615234,4440.256348,4388.717773,4271.922852,4365.641113,4286.538574,4300,4426.410156,4278.461426,4280.256348,,,,,,,,,,,,,,,,,,,,,,,,,,,,,,,,,,,,,,,,,,,,,,,,,,,,,,,,,,,,,,,,,,,,,,
1720081475,25,0,4323.333496,4342.820313,4279.743652,4336.153809,4380.256348,4441.922852,4398.333496,4284.871582,4365.769043,4288.077148,4297.436035,4432.563965,4280.256348,4278.333496,,,,,,,,,,,,,,,,,,,,,,,,,,,,,,,,,,,,,,,,,,,,,,,,,,,,,,,,,,,,,,,,,,,,,,
1720081475,26,0,4317.05127,4336.666504,4273.974121,4338.717773,4373.205078,4447.307617,4402.692383,4279.871582,4363.589844,4293.205078,4298.077148,4430.512695,4278.333496,4240,,,,,,,,,,,,,,,,,,,,,,,,,,,,,,,,,,,,,,,,,,,,,,,,,,,,,,,,,,,,,,,,,,,,,,
1720081475,27,0,4316.666504,4342.820313,4278.461426,4339.487305,4375.641113,4453.589844,4403.205078,4275.128418,4364.358887,4291.410156,4301.410156,4435.128418,4274.615234,4203.461426,,,,,,,,,,,,,,,,,,,,,,,,,,,,,,,,,,,,,,,,,,,,,,,,,,,,,,,,,,,,,,,,,,,,,,
1720081475,28,0,4315.128418,4345,4282.05127,4337.94873,4377.820313,4449.102539,4397.94873,4277.436035,4366.410156,4288.077148,4304.743652,4436.922852,4278.333496,4237.94873,,,,,,,,,,,,,,,,,,,,,,,,,,,,,,,,,,,,,,,,,,,,,,,,,,,,,,,,,,,,,,,,,,,,,,
1720081475,29,0,4308.205078,4335.769043,4279.358887,4336.282227,4371.282227,4439.487305,4385.128418,4277.436035,4368.077148,4292.692383,4301.794922,4430.512695,4281.025879,4299.743652,3.449577,4.020772,1.574701,2.072581,0.788599,2.600742,2.0002,1.227707,1.090188,0.342274,2.036672,1.608711,1.892111,0.775458,0.315683,0.03941,0.023181,0.040011,0.02745,0.04217,0.660003,0.608557,0.818638,0.593389,0.157494,0.686854,0.584192,0.4939,0.259442,0.119727,1.162026,1.536223,4.664591,1.124911,0.152447,0.194984,0.320011,0.224184,0.190555,0.899512,0.653533,2.359466,1.938611,0.797376,0.350131,1.267324,0.915418,0.572767,0.307177,0.181915,2.068987,2.695149,0.866389,1.368264,0.48262,2.522319,1.945449,1.76532,1.974062,0.5804,2.308108,2.861285,1.106632,1.311316,0.437002,2.528352,7.947706,6.050954,2.412849,1.810223
1720081475,30,0,4314.871582,4337.307617,4282.179688,4336.666504,4373.846191,4441.410156,4378.333496,4287.692383,4371.794922,4299.487305,4303.974121,4435.384766,4282.307617,4295.256348,,,,,,,,,,,,,,,,,,,,,,,,,,,,,,,,,,,,,,,,,,,,,,,,,,,,,,,,,,,,,,,,,,,,,,
1720081475,31,0,4326.410156,4345,4283.846191,4337.307617,4380.384766,4450.128418,4387.436035,4289.743652,4370.897461,4296.025879,4307.05127,4440.384766,4278.974121,4241.922852,,,,,,,,,,,,,,,,,,,,,,,,,,,,,,,,,,,,,,,,,,,,,,,,,,,,,,,,,,,,,,,,,,,,,,
1720081475,32,0,4319.615234,4341.666504,4276.922852,4333.589844,4377.563965,4452.820313,4399.102539,4266.666504,4365.256348,4292.307617,4291.794922,4427.05127,4270,4219.230957,,,,,,,,,,,,,,,,,,,,,,,,,,,,,,,,,,,,,,,,,,,,,,,,,,,,,,,,,,,,,,,,,,,,,,
1720081475,33,0,4318.974121,4342.692383,4284.743652,4338.077148,4375.256348,4459.230957,4399.102539,4285.641113,4366.410156,4302.692383,4289.230957,4429.358887,4271.922852,4247.692383,,,,,,,,,,,,,,,,,,,,,,,,,,,,,,,,,,,,,,,,,,,,,,,,,,,,,,,,,,,,,,,,,,,,,,
1720081475,34,0,4334.230957,4351.153809,4292.436035,4342.436035,4377.692383,4461.153809,4393.974121,4305.769043,4374.615234,4309.871582,4309.615234,4442.436035,4283.333496,4285.641113,,,,,,,,,,,,,,,,,,,,,,,,,,,,,,,,,,,,,,,,,,,,,,,,,,,,,,,,,,,,,,,,,,,,,,
1720081475,35,0,4333.205078,4351.794922,4276.922852,4334.871582,4376.666504,4447.94873,4389.615234,4265.897461,4372.563965,4301.538574,4310.128418,4431.410156,4285.897461,4285.128418,,,,,,,,,,,,,,,,,,,,,,,,,,,,,,,,,,,,,,,,,,,,,,,,,,,,,,,,,,,,,,,,,,,,,,
1720081475,36,0,4322.307617,4351.282227,4284.230957,4339.230957,4375,4449.615234,4389.615234,4274.358887,4365.128418,4303.205078,4306.666504,4434.871582,4293.974121,4273.333496,,,,,,,,,,,,,,,,,,,,,,,,,,,,,,,,,,,,,,,,,,,,,,,,,,,,,,,,,,,,,,,,,,,,,,
1720081475,37,0,4336.922852,4362.179688,4300.128418,4344.230957,4380.769043,4464.358887,4401.666504,4297.179688,4377.692383,4313.717773,4320.769043,4448.846191,4313.717773,4294.102539,,,,,,,,,,,,,,,,,,,,,,,,,,,,,,,,,,,,,,,,,,,,,,,,,,,,,,,,,,,,,,,,,,,,,,
1720081475,38,0,4350.256348,4364.102539,4290,4339.230957,4381.538574,4465.769043,4409.615234,4278.205078,4381.922852,4305.256348,4317.692383,4437.179688,4305.384766,4302.179688,,,,,,,,,,,,,,,,,,,,,,,,,,,,,,,,,,,,,,,,,,,,,,,,,,,,,,,,,,,,,,,,,,,,,,
1720081475,39,0,4329.615234,4344.230957,4273.846191,4338.589844,4368.846191,4453.205078,4395.897461,4276.666504,4352.692383,4287.820313,4285.769043,4419.615234,4266.025879,4254.358887,,,,,,,,,,,,,,,,,,,,,,,,,,,,,,,,,,,,,,,,,,,,,,,,,,,,,,,,,,,,,,,,,,,,,,
1720081475,40,0,4309.615234,4332.563965,4265.769043,4336.282227,4361.153809,4442.05127,4381.666504,4276.922852,4340.769043,4288.589844,4266.922852,4412.563965,4249.615234,4215,,,,,,,,,,,,,,,,,,,,,,,,,,,,,,,,,,,,,,,,,,,,,,,,,,,,,,,,,,,,,,,,,,,,,,
1720081475,41,0,4311.282227,4336.538574,4271.025879,4335.512695,4363.717773,4440.641113,4378.846191,4277.563965,4363.717773,4301.922852,4276.025879,4418.589844,4260.641113,4233.077148,,,,,,,,,,,,,,,,,,,,,,,,,,,,,,,,,,,,,,,,,,,,,,,,,,,,,,,,,,,,,,,,,,,,,,
1720081475,42,0,4316.410156,4336.153809,4272.307617,4340.128418,4362.94873,4440.256348,4375.897461,4284.102539,4370.512695,4300.256348,4281.666504,4420.256348,4263.333496,4246.922852,,,,,,,,,,,,,,,,,,,,,,,,,,,,,,,,,,,,,,,,,,,,,,,,,,,,,,,,,,,,,,,,,,,,,,
1720081475,43,0,4312.436035,4334.487305,4269.615234,4339.871582,4360.641113,4442.179688,4375.769043,4281.410156,4361.666504,4296.410156,4287.94873,4424.871582,4271.538574,4238.205078,,,,,,,,,,,,,,,,,,,,,,,,,,,,,,,,,,,,,,,,,,,,,,,,,,,,,,,,,,,,,,,,,,,,,,
1720081475,44,0,4315.128418,4345.384766,4283.333496,4338.461426,4365.256348,4444.615234,4382.692383,4287.05127,4367.820313,4306.794922,4308.333496,4446.282227,4295.256348,4248.333496,,,,,,,,,,,,,,,,,,,,,,,,,,,,,,,,,,,,,,,,,,,,,,,,,,,,,,,,,,,,,,,,,,,,,,
1720081475,45,0,4332.563965,4353.589844,4287.563965,4338.205078,4371.922852,4444.230957,4388.974121,4293.846191,4367.563965,4307.436035,4309.487305,4444.487305,4292.05127,4269.615234,3.667775,3.263337,1.526261,1.784235,0.799069,2.326594,1.453509,1.098191,0.907145,0.35441,2.162026,1.305834,2.005522,0.762702,0.350984,0.0354,0.019897,0.040636,0.023333,0.04462,0.689519,0.511877,0.922158,0.629805,0.177047,0.797027,0.550131,0.603812,0.272084,0.120523,1.180761,1.622965,5.046426,1.095455,0.177851,0.237834,0.293616,0.172943,0.214853,0.905352,0.710943,2.040294,1.30113,0.834298,0.355287,1.184435,0.795596,0.465767,0.315966,0.186979,2.170485,2.163674,0.831843,1.220997,0.523056,2.532631,1.494455,1.852589,1.910115,0.631551,2.428869,2.249395,1.089313,1.164471,0.442097,2.886868,6.211006,6.402312,2.575848,1.792056
1720081475,46,0,4351.025879,4354.102539,4271.282227,4334.743652,4372.307617,4443.333496,4395.256348,4270.128418,4356.538574,4296.410156,4291.922852,4417.436035,4277.307617,4282.179688,,,,,,,,,,,,,,,,,,,,,,,,,,,,,,,,,,,,,,,,,,,,,,,,,,,,,,,,,,,,,,,,,,,,,,
1720081475,47,0,4353.077148,4357.563965,4279.102539,4340,4367.05127,4447.307617,4402.05127,4281.282227,4357.820313,4302.436035,4298.717773,4427.179688,4290,4286.794922,,,,,,,,,,,,,,,,,,,,,,,,,,,,,,,,,,,,,,,,,,,,,,,,,,,,,,,,,,,,,,,,,,,,,,
1720081475,48,0,4338.205078,4356.666504,4293.846191,4345,4366.794922,4449.871582,4402.436035,4309.487305,4365.256348,4314.487305,4309.102539,4446.922852,4298.589844,4266.538574,,,,,,,,,,,,,,,,,,,,,,,,,,,,,,,,,,,,,,,,,,,,,,,,,,,,,,,,,,,,,,,,,,,,,,
1720081475,49,0,4340.769043,4356.410156,4280.512695,4337.692383,4374.871582,4443.461426,4400.897461,4280,4370.256348,4312.05127,4298.333496,4430.512695,4290.641113,4248.717773,,,,,,,,,,,,,,,,,,,,,,,,,,,,,,,,,,,,,,,,,,,,,,,,,,,,,,,,,,,,,,,,,,,,,,
1720081475,50,0,4354.487305,4362.307617,4280.512695,4336.538574,4376.666504,4444.102539,4400.641113,4280.641113,4374.358887,4313.333496,4298.717773,4434.615234,4291.666504,4263.205078,,,,,,,,,,,,,,,,,,,,,,,,,,,,,,,,,,,,,,,,,,,,,,,,,,,,,,,,,,,,,,,,,,,,,,
1720081475,51,0,4343.333496,4359.358887,4290.128418,4338.589844,4376.538574,4444.615234,4397.436035,4299.743652,4375.256348,4319.487305,4303.077148,4450.641113,4293.333496,4268.333496,,,,,,,,,,,,,,,,,,,,,,,,,,,,,,,,,,,,,,,,,,,,,,,,,,,,,,,,,,,,,,,,,,,,,,
1720081475,52,0,4331.666504,4347.563965,4280.384766,4336.666504,4376.538574,4441.282227,4394.615234,4286.538574,4374.230957,4315.641113,4292.436035,4433.205078,4286.538574,4264.358887,,,,,,,,,,,,,,,,,,,,,,,,,,,,,,,,,,,,,,,,,,,,,,,,,,,,,,,,,,,,,,,,,,,,,,
1720081475,53,0,4340.641113,4346.794922,4274.358887,4337.94873,4368.333496,4441.153809,4391.538574,4288.333496,4375.128418,4314.871582,4293.461426,4422.179688,4287.179688,4266.666504,,,,,,,,,,,,,,,,,,,,,,,,,,,,,,,,,,,,,,,,,,,,,,,,,,,,,,,,,,,,,,,,,,,,,,
1720081475,54,0,4346.410156,4356.282227,4282.05127,4339.871582,4364.102539,4436.153809,4389.230957,4289.487305,4371.153809,4320.384766,4309.487305,4432.563965,4299.230957,4264.871582,,,,,,,,,,,,,,,,,,,,,,,,,,,,,,,,,,,,,,,,,,,,,,,,,,,,,,,,,,,,,,,,,,,,,,
1720081475,55,0,4345.641113,4358.974121,4285.641113,4342.179688,4369.871582,4435,4390.641113,4287.179688,4367.94873,4321.410156,4312.820313,4438.461426,4306.666504,4265.897461,,,,,,,,,,,,,,,,,,,,,,,,,,,,,,,,,,,,,,,,,,,,,,,,,,,,,,,,,,,,,,,,,,,,,,
1720081475,56,0,4360.256348,4364.102539,4284.615234,4342.820313,4377.563965,4442.94873,4394.102539,4289.871582,4374.743652,4319.743652,4305.897461,4437.307617,4298.846191,4263.333496,,,,,,,,,,,,,,,,,,,,,,,,,,,,,,,,,,,,,,,,,,,,,,,,,,,,,,,,,,,,,,,,,,,,,,
1720081475,57,0,4351.666504,4362.692383,4283.974121,4341.794922,4380.256348,4446.794922,4394.358887,4283.974121,4371.025879,4315.256348,4300.128418,4433.461426,4283.333496,4247.820313,,,,,,,,,,,,,,,,,,,,,,,,,,,,,,,,,,,,,,,,,,,,,,,,,,,,,,,,,,,,,,,,,,,,,,
1720081475,58,0,4320.128418,4344.743652,4274.743652,4343.589844,4374.102539,4438.461426,4389.743652,4281.025879,4354.230957,4308.461426,4290.128418,4416.538574,4277.563965,4261.025879,,,,,,,,,,,,,,,,,,,,,,,,,,,,,,,,,,,,,,,,,,,,,,,,,,,,,,,,,,,,,,,,,,,,,,
1720081475,59,0,4341.282227,4350,4268.461426,4342.307617,4367.307617,4431.794922,4391.025879,4286.538574,4356.538574,4312.563965,4283.974121,4411.025879,4280.641113,4296.410156,,,,,,,,,,,,,,,,,,,,,,,,,,,,,,,,,,,,,,,,,,,,,,,,,,,,,,,,,,,,,,,,,,,,,,
1720081475,60,0,4369.487305,4367.820313,4274.358887,4336.282227,4370.769043,4435.256348,4397.307617,4269.743652,4374.871582,4321.282227,4292.179688,4424.743652,4284.743652,4287.820313,,,,,,,,,,,,,,,,,,,,,,,,,,,,,,,,,,,,,,,,,,,,,,,,,,,,,,,,,,,,,,,,,,,,,,
1720081475,61,0,4333.974121,4354.102539,4283.846191,4340.256348,4374.615234,4443.846191,4399.102539,4278.205078,4373.717773,4318.589844,4302.05127,4438.205078,4290.897461,4252.179688,3.721608,2.700229,1.489813,1.613341,0.793132,2.128631,1.047253,1.015988,0.791333,0.361923,2.221164,1.033466,1.995875,0.787235,0.403019,0.031919,0.018767,0.040717,0.020915,0.049376,0.706817,0.442011,0.951082,0.629721,0.196743,0.907282,0.595858,0.708847,0.302768,0.127484,1.107848,1.644007,5.35415,1.087535,0.219512,0.264053,0.27408,0.123723,0.2387,0.924484,0.745542,1.851653,0.801448,0.830088,0.375927,1.011406,0.687253,0.371483,0.317456,0.190099,2.180608,1.683371,0.816323,1.090755,0.579171,2.530142,1.090853,1.831335,1.81827,0.722191,2.493962,1.77793,1.123927,1.024818,0.465755,3.137477,5.28795,6.4505,2.798303,1.919614
1720081475,62,0,4316.922852,4345.128418,4286.410156,4345.384766,4373.205078,4447.436035,4397.179688,4305,4363.717773,4314.230957,4297.692383,4441.410156,4291.538574,4234.102539,,,,,,,,,,,,,,,,,,,,,,,,,,,,,,,,,,,,,,,,,,,,,,,,,,,,,,,,,,,,,,,,,,,,,,
1720081475,63,0,4362.05127,4371.666504,4281.794922,4336.538574,4375.256348,4441.025879,4397.94873,4275.512695,4376.922852,4322.820313,4298.974121,4436.794922,4293.846191,4245.512695,,,,,,,,,,,,,,,,,,,,,,,,,,,,,,,,,,,,,,,,,,,,,,,,,,,,,,,,,,,,,,,,,,,,,,
1720081475,64,0,4381.794922,4386.282227,4293.846191,4338.717773,4373.333496,4440.512695,4396.922852,4280.128418,4388.461426,4334.102539,4321.025879,4446.538574,4307.692383,4290.512695,,,,,,,,,,,,,,,,,,,,,,,,,,,,,,,,,,,,,,,,,,,,,,,,,,,,,,,,,,,,,,,,,,,,,,
1720081475,65,0,4364.487305,4374.871582,4297.94873,4343.589844,4372.820313,4443.205078,4394.358887,4306.282227,4379.743652,4329.487305,4326.410156,4446.666504,4312.179688,4311.153809,,,,,,,,,,,,,,,,,,,,,,,,,,,,,,,,,,,,,,,,,,,,,,,,,,,,,,,,,,,,,,,,,,,,,,
1720081475,66,0,4355.769043,4363.974121,4278.461426,4335,4373.589844,4436.410156,4394.358887,4281.666504,4377.307617,4320.128418,4305.128418,4422.820313,4301.794922,4283.077148,,,,,,,,,,,,,,,,,,,,,,,,,,,,,,,,,,,,,,,,,,,,,,,,,,,,,,,,,,,,,,,,,,,,,,
1720081475,67,0,4332.563965,4348.333496,4267.94873,4335.384766,4365.897461,4429.615234,4388.846191,4279.743652,4374.358887,4319.102539,4286.666504,4408.461426,4285.897461,4266.025879,,,,,,,,,,,,,,,,,,,,,,,,,,,,,,,,,,,,,,,,,,,,,,,,,,,,,,,,,,,,,,,,,,,,,,
1720081475,68,0,4319.102539,4342.692383,4263.717773,4337.179688,4363.077148,4428.205078,4382.94873,4286.666504,4360.256348,4311.282227,4274.102539,4402.436035,4267.94873,4257.436035,,,,,,,,,,,,,,,,,,,,,,,,,,,,,,,,,,,,,,,,,,,,,,,,,,,,,,,,,,,,,,,,,,,,,,
1720081475,69,0,4339.871582,4354.358887,4260.769043,4332.563965,4367.05127,4427.436035,4378.333496,4274.743652,4356.025879,4302.307617,4270.641113,4403.205078,4264.871582,4233.461426,,,,,,,,,,,,,,,,,,,,,,,,,,,,,,,,,,,,,,,,,,,,,,,,,,,,,,,,,,,,,,,,,,,,,,
1720081475,70,0,4350.512695,4355.897461,4268.846191,4336.282227,4366.922852,4424.102539,4370.512695,4280.512695,4359.871582,4309.358887,4283.333496,4416.794922,4283.589844,4240,,,,,,,,,,,,,,,,,,,,,,,,,,,,,,,,,,,,,,,,,,,,,,,,,,,,,,,,,,,,,,,,,,,,,,
1720081475,71,0,4349.358887,4357.179688,4277.94873,4337.563965,4372.179688,4424.487305,4377.820313,4283.846191,4359.615234,4316.538574,4297.692383,4427.436035,4299.871582,4273.846191,,,,,,,,,,,,,,,,,,,,,,,,,,,,,,,,,,,,,,,,,,,,,,,,,,,,,,,,,,,,,,,,,,,,,,
1720081475,72,0,4346.922852,4361.922852,4278.333496,4331.410156,4382.05127,4434.743652,4396.666504,4270.384766,4361.410156,4312.820313,4294.871582,4421.153809,4292.94873,4277.179688,,,,,,,,,,,,,,,,,,,,,,,,,,,,,,,,,,,,,,,,,,,,,,,,,,,,,,,,,,,,,,,,,,,,,,
1720081475,73,0,4330.641113,4350.769043,4275.512695,4335.512695,4379.487305,4443.333496,4400.897461,4283.589844,4369.230957,4316.025879,4286.794922,4415.128418,4282.307617,4261.025879,,,,,,,,,,,,,,,,,,,,,,,,,,,,,,,,,,,,,,,,,,,,,,,,,,,,,,,,,,,,,,,,,,,,,,
1720081475,74,0,4328.461426,4343.589844,4265.897461,4337.179688,4373.333496,4433.589844,4394.102539,4283.717773,4379.230957,4324.487305,4289.102539,4410,4288.846191,4270.128418,,,,,,,,,,,,,,,,,,,,,,,,,,,,,,,,,,,,,,,,,,,,,,,,,,,,,,,,,,,,,,,,,,,,,,
1720081475,75,0,4349.358887,4356.282227,4266.538574,4333.205078,4374.230957,4429.743652,4392.563965,4272.563965,4384.615234,4328.717773,4297.820313,4415.769043,4297.692383,4274.871582,,,,,,,,,,,,,,,,,,,,,,,,,,,,,,,,,,,,,,,,,,,,,,,,,,,,,,,,,,,,,,,,,,,,,,
1720081475,76,0,4350.897461,4358.077148,4277.563965,4337.692383,4375,4440.897461,4390.897461,4293.333496,4378.205078,4331.153809,4297.563965,4427.307617,4293.974121,4267.820313,,,,,,,,,,,,,,,,,,,,,,,,,,,,,,,,,,,,,,,,,,,,,,,,,,,,,,,,,,,,,,,,,,,,,,
1720081475,77,0,4340,4349.230957,4271.410156,4337.563965,4376.410156,4435.897461,4387.692383,4287.692383,4370.641113,4326.666504,4286.410156,4420.897461,4286.538574,4260.384766,3.530815,2.357898,1.430462,1.544677,0.766095,1.952697,0.800967,0.949536,0.734098,0.356775,2.147701,0.801899,1.832958,0.831756,0.463067,0.02957,0.020267,0.039527,0.021282,0.055124,0.684325,0.391641,0.890212,0.59181,0.210485,1.059844,0.716953,0.775879,0.346682,0.141296,0.965343,1.571824,5.445138,1.102802,0.265643,0.272201,0.258777,0.085854,0.258908,0.962529,0.722444,1.812526,0.511853,0.787814,0.409507,0.807927,0.622909,0.304026,0.310196,0.19401,2.041475,1.305009,0.819835,0.997244,0.640778,2.45381,0.753078,1.676614,1.700957,0.828485,2.406255,1.471896,1.196557,0.913096,0.497251,3.164984,5.257071,6.236092,3.082865,2.166692
1720081475,78,0,4332.820313,4347.436035,4265.512695,4333.846191,4374.102539,4430.128418,4390.769043,4281.666504,4368.077148,4317.307617,4283.077148,4426.025879,4280,4216.153809,,,,,,,,,,,,,,,,,,,,,,,,,,,,,,,,,,,,,,,,,,,,,,,,,,,,,,,,,,,,,,,,,,,,,,
1720081475,79,0,4318.846191,4342.692383,4271.025879,4334.743652,4371.538574,4434.871582,4391.922852,4288.974121,4362.820313,4313.846191,4285.256348,4432.563965,4275.512695,4192.05127,,,,,,,,,,,,,,,,,,,,,,,,,,,,,,,,,,,,,,,,,,,,,,,,,,,,,,,,,,,,,,,,,,,,,,
1720081475,80,0,4328.205078,4346.025879,4278.846191,4336.922852,4373.589844,4431.666504,4390.769043,4280,4361.666504,4318.333496,4292.179688,4419.230957,4287.307617,4260.128418,,,,,,,,,,,,,,,,,,,,,,,,,,,,,,,,,,,,,,,,,,,,,,,,,,,,,,,,,,,,,,,,,,,,,,
1720081475,81,0,4357.307617,4361.666504,4281.153809,4337.179688,4376.666504,4429.230957,4394.230957,4284.743652,4364.230957,4321.538574,4301.282227,4417.692383,4302.307617,4316.410156,,,,,,,,,,,,,,,,,,,,,,,,,,,,,,,,,,,,,,,,,,,,,,,,,,,,,,,,,,,,,,,,,,,,,,
1720081475,82,0,4367.563965,4368.974121,4280.384766,4336.153809,4380.897461,4430.256348,4395.897461,4287.179688,4367.436035,4323.589844,4303.589844,4436.025879,4304.358887,4284.743652,,,,,,,,,,,,,,,,,,,,,,,,,,,,,,,,,,,,,,,,,,,,,,,,,,,,,,,,,,,,,,,,,,,,,,
1720081475,83,0,4360.769043,4364.743652,4288.333496,4336.666504,4382.179688,4431.282227,4398.717773,4287.94873,4377.692383,4330.641113,4309.871582,4448.333496,4309.102539,4268.461426,,,,,,,,,,,,,,,,,,,,,,,,,,,,,,,,,,,,,,,,,,,,,,,,,,,,,,,,,,,,,,,,,,,,,,
1720081475,84,0,4364.358887,4366.410156,4294.871582,4336.666504,4381.282227,4435,4408.974121,4296.794922,4386.410156,4336.538574,4312.94873,4442.05127,4315.256348,4293.846191,,,,,,,,,,,,,,,,,,,,,,,,,,,,,,,,,,,,,,,,,,,,,,,,,,,,,,,,,,,,,,,,,,,,,,
1720081475,85,0,4378.461426,4376.282227,4292.820313,4336.410156,4383.846191,4435.128418,4412.563965,4295,4383.589844,4336.538574,4308.205078,4440.384766,4315.256348,4302.436035,,,,,,,,,,,,,,,,,,,,,,,,,,,,,,,,,,,,,,,,,,,,,,,,,,,,,,,,,,,,,,,,,,,,,,
1720081475,86,0,4376.025879,4375.769043,4287.94873,4336.282227,4383.846191,4429.871582,4402.179688,4288.461426,4382.05127,4333.974121,4305.384766,4443.717773,4312.820313,4304.230957,,,,,,,,,,,,,,,,,,,,,,,,,,,,,,,,,,,,,,,,,,,,,,,,,,,,,,,,,,,,,,,,,,,,,,
1720081475,87,0,4360.384766,4365,4289.487305,4339.487305,4376.794922,4429.743652,4393.589844,4305,4383.589844,4333.974121,4309.358887,4442.692383,4311.794922,4305.384766,,,,,,,,,,,,,,,,,,,,,,,,,,,,,,,,,,,,,,,,,,,,,,,,,,,,,,,,,,,,,,,,,,,,,,
1720081475,88,0,4358.846191,4361.666504,4282.307617,4336.666504,4381.794922,4426.922852,4392.563965,4293.461426,4379.743652,4332.563965,4306.153809,4431.025879,4310.512695,4281.666504,,,,,,,,,,,,,,,,,,,,,,,,,,,,,,,,,,,,,,,,,,,,,,,,,,,,,,,,,,,,,,,,,,,,,,
1720081475,89,0,4368.717773,4369.102539,4279.358887,4331.666504,4394.102539,4423.461426,4393.205078,4274.230957,4376.153809,4330.897461,4300.128418,4438.974121,4305,4242.307617,,,,,,,,,,,,,,,,,,,,,,,,,,,,,,,,,,,,,,,,,,,,,,,,,,,,,,,,,,,,,,,,,,,,,,
1720081475,90,0,4365,4370.897461,4302.05127,4339.615234,4386.410156,4428.333496,4396.153809,4308.333496,4376.153809,4334.102539,4311.666504,4472.94873,4305.897461,4220.897461,,,,,,,,,,,,,,,,,,,,,,,,,,,,,,,,,,,,,,,,,,,,,,,,,,,,,,,,,,,,,,,,,,,,,,
1720081475,91,0,4357.820313,4363.077148,4301.538574,4338.589844,4380.256348,4425,4397.563965,4299.743652,4373.589844,4332.563965,4315,4454.743652,4308.461426,4234.358887,,,,,,,,,,,,,,,,,,,,,,,,,,,,,,,,,,,,,,,,,,,,,,,,,,,,,,,,,,,,,,,,,,,,,,
1720081475,92,0,4360.256348,4361.410156,4285.256348,4333.205078,4388.205078,4421.666504,4394.358887,4279.615234,4370.897461,4329.102539,4300,4417.05127,4304.102539,4280.897461,,,,,,,,,,,,,,,,,,,,,,,,,,,,,,,,,,,,,,,,,,,,,,,,,,,,,,,,,,,,,,,,,,,,,,
1720081475,93,0,4365.897461,4369.358887,4291.282227,4337.179688,4390.897461,4425.897461,4394.487305,4302.307617,4372.563965,4332.820313,4299.358887,4428.077148,4309.358887,4325.512695,3.09265,2.210109,1.345155,1.512122,0.729168,1.719722,0.695121,0.878429,0.700402,0.337436,1.914164,0.628813,1.542438,0.861381,0.517242,0.029305,0.023596,0.037187,0.024363,0.060318,0.619934,0.359388,0.755765,0.526047,0.214102,1.316217,0.895381,0.78879,0.393408,0.161098,0.799289,1.45478,5.20819,1.121363,0.301103,0.257658,0.245412,0.063346,0.270606,1.014768,0.645482,1.876414,0.403974,0.722676,0.447518,0.615537,0.616922,0.265091,0.295776,0.201323,1.754856,1.057363,0.896676,0.939877,0.691997,2.252615,0.510696,1.431643,1.561418,0.916955,2.122375,1.320105,1.338378,0.841667,0.522742,2.916188,5.857157,5.893167,3.457296,2.481989
1720081475,94,0,4379.487305,4376.666504,4298.717773,4335.897461,4389.871582,4425.769043,4397.179688,4292.692383,4376.794922,4336.666504,4320.128418,4448.205078,4330.769043,4332.563965,,,,,,,,,,,,,,,,,,,,,,,,,,,,,,,,,,,,,,,,,,,,,,,,,,,,,,,,,,,,,,,,,,,,,,
1720081475,95,0,4388.974121,4377.179688,4302.307617,4337.05127,4389.358887,4424.743652,4394.358887,4287.179688,4381.794922,4338.717773,4334.743652,4456.282227,4343.461426,4318.846191,,,,,,,,,,,,,,,,,,,,,,,,,,,,,,,,,,,,,,,,,,,,,,,,,,,,,,,,,,,,,,,,,,,,,,
1720081475,96,0,4384.230957,4375.512695,4297.563965,4340.512695,4386.538574,4420.128418,4389.487305,4297.563965,4384.487305,4339.615234,4321.538574,4451.538574,4331.282227,4300.641113,,,,,,,,,,,,,,,,,,,,,,,,,,,,,,,,,,,,,,,,,,,,,,,,,,,,,,,,,,,,,,,,,,,,,,
