Timestamp,EEG.Counter,EEG.Interpolated,EEG.AF3,EEG.F7,EEG.F3,EEG.FC5,EEG.T7,EEG.P7,EEG.O1,EEG.O2,EEG.P8,EEG.T8,EEG.FC6,EEG.F4,EEG.F8,EEG.AF4,POW.AF3.Theta,POW.AF3.Alpha,POW.AF3.BetaL,POW.AF3.BetaH,POW.AF3.Gamma,POW.F7.Theta,POW.F7.Alpha,POW.F7.BetaL,POW.F7.BetaH,POW.F7.Gamma,POW.F3.Theta,POW.F3.Alpha,POW.F3.BetaL,POW.F3.BetaH,POW.F3.Gamma,POW.FC5.Theta,POW.FC5.Alpha,POW.FC5.BetaL,POW.FC5.BetaH,POW.FC5.Gamma,POW.T7.Theta,POW.T7.Alpha,POW.T7.BetaL,POW.T7.BetaH,POW.T7.Gamma,POW.P7.Theta,POW.P7.Alpha,POW.P7.BetaL,POW.P7.BetaH,POW.P7.Gamma,POW.O1.Theta,POW.O1.Alpha,POW.O1.BetaL,POW.O1.BetaH,POW.O1.Gamma,POW.O2.Theta,POW.O2.Alpha,POW.O2.BetaL,POW.O2.BetaH,POW.O2.Gamma,POW.P8.Theta,POW.P8.Alpha,POW.P8.BetaL,POW.P8.BetaH,POW.P8.Gamma,POW.T8.Theta,POW.T8.Alpha,POW.T8.BetaL,POW.T8.BetaH,POW.T8.Gamma,POW.FC6.Theta,POW.FC6.Alpha,POW.FC6.BetaL,POW.FC6.BetaH,POW.FC6.Gamma,POW.F4.Theta,POW.F4.Alpha,POW.F4.BetaL,POW.F4.BetaH,POW.F4.Gamma,POW.F8.Theta,POW.F8.Alpha,POW.F8.BetaL,POW.F8.BetaH,POW.F8.Gamma,POW.AF4.Theta,POW.AF4.Alpha,POW.AF4.BetaL,POW.AF4.BetaH,POW.AF4.Gamma
1720078253,46,0,4331.153809,4368.589844,4350.897461,4394.102539,4387.94873,4375.897461,4388.589844,4408.205078,4389.615234,4373.846191,4348.974121,4495.256348,4333.333496,4499.487305,,,,,,,,,,,,,,,,,,,,,,,,,,,,,,,,,,,,,,,,,,,,,,,,,,,,,,,,,,,,,,,,,,,,,,
1720078253,47,0,4347.307617,4345.512695,4343.461426,4369.102539,4383.589844,4376.666504,4387.820313,4409.230957,4385.769043,4377.436035,4351.153809,4493.974121,4346.538574,4484.871582,,,,,,,,,,,,,,,,,,,,,,,,,,,,,,,,,,,,,,,,,,,,,,,,,,,,,,,,,,,,,,,,,,,,,,
1720078253,48,0,4343.333496,4334.743652,4339.358887,4361.538574,4387.307617,4380.641113,4392.307617,4411.794922,4380.256348,4376.282227,4347.436035,4493.717773,4344.102539,4480.512695,,,,,,,,,,,,,,,,,,,,,,,,,,,,,,,,,,,,,,,,,,,,,,,,,,,,,,,,,,,,,,,,,,,,,,
1720078253,49,0,4302.820313,4329.487305,4333.333496,4366.794922,4383.205078,4377.05127,4388.461426,4410.128418,4378.717773,4373.717773,4339.358887,4486.410156,4335.512695,4410.641113,,,,,,,,,,,,,,,,,,,,,,,,,,,,,,,,,,,,,,,,,,,,,,,,,,,,,,,,,,,,,,,,,,,,,,
1720078253,50,0,4288.717773,4320.641113,4325,4363.205078,4378.846191,4369.743652,4380.512695,4399.871582,4374.743652,4373.589844,4334.615234,4478.589844,4330.641113,4294.358887,17.519058,1.228009,2.074149,1.162231,0.388087,3.810506,0.781973,0.824653,0.899517,0.413653,2.047097,0.881734,0.435721,1.060671,0.377715,2.032876,0.522268,1.037309,1.139109,0.735385,0.401365,0.199683,0.213735,0.278538,0.156528,0.890765,0.73186,0.108377,0.120514,0.145645,1.01821,1.096744,0.278005,0.25558,0.212372,1.121642,1.097732,0.47799,0.374805,0.207831,1.941049,2.127888,0.545089,0.480388,0.230073,1.438641,0.423813,0.382554,0.480023,0.310132,4.570277,1.016859,0.49867,0.804183,0.362472,4.037549,1.006688,0.676142,0.951736,0.44426,7.055495,1.022589,0.414609,0.683897,0.353902,13.407501,2.083416,0.562712,1.113556,0.467864
1720078253,51,0,4306.794922,4327.307617,4326.410156,4364.487305,4388.974121,4373.717773,4382.179688,4396.153809,4375.641113,4378.589844,4338.077148,4480.128418,4334.743652,4252.820313,,,,,,,,,,,,,,,,,,,,,,,,,,,,,,,,,,,,,,,,,,,,,,,,,,,,,,,,,,,,,,,,,,,,,,
1720078253,52,0,4299.358887,4327.307617,4321.922852,4366.025879,4390.512695,4375.128418,4381.922852,4396.153809,4376.025879,4377.563965,4331.666504,4473.846191,4332.563965,4259.358887,,,,,,,,,,,,,,,,,,,,,,,,,,,,,,,,,,,,,,,,,,,,,,,,,,,,,,,,,,,,,,,,,,,,,,
1720078253,53,0,4276.410156,4312.307617,4307.692383,4359.102539,4382.563965,4371.538574,4381.282227,4398.717773,4373.333496,4373.333496,4320,4467.179688,4323.974121,4240.384766,,,,,,,,,,,,,,,,,,,,,,,,,,,,,,,,,,,,,,,,,,,,,,,,,,,,,,,,,,,,,,,,,,,,,,
1720078253,54,0,4273.333496,4314.871582,4305.384766,4354.230957,4386.025879,4378.205078,4392.179688,4408.461426,4377.820313,4378.333496,4326.538574,4478.461426,4327.436035,4216.666504,,,,,,,,,,,,,,,,,,,,,,,,,,,,,,,,,,,,,,,,,,,,,,,,,,,,,,,,,,,,,,,,,,,,,,
1720078253,55,0,4285.128418,4327.436035,4317.692383,4361.538574,4390.769043,4382.94873,4400.256348,4412.179688,4386.410156,4385.384766,4339.615234,4490.512695,4339.102539,4215.769043,,,,,,,,,,,,,,,,,,,,,,,,,,,,,,,,,,,,,,,,,,,,,,,,,,,,,,,,,,,,,,,,,,,,,,
1720078253,56,0,4288.589844,4319.358887,4318.333496,4362.563965,4385.897461,4379.615234,4390.384766,4398.717773,4377.05127,4376.666504,4327.05127,4478.333496,4331.410156,4213.205078,,,,,,,,,,,,,,,,,,,,,,,,,,,,,,,,,,,,,,,,,,,,,,,,,,,,,,,,,,,,,,,,,,,,,,
1720078253,57,0,4274.615234,4303.077148,4300.384766,4338.205078,4381.282227,4377.307617,4377.94873,4382.94873,4357.692383,4355.641113,4298.461426,4449.487305,4303.461426,4189.102539,,,,,,,,,,,,,,,,,,,,,,,,,,,,,,,,,,,,,,,,,,,,,,,,,,,,,,,,,,,,,,,,,,,,,,
1720078253,58,0,4258.461426,4296.922852,4286.538574,4324.358887,4377.94873,4371.666504,4376.666504,4378.333496,4351.410156,4343.461426,4284.230957,4432.307617,4288.846191,4164.358887,,,,,,,,,,,,,,,,,,,,,,,,,,,,,,,,,,,,,,,,,,,,,,,,,,,,,,,,,,,,,,,,,,,,,,
1720078253,59,0,4260.128418,4292.179688,4290,4338.077148,4378.205078,4368.717773,4380.256348,4385.128418,4360.897461,4350.512695,4290.769043,4436.410156,4303.717773,4161.282227,,,,,,,,,,,,,,,,,,,,,,,,,,,,,,,,,,,,,,,,,,,,,,,,,,,,,,,,,,,,,,,,,,,,,,
1720078253,60,0,4275.256348,4293.589844,4295.897461,4345.384766,4383.333496,4378.461426,4387.94873,4397.05127,4376.410156,4366.410156,4304.487305,4449.615234,4320,4168.846191,,,,,,,,,,,,,,,,,,,,,,,,,,,,,,,,,,,,,,,,,,,,,,,,,,,,,,,,,,,,,,,,,,,,,,
1720078253,61,0,4284.358887,4305.769043,4293.846191,4340.641113,4385.769043,4384.871582,4395.256348,4399.358887,4380.512695,4373.077148,4310.641113,4454.230957,4319.487305,4171.794922,,,,,,,,,,,,,,,,,,,,,,,,,,,,,,,,,,,,,,,,,,,,,,,,,,,,,,,,,,,,,,,,,,,,,,
1720078253,62,0,4287.179688,4306.410156,4290.897461,4344.487305,4384.615234,4381.153809,4396.794922,4394.743652,4376.538574,4369.487305,4311.153809,4450.256348,4318.205078,4177.179688,,,,,,,,,,,,,,,,,,,,,,,,,,,,,,,,,,,,,,,,,,,,,,,,,,,,,,,,,,,,,,,,,,,,,,
1720078253,63,0,4290.897461,4297.179688,4291.922852,4344.487305,4386.538574,4381.410156,4397.179688,4400,4377.94873,4369.615234,4312.692383,4449.871582,4321.538574,4179.871582,,,,,,,,,,,,,,,,,,,,,,,,,,,,,,,,,,,,,,,,,,,,,,,,,,,,,,,,,,,,,,,,,,,,,,
1720078253,64,0,4296.666504,4300.512695,4296.922852,4340.641113,4388.974121,4384.358887,4399.230957,4410.128418,4384.615234,4377.307617,4313.461426,4455.641113,4322.563965,4173.717773,,,,,,,,,,,,,,,,,,,,,,,,,,,,,,,,,,,,,,,,,,,,,,,,,,,,,,,,,,,,,,,,,,,,,,
1720078253,65,0,4299.871582,4309.743652,4296.410156,4349.615234,4386.666504,4382.436035,4398.205078,4407.179688,4386.922852,4379.743652,4312.179688,4459.102539,4321.922852,4170,,,,,,,,,,,,,,,,,,,,,,,,,,,,,,,,,,,,,,,,,,,,,,,,,,,,,,,,,,,,,,,,,,,,,,
1720078253,66,0,4300.256348,4311.794922,4292.692383,4354.230957,4385.384766,4383.846191,4397.307617,4400.128418,4387.563965,4380,4312.94873,4453.333496,4323.461426,4171.153809,26.114664,1.210869,2.581336,1.281026,0.372475,7.496648,1.229226,1.011768,0.926115,0.436679,2.208726,0.974902,0.436897,1.12332,0.356913,3.433103,0.629024,1.156022,1.044849,0.776757,0.500922,0.214153,0.232807,0.252703,0.161516,0.791863,0.73102,0.116212,0.126317,0.169152,1.088914,1.175235,0.331594,0.312111,0.237847,1.089099,1.099123,0.576717,0.448862,0.212339,1.838646,1.991267,0.562469,0.556762,0.233114,1.652153,0.464795,0.382985,0.558154,0.311141,5.1398,0.96041,0.383292,0.909085,0.363927,3.454065,0.884353,0.59667,1.0987,0.419044,8.772187,1.196504,0.306541,0.813866,0.348147,12.806307,2.329829,0.356495,1.334126,0.495946
1720078253,67,0,4298.846191,4308.077148,4292.692383,4346.666504,4387.179688,4385.641113,4400.256348,4400.897461,4393.077148,4384.615234,4312.692383,4446.282227,4323.589844,4170,,,,,,,,,,,,,,,,,,,,,,,,,,,,,,,,,,,,,,,,,,,,,,,,,,,,,,,,,,,,,,,,,,,,,,
1720078253,68,0,4293.846191,4298.077148,4284.871582,4335.769043,4383.077148,4378.717773,4392.820313,4394.358887,4383.717773,4376.410156,4302.179688,4436.025879,4314.871582,4160.128418,,,,,,,,,,,,,,,,,,,,,,,,,,,,,,,,,,,,,,,,,,,,,,,,,,,,,,,,,,,,,,,,,,,,,,
1720078253,69,0,4295.897461,4293.205078,4269.102539,4324.871582,4371.025879,4368.974121,4378.077148,4376.538574,4358.589844,4354.871582,4288.461426,4421.538574,4302.307617,4158.589844,,,,,,,,,,,,,,,,,,,,,,,,,,,,,,,,,,,,,,,,,,,,,,,,,,,,,,,,,,,,,,,,,,,,,,
1720078253,70,0,4314.230957,4310,4272.563965,4331.794922,4371.410156,4369.615234,4382.307617,4376.794922,4359.358887,4356.282227,4295,4429.871582,4311.666504,4183.205078,,,,,,,,,,,,,,,,,,,,,,,,,,,,,,,,,,,,,,,,,,,,,,,,,,,,,,,,,,,,,,,,,,,,,,
1720078253,71,0,4334.615234,4323.589844,4289.487305,4349.230957,4382.307617,4374.230957,4398.333496,4401.410156,4385.641113,4378.974121,4320.769043,4457.05127,4337.436035,4205,,,,,,,,,,,,,,,,,,,,,,,,,,,,,,,,,,,,,,,,,,,,,,,,,,,,,,,,,,,,,,,,,,,,,,
1720078253,72,0,4332.307617,4310.384766,4283.589844,4343.846191,4377.179688,4368.589844,4397.179688,4408.077148,4384.871582,4379.615234,4323.717773,4455,4335.512695,4188.205078,,,,,,,,,,,,,,,,,,,,,,,,,,,,,,,,,,,,,,,,,,,,,,,,,,,,,,,,,,,,,,,,,,,,,,
1720078253,73,0,4326.025879,4302.307617,4274.487305,4333.846191,4367.436035,4363.077148,4390.897461,4399.230957,4371.282227,4371.153809,4313.589844,4440,4324.230957,4174.358887,,,,,,,,,,,,,,,,,,,,,,,,,,,,,,,,,,,,,,,,,,,,,,,,,,,,,,,,,,,,,,,,,,,,,,
1720078253,74,0,4340.641113,4310.512695,4287.563965,4341.666504,4372.05127,4366.666504,4395.256348,4405.128418,4381.666504,4379.102539,4323.461426,4449.615234,4337.05127,4197.820313,,,,,,,,,,,,,,,,,,,,,,,,,,,,,,,,,,,,,,,,,,,,,,,,,,,,,,,,,,,,,,,,,,,,,,
1720078253,75,0,4354.743652,4313.461426,4294.487305,4342.820313,4377.563965,4369.615234,4397.05127,4411.025879,4390.128418,4387.436035,4328.333496,4458.974121,4343.333496,4217.436035,,,,,,,,,,,,,,,,,,,,,,,,,,,,,,,,,,,,,,,,,,,,,,,,,,,,,,,,,,,,,,,,,,,,,,
1720078253,76,0,4345.769043,4305.897461,4281.153809,4335.256348,4372.05127,4367.820313,4392.05127,4401.794922,4381.666504,4380.128418,4309.615234,4445.512695,4323.333496,4199.102539,,,,,,,,,,,,,,,,,,,,,,,,,,,,,,,,,,,,,,,,,,,,,,,,,,,,,,,,,,,,,,,,,,,,,,
1720078253,77,0,4338.205078,4302.820313,4276.410156,4339.615234,4368.717773,4365.641113,4387.307617,4395,4376.410156,4370.256348,4300.897461,4433.846191,4309.743652,4173.846191,,,,,,,,,,,,,,,,,,,,,,,,,,,,,,,,,,,,,,,,,,,,,,,,,,,,,,,,,,,,,,,,,,,,,,
1720078253,78,0,4347.692383,4309.615234,4281.794922,4338.333496,4372.692383,4365,4382.563965,4391.666504,4369.743652,4367.05127,4307.05127,4430.897461,4313.589844,4179.102539,,,,,,,,,,,,,,,,,,,,,,,,,,,,,,,,,,,,,,,,,,,,,,,,,,,,,,,,,,,,,,,,,,,,,,
1720078253,79,0,4343.077148,4307.436035,4270.512695,4322.692383,4374.358887,4366.153809,4377.94873,4384.487305,4357.563965,4361.282227,4295,4420.641113,4311.666504,4191.410156,,,,,,,,,,,,,,,,,,,,,,,,,,,,,,,,,,,,,,,,,,,,,,,,,,,,,,,,,,,,,,,,,,,,,,
1720078253,80,0,4333.077148,4298.461426,4260.128418,4326.282227,4374.615234,4369.102539,4379.102539,4383.205078,4358.846191,4357.05127,4281.538574,4412.820313,4305.897461,4187.307617,,,,,,,,,,,,,,,,,,,,,,,,,,,,,,,,,,,,,,,,,,,,,,,,,,,,,,,,,,,,,,,,,,,,,,
1720078253,81,0,4345.897461,4307.05127,4272.179688,4348.461426,4379.615234,4370.128418,4386.666504,4389.230957,4372.820313,4358.974121,4289.743652,4418.461426,4310.256348,4183.974121,,,,,,,,,,,,,,,,,,,,,,,,,,,,,,,,,,,,,,,,,,,,,,,,,,,,,,,,,,,,,,,,,,,,,,
1720078253,82,0,4359.230957,4314.871582,4283.461426,4353.846191,4381.025879,4369.743652,4389.487305,4391.282227,4376.282227,4360.256348,4297.94873,4423.589844,4313.717773,4190.384766,39.420193,1.282605,2.941768,1.327394,0.360539,13.3915,1.63207,1.180013,0.886924,0.451348,3.694786,0.992543,0.438221,1.100232,0.329084,5.938929,0.704873,1.214193,0.903639,0.776358,0.694555,0.222068,0.24827,0.217126,0.160842,0.709135,0.690967,0.134935,0.139105,0.188197,1.164713,1.244138,0.417638,0.353702,0.251585,1.165707,1.139003,0.685535,0.490105,0.20994,1.703762,1.726006,0.574676,0.607168,0.237555,1.781823,0.500918,0.390751,0.612142,0.301294,5.469388,0.945248,0.329463,0.944871,0.351629,3.367408,0.805454,0.568395,1.165245,0.387678,10.104721,1.421434,0.300114,0.912861,0.334252,13.329718,3.61507,0.376629,1.52565,0.535384
1720078253,83,0,4356.410156,4303.846191,4278.205078,4339.615234,4374.871582,4372.05127,4388.333496,4391.410156,4367.692383,4356.794922,4291.538574,4419.743652,4303.974121,4191.538574,,,,,,,,,,,,,,,,,,,,,,,,,,,,,,,,,,,,,,,,,,,,,,,,,,,,,,,,,,,,,,,,,,,,,,
1720078253,84,0,4351.282227,4295.641113,4271.025879,4330.897461,4369.102539,4373.077148,4390.641113,4392.563965,4363.589844,4353.333496,4283.461426,4416.153809,4292.563965,4184.871582,,,,,,,,,,,,,,,,,,,,,,,,,,,,,,,,,,,,,,,,,,,,,,,,,,,,,,,,,,,,,,,,,,,,,,
1720078253,85,0,4361.538574,4300,4277.307617,4338.589844,4369.102539,4367.179688,4389.487305,4388.974121,4365.897461,4354.487305,4286.025879,4424.230957,4295.128418,4188.333496,,,,,,,,,,,,,,,,,,,,,,,,,,,,,,,,,,,,,,,,,,,,,,,,,,,,,,,,,,,,,,,,,,,,,,
1720078253,86,0,4376.922852,4298.589844,4289.230957,4346.410156,4369.358887,4365,4385.384766,4385.128418,4370,4355.256348,4291.282227,4433.974121,4298.077148,4197.94873,,,,,,,,,,,,,,,,,,,,,,,,,,,,,,,,,,,,,,,,,,,,,,,,,,,,,,,,,,,,,,,,,,,,,,
1720078253,87,0,4378.846191,4291.410156,4292.94873,4340.384766,4370.256348,4371.410156,4390.384766,4390.384766,4374.871582,4355.128418,4289.743652,4438.077148,4290.512695,4199.102539,,,,,,,,,,,,,,,,,,,,,,,,,,,,,,,,,,,,,,,,,,,,,,,,,,,,,,,,,,,,,,,,,,,,,,
1720078253,88,0,4381.153809,4301.282227,4297.692383,4346.410156,4376.410156,4375.256348,4400.512695,4398.846191,4380.769043,4360.512695,4292.307617,4449.102539,4293.846191,4195.128418,,,,,,,,,,,,,,,,,,,,,,,,,,,,,,,,,,,,,,,,,,,,,,,,,,,,,,,,,,,,,,,,,,,,,,
1720078253,89,0,4396.282227,4313.717773,4314.615234,4371.666504,4382.94873,4371.538574,4403.333496,4403.589844,4388.077148,4370.384766,4308.333496,4466.282227,4308.077148,4201.282227,,,,,,,,,,,,,,,,,,,,,,,,,,,,,,,,,,,,,,,,,,,,,,,,,,,,,,,,,,,,,,,,,,,,,,
1720078253,90,0,4403.077148,4305.641113,4321.153809,4371.794922,4382.563965,4372.179688,4401.922852,4406.025879,4391.538574,4369.358887,4317.05127,4468.974121,4306.025879,4209.871582,,,,,,,,,,,,,,,,,,,,,,,,,,,,,,,,,,,,,,,,,,,,,,,,,,,,,,,,,,,,,,,,,,,,,,
1720078253,91,0,4398.077148,4300,4305.641113,4350.897461,4382.563965,4382.307617,4401.922852,4407.563965,4391.282227,4365.512695,4310.897461,4463.333496,4300.769043,4207.94873,,,,,,,,,,,,,,,,,,,,,,,,,,,,,,,,,,,,,,,,,,,,,,,,,,,,,,,,,,,,,,,,,,,,,,
1720078253,92,0,4402.94873,4304.358887,4295.384766,4346.410156,4381.666504,4383.333496,4398.077148,4403.717773,4388.589844,4367.563965,4309.743652,4460,4304.743652,4205,,,,,,,,,,,,,,,,,,,,,,,,,,,,,,,,,,,,,,,,,,,,,,,,,,,,,,,,,,,,,,,,,,,,,,
1720078253,93,0,4403.717773,4296.282227,4292.307617,4345.128418,4375.128418,4374.487305,4391.538574,4398.333496,4382.307617,4361.794922,4308.589844,4447.692383,4299.743652,4202.692383,,,,,,,,,,,,,,,,,,,,,,,,,,,,,,,,,,,,,,,,,,,,,,,,,,,,,,,,,,,,,,,,,,,,,,
1720078253,94,0,4401.153809,4293.461426,4290.641113,4345.897461,4373.717773,4375.128418,4394.487305,4401.153809,4383.974121,4361.410156,4306.794922,4446.922852,4300.256348,4211.410156,,,,,,,,,,,,,,,,,,,,,,,,,,,,,,,,,,,,,,,,,,,,,,,,,,,,,,,,,,,,,,,,,,,,,,
1720078253,95,0,4416.666504,4313.333496,4304.743652,4361.922852,4381.282227,4382.436035,4403.077148,4412.179688,4398.205078,4377.179688,4322.436035,4466.666504,4319.743652,4229.871582,,,,,,,,,,,,,,,,,,,,,,,,,,,,,,,,,,,,,,,,,,,,,,,,,,,,,,,,,,,,,,,,,,,,,,
1720078253,96,0,4432.05127,4324.487305,4323.974121,4369.487305,4386.922852,4383.974121,4403.461426,4416.922852,4407.436035,4385.128418,4338.717773,4477.820313,4330,4238.205078,,,,,,,,,,,,,,,,,,,,,,,,,,,,,,,,,,,,,,,,,,,,,,,,,,,,,,,,,,,,,,,,,,,,,,
1720078254,97,0,4435.769043,4324.102539,4329.102539,4365.897461,4389.487305,4386.922852,4403.333496,4414.871582,4400.512695,4380.512695,4334.871582,4478.077148,4330,4238.974121,,,,,,,,,,,,,,,,,,,,,,,,,,,,,,,,,,,,,,,,,,,,,,,,,,,,,,,,,,,,,,,,,,,,,,
1720078254,98,0,4438.077148,4326.282227,4324.230957,4368.846191,4388.717773,4388.974121,4407.563965,4414.615234,4390.384766,4375.384766,4325.769043,4476.153809,4334.743652,4242.179688,56.513176,1.423921,3.05232,1.308508,0.372589,20.590506,1.858279,1.273952,0.792747,0.459936,6.454357,0.922613,0.435617,0.998545,0.3073,9.423061,0.720621,1.188342,0.749696,0.738149,0.998456,0.22189,0.259558,0.183451,0.154009,0.676493,0.615379,0.164981,0.159061,0.196102,1.176551,1.258451,0.525298,0.372623,0.249184,1.29843,1.195604,0.7925,0.492659,0.199225,1.515271,1.399823,0.576024,0.625855,0.242242,1.785029,0.531666,0.40181,0.630309,0.284165,5.443195,0.940212,0.357082,0.909155,0.332764,3.685085,0.762134,0.605989,1.142905,0.353917,10.683219,1.592229,0.385011,0.947077,0.320552,17.935633,6.931368,0.766945,1.73045,0.616142
1720078254,99,0,4444.487305,4326.025879,4324.871582,4370,4386.538574,4380.769043,4406.794922,4412.179688,4387.94873,4372.05127,4326.666504,4472.692383,4337.307617,4251.153809,,,,,,,,,,,,,,,,,,,,,,,,,,,,,,,,,,,,,,,,,,,,,,,,,,,,,,,,,,,,,,,,,,,,,,
1720078254,100,0,4451.794922,4330.769043,4333.717773,4369.230957,4392.563965,4379.871582,4409.102539,4414.358887,4395.512695,4379.358887,4335.641113,4480.128418,4342.05127,4267.179688,,,,,,,,,,,,,,,,,,,,,,,,,,,,,,,,,,,,,,,,,,,,,,,,,,,,,,,,,,,,,,,,,,,,,,
1720078254,101,0,4464.102539,4339.487305,4337.94873,4374.615234,4397.436035,4387.436035,4417.05127,4421.025879,4398.205078,4387.307617,4343.589844,4490.641113,4352.692383,4289.487305,,,,,,,,,,,,,,,,,,,,,,,,,,,,,,,,,,,,,,,,,,,,,,,,,,,,,,,,,,,,,,,,,,,,,,
1720078254,102,0,4488.077148,4346.922852,4330.897461,4377.692383,4388.333496,4384.487305,4415.128418,4416.922852,4392.436035,4376.794922,4342.94873,4483.846191,4355.897461,4308.461426,,,,,,,,,,,,,,,,,,,,,,,,,,,,,,,,,,,,,,,,,,,,,,,,,,,,,,,,,,,,,,,,,,,,,,
1720078254,103,0,4520.256348,4357.307617,4333.333496,4387.692383,4384.487305,4379.743652,4408.846191,4411.153809,4392.436035,4369.358887,4338.974121,4478.717773,4355.256348,4328.205078,,,,,,,,,,,,,,,,,,,,,,,,,,,,,,,,,,,,,,,,,,,,,,,,,,,,,,,,,,,,,,,,,,,,,,
1720078254,104,0,4558.717773,4370.256348,4355.512695,4405.384766,4394.743652,4386.794922,4416.410156,4419.358887,4394.102539,4379.743652,4347.436035,4493.461426,4360.769043,4363.333496,,,,,,,,,,,,,,,,,,,,,,,,,,,,,,,,,,,,,,,,,,,,,,,,,,,,,,,,,,,,,,,,,,,,,,
1720078254,105,0,4599.358887,4391.538574,4374.358887,4419.230957,4404.358887,4392.179688,4423.974121,4425,4388.974121,4382.820313,4357.436035,4509.743652,4360.256348,4394.871582,,,,,,,,,,,,,,,,,,,,,,,,,,,,,,,,,,,,,,,,,,,,,,,,,,,,,,,,,,,,,,,,,,,,,,
1720078254,106,0,4627.307617,4413.461426,4375.256348,4429.358887,4404.102539,4387.563965,4414.102539,4420.256348,4381.794922,4367.820313,4350.256348,4510.512695,4346.025879,4401.282227,,,,,,,,,,,,,,,,,,,,,,,,,,,,,,,,,,,,,,,,,,,,,,,,,,,,,,,,,,,,,,,,,,,,,,
1720078254,107,0,4634.615234,4416.538574,4370.512695,4432.307617,4401.410156,4388.461426,4405.512695,4421.794922,4379.615234,4356.153809,4339.615234,4505.384766,4333.846191,4393.205078,,,,,,,,,,,,,,,,,,,,,,,,,,,,,,,,,,,,,,,,,,,,,,,,,,,,,,,,,,,,,,,,,,,,,,
1720078254,108,0,4649.358887,4417.94873,4381.538574,4430.897461,4403.717773,4389.743652,4412.820313,4429.487305,4384.743652,4358.077148,4343.717773,4513.589844,4330.256348,4395.897461,,,,,,,,,,,,,,,,,,,,,,,,,,,,,,,,,,,,,,,,,,,,,,,,,,,,,,,,,,,,,,,,,,,,,,
1720078254,109,0,4679.871582,4437.179688,4405,4441.922852,4407.307617,4382.05127,4415.512695,4431.282227,4387.05127,4357.436035,4344.102539,4528.077148,4317.94873,4401.410156,,,,,,,,,,,,,,,,,,,,,,,,,,,,,,,,,,,,,,,,,,,,,,,,,,,,,,,,,,,,,,,,,,,,,,
1720078254,110,0,4695.641113,4456.538574,4420.897461,4467.307617,4410.769043,4383.077148,4411.025879,4432.179688,4386.410156,4355.128418,4337.94873,4533.589844,4312.563965,4400.897461,,,,,,,,,,,,,,,,,,,,,,,,,,,,,,,,,,,,,,,,,,,,,,,,,,,,,,,,,,,,,,,,,,,,,,
1720078254,111,0,4686.922852,4451.025879,4416.025879,4471.282227,4411.410156,4389.615234,4414.102539,4434.871582,4388.333496,4360.641113,4344.743652,4531.922852,4328.461426,4403.717773,,,,,,,,,,,,,,,,,,,,,,,,,,,,,,,,,,,,,,,,,,,,,,,,,,,,,,,,,,,,,,,,,,,,,,
1720078254,112,0,4673.846191,4429.743652,4400,4448.205078,4405.256348,4386.922852,4411.153809,4427.692383,4386.538574,4361.282227,4349.871582,4523.333496,4334.743652,4405.128418,,,,,,,,,,,,,,,,,,,,,,,,,,,,,,,,,,,,,,,,,,,,,,,,,,,,,,,,,,,,,,,,,,,,,,
1720078254,113,0,4668.846191,4422.05127,4394.102539,4437.307617,4403.333496,4388.333496,4403.589844,4421.922852,4383.333496,4357.692383,4342.05127,4513.717773,4325.384766,4402.563965,,,,,,,,,,,,,,,,,,,,,,,,,,,,,,,,,,,,,,,,,,,,,,,,,,,,,,,,,,,,,,,,,,,,,,
1720078254,114,0,4664.615234,4429.358887,4393.461426,4444.743652,4409.871582,4395.256348,4407.05127,4427.820313,4385.769043,4361.282227,4340.128418,4509.743652,4322.436035,4400.256348,75.756989,1.617636,2.906374,1.250826,0.427181,28.149628,1.849439,1.272845,0.671264,0.464795,9.97775,0.809637,0.433716,0.851461,0.302919,13.233324,0.686866,1.092033,0.622878,0.67631,1.388569,0.222905,0.268992,0.159816,0.143541,0.706862,0.521614,0.200307,0.181618,0.190266,1.095007,1.191859,0.636211,0.370584,0.231996,1.407077,1.235198,0.893318,0.467852,0.183852,1.299429,1.100686,0.570643,0.618547,0.249257,1.712465,0.578111,0.416677,0.613605,0.267368,4.977419,0.938704,0.477706,0.824434,0.318143,4.201769,0.770941,0.724145,1.05652,0.325446,10.066392,1.658705,0.537344,0.908293,0.319609,28.629005,12.670575,1.579625,1.994176,0.761112
1720078254,115,0,4658.717773,4429.230957,4388.461426,4447.179688,4413.974121,4391.794922,4411.282227,4429.358887,4388.333496,4367.179688,4347.94873,4511.153809,4327.05127,4406.538574,,,,,,,,,,,,,,,,,,,,,,,,,,,,,,,,,,,,,,,,,,,,,,,,,,,,,,,,,,,,,,,,,,,,,,
1720078254,116,0,4653.333496,4419.615234,4384.230957,4440.769043,4408.974121,4384.615234,4405.897461,4422.436035,4387.179688,4370.897461,4348.846191,4510,4327.436035,4413.717773,,,,,,,,,,,,,,,,,,,,,,,,,,,,,,,,,,,,,,,,,,,,,,,,,,,,,,,,,,,,,,,,,,,,,,
1720078254,117,0,4652.563965,4415.384766,4382.94873,4437.307617,4403.717773,4384.615234,4399.487305,4416.282227,4390.128418,4372.436035,4342.94873,4502.563965,4324.743652,4414.358887,,,,,,,,,,,,,,,,,,,,,,,,,,,,,,,,,,,,,,,,,,,,,,,,,,,,,,,,,,,,,,,,,,,,,,
1720078254,118,0,4649.871582,4412.692383,4377.563965,4429.615234,4398.846191,4386.666504,4400.641113,4410.897461,4392.307617,4371.410156,4345.512695,4493.589844,4327.94873,4421.153809,,,,,,,,,,,,,,,,,,,,,,,,,,,,,,,,,,,,,,,,,,,,,,,,,,,,,,,,,,,,,,,,,,,,,,
1720078254,119,0,4646.538574,4415.256348,4380.769043,4432.307617,4399.871582,4386.922852,4406.666504,4414.487305,4393.333496,4378.846191,4361.025879,4504.102539,4347.179688,4443.205078,,,,,,,,,,,,,,,,,,,,,,,,,,,,,,,,,,,,,,,,,,,,,,,,,,,,,,,,,,,,,,,,,,,,,,
1720078254,120,0,4663.205078,4429.487305,4398.461426,4452.436035,4411.666504,4387.307617,4414.230957,4428.077148,4401.410156,4395.256348,4382.563965,4532.05127,4372.94873,4469.230957,,,,,,,,,,,,,,,,,,,,,,,,,,,,,,,,,,,,,,,,,,,,,,,,,,,,,,,,,,,,,,,,,,,,,,
1720078254,121,0,4678.717773,4433.205078,4400.641113,4451.794922,4411.794922,4386.410156,4412.179688,4424.743652,4401.282227,4393.717773,4377.563965,4530,4366.538574,4468.077148,,,,,,,,,,,,,,,,,,,,,,,,,,,,,,,,,,,,,,,,,,,,,,,,,,,,,,,,,,,,,,,,,,,,,,
1720078254,122,0,4670.897461,4425,4389.615234,4438.461426,4398.974121,4383.717773,4402.94873,4408.205078,4389.743652,4376.666504,4347.179688,4503.717773,4332.563965,4443.717773,,,,,,,,,,,,,,,,,,,,,,,,,,,,,,,,,,,,,,,,,,,,,,,,,,,,,,,,,,,,,,,,,,,,,,
1720078254,123,0,4664.230957,4419.358887,4391.410156,4440.769043,4394.487305,4381.538574,4399.230957,4408.077148,4387.05127,4373.077148,4344.102539,4505.256348,4324.871582,4439.871582,,,,,,,,,,,,,,,,,,,,,,,,,,,,,,,,,,,,,,,,,,,,,,,,,,,,,,,,,,,,,,,,,,,,,,
1720078254,124,0,4668.461426,4415.512695,4398.974121,4437.179688,4397.307617,4385.128418,4398.974121,4415.769043,4391.282227,4381.666504,4367.94873,4522.563965,4345.769043,4462.179688,,,,,,,,,,,,,,,,,,,,,,,,,,,,,,,,,,,,,,,,,,,,,,,,,,,,,,,,,,,,,,,,,,,,,,
1720078254,125,0,4670.641113,4416.794922,4396.025879,4423.205078,4400.128418,4391.025879,4396.282227,4411.794922,4390.897461,4385.641113,4369.102539,4519.615234,4352.307617,4470.256348,,,,,,,,,,,,,,,,,,,,,,,,,,,,,,,,,,,,,,,,,,,,,,,,,,,,,,,,,,,,,,,,,,,,,,
1720078254,126,0,4675.128418,4428.974121,4395,4430.384766,4405.769043,4388.846191,4394.487305,4407.94873,4390,4382.820313,4351.666504,4513.974121,4338.846191,4461.410156,,,,,,,,,,,,,,,,,,,,,,,,,,,,,,,,,,,,,,,,,,,,,,,,,,,,,,,,,,,,,,,,,,,,,,
1720078254,127,0,4684.871582,4437.179688,4407.05127,4447.563965,4412.05127,4387.563965,4402.307617,4412.94873,4395,4385,4352.692383,4525.897461,4338.077148,4464.102539,,,,,,,,,,,,,,,,,,,,,,,,,,,,,,,,,,,,,,,,,,,,,,,,,,,,,,,,,,,,,,,,,,,,,,
1720078254,0,0,4686.922852,4433.589844,4416.922852,4445.641113,4413.589844,4393.846191,4410.897461,4417.307617,4398.846191,4391.538574,4365.641113,4535.769043,4345.512695,4471.025879,,,,,,,,,,,,,,,,,,,,,,,,,,,,,,,,,,,,,,,,,,,,,,,,,,,,,,,,,,,,,,,,,,,,,,
1720078254,1,0,4674.615234,4426.794922,4411.025879,4432.820313,4408.846191,4394.743652,4406.153809,4415,4394.615234,4384.743652,4357.692383,4531.922852,4331.794922,4460.897461,,,,,,,,,,,,,,,,,,,,,,,,,,,,,,,,,,,,,,,,,,,,,,,,,,,,,,,,,,,,,,,,,,,,,,
1720078254,2,0,4669.358887,4428.205078,4408.333496,4431.794922,4407.179688,4388.846191,4399.871582,4412.436035,4387.436035,4373.846191,4343.205078,4525.512695,4318.846191,4449.871582,93.685135,1.831218,2.57975,1.183316,0.526593,33.943317,1.650885,1.185606,0.55298,0.467915,13.312969,0.724402,0.445437,0.705836,0.321376,16.463697,0.643241,0.965537,0.552144,0.611463,1.774592,0.232163,0.281886,0.147798,0.13382,0.811541,0.426829,0.230937,0.199692,0.173139,0.947218,1.048584,0.728455,0.356917,0.206102,1.451662,1.234271,0.989467,0.43839,0.170539,1.118433,0.895013,0.572561,0.60387,0.262591,1.64354,0.666614,0.443771,0.576691,0.25884,4.356672,0.947897,0.685162,0.72834,0.318223,4.804702,0.859749,0.921652,0.951349,0.312708,8.684267,1.613153,0.735128,0.81768,0.340113,44.710655,20.10149,2.729618,2.319373,0.965059
1720078254,3,0,4675.256348,4434.102539,4413.717773,4441.538574,4412.179688,4389.230957,4401.538574,4409.615234,4385.641113,4378.333496,4346.282227,4523.974121,4329.230957,4453.333496,,,,,,,,,,,,,,,,,,,,,,,,,,,,,,,,,,,,,,,,,,,,,,,,,,,,,,,,,,,,,,,,,,,,,,
1720078254,4,0,4665.769043,4428.461426,4402.05127,4433.461426,4408.846191,4393.589844,4396.794922,4400.128418,4383.589844,4382.179688,4344.358887,4514.743652,4333.077148,4450.256348,,,,,,,,,,,,,,,,,,,,,,,,,,,,,,,,,,,,,,,,,,,,,,,,,,,,,,,,,,,,,,,,,,,,,,
1720078254,5,0,4650.769043,4420.897461,4388.205078,4420.384766,4404.487305,4395.641113,4394.743652,4400.384766,4382.307617,4380.384766,4335.384766,4506.922852,4322.94873,4443.077148,,,,,,,,,,,,,,,,,,,,,,,,,,,,,,,,,,,,,,,,,,,,,,,,,,,,,,,,,,,,,,,,,,,,,,
1720078254,6,0,4654.743652,4432.05127,4400.512695,4436.153809,4413.077148,4397.436035,4409.230957,4414.871582,4388.974121,4390.256348,4345.256348,4520,4332.179688,4452.820313,,,,,,,,,,,,,,,,,,,,,,,,,,,,,,,,,,,,,,,,,,,,,,,,,,,,,,,,,,,,,,,,,,,,,,
1720078254,7,0,4641.153809,4437.179688,4406.666504,4448.333496,4412.820313,4392.179688,4411.538574,4418.589844,4392.563965,4398.717773,4360.384766,4525.769043,4347.436035,4463.333496,,,,,,,,,,,,,,,,,,,,,,,,,,,,,,,,,,,,,,,,,,,,,,,,,,,,,,,,,,,,,,,,,,,,,,
1720078254,8,0,4585.512695,4417.05127,4384.871582,4425.897461,4397.436035,4384.743652,4393.077148,4410.384766,4388.333496,4393.974121,4355.641113,4509.871582,4342.05127,4455.256348,,,,,,,,,,,,,,,,,,,,,,,,,,,,,,,,,,,,,,,,,,,,,,,,,,,,,,,,,,,,,,,,,,,,,,
1720078254,9,0,4538.846191,4401.666504,4368.077148,4406.153809,4394.871582,4392.05127,4385.897461,4409.358887,4389.230957,4389.871582,4347.820313,4498.974121,4340.641113,4445.128418,,,,,,,,,,,,,,,,,,,,,,,,,,,,,,,,,,,,,,,,,,,,,,,,,,,,,,,,,,,,,,,,,,,,,,
1720078254,10,0,4517.692383,4400.384766,4363.846191,4401.410156,4398.974121,4396.153809,4392.563965,4407.820313,4385.512695,4383.205078,4343.205078,4491.922852,4345.897461,4442.436035,,,,,,,,,,,,,,,,,,,,,,,,,,,,,,,,,,,,,,,,,,,,,,,,,,,,,,,,,,,,,,,,,,,,,,
1720078254,11,0,4505.256348,4392.436035,4360.256348,4398.205078,4393.589844,4388.077148,4396.922852,4405,4380.641113,4380.769043,4345,4487.820313,4350.384766,4447.820313,,,,,,,,,,,,,,,,,,,,,,,,,,,,,,,,,,,,,,,,,,,,,,,,,,,,,,,,,,,,,,,,,,,,,,
1720078254,12,0,4502.820313,4389.615234,4368.717773,4407.436035,4394.358887,4388.077148,4400.128418,4413.846191,4394.358887,4395,4364.615234,4503.077148,4369.230957,4465.897461,,,,,,,,,,,,,,,,,,,,,,,,,,,,,,,,,,,,,,,,,,,,,,,,,,,,,,,,,,,,,,,,,,,,,,
1720078254,13,0,4498.333496,4391.282227,4372.307617,4411.410156,4396.410156,4388.846191,4399.230957,4416.666504,4402.05127,4401.153809,4365.256348,4508.461426,4378.205078,4470.256348,,,,,,,,,,,,,,,,,,,,,,,,,,,,,,,,,,,,,,,,,,,,,,,,,,,,,,,,,,,,,,,,,,,,,,
1720078254,14,0,4488.205078,4386.410156,4359.230957,4397.94873,4391.025879,4383.333496,4395.897461,4407.820313,4391.666504,4393.333496,4347.436035,4493.205078,4362.563965,4452.179688,,,,,,,,,,,,,,,,,,,,,,,,,,,,,,,,,,,,,,,,,,,,,,,,,,,,,,,,,,,,,,,,,,,,,,
1720078254,15,0,4486.666504,4388.717773,4360.512695,4398.717773,4393.077148,4384.615234,4398.077148,4405.512695,4389.230957,4394.358887,4352.307617,4494.487305,4360.769043,4449.487305,,,,,,,,,,,,,,,,,,,,,,,,,,,,,,,,,,,,,,,,,,,,,,,,,,,,,,,,,,,,,,,,,,,,,,
1720078254,16,0,4495.128418,4396.282227,4376.153809,4407.692383,4397.692383,4386.410156,4396.666504,4407.307617,4392.94873,4399.230957,4367.820313,4512.820313,4381.025879,4474.743652,,,,,,,,,,,,,,,,,,,,,,,,,,,,,,,,,,,,,,,,,,,,,,,,,,,,,,,,,,,,,,,,,,,,,,
1720078254,17,0,4495.256348,4385.641113,4378.077148,4399.230957,4391.025879,4379.487305,4391.794922,4401.025879,4383.974121,4397.94873,4373.205078,4517.692383,4397.307617,4493.589844,,,,,,,,,,,,,,,,,,,,,,,,,,,,,,,,,,,,,,,,,,,,,,,,,,,,,,,,,,,,,,,,,,,,,,
1720078254,18,0,4489.358887,4373.333496,4370,4396.153809,4385.128418,4381.282227,4391.794922,4393.589844,4371.922852,4392.820313,4369.487305,4511.666504,4395.128418,4487.436035,103.305878,2.056667,2.189997,1.118128,0.648483,36.194675,1.373521,1.059214,0.46286,0.470583,15.397025,0.744257,0.489908,0.603296,0.359413,18.036499,0.630772,0.862125,0.550079,0.562083,2.037918,0.253625,0.30346,0.144255,0.128914,0.959491,0.346719,0.248106,0.207531,0.15094,0.797432,0.869444,0.785059,0.342608,0.179554,1.43877,1.197572,1.073972,0.423871,0.165501,1.074576,0.804236,0.588466,0.600051,0.283413,1.693953,0.801993,0.487581,0.539135,0.263206,3.905014,0.983503,0.946018,0.654973,0.339129,5.376134,1.053346,1.170121,0.866966,0.324054,7.173234,1.48,0.950818,0.718522,0.381811,62.61161,27.435617,3.976509,2.640514,1.188261
1720078254,19,0,4490.512695,4375.769043,4367.05127,4399.102539,4390.128418,4391.282227,4395.128418,4395.769043,4372.563965,4384.230957,4360,4510.384766,4380.641113,4473.974121,,,,,,,,,,,,,,,,,,,,,,,,,,,,,,,,,,,,,,,,,,,,,,,,,,,,,,,,,,,,,,,,,,,,,,
1720078254,20,0,4482.436035,4364.230957,4357.179688,4381.153809,4387.820313,4387.307617,4389.871582,4398.077148,4377.692383,4378.846191,4350.256348,4505.128418,4364.743652,4463.333496,,,,,,,,,,,,,,,,,,,,,,,,,,,,,,,,,,,,,,,,,,,,,,,,,,,,,,,,,,,,,,,,,,,,,,
1720078254,21,0,4467.307617,4347.563965,4345.641113,4368.974121,4376.153809,4373.333496,4375.384766,4394.743652,4378.333496,4380.256348,4348.717773,4497.692383,4358.717773,4454.102539,,,,,,,,,,,,,,,,,,,,,,,,,,,,,,,,,,,,,,,,,,,,,,,,,,,,,,,,,,,,,,,,,,,,,,
1720078254,22,0,4483.205078,4362.436035,4358.461426,4388.846191,4379.102539,4370.384766,4371.153809,4393.589844,4378.333496,4387.94873,4351.666504,4503.717773,4361.922852,4454.487305,,,,,,,,,,,,,,,,,,,,,,,,,,,,,,,,,,,,,,,,,,,,,,,,,,,,,,,,,,,,,,,,,,,,,,
1720078254,23,0,4517.436035,4388.846191,4382.692383,4411.922852,4394.102539,4382.307617,4385.512695,4399.358887,4381.538574,4395.512695,4359.743652,4520.512695,4370.128418,4467.692383,,,,,,,,,,,,,,,,,,,,,,,,,,,,,,,,,,,,,,,,,,,,,,,,,,,,,,,,,,,,,,,,,,,,,,
1720078254,24,0,4519.871582,4387.307617,4387.692383,4404.615234,4398.717773,4388.205078,4391.922852,4402.307617,4383.205078,4392.307617,4366.922852,4522.307617,4376.410156,4470,,,,,,,,,,,,,,,,,,,,,,,,,,,,,,,,,,,,,,,,,,,,,,,,,,,,,,,,,,,,,,,,,,,,,,
1720078254,25,0,4507.94873,4376.666504,4380.641113,4391.410156,4393.717773,4386.153809,4385.769043,4397.436035,4381.282227,4386.538574,4359.487305,4512.820313,4369.743652,4457.05127,,,,,,,,,,,,,,,,,,,,,,,,,,,,,,,,,,,,,,,,,,,,,,,,,,,,,,,,,,,,,,,,,,,,,,
1720078254,26,0,4505,4378.846191,4377.05127,4394.871582,4390.769043,4391.666504,4387.692383,4395,4379.743652,4381.282227,4347.307617,4511.153809,4356.153809,4446.922852,,,,,,,,,,,,,,,,,,,,,,,,,,,,,,,,,,,,,,,,,,,,,,,,,,,,,,,,,,,,,,,,,,,,,,
1720078254,27,0,4500.897461,4383.333496,4377.05127,4397.94873,4391.153809,4399.487305,4400.256348,4401.282227,4379.358887,4375.512695,4346.538574,4512.94873,4352.692383,4443.846191,,,,,,,,,,,,,,,,,,,,,,,,,,,,,,,,,,,,,,,,,,,,,,,,,,,,,,,,,,,,,,,,,,,,,,
1720078254,28,0,4496.282227,4383.077148,4376.282227,4394.230957,4388.846191,4393.333496,4408.589844,4410.256348,4382.436035,4380,4350.769043,4510.897461,4360.256348,4441.025879,,,,,,,,,,,,,,,,,,,,,,,,,,,,,,,,,,,,,,,,,,,,,,,,,,,,,,,,,,,,,,,,,,,,,,
1720078254,29,0,4489.102539,4376.666504,4374.487305,4388.333496,4387.307617,4381.025879,4407.94873,4412.436035,4384.487305,4389.358887,4352.436035,4507.94873,4365.512695,4436.794922,,,,,,,,,,,,,,,,,,,,,,,,,,,,,,,,,,,,,,,,,,,,,,,,,,,,,,,,,,,,,,,,,,,,,,
1720078254,30,0,4483.846191,4371.410156,4378.717773,4389.487305,4390.512695,4383.077148,4407.692383,4413.846191,4387.307617,4391.538574,4359.358887,4520.256348,4368.461426,4438.333496,,,,,,,,,,,,,,,,,,,,,,,,,,,,,,,,,,,,,,,,,,,,,,,,,,,,,,,,,,,,,,,,,,,,,,
1720078254,31,0,4486.666504,4369.358887,4382.563965,4393.461426,4394.743652,4390.641113,4412.436035,4417.436035,4392.307617,4395.384766,4367.94873,4535.128418,4375.128418,4445.128418,,,,,,,,,,,,,,,,,,,,,,,,,,,,,,,,,,,,,,,,,,,,,,,,,,,,,,,,,,,,,,,,,,,,,,
1720078254,32,0,4487.436035,4374.743652,4376.794922,4394.358887,4394.743652,4393.846191,4412.692383,4417.179688,4395.384766,4402.436035,4368.974121,4528.077148,4374.871582,4442.436035,,,,,,,,,,,,,,,,,,,,,,,,,,,,,,,,,,,,,,,,,,,,,,,,,,,,,,,,,,,,,,,,,,,,,,
1720078254,33,0,4476.410156,4376.922852,4365.128418,4385.641113,4388.333496,4393.589844,4400,4405.128418,4387.94873,4397.563965,4354.615234,4503.846191,4360.512695,4422.692383,,,,,,,,,,,,,,,,,,,,,,,,,,,,,,,,,,,,,,,,,,,,,,,,,,,,,,,,,,,,,,,,,,,,,,
1720078254,34,0,4471.794922,4373.846191,4358.974121,4384.615234,4386.282227,4391.538574,4390,4390.769043,4379.102539,4394.615234,4343.205078,4492.94873,4353.205078,4415.897461,103.623535,2.335691,1.825415,1.058654,0.754629,34.727718,1.147618,0.942808,0.416594,0.473187,15.802192,0.902901,0.576515,0.566915,0.407579,17.71244,0.673608,0.811869,0.61623,0.539089,2.105913,0.282701,0.332445,0.147352,0.130821,1.097667,0.286855,0.246085,0.203693,0.13104,0.683621,0.701895,0.792642,0.336141,0.159575,1.385096,1.143402,1.125961,0.43044,0.171209,1.191672,0.797296,0.609504,0.615497,0.307141,1.910092,0.953322,0.538448,0.51707,0.279255,3.792009,1.041635,1.19762,0.622653,0.381439,5.838151,1.336451,1.410777,0.821216,0.362038,6.185312,1.302041,1.152722,0.660205,0.437308,77.376968,32.400063,4.966682,2.850618,1.371099
1720078254,35,0,4484.743652,4384.358887,4364.487305,4401.922852,4389.230957,4388.077148,4393.846191,4391.794922,4384.358887,4406.153809,4353.077148,4501.666504,4364.615234,4430.512695,,,,,,,,,,,,,,,,,,,,,,,,,,,,,,,,,,,,,,,,,,,,,,,,,,,,,,,,,,,,,,,,,,,,,,
1720078254,36,0,4486.153809,4390.769043,4363.589844,4400.384766,4389.358887,4384.487305,4396.666504,4398.974121,4384.102539,4410.769043,4358.077148,4501.794922,4368.589844,4428.974121,,,,,,,,,,,,,,,,,,,,,,,,,,,,,,,,,,,,,,,,,,,,,,,,,,,,,,,,,,,,,,,,,,,,,,
1720078254,37,0,4474.487305,4379.743652,4351.922852,4384.871582,4388.205078,4386.666504,4391.794922,4399.358887,4375.512695,4401.410156,4345.512695,4492.820313,4353.461426,4414.102539,,,,,,,,,,,,,,,,,,,,,,,,,,,,,,,,,,,,,,,,,,,,,,,,,,,,,,,,,,,,,,,,,,,,,,
1720078254,38,0,4474.743652,4378.205078,4352.820313,4387.05127,4388.974121,4390.384766,4386.282227,4400.256348,4375.769043,4393.333496,4343.846191,4495.128418,4343.589844,4413.974121,,,,,,,,,,,,,,,,,,,,,,,,,,,,,,,,,,,,,,,,,,,,,,,,,,,,,,,,,,,,,,,,,,,,,,
1720078254,39,0,4486.025879,4394.230957,4367.436035,4400.384766,4389.743652,4390.897461,4388.717773,4408.846191,4381.922852,4395.769043,4352.436035,4506.922852,4350.256348,4420.128418,,,,,,,,,,,,,,,,,,,,,,,,,,,,,,,,,,,,,,,,,,,,,,,,,,,,,,,,,,,,,,,,,,,,,,
1720078254,40,0,4482.820313,4397.179688,4361.282227,4399.102539,4388.717773,4387.179688,4391.025879,4415.256348,4388.333496,4398.589844,4343.846191,4503.333496,4353.205078,4411.666504,,,,,,,,,,,,,,,,,,,,,,,,,,,,,,,,,,,,,,,,,,,,,,,,,,,,,,,,,,,,,,,,,,,,,,
1720078254,41,0,4468.974121,4386.666504,4343.461426,4388.717773,4388.077148,4387.563965,4385.897461,4410.641113,4397.692383,4398.589844,4337.563965,4492.563965,4352.05127,4404.743652,,,,,,,,,,,,,,,,,,,,,,,,,,,,,,,,,,,,,,,,,,,,,,,,,,,,,,,,,,,,,,,,,,,,,,
1720078254,42,0,4455.384766,4376.410156,4339.487305,4383.461426,4382.820313,4389.102539,4377.436035,4398.205078,4397.179688,4397.05127,4344.358887,4491.282227,4352.179688,4404.358887,,,,,,,,,,,,,,,,,,,,,,,,,,,,,,,,,,,,,,,,,,,,,,,,,,,,,,,,,,,,,,,,,,,,,,
1720078254,43,0,4442.05127,4365.512695,4339.230957,4378.461426,4378.461426,4385.256348,4375.769043,4393.846191,4385,4392.179688,4342.179688,4491.410156,4350.384766,4397.820313,,,,,,,,,,,,,,,,,,,,,,,,,,,,,,,,,,,,,,,,,,,,,,,,,,,,,,,,,,,,,,,,,,,,,,
1720078254,44,0,4446.153809,4368.846191,4349.487305,4384.102539,4386.538574,4385.256348,4387.179688,4407.436035,4392.179688,4400.641113,4350.641113,4504.871582,4361.794922,4402.692383,,,,,,,,,,,,,,,,,,,,,,,,,,,,,,,,,,,,,,,,,,,,,,,,,,,,,,,,,,,,,,,,,,,,,,
1720078254,45,0,4452.307617,4373.077148,4360.641113,4387.307617,4390.769043,4389.871582,4393.974121,4412.05127,4402.179688,4409.743652,4362.05127,4514.871582,4370.897461,4411.025879,,,,,,,,,,,,,,,,,,,,,,,,,,,,,,,,,,,,,,,,,,,,,,,,,,,,,,,,,,,,,,,,,,,,,,
1720078254,46,0,4443.589844,4363.717773,4352.05127,4375.384766,4382.05127,4389.743652,4385,4398.974121,4390.128418,4397.820313,4350.256348,4504.102539,4355.641113,4397.307617,,,,,,,,,,,,,,,,,,,,,,,,,,,,,,,,,,,,,,,,,,,,,,,,,,,,,,,,,,,,,,,,,,,,,,
1720078254,47,0,4446.025879,4363.205078,4349.743652,4377.179688,4382.05127,4388.461426,4380.256348,4396.025879,4383.333496,4387.307617,4342.05127,4503.589844,4346.922852,4384.102539,,,,,,,,,,,,,,,,,,,,,,,,,,,,,,,,,,,,,,,,,,,,,,,,,,,,,,,,,,,,,,,,,,,,,,
1720078254,48,0,4456.922852,4370.897461,4361.410156,4392.179688,4390.897461,4391.794922,4386.282227,4405,4393.974121,4394.871582,4353.205078,4511.410156,4358.333496,4394.743652,,,,,,,,,,,,,,,,,,,,,,,,,,,,,,,,,,,,,,,,,,,,,,,,,,,,,,,,,,,,,,,,,,,,,,
1720078254,49,0,4457.563965,4368.846191,4360.897461,4390.641113,4386.025879,4389.743652,4385.256348,4404.871582,4399.230957,4400.384766,4357.179688,4506.922852,4359.358887,4399.102539,,,,,,,,,,,,,,,,,,,,,,,,,,,,,,,,,,,,,,,,,,,,,,,,,,,,,,,,,,,,,,,,,,,,,,
1720078254,50,0,4458.589844,4364.871582,4355.641113,4379.743652,4376.666504,4381.410156,4381.410156,4399.743652,4389.871582,4394.102539,4347.820313,4506.025879,4351.794922,4388.333496,94.766792,2.751422,1.546015,1.017392,0.809992,30.172956,1.069752,0.865354,0.418053,0.476241,14.515907,1.185988,0.692993,0.600216,0.455469,15.611569,0.773623,0.806165,0.737481,0.544738,1.965204,0.308454,0.359816,0.158375,0.139486,1.168336,0.243762,0.227057,0.191516,0.119339,0.638221,0.576372,0.744229,0.342016,0.151057,1.320458,1.081457,1.119049,0.450514,0.185588,1.442806,0.815551,0.62173,0.643613,0.324844,2.28079,1.064723,0.580542,0.51739,0.300695,3.98343,1.091979,1.368191,0.634897,0.440697,6.075407,1.648987,1.574895,0.814158,0.421901,6.097118,1.120537,1.304738,0.680021,0.497177,83.532936,33.296833,5.400172,2.862674,1.459308
1720078254,51,0,4462.307617,4368.333496,4356.025879,4380.256348,4377.94873,4381.794922,4383.461426,4398.717773,4383.974121,4388.205078,4340,4506.410156,4348.205078,4382.692383,,,,,,,,,,,,,,,,,,,,,,,,,,,,,,,,,,,,,,,,,,,,,,,,,,,,,,,,,,,,,,,,,,,,,,
1720078254,52,0,4456.666504,4370.769043,4351.666504,4382.05127,4381.794922,4389.871582,4385.128418,4396.538574,4388.461426,4387.820313,4337.94873,4493.974121,4345.512695,4377.820313,,,,,,,,,,,,,,,,,,,,,,,,,,,,,,,,,,,,,,,,,,,,,,,,,,,,,,,,,,,,,,,,,,,,,,
1720078254,53,0,4453.717773,4366.153809,4356.025879,4382.820313,4385,4398.461426,4389.230957,4395.897461,4391.794922,4394.102539,4340.512695,4493.077148,4348.461426,4376.538574,,,,,,,,,,,,,,,,,,,,,,,,,,,,,,,,,,,,,,,,,,,,,,,,,,,,,,,,,,,,,,,,,,,,,,
1720078254,54,0,4459.358887,4359.871582,4363.589844,4381.538574,4387.94873,4402.563965,4396.538574,4397.820313,4387.563965,4396.153809,4338.077148,4499.230957,4346.922852,4377.820313,,,,,,,,,,,,,,,,,,,,,,,,,,,,,,,,,,,,,,,,,,,,,,,,,,,,,,,,,,,,,,,,,,,,,,
1720078254,55,0,4461.666504,4356.666504,4359.230957,4376.794922,4386.153809,4399.871582,4397.307617,4403.077148,4387.820313,4391.794922,4339.230957,4495.384766,4342.820313,4372.692383,,,,,,,,,,,,,,,,,,,,,,,,,,,,,,,,,,,,,,,,,,,,,,,,,,,,,,,,,,,,,,,,,,,,,,
1720078254,56,0,4457.692383,4357.05127,4352.179688,4378.077148,4382.179688,4395,4396.794922,4409.487305,4398.974121,4395,4347.563965,4494.487305,4348.974121,4368.333496,,,,,,,,,,,,,,,,,,,,,,,,,,,,,,,,,,,,,,,,,,,,,,,,,,,,,,,,,,,,,,,,,,,,,,
1720078254,57,0,4454.871582,4361.538574,4352.692383,4383.461426,4380.512695,4395.641113,4396.794922,4408.974121,4401.410156,4398.846191,4343.205078,4494.487305,4350.769043,4367.436035,,,,,,,,,,,,,,,,,,,,,,,,,,,,,,,,,,,,,,,,,,,,,,,,,,,,,,,,,,,,,,,,,,,,,,
1720078254,58,0,4463.333496,4369.743652,4358.717773,4386.538574,4382.179688,4397.307617,4392.436035,4405.641113,4392.692383,4393.333496,4335.512695,4494.871582,4346.282227,4370.897461,,,,,,,,,,,,,,,,,,,,,,,,,,,,,,,,,,,,,,,,,,,,,,,,,,,,,,,,,,,,,,,,,,,,,,
1720078254,59,0,4473.333496,4374.743652,4362.820313,4387.05127,4385.512695,4392.94873,4389.743652,4409.102539,4392.94873,4387.692383,4339.487305,4499.743652,4346.922852,4377.563965,,,,,,,,,,,,,,,,,,,,,,,,,,,,,,,,,,,,,,,,,,,,,,,,,,,,,,,,,,,,,,,,,,,,,,
1720078254,60,0,4466.153809,4370.769043,4358.846191,4383.205078,4384.871582,4387.692383,4389.743652,4409.615234,4397.05127,4389.230957,4339.871582,4496.538574,4345.769043,4375.384766,,,,,,,,,,,,,,,,,,,,,,,,,,,,,,,,,,,,,,,,,,,,,,,,,,,,,,,,,,,,,,,,,,,,,,
1720078254,61,0,4457.563965,4371.153809,4353.589844,4385.897461,4382.436035,4389.615234,4391.282227,4400,4388.205078,4388.717773,4335.641113,4490,4341.153809,4368.461426,,,,,,,,,,,,,,,,,,,,,,,,,,,,,,,,,,,,,,,,,,,,,,,,,,,,,,,,,,,,,,,,,,,,,,
1720078254,62,0,4462.692383,4374.358887,4352.179688,4392.692383,4385.897461,4396.794922,4392.436035,4395.512695,4380.897461,4384.487305,4339.487305,4486.410156,4343.205078,4367.94873,,,,,,,,,,,,,,,,,,,,,,,,,,,,,,,,,,,,,,,,,,,,,,,,,,,,,,,,,,,,,,,,,,,,,,
1720078254,63,0,4457.563965,4363.077148,4341.025879,4376.666504,4385.641113,4400,4390,4400.641113,4389.230957,4382.179688,4332.692383,4477.307617,4341.794922,4364.358887,,,,,,,,,,,,,,,,,,,,,,,,,,,,,,,,,,,,,,,,,,,,,,,,,,,,,,,,,,,,,,,,,,,,,,
1720078254,64,0,4451.410156,4355.128418,4335.641113,4361.538574,4381.794922,4394.743652,4391.922852,4409.487305,4397.820313,4387.436035,4334.615234,4480.641113,4344.871582,4365,,,,,,,,,,,,,,,,,,,,,,,,,,,,,,,,,,,,,,,,,,,,,,,,,,,,,,,,,,,,,,,,,,,,,,
1720078254,65,0,4457.436035,4359.358887,4339.358887,4368.974121,4380.256348,4389.230957,4396.666504,4413.846191,4395,4392.820313,4367.307617,4491.410156,4353.717773,4371.153809,,,,,,,,,,,,,,,,,,,,,,,,,,,,,,,,,,,,,,,,,,,,,,,,,,,,,,,,,,,,,,,,,,,,,,
1720078254,66,0,4448.205078,4357.692383,4328.846191,4366.666504,4373.333496,4384.871582,4387.94873,4404.230957,4386.410156,4384.871582,4380.769043,4472.436035,4347.563965,4357.307617,80.856277,3.318708,1.386326,1.014517,0.799251,24.387987,1.160119,0.83455,0.460287,0.479086,12.26931,1.520401,0.811604,0.693475,0.494298,12.543907,0.903718,0.817753,0.888032,0.572593,1.683259,0.317381,0.37386,0.179328,0.15239,1.138671,0.207528,0.200351,0.178634,0.118053,0.682104,0.512877,0.648777,0.358162,0.155542,1.264864,1.015015,1.044164,0.469302,0.203397,1.725972,0.811851,0.614318,0.664558,0.327674,2.706878,1.089059,0.601934,0.537184,0.319299,4.270045,1.094471,1.411622,0.68648,0.507719,6.059294,1.894245,1.617641,0.838431,0.492607,6.843919,0.971547,1.378633,0.789649,0.551911,79.066521,29.752354,5.159251,2.663736,1.427852
1720078254,67,0,4435.641113,4364.230957,4321.153809,4370.384766,4371.666504,4385.641113,4381.153809,4395.128418,4386.025879,4378.846191,4366.282227,4454.743652,4340.384766,4339.743652,,,,,,,,,,,,,,,,,,,,,,,,,,,,,,,,,,,,,,,,,,,,,,,,,,,,,,,,,,,,,,,,,,,,,,
1720078254,68,0,4446.922852,4383.333496,4329.871582,4391.666504,4387.563965,4392.692383,4392.820313,4397.307617,4392.94873,4384.615234,4367.692383,4465.769043,4344.871582,4345.897461,,,,,,,,,,,,,,,,,,,,,,,,,,,,,,,,,,,,,,,,,,,,,,,,,,,,,,,,,,,,,,,,,,,,,,
1720078254,69,0,4447.692383,4377.563965,4329.487305,4383.974121,4395.641113,4398.974121,4398.205078,4399.487305,4393.846191,4387.307617,4375.512695,4465.128418,4345.641113,4346.794922,,,,,,,,,,,,,,,,,,,,,,,,,,,,,,,,,,,,,,,,,,,,,,,,,,,,,,,,,,,,,,,,,,,,,,
1720078254,70,0,4421.025879,4355.897461,4314.358887,4356.282227,4383.461426,4395.641113,4387.820313,4394.358887,4386.794922,4382.94873,4363.077148,4441.922852,4341.666504,4329.871582,,,,,,,,,,,,,,,,,,,,,,,,,,,,,,,,,,,,,,,,,,,,,,,,,,,,,,,,,,,,,,,,,,,,,,
1720078254,71,0,4407.94873,4355.897461,4308.461426,4353.461426,4378.077148,4388.846191,4383.205078,4391.794922,4383.974121,4380.128418,4354.871582,4434.487305,4342.820313,4326.538574,,,,,,,,,,,,,,,,,,,,,,,,,,,,,,,,,,,,,,,,,,,,,,,,,,,,,,,,,,,,,,,,,,,,,,
1720078254,72,0,4409.743652,4359.487305,4307.820313,4356.666504,4384.487305,4392.179688,4388.846191,4392.436035,4387.563965,4376.410156,4360.769043,4444.615234,4343.846191,4331.794922,,,,,,,,,,,,,,,,,,,,,,,,,,,,,,,,,,,,,,,,,,,,,,,,,,,,,,,,,,,,,,,,,,,,,,
1720078254,73,0,4408.974121,4357.05127,4306.153809,4357.05127,4382.563965,4395.128418,4387.307617,4390.641113,4383.461426,4371.794922,4356.794922,4447.563965,4337.94873,4326.025879,,,,,,,,,,,,,,,,,,,,,,,,,,,,,,,,,,,,,,,,,,,,,,,,,,,,,,,,,,,,,,,,,,,,,,
1720078254,74,0,4414.743652,4363.333496,4318.077148,4368.717773,4379.871582,4392.436035,4383.461426,4390.897461,4382.307617,4375.384766,4352.436035,4451.025879,4337.05127,4325.128418,,,,,,,,,,,,,,,,,,,,,,,,,,,,,,,,,,,,,,,,,,,,,,,,,,,,,,,,,,,,,,,,,,,,,,
1720078254,75,0,4413.846191,4364.743652,4326.666504,4369.615234,4384.487305,4389.871582,4385.641113,4399.487305,4395.769043,4384.743652,4359.230957,4458.589844,4343.974121,4333.461426,,,,,,,,,,,,,,,,,,,,,,,,,,,,,,,,,,,,,,,,,,,,,,,,,,,,,,,,,,,,,,,,,,,,,,
1720078254,76,0,4403.077148,4355.897461,4315,4356.282227,4380.512695,4382.05127,4383.333496,4401.794922,4398.974121,4382.307617,4353.846191,4453.205078,4338.717773,4328.333496,,,,,,,,,,,,,,,,,,,,,,,,,,,,,,,,,,,,,,,,,,,,,,,,,,,,,,,,,,,,,,,,,,,,,,
1720078254,77,0,4404.358887,4355.384766,4304.230957,4354.743652,4373.077148,4373.846191,4377.563965,4391.282227,4380.512695,4366.410156,4338.974121,4440.256348,4325.384766,4319.743652,,,,,,,,,,,,,,,,,,,,,,,,,,,,,,,,,,,,,,,,,,,,,,,,,,,,,,,,,,,,,,,,,,,,,,
1720078254,78,0,4415.897461,4361.922852,4314.615234,4361.410156,4376.922852,4379.358887,4380.128418,4389.230957,4370.128418,4362.307617,4347.692383,4444.871582,4335.897461,4332.563965,,,,,,,,,,,,,,,,,,,,,,,,,,,,,,,,,,,,,,,,,,,,,,,,,,,,,,,,,,,,,,,,,,,,,,
1720078254,79,0,4415.256348,4358.461426,4326.282227,4357.436035,4382.307617,4391.025879,4385.128418,4393.589844,4374.358887,4367.179688,4361.538574,4456.538574,4354.487305,4346.794922,,,,,,,,,,,,,,,,,,,,,,,,,,,,,,,,,,,,,,,,,,,,,,,,,,,,,,,,,,,,,,,,,,,,,,
1720078254,80,0,4407.05127,4357.820313,4323.846191,4355.256348,4379.487305,4390.384766,4381.922852,4387.307617,4373.205078,4362.94873,4349.615234,4450.769043,4348.205078,4339.487305,,,,,,,,,,,,,,,,,,,,,,,,,,,,,,,,,,,,,,,,,,,,,,,,,,,,,,,,,,,,,,,,,,,,,,
1720078254,81,0,4407.05127,4365.128418,4317.307617,4365.128418,4378.461426,4384.102539,4380.384766,4381.922852,4372.307617,4363.333496,4342.307617,4441.666504,4338.461426,4329.102539,,,,,,,,,,,,,,,,,,,,,,,,,,,,,,,,,,,,,,,,,,,,,,,,,,,,,,,,,,,,,,,,,,,,,,
1720078254,82,0,4406.282227,4363.717773,4316.153809,4367.436035,4380.384766,4383.205078,4381.282227,4387.05127,4376.282227,4373.333496,4354.871582,4442.436035,4346.153809,4328.589844,66.66581,4.000918,1.345549,1.060676,0.733199,18.802063,1.377788,0.829809,0.524913,0.47943,9.909782,1.809786,0.893704,0.824023,0.51834,9.364876,1.027189,0.810624,1.028376,0.610625,1.362038,0.303901,0.36447,0.209711,0.165761,1.021819,0.171459,0.1754,0.173491,0.125168,0.829778,0.517848,0.527206,0.377344,0.170742,1.217074,0.946708,0.9232,0.473843,0.219338,1.902655,0.76914,0.595486,0.654812,0.312569,3.028131,1.008464,0.602466,0.564644,0.328625,4.37091,1.018923,1.321983,0.764258,0.569636,5.772481,1.991591,1.527766,0.883099,0.559656,7.873717,0.864246,1.356907,0.966007,0.593302,65.370972,23.03895,4.354853,2.322958,1.292273
1720078254,83,0,4390.128418,4354.871582,4311.794922,4359.358887,4378.333496,4383.589844,4376.410156,4383.461426,4372.563965,4370.769043,4351.282227,4440,4346.025879,4322.94873,,,,,,,,,,,,,,,,,,,,,,,,,,,,,,,,,,,,,,,,,,,,,,,,,,,,,,,,,,,,,,,,,,,,,,
1720078254,84,0,4372.820313,4352.05127,4298.974121,4355.384766,4379.487305,4383.077148,4373.205078,4371.025879,4364.743652,4363.717773,4340.256348,4439.358887,4340.769043,4317.563965,,,,,,,,,,,,,,,,,,,,,,,,,,,,,,,,,,,,,,,,,,,,,,,,,,,,,,,,,,,,,,,,,,,,,,
1720078254,85,0,4369.230957,4350.897461,4291.282227,4348.589844,4381.153809,4383.205078,4372.05127,4370.128418,4365.384766,4366.538574,4341.410156,4442.94873,4342.436035,4316.666504,,,,,,,,,,,,,,,,,,,,,,,,,,,,,,,,,,,,,,,,,,,,,,,,,,,,,,,,,,,,,,,,,,,,,,
1720078254,86,0,4364.358887,4338.205078,4296.282227,4337.05127,4371.922852,4383.461426,4366.538574,4374.871582,4368.589844,4363.846191,4336.922852,4438.717773,4335.384766,4309.487305,,,,,,,,,,,,,,,,,,,,,,,,,,,,,,,,,,,,,,,,,,,,,,,,,,,,,,,,,,,,,,,,,,,,,,
1720078254,87,0,4361.410156,4333.717773,4304.358887,4341.538574,4367.05127,4382.436035,4366.794922,4381.025879,4372.94873,4359.102539,4333.717773,4441.025879,4329.358887,4310.384766,,,,,,,,,,,,,,,,,,,,,,,,,,,,,,,,,,,,,,,,,,,,,,,,,,,,,,,,,,,,,,,,,,,,,,
1720078254,88,0,4373.205078,4343.589844,4311.794922,4351.282227,4373.717773,4382.94873,4381.538574,4392.692383,4385.769043,4366.666504,4351.025879,4458.589844,4339.230957,4322.436035,,,,,,,,,,,,,,,,,,,,,,,,,,,,,,,,,,,,,,,,,,,,,,,,,,,,,,,,,,,,,,,,,,,,,,
1720078254,89,0,4383.589844,4353.717773,4319.871582,4352.307617,4376.922852,4383.333496,4394.871582,4406.282227,4399.230957,4376.538574,4368.461426,4471.025879,4347.820313,4326.282227,,,,,,,,,,,,,,,,,,,,,,,,,,,,,,,,,,,,,,,,,,,,,,,,,,,,,,,,,,,,,,,,,,,,,,
1720078254,90,0,4381.922852,4358.846191,4326.153809,4361.153809,4377.307617,4386.538574,4399.615234,4412.94873,4403.333496,4383.077148,4369.358887,4473.077148,4349.102539,4325.641113,,,,,,,,,,,,,,,,,,,,,,,,,,,,,,,,,,,,,,,,,,,,,,,,,,,,,,,,,,,,,,,,,,,,,,
1720078254,91,0,4382.05127,4359.358887,4325.128418,4372.179688,4379.358887,4392.436035,4397.179688,4405.769043,4395.512695,4381.794922,4364.871582,4465,4352.94873,4328.461426,,,,,,,,,,,,,,,,,,,,,,,,,,,,,,,,,,,,,,,,,,,,,,,,,,,,,,,,,,,,,,,,,,,,,,
1720078254,92,0,4387.563965,4355.641113,4322.94873,4363.974121,4378.205078,4390,4386.922852,4387.436035,4376.410156,4367.692383,4357.179688,4445.512695,4345.512695,4323.717773,,,,,,,,,,,,,,,,,,,,,,,,,,,,,,,,,,,,,,,,,,,,,,,,,,,,,,,,,,,,,,,,,,,,,,
1720078254,93,0,4388.717773,4351.922852,4325.384766,4352.563965,4377.692383,4386.666504,4379.487305,4372.05127,4356.922852,4356.794922,4348.846191,4439.871582,4331.794922,4318.333496,,,,,,,,,,,,,,,,,,,,,,,,,,,,,,,,,,,,,,,,,,,,,,,,,,,,,,,,,,,,,,,,,,,,,,
1720078254,94,0,4394.487305,4361.153809,4328.589844,4360.641113,4382.820313,4392.436035,4380.384766,4371.025879,4353.717773,4364.102539,4356.025879,4460.384766,4345.641113,4328.589844,,,,,,,,,,,,,,,,,,,,,,,,,,,,,,,,,,,,,,,,,,,,,,,,,,,,,,,,,,,,,,,,,,,,,,
1720078254,95,0,4402.05127,4371.922852,4326.025879,4368.846191,4387.436035,4391.922852,4378.333496,4372.692383,4357.94873,4374.487305,4369.358887,4473.333496,4366.922852,4341.153809,,,,,,,,,,,,,,,,,,,,,,,,,,,,,,,,,,,,,,,,,,,,,,,,,,,,,,,,,,,,,,,,,,,,,,
1720078254,96,0,4404.743652,4375.897461,4322.563965,4364.230957,4391.153809,4386.282227,4374.230957,4368.461426,4354.615234,4374.358887,4370.512695,4467.307617,4364.487305,4343.333496,,,,,,,,,,,,,,,,,,,,,,,,,,,,,,,,,,,,,,,,,,,,,,,,,,,,,,,,,,,,,,,,,,,,,,
1720078255,97,0,4399.487305,4372.820313,4322.563965,4364.230957,4389.615234,4393.205078,4374.487305,4368.461426,4354.358887,4369.871582,4364.615234,4457.436035,4352.436035,4337.563965,,,,,,,,,,,,,,,,,,,,,,,,,,,,,,,,,,,,,,,,,,,,,,,,,,,,,,,,,,,,,,,,,,,,,,
1720078255,98,0,4394.102539,4363.717773,4325.769043,4368.589844,4382.307617,4399.871582,4375.384766,4375.512695,4366.538574,4368.589844,4364.871582,4457.436035,4350.641113,4333.077148,56.399399,4.656088,1.425699,1.135515,0.642433,14.587861,1.639721,0.83919,0.585826,0.474553,8.164883,1.981116,0.918297,0.957326,0.525173,6.759915,1.112241,0.777116,1.115946,0.645833,1.093777,0.273678,0.32934,0.244594,0.176444,0.872752,0.137046,0.15955,0.182679,0.135724,1.080957,0.576233,0.405042,0.390494,0.19161,1.174564,0.878845,0.792893,0.459601,0.230344,1.894484,0.704442,0.579647,0.599771,0.285246,3.127272,0.844294,0.588439,0.583127,0.325772,4.145425,0.865944,1.137147,0.845791,0.613392,5.319177,1.922209,1.337937,0.932755,0.609599,8.502792,0.786519,1.243064,1.154937,0.614673,47.311893,15.344254,3.26528,1.948703,1.099769
1720078255,99,0,4404.743652,4365.384766,4332.05127,4366.025879,4382.820313,4392.05127,4378.461426,4383.717773,4387.820313,4373.461426,4370.641113,4472.436035,4352.94873,4338.077148,,,,,,,,,,,,,,,,,,,,,,,,,,,,,,,,,,,,,,,,,,,,,,,,,,,,,,,,,,,,,,,,,,,,,,
1720078255,100,0,4408.589844,4368.077148,4332.179688,4359.871582,4380.769043,4382.94873,4382.179688,4388.974121,4400.256348,4378.717773,4370.512695,4476.794922,4348.717773,4336.666504,,,,,,,,,,,,,,,,,,,,,,,,,,,,,,,,,,,,,,,,,,,,,,,,,,,,,,,,,,,,,,,,,,,,,,
1720078255,101,0,4385.769043,4351.410156,4311.410156,4344.358887,4365.897461,4377.179688,4375.256348,4386.794922,4391.922852,4371.410156,4357.563965,4451.538574,4337.692383,4314.615234,,,,,,,,,,,,,,,,,,,,,,,,,,,,,,,,,,,,,,,,,,,,,,,,,,,,,,,,,,,,,,,,,,,,,,
1720078255,102,0,4373.846191,4342.563965,4298.205078,4337.179688,4358.205078,4372.179688,4369.487305,4382.820313,4386.282227,4368.333496,4351.794922,4438.717773,4336.410156,4307.436035,,,,,,,,,,,,,,,,,,,,,,,,,,,,,,,,,,,,,,,,,,,,,,,,,,,,,,,,,,,,,,,,,,,,,,
1720078255,103,0,4394.615234,4362.692383,4313.974121,4354.871582,4367.563965,4375.384766,4377.05127,4384.743652,4392.563965,4374.615234,4358.333496,4457.563965,4345.384766,4325.128418,,,,,,,,,,,,,,,,,,,,,,,,,,,,,,,,,,,,,,,,,,,,,,,,,,,,,,,,,,,,,,,,,,,,,,
1720078255,104,0,4405.128418,4374.230957,4324.230957,4365,4374.358887,4384.615234,4384.230957,4385.256348,4385.384766,4367.179688,4352.05127,4465,4341.410156,4328.333496,,,,,,,,,,,,,,,,,,,,,,,,,,,,,,,,,,,,,,,,,,,,,,,,,,,,,,,,,,,,,,,,,,,,,,
1720078255,105,0,4395.897461,4364.102539,4319.871582,4353.077148,4372.179688,4390.384766,4383.846191,4381.282227,4368.974121,4353.205078,4343.717773,4460.256348,4334.487305,4320.769043,,,,,,,,,,,,,,,,,,,,,,,,,,,,,,,,,,,,,,,,,,,,,,,,,,,,,,,,,,,,,,,,,,,,,,
1720078255,106,0,4397.563965,4358.974121,4322.692383,4348.077148,4371.922852,4391.282227,4388.717773,4381.666504,4366.025879,4355.384766,4352.820313,4466.794922,4340.384766,4325.128418,,,,,,,,,,,,,,,,,,,,,,,,,,,,,,,,,,,,,,,,,,,,,,,,,,,,,,,,,,,,,,,,,,,,,,
1720078255,107,0,4401.922852,4363.205078,4329.230957,4355.769043,4376.538574,4392.436035,4396.538574,4387.179688,4371.282227,4362.820313,4360.769043,4475.256348,4343.974121,4330.512695,,,,,,,,,,,,,,,,,,,,,,,,,,,,,,,,,,,,,,,,,,,,,,,,,,,,,,,,,,,,,,,,,,,,,,
1720078255,108,0,4397.692383,4365.769043,4323.589844,4357.307617,4380.128418,4388.846191,4391.282227,4383.205078,4368.461426,4357.820313,4357.307617,4470.641113,4340,4322.820313,,,,,,,,,,,,,,,,,,,,,,,,,,,,,,,,,,,,,,,,,,,,,,,,,,,,,,,,,,,,,,,,,,,,,,
1720078255,109,0,4394.358887,4366.153809,4317.307617,4358.205078,4377.94873,4382.94873,4379.871582,4372.179688,4365.897461,4356.922852,4356.153809,4463.846191,4342.692383,4314.743652,,,,,,,,,,,,,,,,,,,,,,,,,,,,,,,,,,,,,,,,,,,,,,,,,,,,,,,,,,,,,,,,,,,,,,
1720078255,110,0,4388.846191,4360.256348,4314.615234,4356.794922,4373.717773,4383.077148,4376.666504,4369.102539,4374.615234,4368.461426,4354.487305,4460.256348,4349.102539,4312.307617,,,,,,,,,,,,,,,,,,,,,,,,,,,,,,,,,,,,,,,,,,,,,,,,,,,,,,,,,,,,,,,,,,,,,,
1720078255,111,0,4374.871582,4345.128418,4304.230957,4346.025879,4372.307617,4386.153809,4375.256348,4371.666504,4382.820313,4368.077148,4343.205078,4447.563965,4346.153809,4305.512695,,,,,,,,,,,,,,,,,,,,,,,,,,,,,,,,,,,,,,,,,,,,,,,,,,,,,,,,,,,,,,,,,,,,,,
1720078255,112,0,4367.692383,4337.436035,4296.538574,4334.230957,4373.077148,4392.05127,4377.692383,4373.077148,4383.461426,4357.05127,4334.358887,4437.05127,4338.589844,4296.282227,,,,,,,,,,,,,,,,,,,,,,,,,,,,,,,,,,,,,,,,,,,,,,,,,,,,,,,,,,,,,,,,,,,,,,
1720078255,113,0,4374.615234,4353.717773,4304.487305,4338.589844,4374.102539,4400.384766,4391.153809,4386.410156,4393.077148,4365,4340.256348,4446.794922,4341.666504,4296.666504,,,,,,,,,,,,,,,,,,,,,,,,,,,,,,,,,,,,,,,,,,,,,,,,,,,,,,,,,,,,,,,,,,,,,,
1720078255,114,0,4372.692383,4367.05127,4311.666504,4354.743652,4373.974121,4400.384766,4400.641113,4398.333496,4406.538574,4375.769043,4342.820313,4452.820313,4345.128418,4297.436035,50.37598,5.080919,1.6162,1.198462,0.560644,11.868361,1.852209,0.873679,0.62735,0.462319,7.278752,2.010303,0.894114,1.056841,0.515199,5.021227,1.142885,0.742957,1.13322,0.666598,0.922058,0.241826,0.278498,0.277364,0.183182,0.741431,0.114258,0.160587,0.209096,0.144618,1.391917,0.667,0.308139,0.389934,0.212397,1.136662,0.826831,0.694939,0.431269,0.23627,1.684401,0.661189,0.57262,0.506255,0.257455,2.948802,0.644946,0.568012,0.581811,0.312291,3.641557,0.693285,0.935485,0.90858,0.631182,4.823312,1.744196,1.121007,0.975268,0.635156,8.279156,0.725234,1.068745,1.295763,0.612527,30.171152,8.757972,2.212989,1.632923,0.905091
1720078255,115,0,4351.922852,4346.153809,4294.487305,4342.94873,4367.563965,4391.922852,4389.102539,4383.333496,4387.179688,4352.563965,4318.205078,4428.974121,4321.922852,4279.102539,,,,,,,,,,,,,,,,,,,,,,,,,,,,,,,,,,,,,,,,,,,,,,,,,,,,,,,,,,,,,,,,,,,,,,
1720078255,116,0,4347.692383,4337.436035,4286.153809,4328.974121,4363.077148,4387.563965,4375.641113,4367.820313,4359.743652,4335.512695,4298.846191,4418.333496,4303.205078,4268.333496,,,,,,,,,,,,,,,,,,,,,,,,,,,,,,,,,,,,,,,,,,,,,,,,,,,,,,,,,,,,,,,,,,,,,,
1720078255,117,0,4366.922852,4360.769043,4306.666504,4345.384766,4368.717773,4386.025879,4377.563965,4372.94873,4361.153809,4353.077148,4317.94873,4441.282227,4321.282227,4281.666504,,,,,,,,,,,,,,,,,,,,,,,,,,,,,,,,,,,,,,,,,,,,,,,,,,,,,,,,,,,,,,,,,,,,,,
1720078255,118,0,4376.282227,4372.05127,4319.615234,4355.897461,4374.358887,4380.256348,4379.615234,4373.846191,4363.077148,4361.153809,4354.358887,4455.512695,4343.205078,4295.769043,,,,,,,,,,,,,,,,,,,,,,,,,,,,,,,,,,,,,,,,,,,,,,,,,,,,,,,,,,,,,,,,,,,,,,
1720078255,119,0,4377.307617,4376.794922,4322.05127,4353.717773,4377.563965,4376.666504,4375.897461,4365.512695,4353.077148,4356.794922,4380.769043,4456.666504,4349.615234,4304.871582,,,,,,,,,,,,,,,,,,,,,,,,,,,,,,,,,,,,,,,,,,,,,,,,,,,,,,,,,,,,,,,,,,,,,,
1720078255,120,0,4377.563965,4385.897461,4323.333496,4363.461426,4380.128418,4376.025879,4367.820313,4357.436035,4350.897461,4362.436035,4388.205078,4454.102539,4351.025879,4305.769043,,,,,,,,,,,,,,,,,,,,,,,,,,,,,,,,,,,,,,,,,,,,,,,,,,,,,,,,,,,,,,,,,,,,,,
1720078255,121,0,4369.871582,4381.153809,4316.282227,4367.94873,4382.94873,4380.897461,4359.871582,4349.615234,4360.641113,4368.717773,4381.025879,4445.128418,4348.974121,4299.102539,,,,,,,,,,,,,,,,,,,,,,,,,,,,,,,,,,,,,,,,,,,,,,,,,,,,,,,,,,,,,,,,,,,,,,
1720078255,122,0,4360.256348,4373.077148,4305.769043,4355,4385,4390.128418,4358.846191,4346.794922,4365.128418,4366.282227,4369.487305,4433.717773,4339.487305,4291.025879,,,,,,,,,,,,,,,,,,,,,,,,,,,,,,,,,,,,,,,,,,,,,,,,,,,,,,,,,,,,,,,,,,,,,,
1720078255,123,0,4357.563965,4374.230957,4302.820313,4351.410156,4382.307617,4392.94873,4363.461426,4349.358887,4365.128418,4360.641113,4358.077148,4421.153809,4326.282227,4282.05127,,,,,,,,,,,,,,,,,,,,,,,,,,,,,,,,,,,,,,,,,,,,,,,,,,,,,,,,,,,,,,,,,,,,,,
1720078255,124,0,4352.05127,4366.410156,4300.128418,4350.256348,4378.846191,4393.077148,4369.487305,4358.974121,4379.102539,4360.512695,4352.179688,4411.666504,4318.205078,4271.666504,,,,,,,,,,,,,,,,,,,,,,,,,,,,,,,,,,,,,,,,,,,,,,,,,,,,,,,,,,,,,,,,,,,,,,
1720078255,125,0,4344.358887,4352.94873,4293.589844,4340.641113,4377.692383,4397.307617,4378.205078,4376.282227,4398.461426,4367.436035,4354.102539,4417.179688,4321.410156,4270.641113,,,,,,,,,,,,,,,,,,,,,,,,,,,,,,,,,,,,,,,,,,,,,,,,,,,,,,,,,,,,,,,,,,,,,,
1720078255,126,0,4340.769043,4350.641113,4291.922852,4338.077148,4374.102539,4403.589844,4389.487305,4387.94873,4399.487305,4365.641113,4350.897461,4426.410156,4315.641113,4272.179688,,,,,,,,,,,,,,,,,,,,,,,,,,,,,,,,,,,,,,,,,,,,,,,,,,,,,,,,,,,,,,,,,,,,,,
1720078255,127,0,4334.102539,4346.922852,4292.05127,4340.512695,4369.615234,4405.641113,4392.94873,4386.538574,4382.94873,4350.128418,4338.333496,4417.05127,4296.922852,4259.230957,,,,,,,,,,,,,,,,,,,,,,,,,,,,,,,,,,,,,,,,,,,,,,,,,,,,,,,,,,,,,,,,,,,,,,
1720078255,0,0,4331.025879,4339.487305,4291.410156,4342.692383,4370.128418,4400.512695,4390.512695,4382.820313,4377.692383,4349.358887,4333.974121,4411.666504,4296.922852,4252.94873,,,,,,,,,,,,,,,,,,,,,,,,,,,,,,,,,,,,,,,,,,,,,,,,,,,,,,,,,,,,,,,,,,,,,,
1720078255,1,0,4341.922852,4343.461426,4299.102539,4349.615234,4371.538574,4389.487305,4386.538574,4383.461426,4385.641113,4368.077148,4349.230957,4436.794922,4318.461426,4269.743652,,,,,,,,,,,,,,,,,,,,,,,,,,,,,,,,,,,,,,,,,,,,,,,,,,,,,,,,,,,,,,,,,,,,,,
1720078255,2,0,4361.282227,4358.461426,4317.563965,4361.538574,4371.153809,4378.589844,4381.282227,4385.128418,4384.871582,4380.256348,4376.538574,4471.025879,4341.538574,4296.794922,45.243835,5.16248,1.843875,1.200815,0.508404,9.663758,1.95073,0.929803,0.64615,0.441549,6.859967,1.918587,0.853864,1.093042,0.492096,3.801045,1.121353,0.730816,1.092197,0.665178,0.804564,0.223729,0.226998,0.300284,0.186195,0.650867,0.108699,0.185883,0.250096,0.148594,1.679897,0.770232,0.262342,0.372002,0.227574,1.083675,0.849069,0.673788,0.397126,0.237758,1.348872,0.737655,0.590355,0.402592,0.24076,2.549991,0.468803,0.548453,0.561371,0.29294,3.148578,0.581662,0.807324,0.936612,0.622454,4.327802,1.556918,0.959574,0.995976,0.638422,7.262681,0.682552,0.876608,1.343189,0.587535,17.282532,4.387079,1.432176,1.404387,0.746556
1720078255,3,0,4368.846191,4370.512695,4330.897461,4364.743652,4373.333496,4374.230957,4377.692383,4378.717773,4363.077148,4372.563965,4390.256348,4480.897461,4357.179688,4314.487305,,,,,,,,,,,,,,,,,,,,,,,,,,,,,,,,,,,,,,,,,,,,,,,,,,,,,,,,,,,,,,,,,,,,,,
1720078255,4,0,4366.922852,4373.846191,4334.358887,4364.871582,4375.512695,4371.153809,4367.563965,4357.94873,4335.384766,4359.102539,4383.846191,4471.153809,4361.025879,4315.512695,,,,,,,,,,,,,,,,,,,,,,,,,,,,,,,,,,,,,,,,,,,,,,,,,,,,,,,,,,,,,,,,,,,,,,
1720078255,5,0,4370.641113,4372.820313,4341.922852,4370.128418,4377.05127,4372.820313,4358.205078,4341.538574,4329.743652,4362.436035,4378.974121,4465.641113,4357.94873,4308.205078,,,,,,,,,,,,,,,,,,,,,,,,,,,,,,,,,,,,,,,,,,,,,,,,,,,,,,,,,,,,,,,,,,,,,,
1720078255,6,0,4360.256348,4358.974121,4336.153809,4358.461426,4374.615234,4378.717773,4356.794922,4336.666504,4339.487305,4365.897461,4368.717773,4453.846191,4345.897461,4292.692383,,,,,,,,,,,,,,,,,,,,,,,,,,,,,,,,,,,,,,,,,,,,,,,,,,,,,,,,,,,,,,,,,,,,,,
1720078255,7,0,4338.846191,4342.179688,4313.717773,4338.589844,4371.794922,4380.256348,4356.282227,4336.538574,4348.077148,4358.333496,4345.256348,4432.307617,4328.205078,4273.717773,,,,,,,,,,,,,,,,,,,,,,,,,,,,,,,,,,,,,,,,,,,,,,,,,,,,,,,,,,,,,,,,,,,,,,
1720078255,8,0,4334.102539,4344.230957,4303.077148,4340.128418,4376.794922,4384.230957,4357.436035,4339.102539,4358.846191,4356.922852,4336.922852,4421.025879,4320.256348,4265.512695,,,,,,,,,,,,,,,,,,,,,,,,,,,,,,,,,,,,,,,,,,,,,,,,,,,,,,,,,,,,,,,,,,,,,,
1720078255,9,0,4330.128418,4345.128418,4304.358887,4344.102539,4381.025879,4393.205078,4365.897461,4343.974121,4374.230957,4362.436035,4342.05127,4422.307617,4319.487305,4263.077148,,,,,,,,,,,,,,,,,,,,,,,,,,,,,,,,,,,,,,,,,,,,,,,,,,,,,,,,,,,,,,,,,,,,,,
1720078255,10,0,4308.333496,4326.666504,4293.461426,4325.769043,4375.512695,4392.820313,4367.436035,4347.05127,4381.282227,4359.487305,4331.794922,4420.769043,4308.717773,4251.282227,,,,,,,,,,,,,,,,,,,,,,,,,,,,,,,,,,,,,,,,,,,,,,,,,,,,,,,,,,,,,,,,,,,,,,
1720078255,11,0,4295.897461,4312.307617,4278.205078,4309.743652,4365.897461,4386.410156,4358.717773,4352.05127,4384.871582,4355.641113,4320.256348,4414.871582,4297.692383,4241.282227,,,,,,,,,,,,,,,,,,,,,,,,,,,,,,,,,,,,,,,,,,,,,,,,,,,,,,,,,,,,,,,,,,,,,,
1720078255,12,0,4311.282227,4325.641113,4285.384766,4321.410156,4364.615234,4388.974121,4362.436035,4363.717773,4397.436035,4367.820313,4336.025879,4424.230957,4311.794922,4256.410156,,,,,,,,,,,,,,,,,,,,,,,,,,,,,,,,,,,,,,,,,,,,,,,,,,,,,,,,,,,,,,,,,,,,,,
1720078255,13,0,4331.922852,4343.974121,4304.615234,4339.230957,4371.410156,4390.897461,4376.282227,4373.205078,4401.410156,4378.205078,4357.820313,4443.589844,4331.666504,4279.743652,,,,,,,,,,,,,,,,,,,,,,,,,,,,,,,,,,,,,,,,,,,,,,,,,,,,,,,,,,,,,,,,,,,,,,
1720078255,14,0,4336.410156,4344.487305,4313.333496,4341.794922,4374.358887,4387.307617,4383.461426,4374.358887,4386.153809,4370.897461,4361.025879,4452.563965,4332.05127,4285.128418,,,,,,,,,,,,,,,,,,,,,,,,,,,,,,,,,,,,,,,,,,,,,,,,,,,,,,,,,,,,,,,,,,,,,,
1720078255,15,0,4341.153809,4350.897461,4317.563965,4350.256348,4373.846191,4382.94873,4376.666504,4369.487305,4368.717773,4358.205078,4358.589844,4457.94873,4330.512695,4286.025879,,,,,,,,,,,,,,,,,,,,,,,,,,,,,,,,,,,,,,,,,,,,,,,,,,,,,,,,,,,,,,,,,,,,,,
1720078255,16,0,4360.384766,4366.922852,4325.384766,4368.974121,4373.974121,4372.820313,4361.666504,4360,4351.666504,4348.717773,4361.538574,4469.102539,4341.153809,4298.974121,,,,,,,,,,,,,,,,,,,,,,,,,,,,,,,,,,,,,,,,,,,,,,,,,,,,,,,,,,,,,,,,,,,,,,
1720078255,17,0,4376.153809,4376.025879,4333.589844,4369.743652,4374.871582,4366.538574,4362.94873,4348.205078,4323.461426,4340,4366.410156,4476.410156,4350,4312.307617,,,,,,,,,,,,,,,,,,,,,,,,,,,,,,,,,,,,,,,,,,,,,,,,,,,,,,,,,,,,,,,,,,,,,,
1720078255,18,0,4373.846191,4377.307617,4331.922852,4356.538574,4377.692383,4377.563965,4378.077148,4339.615234,4306.282227,4339.358887,4367.436035,4467.820313,4349.230957,4313.589844,38.772934,4.923464,2.013517,1.114308,0.487656,7.476356,1.936598,0.990898,0.65015,0.417064,6.444034,1.783256,0.842717,1.056067,0.462851,2.855955,1.073147,0.748516,1.027579,0.641567,0.719928,0.240909,0.1849,0.307633,0.186352,0.610933,0.125579,0.240658,0.297073,0.146529,1.883448,0.870688,0.283161,0.341201,0.233865,1.01976,1.024422,0.749833,0.36713,0.236034,0.997268,1.101874,0.652233,0.323898,0.242167,2.033598,0.360672,0.534143,0.529162,0.275814,2.875376,0.63047,0.829613,0.935764,0.59502,3.783794,1.457468,0.911079,0.987603,0.632617,5.74523,0.687074,0.71107,1.284978,0.547158,9.289794,2.206702,0.97676,1.231407,0.636916
1720078255,19,0,4370.128418,4376.922852,4324.743652,4357.307617,4383.461426,4391.282227,4380.256348,4340.384766,4327.05127,4349.743652,4365.256348,4454.743652,4351.666504,4313.333496,,,,,,,,,,,,,,,,,,,,,,,,,,,,,,,,,,,,,,,,,,,,,,,,,,,,,,,,,,,,,,,,,,,,,,
1720078255,20,0,4363.205078,4371.794922,4310.512695,4358.974121,4380.641113,4394.743652,4372.436035,4347.436035,4363.333496,4353.333496,4353.205078,4441.410156,4338.461426,4300.384766,,,,,,,,,,,,,,,,,,,,,,,,,,,,,,,,,,,,,,,,,,,,,,,,,,,,,,,,,,,,,,,,,,,,,,
1720078255,21,0,4342.307617,4357.05127,4291.410156,4344.230957,4370.512695,4394.230957,4372.820313,4357.05127,4382.692383,4351.025879,4330.512695,4424.871582,4310.128418,4268.846191,,,,,,,,,,,,,,,,,,,,,,,,,,,,,,,,,,,,,,,,,,,,,,,,,,,,,,,,,,,,,,,,,,,,,,
1720078255,22,0,4323.846191,4342.94873,4279.102539,4329.615234,4368.589844,4397.436035,4376.794922,4365.641113,4394.615234,4359.615234,4326.153809,4415.769043,4309.871582,4260,,,,,,,,,,,,,,,,,,,,,,,,,,,,,,,,,,,,,,,,,,,,,,,,,,,,,,,,,,,,,,,,,,,,,,
1720078255,23,0,4316.410156,4335.256348,4273.589844,4322.436035,4369.487305,4400.256348,4377.820313,4370.384766,4408.461426,4368.077148,4335.256348,4412.94873,4325.769043,4271.410156,,,,,,,,,,,,,,,,,,,,,,,,,,,,,,,,,,,,,,,,,,,,,,,,,,,,,,,,,,,,,,,,,,,,,,
1720078255,24,0,4320.384766,4339.230957,4275.641113,4325.897461,4365,4393.846191,4379.871582,4372.436035,4408.205078,4366.410156,4332.563965,4410.256348,4322.692383,4267.563965,,,,,,,,,,,,,,,,,,,,,,,,,,,,,,,,,,,,,,,,,,,,,,,,,,,,,,,,,,,,,,,,,,,,,,
1720078255,25,0,4335.769043,4351.025879,4291.666504,4340.512695,4366.410156,4386.282227,4381.794922,4375.641113,4399.487305,4366.538574,4333.717773,4418.589844,4321.538574,4266.025879,,,,,,,,,,,,,,,,,,,,,,,,,,,,,,,,,,,,,,,,,,,,,,,,,,,,,,,,,,,,,,,,,,,,,,
1720078255,26,0,4346.282227,4357.94873,4306.666504,4349.358887,4373.589844,4391.410156,4380.512695,4375.128418,4392.179688,4366.794922,4342.05127,4434.615234,4335.256348,4283.077148,,,,,,,,,,,,,,,,,,,,,,,,,,,,,,,,,,,,,,,,,,,,,,,,,,,,,,,,,,,,,,,,,,,,,,
1720078255,27,0,4352.179688,4362.563965,4309.358887,4351.153809,4375.128418,4396.282227,4373.717773,4366.666504,4379.487305,4361.025879,4339.487305,4440.897461,4338.461426,4291.666504,,,,,,,,,,,,,,,,,,,,,,,,,,,,,,,,,,,,,,,,,,,,,,,,,,,,,,,,,,,,,,,,,,,,,,
1720078255,28,0,4367.563965,4373.077148,4321.282227,4363.205078,4378.589844,4389.358887,4369.743652,4366.922852,4377.307617,4362.436035,4346.025879,4454.871582,4344.743652,4299.358887,,,,,,,,,,,,,,,,,,,,,,,,,,,,,,,,,,,,,,,,,,,,,,,,,,,,,,,,,,,,,,,,,,,,,,
1720078255,29,0,4378.717773,4384.615234,4339.358887,4378.077148,4388.717773,4387.820313,4381.666504,4378.974121,4384.871582,4373.461426,4366.794922,4478.974121,4363.589844,4320.512695,,,,,,,,,,,,,,,,,,,,,,,,,,,,,,,,,,,,,,,,,,,,,,,,,,,,,,,,,,,,,,,,,,,,,,
1720078255,30,0,4376.025879,4384.102539,4336.282227,4377.692383,4389.871582,4401.153809,4394.230957,4380,4368.717773,4364.230957,4361.282227,4476.794922,4354.871582,4319.871582,,,,,,,,,,,,,,,,,,,,,,,,,,,,,,,,,,,,,,,,,,,,,,,,,,,,,,,,,,,,,,,,,,,,,,
1720078255,31,0,4373.717773,4380.769043,4327.307617,4370.256348,4385.641113,4413.333496,4396.153809,4369.743652,4347.179688,4341.794922,4340.256348,4461.153809,4328.589844,4302.307617,,,,,,,,,,,,,,,,,,,,,,,,,,,,,,,,,,,,,,,,,,,,,,,,,,,,,,,,,,,,,,,,,,,,,,
1720078255,32,0,4371.922852,4383.846191,4331.922852,4368.077148,4389.871582,4415.512695,4403.846191,4368.846191,4351.410156,4340.897461,4341.922852,4469.358887,4330.769043,4305.256348,,,,,,,,,,,,,,,,,,,,,,,,,,,,,,,,,,,,,,,,,,,,,,,,,,,,,,,,,,,,,,,,,,,,,,
1720078255,33,0,4365.769043,4382.563965,4335.128418,4366.410156,4391.666504,4413.974121,4412.179688,4371.922852,4353.974121,4348.846191,4344.871582,4477.94873,4343.974121,4312.05127,,,,,,,,,,,,,,,,,,,,,,,,,,,,,,,,,,,,,,,,,,,,,,,,,,,,,,,,,,,,,,,,,,,,,,
1720078255,34,0,4360.769043,4377.307617,4328.717773,4359.487305,4385.641113,4413.974121,4405.128418,4367.692383,4343.461426,4343.974121,4334.230957,4465,4331.794922,4299.230957,30.444851,4.575974,2.046558,0.952448,0.486263,5.383829,1.913036,1.030789,0.652372,0.3982,5.69457,1.758157,0.876735,0.959537,0.434812,2.06173,1.068535,0.780591,0.970375,0.602061,0.64146,0.315694,0.154772,0.298092,0.183772,0.606343,0.19633,0.32807,0.339067,0.138765,1.976086,0.974926,0.367502,0.311361,0.230439,0.976592,1.425664,0.902983,0.352942,0.231901,0.767128,1.963028,0.773732,0.295482,0.262918,1.536712,0.335843,0.536927,0.495132,0.27038,2.974681,1.012069,1.041818,0.932214,0.559745,3.143321,1.60109,0.97273,0.955264,0.632991,4.109376,0.842706,0.620671,1.146254,0.502487,5.116729,1.539612,0.763513,1.063468,0.564935
1720078255,35,0,4353.846191,4373.717773,4323.717773,4356.794922,4382.94873,4411.538574,4397.563965,4368.717773,4347.563965,4341.922852,4334.230957,4457.563965,4318.333496,4288.974121,,,,,,,,,,,,,,,,,,,,,,,,,,,,,,,,,,,,,,,,,,,,,,,,,,,,,,,,,,,,,,,,,,,,,,
1720078255,36,0,4346.794922,4366.922852,4322.436035,4357.94873,4382.05127,4403.846191,4397.94873,4378.205078,4364.871582,4355,4345.512695,4467.436035,4332.820313,4296.282227,,,,,,,,,,,,,,,,,,,,,,,,,,,,,,,,,,,,,,,,,,,,,,,,,,,,,,,,,,,,,,,,,,,,,,
1720078255,37,0,4341.794922,4358.846191,4318.974121,4352.563965,4375.512695,4394.487305,4387.307617,4379.358887,4372.563965,4362.307617,4348.589844,4471.282227,4345.897461,4302.179688,,,,,,,,,,,,,,,,,,,,,,,,,,,,,,,,,,,,,,,,,,,,,,,,,,,,,,,,,,,,,,,,,,,,,,
1720078255,38,0,4332.307617,4358.205078,4309.230957,4346.282227,4370,4388.077148,4367.94873,4366.025879,4368.974121,4356.282227,4339.871582,4457.820313,4336.922852,4297.179688,,,,,,,,,,,,,,,,,,,,,,,,,,,,,,,,,,,,,,,,,,,,,,,,,,,,,,,,,,,,,,,,,,,,,,
1720078255,39,0,4332.692383,4360.512695,4308.461426,4348.589844,4370.128418,4385.897461,4364.615234,4356.922852,4366.666504,4353.717773,4334.615234,4450.641113,4336.025879,4300.256348,,,,,,,,,,,,,,,,,,,,,,,,,,,,,,,,,,,,,,,,,,,,,,,,,,,,,,,,,,,,,,,,,,,,,,
1720078255,40,0,4342.179688,4361.666504,4320.512695,4352.94873,4373.974121,4389.871582,4377.307617,4367.820313,4374.102539,4363.205078,4339.102539,4463.974121,4353.077148,4315.897461,,,,,,,,,,,,,,,,,,,,,,,,,,,,,,,,,,,,,,,,,,,,,,,,,,,,,,,,,,,,,,,,,,,,,,
1720078255,41,0,4342.436035,4365.897461,4327.563965,4354.871582,4379.743652,4395,4388.461426,4376.922852,4377.94873,4372.179688,4346.538574,4478.205078,4363.717773,4325.512695,,,,,,,,,,,,,,,,,,,,,,,,,,,,,,,,,,,,,,,,,,,,,,,,,,,,,,,,,,,,,,,,,,,,,,
1720078255,42,0,4340.256348,4370.384766,4324.230957,4357.692383,4380.256348,4394.871582,4389.487305,4366.410156,4361.153809,4363.589844,4340,4473.461426,4356.282227,4320.897461,,,,,,,,,,,,,,,,,,,,,,,,,,,,,,,,,,,,,,,,,,,,,,,,,,,,,,,,,,,,,,,,,,,,,,
1720078255,43,0,4344.230957,4372.563965,4327.436035,4362.692383,4378.333496,4397.179688,4387.692383,4359.102539,4342.94873,4353.077148,4327.179688,4466.666504,4348.974121,4318.205078,,,,,,,,,,,,,,,,,,,,,,,,,,,,,,,,,,,,,,,,,,,,,,,,,,,,,,,,,,,,,,,,,,,,,,
1720078255,44,0,4346.025879,4375.769043,4335.897461,4368.846191,4381.153809,4407.563965,4391.282227,4364.358887,4350,4355.256348,4328.974121,4473.461426,4353.717773,4321.794922,,,,,,,,,,,,,,,,,,,,,,,,,,,,,,,,,,,,,,,,,,,,,,,,,,,,,,,,,,,,,,,,,,,,,,
1720078255,45,0,4337.94873,4375.128418,4327.436035,4365.128418,4380.769043,4410.256348,4393.077148,4363.717773,4365.384766,4357.05127,4331.922852,4472.05127,4352.179688,4314.743652,,,,,,,,,,,,,,,,,,,,,,,,,,,,,,,,,,,,,,,,,,,,,,,,,,,,,,,,,,,,,,,,,,,,,,
1720078255,46,0,4328.846191,4366.922852,4315.512695,4352.692383,4376.922852,4399.487305,4386.410156,4360.128418,4363.205078,4354.102539,4326.794922,4463.974121,4341.666504,4305.512695,,,,,,,,,,,,,,,,,,,,,,,,,,,,,,,,,,,,,,,,,,,,,,,,,,,,,,,,,,,,,,,,,,,,,,
1720078255,47,0,4327.563965,4361.538574,4321.794922,4347.820313,4377.179688,4395.641113,4385.769043,4366.666504,4356.282227,4353.205078,4323.846191,4464.358887,4338.846191,4308.846191,,,,,,,,,,,,,,,,,,,,,,,,,,,,,,,,,,,,,,,,,,,,,,,,,,,,,,,,,,,,,,,,,,,,,,
1720078255,48,0,4329.871582,4361.666504,4331.666504,4353.717773,4376.538574,4400,4391.538574,4372.94873,4357.820313,4353.461426,4323.205078,4461.794922,4338.846191,4307.179688,,,,,,,,,,,,,,,,,,,,,,,,,,,,,,,,,,,,,,,,,,,,,,,,,,,,,,,,,,,,,,,,,,,,,,
1720078255,49,0,4326.922852,4361.922852,4329.102539,4357.179688,4371.922852,4392.94873,4382.563965,4368.461426,4358.589844,4351.410156,4319.615234,4457.692383,4331.666504,4301.794922,,,,,,,,,,,,,,,,,,,,,,,,,,,,,,,,,,,,,,,,,,,,,,,,,,,,,,,,,,,,,,,,,,,,,,
1720078255,50,0,4326.025879,4363.589844,4323.077148,4353.333496,4371.282227,4385.128418,4364.230957,4366.153809,4358.589844,4354.871582,4320.897461,4463.589844,4335.384766,4303.846191,21.417297,4.527665,1.900154,0.761185,0.4895,3.692621,2.110489,1.01877,0.658921,0.392728,4.613231,2.123216,0.930259,0.831592,0.412722,1.471338,1.270181,0.793871,0.928528,0.556255,0.572737,0.455962,0.135427,0.27461,0.177884,0.623272,0.380413,0.438801,0.367191,0.127114,1.998492,1.114684,0.485331,0.299173,0.219143,1.019583,2.135639,1.071291,0.363961,0.224657,0.720274,3.609146,0.959981,0.327703,0.298271,1.140665,0.38402,0.576221,0.47067,0.281956,3.342722,1.9416,1.428771,0.963395,0.525648,2.465753,2.296099,1.091935,0.916024,0.647071,2.699264,1.374369,0.649468,0.986805,0.465255,3.081246,1.915187,0.716027,0.888739,0.513045
1720078255,51,0,4330.641113,4365.256348,4322.563965,4351.538574,4373.846191,4387.94873,4352.820313,4365,4361.153809,4358.205078,4327.820313,4466.922852,4345.128418,4306.025879,,,,,,,,,,,,,,,,,,,,,,,,,,,,,,,,,,,,,,,,,,,,,,,,,,,,,,,,,,,,,,,,,,,,,,
1720078255,52,0,4331.666504,4366.282227,4327.05127,4356.410156,4371.794922,4384.358887,4340.897461,4351.025879,4357.05127,4352.94873,4326.666504,4462.692383,4342.179688,4307.307617,,,,,,,,,,,,,,,,,,,,,,,,,,,,,,,,,,,,,,,,,,,,,,,,,,,,,,,,,,,,,,,,,,,,,,
1720078255,53,0,4334.615234,4369.487305,4335.384766,4360.512695,4370.512695,4377.94873,4334.871582,4343.589844,4355.384766,4354.871582,4328.205078,4468.974121,4343.974121,4314.230957,,,,,,,,,,,,,,,,,,,,,,,,,,,,,,,,,,,,,,,,,,,,,,,,,,,,,,,,,,,,,,,,,,,,,,
1720078255,54,0,4343.974121,4369.358887,4335.897461,4357.563965,4376.025879,4386.922852,4345.641113,4357.436035,4369.871582,4361.794922,4334.230957,4481.922852,4353.205078,4322.563965,,,,,,,,,,,,,,,,,,,,,,,,,,,,,,,,,,,,,,,,,,,,,,,,,,,,,,,,,,,,,,,,,,,,,,
1720078255,55,0,4335.256348,4356.922852,4322.436035,4350.128418,4375,4398.846191,4353.077148,4367.820313,4381.922852,4353.461426,4325.256348,4472.692383,4341.153809,4315.897461,,,,,,,,,,,,,,,,,,,,,,,,,,,,,,,,,,,,,,,,,,,,,,,,,,,,,,,,,,,,,,,,,,,,,,
1720078255,56,0,4306.410156,4337.94873,4305.384766,4339.102539,4362.563965,4397.94873,4352.94873,4369.358887,4381.153809,4339.615234,4304.230957,4449.487305,4316.538574,4294.230957,,,,,,,,,,,,,,,,,,,,,,,,,,,,,,,,,,,,,,,,,,,,,,,,,,,,,,,,,,,,,,,,,,,,,,
1720078255,57,0,4300.769043,4336.666504,4298.974121,4333.717773,4358.333496,4391.666504,4356.282227,4373.205078,4382.179688,4339.358887,4294.615234,4437.179688,4309.615234,4281.153809,,,,,,,,,,,,,,,,,,,,,,,,,,,,,,,,,,,,,,,,,,,,,,,,,,,,,,,,,,,,,,,,,,,,,,
1720078255,58,0,4313.461426,4351.025879,4297.692383,4340.128418,4364.743652,4390.384766,4351.922852,4370.769043,4383.974121,4341.410156,4294.102539,4434.102539,4314.615234,4285,,,,,,,,,,,,,,,,,,,,,,,,,,,,,,,,,,,,,,,,,,,,,,,,,,,,,,,,,,,,,,,,,,,,,,
1720078255,59,0,4309.230957,4351.025879,4293.333496,4342.94873,4365.897461,4391.153809,4340.769043,4365.256348,4381.922852,4339.358887,4294.871582,4431.666504,4318.589844,4288.333496,,,,,,,,,,,,,,,,,,,,,,,,,,,,,,,,,,,,,,,,,,,,,,,,,,,,,,,,,,,,,,,,,,,,,,
1720078255,60,0,4304.871582,4343.205078,4294.615234,4338.589844,4365.641113,4385.128418,4343.461426,4370.128418,4382.05127,4342.820313,4304.230957,4434.102539,4323.974121,4290,,,,,,,,,,,,,,,,,,,,,,,,,,,,,,,,,,,,,,,,,,,,,,,,,,,,,,,,,,,,,,,,,,,,,,
1720078255,61,0,4312.820313,4348.333496,4298.077148,4336.666504,4367.563965,4378.461426,4349.358887,4373.846191,4383.333496,4346.153809,4308.205078,4436.025879,4329.487305,4297.307617,,,,,,,,,,,,,,,,,,,,,,,,,,,,,,,,,,,,,,,,,,,,,,,,,,,,,,,,,,,,,,,,,,,,,,
1720078255,62,0,4307.436035,4352.307617,4293.846191,4341.538574,4363.461426,4380.512695,4343.077148,4365.512695,4372.05127,4341.282227,4295.641113,4427.692383,4323.077148,4293.589844,,,,,,,,,,,,,,,,,,,,,,,,,,,,,,,,,,,,,,,,,,,,,,,,,,,,,,,,,,,,,,,,,,,,,,
1720078255,63,0,4303.461426,4354.102539,4297.94873,4346.410156,4363.205078,4383.077148,4343.461426,4361.025879,4360.897461,4338.077148,4295.256348,4433.974121,4320.512695,4292.820313,,,,,,,,,,,,,,,,,,,,,,,,,,,,,,,,,,,,,,,,,,,,,,,,,,,,,,,,,,,,,,,,,,,,,,
1720078255,64,0,4312.563965,4360.512695,4309.615234,4341.410156,4370.897461,4379.358887,4351.794922,4364.743652,4363.974121,4340.641113,4309.230957,4452.307617,4335,4308.589844,,,,,,,,,,,,,,,,,,,,,,,,,,,,,,,,,,,,,,,,,,,,,,,,,,,,,,,,,,,,,,,,,,,,,,
1720078255,65,0,4305.128418,4357.179688,4304.871582,4336.153809,4370.384766,4377.179688,4347.820313,4365.897461,4371.025879,4342.820313,4310.256348,4451.538574,4338.589844,4308.461426,,,,,,,,,,,,,,,,,,,,,,,,,,,,,,,,,,,,,,,,,,,,,,,,,,,,,,,,,,,,,,,,,,,,,,
1720078255,66,0,4294.615234,4349.230957,4291.666504,4338.717773,4364.358887,4383.589844,4344.102539,4365.256348,4377.307617,4345,4304.743652,4445.128418,4325.384766,4296.282227,13.668744,5.240755,1.612464,0.595625,0.488188,2.682049,2.789623,0.950535,0.66833,0.401332,3.488617,3.178511,0.972189,0.705285,0.397017,1.200281,1.887934,0.770345,0.891648,0.513604,0.534885,0.658034,0.125091,0.243014,0.168077,0.660742,0.74184,0.548622,0.377275,0.114872,1.994686,1.354456,0.600415,0.317294,0.204412,1.165901,3.172798,1.192789,0.402713,0.213339,0.876126,6.293336,1.216415,0.418163,0.340325,0.882387,0.493199,0.664304,0.464079,0.307977,3.789824,3.508768,1.902192,1.051985,0.49676,1.932713,3.853238,1.214755,0.886431,0.669235,1.681331,2.481436,0.792602,0.867864,0.444754,2.078024,3.345565,0.76753,0.745467,0.472916
1720078255,67,0,4300.256348,4348.846191,4292.179688,4340,4365.384766,4392.436035,4354.358887,4369.871582,4386.153809,4349.871582,4309.615234,4449.487305,4323.205078,4300,,,,,,,,,,,,,,,,,,,,,,,,,,,,,,,,,,,,,,,,,,,,,,,,,,,,,,,,,,,,,,,,,,,,,,
1720078255,68,0,4303.717773,4345.256348,4302.179688,4341.538574,4369.487305,4397.179688,4361.282227,4378.846191,4392.94873,4355.256348,4314.871582,4458.846191,4331.794922,4310.128418,,,,,,,,,,,,,,,,,,,,,,,,,,,,,,,,,,,,,,,,,,,,,,,,,,,,,,,,,,,,,,,,,,,,,,
1720078255,69,0,4303.077148,4341.666504,4308.974121,4339.743652,4370.256348,4400.256348,4361.666504,4381.666504,4389.487305,4353.077148,4309.615234,4457.05127,4328.846191,4308.077148,,,,,,,,,,,,,,,,,,,,,,,,,,,,,,,,,,,,,,,,,,,,,,,,,,,,,,,,,,,,,,,,,,,,,,
1720078255,70,0,4303.974121,4345,4305.641113,4332.436035,4369.358887,4401.025879,4366.153809,4377.94873,4383.589844,4346.282227,4305.512695,4447.563965,4324.230957,4304.871582,,,,,,,,,,,,,,,,,,,,,,,,,,,,,,,,,,,,,,,,,,,,,,,,,,,,,,,,,,,,,,,,,,,,,,
1720078255,71,0,4296.922852,4341.282227,4301.538574,4331.922852,4367.436035,4400,4368.205078,4375.897461,4388.333496,4347.94873,4308.077148,4444.102539,4327.179688,4304.102539,,,,,,,,,,,,,,,,,,,,,,,,,,,,,,,,,,,,,,,,,,,,,,,,,,,,,,,,,,,,,,,,,,,,,,
1720078255,72,0,4296.282227,4344.615234,4308.846191,4343.077148,4370.256348,4399.743652,4366.282227,4378.461426,4397.05127,4356.922852,4310.769043,4451.025879,4329.102539,4304.102539,,,,,,,,,,,,,,,,,,,,,,,,,,,,,,,,,,,,,,,,,,,,,,,,,,,,,,,,,,,,,,,,,,,,,,
1720078255,73,0,4310.384766,4357.94873,4313.717773,4350.256348,4378.717773,4399.871582,4365.384766,4377.563965,4399.358887,4361.410156,4309.230957,4458.461426,4326.410156,4304.871582,,,,,,,,,,,,,,,,,,,,,,,,,,,,,,,,,,,,,,,,,,,,,,,,,,,,,,,,,,,,,,,,,,,,,,
1720078255,74,0,4316.794922,4358.333496,4314.102539,4346.153809,4382.436035,4398.461426,4364.230957,4375.384766,4388.077148,4359.230957,4312.692383,4459.487305,4329.871582,4311.282227,,,,,,,,,,,,,,,,,,,,,,,,,,,,,,,,,,,,,,,,,,,,,,,,,,,,,,,,,,,,,,,,,,,,,,
1720078255,75,0,4314.871582,4356.282227,4318.846191,4342.94873,4380.128418,4394.358887,4364.615234,4372.563965,4366.922852,4351.153809,4321.666504,4460.128418,4340.641113,4324.743652,,,,,,,,,,,,,,,,,,,,,,,,,,,,,,,,,,,,,,,,,,,,,,,,,,,,,,,,,,,,,,,,,,,,,,
1720078255,76,0,4311.153809,4366.794922,4318.589844,4345.769043,4379.615234,4390.641113,4365.512695,4361.025879,4348.589844,4340.769043,4316.153809,4455,4334.615234,4316.538574,,,,,,,,,,,,,,,,,,,,,,,,,,,,,,,,,,,,,,,,,,,,,,,,,,,,,,,,,,,,,,,,,,,,,,
1720078255,77,0,4312.94873,4372.436035,4320.512695,4352.94873,4383.077148,4392.179688,4366.794922,4358.717773,4347.436035,4343.846191,4306.794922,4452.436035,4322.563965,4300.384766,,,,,,,,,,,,,,,,,,,,,,,,,,,,,,,,,,,,,,,,,,,,,,,,,,,,,,,,,,,,,,,,,,,,,,
1720078255,78,0,4316.538574,4364.102539,4326.922852,4352.563965,4382.179688,4397.307617,4371.025879,4365.769043,4361.666504,4352.307617,4309.871582,4454.743652,4328.461426,4306.025879,,,,,,,,,,,,,,,,,,,,,,,,,,,,,,,,,,,,,,,,,,,,,,,,,,,,,,,,,,,,,,,,,,,,,,
1720078255,79,0,4304.615234,4357.307617,4317.692383,4345.897461,4376.922852,4398.974121,4370.641113,4362.436035,4372.563965,4347.05127,4305,4443.205078,4323.974121,4299.487305,,,,,,,,,,,,,,,,,,,,,,,,,,,,,,,,,,,,,,,,,,,,,,,,,,,,,,,,,,,,,,,,,,,,,,
1720078255,80,0,4282.820313,4346.922852,4295.769043,4339.358887,4370.512695,4394.358887,4355.641113,4353.077148,4371.794922,4336.794922,4282.692383,4422.563965,4298.589844,4273.589844,,,,,,,,,,,,,,,,,,,,,,,,,,,,,,,,,,,,,,,,,,,,,,,,,,,,,,,,,,,,,,,,,,,,,,
1720078255,81,0,4277.94873,4327.94873,4284.487305,4322.94873,4361.410156,4387.94873,4342.563965,4350.641113,4369.615234,4334.358887,4271.153809,4413.333496,4290.256348,4264.358887,,,,,,,,,,,,,,,,,,,,,,,,,,,,,,,,,,,,,,,,,,,,,,,,,,,,,,,,,,,,,,,,,,,,,,
1720078255,82,0,4294.871582,4330,4297.94873,4325.384766,4357.820313,4389.487305,4353.846191,4363.589844,4385.641113,4348.974121,4293.846191,4432.05127,4315.384766,4283.974121,8.282967,6.889975,1.26743,0.49203,0.478063,2.297802,4.047893,0.845327,0.670582,0.416898,2.587593,4.987413,0.979655,0.605208,0.385334,1.206442,3.017029,0.712986,0.839839,0.479617,0.542081,0.897894,0.120763,0.209509,0.15476,0.71422,1.305698,0.628462,0.370412,0.106466,2.00436,1.764303,0.689784,0.370133,0.191891,1.405669,4.428361,1.236968,0.462358,0.199598,1.240303,9.96911,1.550626,0.55065,0.382473,0.762861,0.670479,0.798768,0.477484,0.340392,4.097841,5.557113,2.33183,1.187251,0.473178,1.719142,6.315197,1.304518,0.876076,0.687536,1.070002,4.184302,0.995206,0.822552,0.446675,1.729898,5.749238,0.847881,0.675574,0.444119
1720078255,83,0,4311.666504,4353.974121,4317.692383,4345.384766,4367.692383,4396.538574,4367.307617,4378.333496,4405.769043,4370.384766,4326.153809,4456.538574,4344.487305,4307.820313,,,,,,,,,,,,,,,,,,,,,,,,,,,,,,,,,,,,,,,,,,,,,,,,,,,,,,,,,,,,,,,,,,,,,,
1720078255,84,0,4319.871582,4366.794922,4320.128418,4347.563965,4376.538574,4392.179688,4359.743652,4373.077148,4394.871582,4367.692383,4331.538574,4455.256348,4350.512695,4312.179688,,,,,,,,,,,,,,,,,,,,,,,,,,,,,,,,,,,,,,,,,,,,,,,,,,,,,,,,,,,,,,,,,,,,,,
1720078255,85,0,4321.538574,4365.128418,4316.410156,4343.717773,4373.974121,4384.358887,4353.589844,4362.179688,4374.487305,4349.615234,4324.487305,4449.871582,4342.436035,4308.846191,,,,,,,,,,,,,,,,,,,,,,,,,,,,,,,,,,,,,,,,,,,,,,,,,,,,,,,,,,,,,,,,,,,,,,
1720078255,86,0,4318.205078,4362.94873,4318.077148,4348.717773,4374.358887,4386.025879,4359.102539,4365.512695,4370.769043,4346.153809,4329.487305,4455.128418,4343.717773,4314.230957,,,,,,,,,,,,,,,,,,,,,,,,,,,,,,,,,,,,,,,,,,,,,,,,,,,,,,,,,,,,,,,,,,,,,,
1720078255,87,0,4316.153809,4361.153809,4313.717773,4348.974121,4381.410156,4386.153809,4360.256348,4361.025879,4365.256348,4347.436035,4331.922852,4451.922852,4345.256348,4315.384766,,,,,,,,,,,,,,,,,,,,,,,,,,,,,,,,,,,,,,,,,,,,,,,,,,,,,,,,,,,,,,,,,,,,,,
1720078255,88,0,4314.743652,4358.589844,4308.077148,4341.538574,4383.974121,4384.743652,4357.436035,4346.666504,4348.846191,4341.025879,4321.410156,4442.179688,4335.256348,4305.641113,,,,,,,,,,,,,,,,,,,,,,,,,,,,,,,,,,,,,,,,,,,,,,,,,,,,,,,,,,,,,,,,,,,,,,
1720078255,89,0,4313.846191,4357.94873,4306.922852,4342.563965,4382.563965,4389.615234,4353.717773,4334.743652,4332.563965,4333.717773,4309.615234,4434.102539,4328.333496,4300,,,,,,,,,,,,,,,,,,,,,,,,,,,,,,,,,,,,,,,,,,,,,,,,,,,,,,,,,,,,,,,,,,,,,,
1720078255,90,0,4317.179688,4357.307617,4301.025879,4348.205078,4384.230957,4390.512695,4348.205078,4324.871582,4322.307617,4325.512695,4293.205078,4421.025879,4323.717773,4295.769043,,,,,,,,,,,,,,,,,,,,,,,,,,,,,,,,,,,,,,,,,,,,,,,,,,,,,,,,,,,,,,,,,,,,,,
1720078255,91,0,4315.384766,4354.615234,4294.487305,4346.025879,4384.230957,4386.538574,4350.641113,4326.538574,4324.743652,4321.282227,4277.05127,4411.410156,4309.102539,4283.461426,,,,,,,,,,,,,,,,,,,,,,,,,,,,,,,,,,,,,,,,,,,,,,,,,,,,,,,,,,,,,,,,,,,,,,
1720078255,92,0,4305.256348,4349.487305,4293.589844,4339.615234,4377.94873,4392.179688,4361.282227,4346.410156,4347.820313,4330.897461,4283.205078,4418.333496,4307.436035,4281.282227,,,,,,,,,,,,,,,,,,,,,,,,,,,,,,,,,,,,,,,,,,,,,,,,,,,,,,,,,,,,,,,,,,,,,,
1720078255,93,0,4302.05127,4343.846191,4293.077148,4333.589844,4373.717773,4398.333496,4372.820313,4370.256348,4377.307617,4344.358887,4297.179688,4429.230957,4323.717773,4291.410156,,,,,,,,,,,,,,,,,,,,,,,,,,,,,,,,,,,,,,,,,,,,,,,,,,,,,,,,,,,,,,,,,,,,,,
1720078255,94,0,4304.358887,4342.05127,4293.846191,4333.974121,4370.512695,4389.230957,4375.128418,4382.563965,4395.128418,4349.871582,4296.282227,4429.487305,4323.974121,4289.102539,,,,,,,,,,,,,,,,,,,,,,,,,,,,,,,,,,,,,,,,,,,,,,,,,,,,,,,,,,,,,,,,,,,,,,
1720078255,95,0,4301.410156,4344.230957,4294.615234,4337.563965,4364.871582,4384.487305,4367.436035,4383.205078,4400.256348,4351.538574,4291.410156,4427.692383,4309.871582,4275.769043,,,,,,,,,,,,,,,,,,,,,,,,,,,,,,,,,,,,,,,,,,,,,,,,,,,,,,,,,,,,,,,,,,,,,,
1720078255,96,0,4297.179688,4340.384766,4287.94873,4333.974121,4365.128418,4392.307617,4363.717773,4378.461426,4396.153809,4353.333496,4290.256348,4425.256348,4310.256348,4271.922852,,,,,,,,,,,,,,,,,,,,,,,,,,,,,,,,,,,,,,,,,,,,,,,,,,,,,,,,,,,,,,,,,,,,,,
1720078256,97,0,4289.743652,4330.512695,4276.922852,4323.205078,4368.461426,4392.94873,4365.769043,4371.538574,4385.128418,4344.743652,4282.05127,4417.692383,4313.974121,4271.666504,,,,,,,,,,,,,,,,,,,,,,,,,,,,,,,,,,,,,,,,,,,,,,,,,,,,,,,,,,,,,,,,,,,,,,
1720078256,98,0,4287.94873,4331.794922,4283.077148,4327.94873,4370.384766,4390.512695,4370.128418,4366.538574,4370.384766,4329.743652,4278.333496,4420.256348,4307.692383,4269.358887,5.237944,9.21362,0.954958,0.450341,0.457727,2.260757,5.706484,0.730083,0.648823,0.427699,2.039689,7.271023,0.946545,0.536972,0.374016,1.319008,4.518003,0.633303,0.75272,0.453915,0.571229,1.13507,0.119856,0.177594,0.139632,0.761219,2.021984,0.654738,0.350048,0.105303,2.02948,2.365814,0.736602,0.447458,0.185638,1.649801,5.637075,1.199319,0.523669,0.187213,1.722375,14.090109,1.91766,0.69581,0.420053,0.733554,0.917952,0.941394,0.50119,0.368201,4.116898,7.660286,2.587609,1.319951,0.451808,1.925316,9.310812,1.343177,0.871653,0.689418,0.789221,6.220023,1.180309,0.836603,0.468818,1.689695,8.68425,0.89707,0.680476,0.426972
1720078256,99,0,4302.692383,4344.871582,4310.128418,4350.128418,4377.179688,4397.820313,4377.820313,4364.230957,4350.512695,4322.94873,4286.922852,4437.692383,4305.769043,4274.615234,,,,,,,,,,,,,,,,,,,,,,,,,,,,,,,,,,,,,,,,,,,,,,,,,,,,,,,,,,,,,,,,,,,,,,
1720078256,100,0,4312.179688,4348.974121,4323.974121,4354.615234,4385.128418,4401.025879,4378.589844,4355.512695,4329.871582,4320.769043,4287.05127,4444.487305,4311.922852,4280,,,,,,,,,,,,,,,,,,,,,,,,,,,,,,,,,,,,,,,,,,,,,,,,,,,,,,,,,,,,,,,,,,,,,,
1720078256,101,0,4304.615234,4341.153809,4315.384766,4342.436035,4383.846191,4396.410156,4369.230957,4341.282227,4317.94873,4316.410156,4279.743652,4434.102539,4310.256348,4274.230957,,,,,,,,,,,,,,,,,,,,,,,,,,,,,,,,,,,,,,,,,,,,,,,,,,,,,,,,,,,,,,,,,,,,,,
1720078256,102,0,4298.077148,4336.666504,4306.922852,4337.94873,4378.974121,4392.179688,4361.153809,4335.512695,4313.333496,4314.871582,4277.94873,4427.563965,4301.922852,4265.769043,,,,,,,,,,,,,,,,,,,,,,,,,,,,,,,,,,,,,,,,,,,,,,,,,,,,,,,,,,,,,,,,,,,,,,
1720078256,103,0,4301.538574,4341.025879,4304.615234,4341.025879,4374.230957,4385.512695,4358.589844,4339.230957,4318.077148,4322.563965,4282.05127,4431.538574,4303.077148,4270.512695,,,,,,,,,,,,,,,,,,,,,,,,,,,,,,,,,,,,,,,,,,,,,,,,,,,,,,,,,,,,,,,,,,,,,,
1720078256,104,0,4300.512695,4340.384766,4297.179688,4339.102539,4366.666504,4379.487305,4361.538574,4355.256348,4348.077148,4337.436035,4290.128418,4434.743652,4312.05127,4275.384766,,,,,,,,,,,,,,,,,,,,,,,,,,,,,,,,,,,,,,,,,,,,,,,,,,,,,,,,,,,,,,,,,,,,,,
1720078256,105,0,4283.846191,4326.025879,4280.769043,4326.922852,4358.077148,4378.589844,4368.077148,4380,4387.820313,4349.615234,4291.538574,4430,4308.846191,4260.512695,,,,,,,,,,,,,,,,,,,,,,,,,,,,,,,,,,,,,,,,,,,,,,,,,,,,,,,,,,,,,,,,,,,,,,
1720078256,106,0,4271.922852,4319.487305,4265.512695,4316.538574,4354.743652,4378.461426,4370.641113,4396.410156,4411.282227,4352.563965,4284.230957,4420.769043,4296.410156,4247.94873,,,,,,,,,,,,,,,,,,,,,,,,,,,,,,,,,,,,,,,,,,,,,,,,,,,,,,,,,,,,,,,,,,,,,,
1720078256,107,0,4278.461426,4326.538574,4263.333496,4318.589844,4359.230957,4383.589844,4372.94873,4402.05127,4421.153809,4353.846191,4281.410156,4420.256348,4296.153809,4254.615234,,,,,,,,,,,,,,,,,,,,,,,,,,,,,,,,,,,,,,,,,,,,,,,,,,,,,,,,,,,,,,,,,,,,,,
1720078256,108,0,4274.230957,4317.692383,4263.589844,4317.94873,4359.102539,4389.743652,4375.897461,4395,4411.794922,4347.436035,4279.487305,4419.743652,4295,4251.922852,,,,,,,,,,,,,,,,,,,,,,,,,,,,,,,,,,,,,,,,,,,,,,,,,,,,,,,,,,,,,,,,,,,,,,
1720078256,109,0,4262.563965,4306.922852,4260,4313.333496,4356.153809,4390.128418,4371.794922,4372.436035,4381.153809,4328.077148,4273.077148,4407.05127,4285.897461,4239.743652,,,,,,,,,,,,,,,,,,,,,,,,,,,,,,,,,,,,,,,,,,,,,,,,,,,,,,,,,,,,,,,,,,,,,,
1720078256,110,0,4283.717773,4330.512695,4268.974121,4331.794922,4366.025879,4389.743652,4368.589844,4356.282227,4357.692383,4321.794922,4276.025879,4407.307617,4292.307617,4249.871582,,,,,,,,,,,,,,,,,,,,,,,,,,,,,,,,,,,,,,,,,,,,,,,,,,,,,,,,,,,,,,,,,,,,,,
1720078256,111,0,4311.922852,4353.589844,4281.410156,4352.436035,4371.025879,4389.102539,4368.205078,4353.461426,4346.025879,4325.641113,4282.179688,4420.512695,4308.589844,4270.128418,,,,,,,,,,,,,,,,,,,,,,,,,,,,,,,,,,,,,,,,,,,,,,,,,,,,,,,,,,,,,,,,,,,,,,
1720078256,112,0,4314.102539,4345.512695,4287.692383,4347.436035,4368.717773,4387.820313,4367.05127,4348.974121,4331.538574,4319.615234,4283.974121,4424.487305,4314.615234,4276.922852,,,,,,,,,,,,,,,,,,,,,,,,,,,,,,,,,,,,,,,,,,,,,,,,,,,,,,,,,,,,,,,,,,,,,,
1720078256,113,0,4320.641113,4342.692383,4297.563965,4340.384766,4376.410156,4387.563965,4366.922852,4345.512695,4317.05127,4321.025879,4295.128418,4427.436035,4319.871582,4285.897461,,,,,,,,,,,,,,,,,,,,,,,,,,,,,,,,,,,,,,,,,,,,,,,,,,,,,,,,,,,,,,,,,,,,,,
1720078256,114,0,4334.615234,4357.563965,4302.563965,4351.666504,4384.102539,4383.333496,4366.153809,4347.820313,4314.743652,4341.153809,4313.205078,4442.05127,4339.743652,4306.282227,3.795959,11.557482,0.745245,0.44633,0.429882,2.204866,7.360166,0.64284,0.5953,0.422831,1.860046,9.440866,0.884268,0.494497,0.361821,1.374781,6.023238,0.550175,0.627753,0.430429,0.590621,1.326414,0.120694,0.148621,0.125167,0.778635,2.756586,0.615703,0.319672,0.111623,2.100658,3.086955,0.73594,0.52993,0.186189,1.793474,6.478924,1.098734,0.565512,0.179573,2.168591,17.746849,2.229296,0.824163,0.448012,0.76268,1.209594,1.030555,0.519891,0.382133,3.783768,9.23873,2.588461,1.38875,0.430708,2.520748,12.079976,1.332488,0.846545,0.668416,0.737021,8.087917,1.278566,0.865926,0.503005,1.681464,11.396708,0.885194,0.721936,0.420742
1720078256,115,0,4331.153809,4358.846191,4297.563965,4361.538574,4372.05127,4372.820313,4356.153809,4342.05127,4323.974121,4347.436035,4315.897461,4445,4349.487305,4313.333496,,,,,,,,,,,,,,,,,,,,,,,,,,,,,,,,,,,,,,,,,,,,,,,,,,,,,,,,,,,,,,,,,,,,,,
1720078256,116,0,4326.794922,4349.487305,4294.871582,4351.153809,4362.563965,4368.461426,4346.410156,4336.922852,4341.538574,4338.846191,4305,4435.769043,4333.077148,4304.102539,,,,,,,,,,,,,,,,,,,,,,,,,,,,,,,,,,,,,,,,,,,,,,,,,,,,,,,,,,,,,,,,,,,,,,
1720078256,117,0,4335.897461,4352.436035,4297.563965,4344.487305,4372.820313,4378.589844,4356.153809,4353.846191,4364.487305,4350.384766,4307.307617,4444.230957,4328.589844,4305.128418,,,,,,,,,,,,,,,,,,,,,,,,,,,,,,,,,,,,,,,,,,,,,,,,,,,,,,,,,,,,,,,,,,,,,,
1720078256,118,0,4335.512695,4354.487305,4298.461426,4351.410156,4379.871582,4392.563965,4373.717773,4375,4385.128418,4365,4315.897461,4453.461426,4342.820313,4310.128418,,,,,,,,,,,,,,,,,,,,,,,,,,,,,,,,,,,,,,,,,,,,,,,,,,,,,,,,,,,,,,,,,,,,,,
1720078256,119,0,4321.666504,4346.025879,4292.94873,4351.282227,4373.333496,4401.538574,4381.794922,4382.307617,4395.512695,4353.333496,4304.230957,4443.846191,4328.589844,4291.025879,,,,,,,,,,,,,,,,,,,,,,,,,,,,,,,,,,,,,,,,,,,,,,,,,,,,,,,,,,,,,,,,,,,,,,
1720078256,120,0,4308.846191,4339.230957,4282.179688,4341.153809,4366.538574,4402.179688,4381.025879,4385.384766,4400.769043,4343.333496,4287.563965,4433.974121,4303.205078,4270,,,,,,,,,,,,,,,,,,,,,,,,,,,,,,,,,,,,,,,,,,,,,,,,,,,,,,,,,,,,,,,,,,,,,,
1720078256,121,0,4303.461426,4337.05127,4276.025879,4336.666504,4366.922852,4395.897461,4376.025879,4385.641113,4403.717773,4353.461426,4286.025879,4430.769043,4310.256348,4273.974121,,,,,,,,,,,,,,,,,,,,,,,,,,,,,,,,,,,,,,,,,,,,,,,,,,,,,,,,,,,,,,,,,,,,,,
1720078256,122,0,4305.512695,4337.94873,4276.282227,4335.384766,4365.769043,4389.358887,4373.717773,4379.358887,4393.589844,4349.487305,4277.563965,4421.153809,4309.743652,4274.743652,,,,,,,,,,,,,,,,,,,,,,,,,,,,,,,,,,,,,,,,,,,,,,,,,,,,,,,,,,,,,,,,,,,,,,
1720078256,123,0,4307.179688,4338.205078,4279.102539,4328.974121,4362.820313,4388.461426,4373.846191,4370.769043,4372.94873,4328.461426,4268.205078,4415.128418,4295,4270.384766,,,,,,,,,,,,,,,,,,,,,,,,,,,,,,,,,,,,,,,,,,,,,,,,,,,,,,,,,,,,,,,,,,,,,,
1720078256,124,0,4318.205078,4339.743652,4294.871582,4337.563965,4367.94873,4391.282227,4376.282227,4368.205078,4359.487305,4324.358887,4284.743652,4436.282227,4311.153809,4291.794922,,,,,,,,,,,,,,,,,,,,,,,,,,,,,,,,,,,,,,,,,,,,,,,,,,,,,,,,,,,,,,,,,,,,,,
1720078256,125,0,4338.974121,4349.615234,4316.538574,4353.077148,4375.384766,4391.025879,4379.615234,4366.794922,4346.666504,4329.358887,4304.358887,4465.512695,4333.333496,4318.974121,,,,,,,,,,,,,,,,,,,,,,,,,,,,,,,,,,,,,,,,,,,,,,,,,,,,,,,,,,,,,,,,,,,,,,
1720078256,126,0,4348.333496,4358.205078,4323.846191,4355.769043,4374.615234,4382.94873,4373.974121,4357.820313,4326.410156,4324.102539,4304.615234,4475,4329.358887,4324.358887,,,,,,,,,,,,,,,,,,,,,,,,,,,,,,,,,,,,,,,,,,,,,,,,,,,,,,,,,,,,,,,,,,,,,,
1720078256,127,0,4359.230957,4368.846191,4337.563965,4370.897461,4372.94873,4372.436035,4363.333496,4349.102539,4318.589844,4328.461426,4313.717773,4480.641113,4337.307617,4333.333496,,,,,,,,,,,,,,,,,,,,,,,,,,,,,,,,,,,,,,,,,,,,,,,,,,,,,,,,,,,,,,,,,,,,,,
1720078256,0,0,4385.384766,4388.333496,4364.102539,4395,4381.666504,4371.538574,4360.641113,4347.436035,4323.333496,4346.922852,4336.666504,4496.538574,4364.487305,4356.025879,,,,,,,,,,,,,,,,,,,,,,,,,,,,,,,,,,,,,,,,,,,,,,,,,,,,,,,,,,,,,,,,,,,,,,
1720078256,1,0,4393.461426,4393.077148,4365.641113,4391.025879,4384.743652,4378.461426,4366.153809,4348.333496,4321.410156,4354.358887,4338.333496,4501.282227,4369.230957,4358.846191,,,,,,,,,,,,,,,,,,,,,,,,,,,,,,,,,,,,,,,,,,,,,,,,,,,,,,,,,,,,,,,,,,,,,,
1720078256,2,0,4369.102539,4373.846191,4337.692383,4365,4379.871582,4386.282227,4372.94873,4353.461426,4328.461426,4354.487305,4321.153809,4482.820313,4352.307617,4338.461426,3.129474,13.154716,0.679216,0.454049,0.399109,2.056942,8.537611,0.621513,0.522474,0.397672,2.051892,10.848204,0.830494,0.473169,0.350243,1.358893,7.083719,0.48677,0.489139,0.402345,0.586099,1.452977,0.120291,0.124186,0.113509,0.775406,3.328285,0.517161,0.281854,0.122452,2.196581,3.760336,0.70109,0.600945,0.191313,1.767288,6.811654,1.000107,0.581739,0.178979,2.514137,20.353046,2.446728,0.919275,0.461554,0.807862,1.530715,1.042885,0.524715,0.378816,3.192329,9.847753,2.379002,1.356977,0.412553,3.331071,13.779231,1.306848,0.78708,0.627984,0.802913,9.292549,1.292704,0.870216,0.540328,1.656003,13.170931,0.85191,0.751625,0.42405
1720078256,3,0,4343.717773,4356.153809,4314.102539,4350.641113,4380.256348,4397.692383,4382.05127,4367.436035,4357.05127,4362.05127,4309.102539,4462.307617,4337.820313,4320.769043,,,,,,,,,,,,,,,,,,,,,,,,,,,,,,,,,,,,,,,,,,,,,,,,,,,,,,,,,,,,,,,,,,,,,,
1720078256,4,0,4322.307617,4343.846191,4297.05127,4342.436035,4375.384766,4403.974121,4384.871582,4379.230957,4384.487305,4360.769043,4297.179688,4443.077148,4324.615234,4302.820313,,,,,,,,,,,,,,,,,,,,,,,,,,,,,,,,,,,,,,,,,,,,,,,,,,,,,,,,,,,,,,,,,,,,,,
1720078256,5,0,4305.256348,4332.05127,4279.358887,4332.820313,4366.922852,4401.153809,4382.94873,4389.102539,4397.563965,4351.666504,4287.563965,4427.307617,4311.666504,4285.256348,,,,,,,,,,,,,,,,,,,,,,,,,,,,,,,,,,,,,,,,,,,,,,,,,,,,,,,,,,,,,,,,,,,,,,
1720078256,6,0,4303.846191,4328.205078,4275.384766,4331.282227,4367.307617,4400.256348,4386.794922,4399.487305,4403.077148,4349.487305,4285.384766,4428.333496,4306.153809,4282.563965,,,,,,,,,,,,,,,,,,,,,,,,,,,,,,,,,,,,,,,,,,,,,,,,,,,,,,,,,,,,,,,,,,,,,,
1720078256,7,0,4302.563965,4325,4275.512695,4326.666504,4365.641113,4399.871582,4382.307617,4396.410156,4398.205078,4345.897461,4280.128418,4426.922852,4304.743652,4278.717773,,,,,,,,,,,,,,,,,,,,,,,,,,,,,,,,,,,,,,,,,,,,,,,,,,,,,,,,,,,,,,,,,,,,,,
1720078256,8,0,4301.282227,4323.461426,4276.282227,4321.025879,4362.05127,4393.205078,4373.461426,4388.589844,4390.641113,4341.538574,4278.589844,4423.589844,4307.179688,4280.897461,,,,,,,,,,,,,,,,,,,,,,,,,,,,,,,,,,,,,,,,,,,,,,,,,,,,,,,,,,,,,,,,,,,,,,
1720078256,9,0,4307.563965,4333.077148,4286.538574,4331.153809,4368.077148,4388.077148,4370.641113,4382.563965,4383.717773,4341.025879,4289.487305,4436.410156,4315.128418,4297.179688,,,,,,,,,,,,,,,,,,,,,,,,,,,,,,,,,,,,,,,,,,,,,,,,,,,,,,,,,,,,,,,,,,,,,,
1720078256,10,0,4318.205078,4345.384766,4299.615234,4345,4376.282227,4388.589844,4369.487305,4375.641113,4376.153809,4344.487305,4301.666504,4452.820313,4325.769043,4306.025879,,,,,,,,,,,,,,,,,,,,,,,,,,,,,,,,,,,,,,,,,,,,,,,,,,,,,,,,,,,,,,,,,,,,,,
1720078256,11,0,4336.282227,4356.794922,4314.871582,4353.077148,4379.230957,4389.871582,4372.307617,4376.410156,4375.641113,4351.025879,4313.589844,4469.743652,4337.563965,4319.102539,,,,,,,,,,,,,,,,,,,,,,,,,,,,,,,,,,,,,,,,,,,,,,,,,,,,,,,,,,,,,,,,,,,,,,
1720078256,12,0,4359.230957,4369.230957,4335.641113,4366.410156,4380.256348,4388.205078,4379.871582,4379.230957,4368.846191,4350.897461,4323.717773,4488.205078,4345.128418,4343.205078,,,,,,,,,,,,,,,,,,,,,,,,,,,,,,,,,,,,,,,,,,,,,,,,,,,,,,,,,,,,,,,,,,,,,,
1720078256,13,0,4372.820313,4381.666504,4351.538574,4382.307617,4383.333496,4389.358887,4385.641113,4371.153809,4346.410156,4345.384766,4327.563965,4493.717773,4349.358887,4350.384766,,,,,,,,,,,,,,,,,,,,,,,,,,,,,,,,,,,,,,,,,,,,,,,,,,,,,,,,,,,,,,,,,,,,,,
1720078256,14,0,4371.282227,4386.025879,4349.743652,4385.769043,4386.282227,4396.410156,4386.538574,4360.512695,4331.025879,4345.897461,4326.666504,4487.307617,4353.205078,4342.563965,,,,,,,,,,,,,,,,,,,,,,,,,,,,,,,,,,,,,,,,,,,,,,,,,,,,,,,,,,,,,,,,,,,,,,
1720078256,15,0,4360.256348,4378.846191,4334.871582,4377.307617,4382.05127,4398.717773,4385.128418,4357.436035,4334.615234,4345.769043,4320.256348,4479.487305,4349.358887,4338.333496,,,,,,,,,,,,,,,,,,,,,,,,,,,,,,,,,,,,,,,,,,,,,,,,,,,,,,,,,,,,,,,,,,,,,,
1720078256,16,0,4345.641113,4368.205078,4317.05127,4364.102539,4372.94873,4394.487305,4383.205078,4363.974121,4345.512695,4339.487305,4307.436035,4465.897461,4333.461426,4327.563965,,,,,,,,,,,,,,,,,,,,,,,,,,,,,,,,,,,,,,,,,,,,,,,,,,,,,,,,,,,,,,,,,,,,,,
1720078256,17,0,4327.563965,4358.205078,4297.820313,4351.794922,4367.94873,4393.589844,4384.230957,4381.666504,4362.179688,4339.743652,4295.128418,4450.384766,4316.153809,4304.871582,,,,,,,,,,,,,,,,,,,,,,,,,,,,,,,,,,,,,,,,,,,,,,,,,,,,,,,,,,,,,,,,,,,,,,
1720078256,18,0,4310.256348,4341.666504,4282.179688,4342.820313,4365.512695,4396.410156,4385,4397.307617,4389.743652,4346.538574,4291.153809,4441.153809,4305.641113,4286.794922,2.955895,13.519365,0.724096,0.458897,0.372696,1.85395,8.919374,0.666245,0.454076,0.35805,2.535043,11.18271,0.809439,0.468554,0.342301,1.328445,7.410091,0.446513,0.371411,0.369567,0.57188,1.54529,0.12057,0.106595,0.106345,0.76415,3.584247,0.396014,0.241495,0.133153,2.332258,4.186791,0.644207,0.654417,0.197171,1.588938,6.821533,0.981354,0.586361,0.184749,2.699714,22.224382,2.605261,0.977227,0.457317,0.858986,1.9337,1.023881,0.515026,0.361515,2.63071,9.416071,2.113103,1.226964,0.402074,4.179452,13.942866,1.335555,0.698196,0.57931,0.934694,9.569426,1.283466,0.830281,0.573516,1.71478,13.617421,0.864866,0.737932,0.435385
1720078256,19,0,4303.077148,4326.666504,4277.94873,4333.974121,4363.974121,4394.615234,4382.179688,4403.461426,4413.846191,4355.384766,4293.974121,4433.333496,4306.922852,4283.077148,,,,,,,,,,,,,,,,,,,,,,,,,,,,,,,,,,,,,,,,,,,,,,,,,,,,,,,,,,,,,,,,,,,,,,
1720078256,20,0,4298.077148,4322.436035,4273.077148,4324.871582,4366.025879,4389.615234,4376.025879,4400.897461,4417.05127,4360.384766,4287.94873,4426.025879,4309.230957,4279.358887,,,,,,,,,,,,,,,,,,,,,,,,,,,,,,,,,,,,,,,,,,,,,,,,,,,,,,,,,,,,,,,,,,,,,,
1720078256,21,0,4290.769043,4324.743652,4262.436035,4320.384766,4366.282227,4385,4370.256348,4394.358887,4405.897461,4352.94873,4277.820313,4422.179688,4302.563965,4272.179688,,,,,,,,,,,,,,,,,,,,,,,,,,,,,,,,,,,,,,,,,,,,,,,,,,,,,,,,,,,,,,,,,,,,,,
1720078256,22,0,4295.897461,4333.077148,4265.256348,4327.05127,4364.358887,4380.256348,4372.820313,4393.205078,4398.589844,4345.512695,4281.153809,4422.692383,4302.563965,4277.436035,,,,,,,,,,,,,,,,,,,,,,,,,,,,,,,,,,,,,,,,,,,,,,,,,,,,,,,,,,,,,,,,,,,,,,
1720078256,23,0,4315.256348,4343.333496,4285,4339.743652,4368.717773,4383.846191,4382.307617,4392.307617,4389.230957,4343.333496,4292.436035,4430.512695,4313.589844,4291.666504,,,,,,,,,,,,,,,,,,,,,,,,,,,,,,,,,,,,,,,,,,,,,,,,,,,,,,,,,,,,,,,,,,,,,,
1720078256,24,0,4333.717773,4346.922852,4302.94873,4343.974121,4377.179688,4391.794922,4385.128418,4382.436035,4366.538574,4334.871582,4295.128418,4441.538574,4318.589844,4301.538574,,,,,,,,,,,,,,,,,,,,,,,,,,,,,,,,,,,,,,,,,,,,,,,,,,,,,,,,,,,,,,,,,,,,,,
1720078256,25,0,4350.128418,4351.153809,4317.692383,4347.820313,4381.922852,4391.282227,4383.846191,4371.282227,4346.794922,4326.153809,4297.94873,4457.307617,4326.282227,4316.282227,,,,,,,,,,,,,,,,,,,,,,,,,,,,,,,,,,,,,,,,,,,,,,,,,,,,,,,,,,,,,,,,,,,,,,
1720078256,26,0,4367.307617,4362.307617,4335.512695,4358.077148,4381.922852,4387.820313,4388.717773,4368.974121,4338.461426,4324.358887,4305.769043,4476.538574,4335.256348,4332.94873,,,,,,,,,,,,,,,,,,,,,,,,,,,,,,,,,,,,,,,,,,,,,,,,,,,,,,,,,,,,,,,,,,,,,,
1720078256,27,0,4373.333496,4368.974121,4344.743652,4368.077148,4383.461426,4394.871582,4395.641113,4371.025879,4335.897461,4327.692383,4308.589844,4481.666504,4329.102539,4327.563965,,,,,,,,,,,,,,,,,,,,,,,,,,,,,,,,,,,,,,,,,,,,,,,,,,,,,,,,,,,,,,,,,,,,,,
1720078256,28,0,4363.333496,4362.94873,4336.153809,4372.179688,4383.333496,4406.282227,4399.358887,4376.666504,4343.461426,4336.025879,4306.666504,4471.922852,4322.94873,4316.538574,,,,,,,,,,,,,,,,,,,,,,,,,,,,,,,,,,,,,,,,,,,,,,,,,,,,,,,,,,,,,,,,,,,,,,
1720078256,29,0,4346.666504,4348.589844,4318.589844,4360.128418,4375.897461,4403.846191,4398.205078,4387.820313,4363.205078,4341.410156,4302.436035,4465,4321.153809,4315.897461,,,,,,,,,,,,,,,,,,,,,,,,,,,,,,,,,,,,,,,,,,,,,,,,,,,,,,,,,,,,,,,,,,,,,,
1720078256,30,0,4332.05127,4331.410156,4308.205078,4332.179688,4366.410156,4396.794922,4397.05127,4398.589844,4391.666504,4342.179688,4298.077148,4462.05127,4311.410156,4302.436035,,,,,,,,,,,,,,,,,,,,,,,,,,,,,,,,,,,,,,,,,,,,,,,,,,,,,,,,,,,,,,,,,,,,,,
1720078256,31,0,4322.179688,4322.692383,4299.871582,4319.871582,4360.256348,4402.436035,4402.179688,4410.512695,4419.230957,4350.384766,4295.641113,4457.436035,4305.128418,4286.666504,,,,,,,,,,,,,,,,,,,,,,,,,,,,,,,,,,,,,,,,,,,,,,,,,,,,,,,,,,,,,,,,,,,,,,
1720078256,32,0,4320,4330.769043,4295.769043,4334.102539,4360.769043,4406.025879,4408.974121,4425.128418,4435.897461,4360.641113,4296.410156,4457.94873,4310.512695,4292.05127,,,,,,,,,,,,,,,,,,,,,,,,,,,,,,,,,,,,,,,,,,,,,,,,,,,,,,,,,,,,,,,,,,,,,,
1720078256,33,0,4321.282227,4336.282227,4301.282227,4342.307617,4367.820313,4398.717773,4413.717773,4434.871582,4439.487305,4361.153809,4297.563965,4462.692383,4311.025879,4295.641113,,,,,,,,,,,,,,,,,,,,,,,,,,,,,,,,,,,,,,,,,,,,,,,,,,,,,,,,,,,,,,,,,,,,,,
1720078256,34,0,4319.615234,4327.820313,4302.179688,4335.256348,4371.153809,4395.897461,4413.974121,4429.487305,4429.487305,4356.538574,4295.512695,4459.230957,4308.717773,4289.615234,2.780784,12.870843,0.837395,0.465061,0.356735,1.613314,8.587227,0.75988,0.412472,0.317972,2.967575,10.780347,0.855133,0.481872,0.33901,1.248047,7.099801,0.445502,0.303664,0.339074,0.546683,1.659778,0.132802,0.097809,0.10481,0.760481,3.491075,0.309668,0.208491,0.139265,2.436406,4.243534,0.577682,0.695695,0.199602,1.299241,6.945155,1.083735,0.607719,0.192302,2.720622,24.440174,2.770503,1.004614,0.434943,0.866142,2.517216,1.04,0.495948,0.338447,2.200369,8.384673,1.986391,1.0398,0.400914,4.670112,12.824918,1.497242,0.608057,0.533453,1.099923,9.128858,1.331219,0.752286,0.598118,1.759381,13.036973,0.985648,0.67794,0.45189
1720078256,35,0,4312.307617,4319.487305,4292.94873,4324.615234,4365.769043,4396.282227,4405.512695,4411.922852,4405.256348,4346.153809,4293.205078,4447.563965,4311.538574,4292.179688,,,,,,,,,,,,,,,,,,,,,,,,,,,,,,,,,,,,,,,,,,,,,,,,,,,,,,,,,,,,,,,,,,,,,,
1720078256,36,0,4307.692383,4326.666504,4294.743652,4323.205078,4363.461426,4390.641113,4397.436035,4396.922852,4377.820313,4334.102539,4293.461426,4448.077148,4312.692383,4301.410156,,,,,,,,,,,,,,,,,,,,,,,,,,,,,,,,,,,,,,,,,,,,,,,,,,,,,,,,,,,,,,,,,,,,,,
1720078256,37,0,4315,4337.820313,4308.333496,4334.615234,4369.743652,4387.820313,4397.05127,4389.743652,4361.538574,4332.94873,4296.666504,4461.410156,4317.820313,4309.615234,,,,,,,,,,,,,,,,,,,,,,,,,,,,,,,,,,,,,,,,,,,,,,,,,,,,,,,,,,,,,,,,,,,,,,
1720078256,38,0,4324.615234,4343.461426,4319.615234,4344.358887,4376.282227,4389.487305,4396.282227,4382.436035,4352.179688,4337.05127,4302.692383,4469.358887,4326.538574,4317.05127,,,,,,,,,,,,,,,,,,,,,,,,,,,,,,,,,,,,,,,,,,,,,,,,,,,,,,,,,,,,,,,,,,,,,,
1720078256,39,0,4334.871582,4358.717773,4336.282227,4358.205078,4382.179688,4393.077148,4394.871582,4376.025879,4346.153809,4340.384766,4313.846191,4481.282227,4340.128418,4330.512695,,,,,,,,,,,,,,,,,,,,,,,,,,,,,,,,,,,,,,,,,,,,,,,,,,,,,,,,,,,,,,,,,,,,,,
1720078256,40,0,4339.230957,4363.974121,4339.230957,4363.461426,4382.820313,4395.128418,4390.384766,4371.666504,4345.897461,4342.820313,4318.077148,4486.025879,4344.871582,4335.384766,,,,,,,,,,,,,,,,,,,,,,,,,,,,,,,,,,,,,,,,,,,,,,,,,,,,,,,,,,,,,,,,,,,,,,
1720078256,41,0,4316.282227,4350.512695,4318.846191,4348.077148,4376.025879,4387.563965,4379.358887,4365.128418,4345.512695,4338.717773,4309.615234,4466.153809,4331.922852,4319.871582,,,,,,,,,,,,,,,,,,,,,,,,,,,,,,,,,,,,,,,,,,,,,,,,,,,,,,,,,,,,,,,,,,,,,,
1720078256,42,0,4280.256348,4349.871582,4306.794922,4341.794922,4371.282227,4378.974121,4374.102539,4367.179688,4352.692383,4337.05127,4303.333496,4452.307617,4324.871582,4310.512695,,,,,,,,,,,,,,,,,,,,,,,,,,,,,,,,,,,,,,,,,,,,,,,,,,,,,,,,,,,,,,,,,,,,,,
1720078256,43,0,4258.846191,4355.641113,4312.563965,4349.871582,4370.897461,4380.384766,4381.666504,4385.256348,4376.794922,4345.641113,4303.974121,4459.102539,4326.282227,4313.461426,,,,,,,,,,,,,,,,,,,,,,,,,,,,,,,,,,,,,,,,,,,,,,,,,,,,,,,,,,,,,,,,,,,,,,
1720078256,44,0,4250,4344.615234,4319.102539,4346.025879,4368.205078,4382.307617,4392.307617,4400.512695,4405,4353.974121,4305.641113,4468.717773,4318.461426,4309.230957,,,,,,,,,,,,,,,,,,,,,,,,,,,,,,,,,,,,,,,,,,,,,,,,,,,,,,,,,,,,,,,,,,,,,,
1720078256,45,0,4244.230957,4343.333496,4316.794922,4336.025879,4366.025879,4380.512695,4395.256348,4403.589844,4416.025879,4356.153809,4307.563965,4471.794922,4316.794922,4308.589844,,,,,,,,,,,,,,,,,,,,,,,,,,,,,,,,,,,,,,,,,,,,,,,,,,,,,,,,,,,,,,,,,,,,,,
1720078256,46,0,4244.487305,4353.589844,4312.307617,4339.230957,4369.487305,4380.384766,4389.743652,4404.487305,4415.128418,4356.410156,4312.563965,4465.769043,4329.871582,4316.025879,,,,,,,,,,,,,,,,,,,,,,,,,,,,,,,,,,,,,,,,,,,,,,,,,,,,,,,,,,,,,,,,,,,,,,
1720078256,47,0,4246.282227,4344.743652,4307.05127,4345.384766,4372.692383,4383.974121,4390.256348,4406.794922,4412.307617,4352.820313,4308.974121,4457.820313,4328.846191,4312.436035,,,,,,,,,,,,,,,,,,,,,,,,,,,,,,,,,,,,,,,,,,,,,,,,,,,,,,,,,,,,,,,,,,,,,,
1720078256,48,0,4245.897461,4339.230957,4305.769043,4348.205078,4372.94873,4390.128418,4397.820313,4405,4400.256348,4340.128418,4298.974121,4459.102539,4318.846191,4307.307617,,,,,,,,,,,,,,,,,,,,,,,,,,,,,,,,,,,,,,,,,,,,,,,,,,,,,,,,,,,,,,,,,,,,,,
1720078256,49,0,4252.436035,4349.358887,4308.974121,4348.461426,4375.641113,4395.512695,4398.589844,4398.974121,4383.205078,4328.333496,4298.333496,4461.025879,4321.410156,4312.94873,,,,,,,,,,,,,,,,,,,,,,,,,,,,,,,,,,,,,,,,,,,,,,,,,,,,,,,,,,,,,,,,,,,,,,
1720078256,50,0,4270.512695,4354.358887,4320.769043,4347.436035,4384.487305,4401.922852,4400,4398.077148,4370.769043,4328.461426,4306.922852,4465.384766,4325.641113,4323.589844,2.652341,12.231327,0.988534,0.484209,0.351482,1.397732,8.05811,0.876368,0.405432,0.290901,3.217492,10.631612,0.986793,0.517855,0.338058,1.159336,6.66467,0.500839,0.295529,0.3207,0.51814,1.841628,0.165674,0.09839,0.108229,0.776484,3.152834,0.308474,0.194966,0.138052,2.489349,3.94319,0.525753,0.732156,0.194966,1.038953,7.685899,1.306046,0.667536,0.194903,2.582867,28.287607,3.056163,1.013272,0.397419,0.848017,3.344913,1.161441,0.470226,0.317986,1.9827,7.487658,2.090387,0.849933,0.405023,4.706442,11.375834,1.779963,0.54916,0.495476,1.261422,8.597774,1.469613,0.659439,0.611178,1.840243,12.423579,1.204934,0.592013,0.468244
1720078256,51,0,4289.102539,4354.743652,4335.128418,4354.358887,4391.410156,4407.05127,4404.102539,4395,4362.563965,4334.487305,4312.692383,4478.589844,4330.512695,4335.128418,,,,,,,,,,,,,,,,,,,,,,,,,,,,,,,,,,,,,,,,,,,,,,,,,,,,,,,,,,,,,,,,,,,,,,
1720078256,52,0,4294.871582,4355.641113,4336.282227,4357.307617,4388.205078,4402.436035,4394.487305,4380.128418,4356.410156,4336.410156,4311.153809,4479.230957,4338.974121,4337.307617,,,,,,,,,,,,,,,,,,,,,,,,,,,,,,,,,,,,,,,,,,,,,,,,,,,,,,,,,,,,,,,,,,,,,,
1720078256,53,0,4293.461426,4363.077148,4335,4360.128418,4383.589844,4392.179688,4382.563965,4370.897461,4357.820313,4341.025879,4309.871582,4473.333496,4343.077148,4333.974121,,,,,,,,,,,,,,,,,,,,,,,,,,,,,,,,,,,,,,,,,,,,,,,,,,,,,,,,,,,,,,,,,,,,,,
1720078256,54,0,4297.179688,4373.077148,4337.05127,4371.922852,4384.743652,4386.282227,4383.974121,4381.538574,4369.615234,4354.102539,4321.153809,4485.641113,4349.743652,4343.461426,,,,,,,,,,,,,,,,,,,,,,,,,,,,,,,,,,,,,,,,,,,,,,,,,,,,,,,,,,,,,,,,,,,,,,
1720078256,55,0,4299.871582,4367.307617,4333.461426,4366.025879,4385.641113,4386.282227,4386.666504,4394.487305,4384.230957,4362.307617,4333.461426,4496.153809,4357.436035,4353.974121,,,,,,,,,,,,,,,,,,,,,,,,,,,,,,,,,,,,,,,,,,,,,,,,,,,,,,,,,,,,,,,,,,,,,,
1720078256,56,0,4295.256348,4353.589844,4325.512695,4346.794922,4379.487305,4386.794922,4383.717773,4394.102539,4392.94873,4359.358887,4321.153809,4481.794922,4348.717773,4341.794922,,,,,,,,,,,,,,,,,,,,,,,,,,,,,,,,,,,,,,,,,,,,,,,,,,,,,,,,,,,,,,,,,,,,,,
1720078256,57,0,4297.307617,4357.307617,4325.384766,4353.205078,4371.922852,4384.743652,4382.820313,4399.487305,4398.077148,4356.794922,4308.589844,4476.025879,4335,4333.589844,,,,,,,,,,,,,,,,,,,,,,,,,,,,,,,,,,,,,,,,,,,,,,,,,,,,,,,,,,,,,,,,,,,,,,
1720078256,58,0,4304.871582,4361.794922,4331.666504,4361.153809,4373.589844,4385.897461,4387.820313,4412.563965,4407.307617,4359.743652,4323.077148,4490.897461,4337.307617,4343.846191,,,,,,,,,,,,,,,,,,,,,,,,,,,,,,,,,,,,,,,,,,,,,,,,,,,,,,,,,,,,,,,,,,,,,,
1720078256,59,0,4294.743652,4347.692383,4322.820313,4336.922852,4373.589844,4392.820313,4392.94873,4410.769043,4404.230957,4349.487305,4319.102539,4483.077148,4328.333496,4332.436035,,,,,,,,,,,,,,,,,,,,,,,,,,,,,,,,,,,,,,,,,,,,,,,,,,,,,,,,,,,,,,,,,,,,,,
1720078256,60,0,4283.589844,4342.94873,4309.230957,4326.410156,4369.871582,4399.230957,4395.641113,4397.94873,4385.897461,4328.974121,4295.128418,4460,4308.589844,4310.256348,,,,,,,,,,,,,,,,,,,,,,,,,,,,,,,,,,,,,,,,,,,,,,,,,,,,,,,,,,,,,,,,,,,,,,
1720078256,61,0,4291.538574,4353.333496,4310.897461,4341.538574,4376.153809,4402.563965,4397.692383,4393.077148,4377.436035,4326.282227,4297.820313,4462.692383,4313.077148,4313.077148,,,,,,,,,,,,,,,,,,,,,,,,,,,,,,,,,,,,,,,,,,,,,,,,,,,,,,,,,,,,,,,,,,,,,,
1720078256,62,0,4300.128418,4358.974121,4317.692383,4343.717773,4383.461426,4401.794922,4400.256348,4397.05127,4378.717773,4338.589844,4311.282227,4474.743652,4325.769043,4326.282227,,,,,,,,,,,,,,,,,,,,,,,,,,,,,,,,,,,,,,,,,,,,,,,,,,,,,,,,,,,,,,,,,,,,,,
1720078256,63,0,4307.05127,4366.282227,4319.743652,4348.205078,4379.358887,4392.05127,4400.897461,4399.871582,4377.692383,4346.282227,4315,4476.666504,4331.538574,4331.666504,,,,,,,,,,,,,,,,,,,,,,,,,,,,,,,,,,,,,,,,,,,,,,,,,,,,,,,,,,,,,,,,,,,,,,
1720078256,64,0,4313.717773,4369.230957,4322.563965,4358.461426,4373.589844,4378.333496,4391.538574,4390.512695,4371.282227,4344.871582,4320.512695,4480.512695,4334.871582,4331.538574,,,,,,,,,,,,,,,,,,,,,,,,,,,,,,,,,,,,,,,,,,,,,,,,,,,,,,,,,,,,,,,,,,,,,,
1720078256,65,0,4309.871582,4357.94873,4325.384766,4348.333496,4371.025879,4369.358887,4376.666504,4373.589844,4362.563965,4340,4320.512695,4482.692383,4329.615234,4328.333496,,,,,,,,,,,,,,,,,,,,,,,,,,,,,,,,,,,,,,,,,,,,,,,,,,,,,,,,,,,,,,,,,,,,,,
1720078256,66,0,4317.307617,4363.589844,4329.871582,4344.871582,4370.512695,4366.282227,4373.846191,4371.922852,4365.641113,4344.487305,4319.615234,4483.205078,4333.461426,4331.153809,2.648921,12.932168,1.11937,0.524761,0.350034,1.261504,8.054836,0.974504,0.425845,0.281419,3.197978,11.921605,1.158596,0.574426,0.334467,1.075463,6.80028,0.594258,0.33738,0.320195,0.475517,2.107916,0.215523,0.106469,0.114101,0.811032,2.742644,0.390165,0.20715,0.129658,2.476579,3.413802,0.499224,0.763943,0.18126,0.90711,9.314177,1.568666,0.766809,0.187344,2.36756,34.569382,3.490497,1.016389,0.350262,0.786421,4.387096,1.409296,0.436531,0.304173,1.863386,7.366852,2.345792,0.692735,0.405898,4.289426,10.80719,2.078865,0.537359,0.461481,1.380823,8.662014,1.649382,0.570518,0.60993,1.865311,12.983601,1.434567,0.502153,0.477465
1720078256,67,0,4326.666504,4375.641113,4325,4352.307617,4370.384766,4369.615234,4376.153809,4376.538574,4370.384766,4346.538574,4323.461426,4475.897461,4343.846191,4333.846191,,,,,,,,,,,,,,,,,,,,,,,,,,,,,,,,,,,,,,,,,,,,,,,,,,,,,,,,,,,,,,,,,,,,,,
1720078256,68,0,4304.230957,4351.282227,4299.743652,4334.743652,4365.384766,4375.641113,4372.307617,4371.153809,4358.077148,4329.487305,4308.461426,4450.641113,4325,4313.333496,,,,,,,,,,,,,,,,,,,,,,,,,,,,,,,,,,,,,,,,,,,,,,,,,,,,,,,,,,,,,,,,,,,,,,
1720078256,69,0,4292.692383,4334.487305,4290,4323.077148,4365.384766,4384.230957,4379.230957,4380,4361.153809,4324.487305,4293.205078,4442.692383,4305.897461,4296.922852,,,,,,,,,,,,,,,,,,,,,,,,,,,,,,,,,,,,,,,,,,,,,,,,,,,,,,,,,,,,,,,,,,,,,,
1720078256,70,0,4315.897461,4355.897461,4304.102539,4338.461426,4375.384766,4394.615234,4400.641113,4406.794922,4392.436035,4343.717773,4305.897461,4464.487305,4318.589844,4312.179688,,,,,,,,,,,,,,,,,,,,,,,,,,,,,,,,,,,,,,,,,,,,,,,,,,,,,,,,,,,,,,,,,,,,,,
1720078256,71,0,4322.692383,4362.820313,4304.230957,4347.692383,4375.769043,4401.153809,4411.538574,4416.410156,4408.461426,4351.025879,4310.384766,4465,4320.256348,4317.94873,,,,,,,,,,,,,,,,,,,,,,,,,,,,,,,,,,,,,,,,,,,,,,,,,,,,,,,,,,,,,,,,,,,,,,
1720078256,72,0,4307.94873,4347.692383,4290.641113,4342.820313,4366.410156,4401.538574,4405,4403.461426,4400.384766,4341.025879,4291.410156,4437.820313,4301.794922,4296.538574,,,,,,,,,,,,,,,,,,,,,,,,,,,,,,,,,,,,,,,,,,,,,,,,,,,,,,,,,,,,,,,,,,,,,,
1720078256,73,0,4305,4341.922852,4280.641113,4333.974121,4365.128418,4397.692383,4392.307617,4388.205078,4385,4329.102539,4279.102539,4425.512695,4296.538574,4282.820313,,,,,,,,,,,,,,,,,,,,,,,,,,,,,,,,,,,,,,,,,,,,,,,,,,,,,,,,,,,,,,,,,,,,,,
1720078256,74,0,4307.820313,4341.538574,4275.128418,4323.461426,4368.589844,4393.077148,4382.179688,4378.077148,4365.384766,4320.256348,4276.410156,4425.256348,4294.871582,4284.230957,,,,,,,,,,,,,,,,,,,,,,,,,,,,,,,,,,,,,,,,,,,,,,,,,,,,,,,,,,,,,,,,,,,,,,
1720078256,75,0,4310.256348,4340.256348,4276.922852,4323.205078,4368.846191,4394.615234,4385.641113,4376.922852,4359.743652,4321.538574,4276.282227,4427.94873,4291.794922,4289.487305,,,,,,,,,,,,,,,,,,,,,,,,,,,,,,,,,,,,,,,,,,,,,,,,,,,,,,,,,,,,,,,,,,,,,,
1720078256,76,0,4319.487305,4342.820313,4281.025879,4328.717773,4367.307617,4396.410156,4388.589844,4382.05127,4361.794922,4327.94873,4288.589844,4441.282227,4304.615234,4301.922852,,,,,,,,,,,,,,,,,,,,,,,,,,,,,,,,,,,,,,,,,,,,,,,,,,,,,,,,,,,,,,,,,,,,,,
1720078256,77,0,4335.384766,4353.974121,4285.128418,4336.025879,4364.358887,4380.512695,4376.538574,4378.589844,4352.563965,4328.333496,4303.717773,4455.128418,4320.769043,4315.641113,,,,,,,,,,,,,,,,,,,,,,,,,,,,,,,,,,,,,,,,,,,,,,,,,,,,,,,,,,,,,,,,,,,,,,
