Timestamp,EEG.Counter,EEG.Interpolated,EEG.AF3,EEG.F7,EEG.F3,EEG.FC5,EEG.T7,EEG.P7,EEG.O1,EEG.O2,EEG.P8,EEG.T8,EEG.FC6,EEG.F4,EEG.F8,EEG.AF4,POW.AF3.Theta,POW.AF3.Alpha,POW.AF3.BetaL,POW.AF3.BetaH,POW.AF3.Gamma,POW.F7.Theta,POW.F7.Alpha,POW.F7.BetaL,POW.F7.BetaH,POW.F7.Gamma,POW.F3.Theta,POW.F3.Alpha,POW.F3.BetaL,POW.F3.BetaH,POW.F3.Gamma,POW.FC5.Theta,POW.FC5.Alpha,POW.FC5.BetaL,POW.FC5.BetaH,POW.FC5.Gamma,POW.T7.Theta,POW.T7.Alpha,POW.T7.BetaL,POW.T7.BetaH,POW.T7.Gamma,POW.P7.Theta,POW.P7.Alpha,POW.P7.BetaL,POW.P7.BetaH,POW.P7.Gamma,POW.O1.Theta,POW.O1.Alpha,POW.O1.BetaL,POW.O1.BetaH,POW.O1.Gamma,POW.O2.Theta,POW.O2.Alpha,POW.O2.BetaL,POW.O2.BetaH,POW.O2.Gamma,POW.P8.Theta,POW.P8.Alpha,POW.P8.BetaL,POW.P8.BetaH,POW.P8.Gamma,POW.T8.Theta,POW.T8.Alpha,POW.T8.BetaL,POW.T8.BetaH,POW.T8.Gamma,POW.FC6.Theta,POW.FC6.Alpha,POW.FC6.BetaL,POW.FC6.BetaH,POW.FC6.Gamma,POW.F4.Theta,POW.F4.Alpha,POW.F4.BetaL,POW.F4.BetaH,POW.F4.Gamma,POW.F8.Theta,POW.F8.Alpha,POW.F8.BetaL,POW.F8.BetaH,POW.F8.Gamma,POW.AF4.Theta,POW.AF4.Alpha,POW.AF4.BetaL,POW.AF4.BetaH,POW.AF4.Gamma
1720159379,126,0,4280.256348,4315.769043,4304.615234,4329.871582,4294.102539,4278.333496,4272.563965,4277.307617,4274.743652,4269.615234,4440.769043,4465,4332.05127,4370.384766,,,,,,,,,,,,,,,,,,,,,,,,,,,,,,,,,,,,,,,,,,,,,,,,,,,,,,,,,,,,,,,,,,,,,,
1720159379,127,0,4277.692383,4308.205078,4295.128418,4325.384766,4295.128418,4279.871582,4267.94873,4287.307617,4280.769043,4265.897461,4440.384766,4462.94873,4328.205078,4392.692383,,,,,,,,,,,,,,,,,,,,,,,,,,,,,,,,,,,,,,,,,,,,,,,,,,,,,,,,,,,,,,,,,,,,,,
1720159379,0,0,4279.615234,4305.897461,4291.538574,4308.461426,4298.974121,4283.974121,4268.461426,4297.05127,4281.666504,4264.230957,4436.282227,4466.666504,4321.538574,4398.717773,,,,,,,,,,,,,,,,,,,,,,,,,,,,,,,,,,,,,,,,,,,,,,,,,,,,,,,,,,,,,,,,,,,,,,
1720159379,1,0,4267.307617,4310.512695,4292.563965,4307.692383,4295,4292.307617,4273.846191,4290.512695,4279.358887,4257.563965,4431.666504,4455.769043,4320.384766,4351.922852,,,,,,,,,,,,,,,,,,,,,,,,,,,,,,,,,,,,,,,,,,,,,,,,,,,,,,,,,,,,,,,,,,,,,,
1720159379,2,0,4278.077148,4309.358887,4307.05127,4315.256348,4295.897461,4297.05127,4280.512695,4294.615234,4279.871582,4257.179688,4443.846191,4468.333496,4331.153809,4382.563965,,,,,,,,,,,,,,,,,,,,,,,,,,,,,,,,,,,,,,,,,,,,,,,,,,,,,,,,,,,,,,,,,,,,,,
1720159379,3,0,4287.307617,4311.410156,4316.666504,4319.487305,4299.871582,4294.871582,4289.102539,4301.538574,4275.897461,4257.436035,4451.538574,4487.05127,4333.717773,4400.128418,,,,,,,,,,,,,,,,,,,,,,,,,,,,,,,,,,,,,,,,,,,,,,,,,,,,,,,,,,,,,,,,,,,,,,
1720159379,4,0,4277.563965,4311.666504,4311.666504,4320.384766,4297.307617,4293.717773,4297.436035,4293.717773,4267.307617,4254.358887,4440.512695,4476.538574,4324.102539,4374.230957,,,,,,,,,,,,,,,,,,,,,,,,,,,,,,,,,,,,,,,,,,,,,,,,,,,,,,,,,,,,,,,,,,,,,,
1720159379,5,0,4275.897461,4300.897461,4306.538574,4312.563965,4296.282227,4293.077148,4300.256348,4294.487305,4262.436035,4254.871582,4440.512695,4469.358887,4320.256348,4390.384766,,,,,,,,,,,,,,,,,,,,,,,,,,,,,,,,,,,,,,,,,,,,,,,,,,,,,,,,,,,,,,,,,,,,,,
1720159379,6,0,4270.256348,4295.769043,4299.358887,4299.102539,4294.743652,4287.820313,4293.974121,4295.512695,4262.307617,4251.922852,4447.820313,4468.974121,4315.641113,4382.179688,,,,,,,,,,,,,,,,,,,,,,,,,,,,,,,,,,,,,,,,,,,,,,,,,,,,,,,,,,,,,,,,,,,,,,
1720159379,7,0,4274.615234,4305.384766,4302.436035,4304.230957,4295.769043,4280.256348,4283.589844,4285.641113,4269.743652,4253.846191,4444.615234,4468.974121,4318.717773,4376.666504,,,,,,,,,,,,,,,,,,,,,,,,,,,,,,,,,,,,,,,,,,,,,,,,,,,,,,,,,,,,,,,,,,,,,,
1720159379,8,0,4284.871582,4312.05127,4310.256348,4316.922852,4300.512695,4274.358887,4269.615234,4277.307617,4275.256348,4259.230957,4441.153809,4473.974121,4333.205078,4389.743652,,,,,,,,,,,,,,,,,,,,,,,,,,,,,,,,,,,,,,,,,,,,,,,,,,,,,,,,,,,,,,,,,,,,,,
1720159379,9,0,4278.717773,4310.256348,4306.794922,4313.717773,4297.307617,4274.487305,4260.256348,4276.282227,4274.615234,4256.025879,4441.922852,4474.487305,4333.461426,4382.179688,,,,,,,,,,,,,,,,,,,,,,,,,,,,,,,,,,,,,,,,,,,,,,,,,,,,,,,,,,,,,,,,,,,,,,
1720159379,10,0,4278.077148,4314.615234,4309.871582,4313.077148,4294.487305,4277.05127,4259.487305,4280.641113,4277.820313,4254.102539,4437.307617,4473.077148,4327.179688,4382.307617,,,,,,,,,,,,,,,,,,,,,,,,,,,,,,,,,,,,,,,,,,,,,,,,,,,,,,,,,,,,,,,,,,,,,,
1720159379,11,0,4285.512695,4319.743652,4320.256348,4330.897461,4299.487305,4277.307617,4258.589844,4282.94873,4284.487305,4258.974121,4432.563965,4475,4326.794922,4389.615234,,,,,,,,,,,,,,,,,,,,,,,,,,,,,,,,,,,,,,,,,,,,,,,,,,,,,,,,,,,,,,,,,,,,,,
1720159379,12,0,4275.256348,4319.487305,4313.717773,4331.025879,4298.974121,4281.025879,4254.743652,4280.512695,4285.769043,4254.102539,4430,4465.897461,4320.769043,4374.487305,0.84794,8.657659,0.59797,0.220556,0.287391,1.358972,18.647932,1.738669,0.426146,0.123822,1.911162,25.862202,1.638869,0.764416,0.200666,1.003627,9.596434,1.07833,0.575072,0.3287,0.269625,0.585523,0.127926,0.066082,0.1076,0.197982,6.033202,0.721138,0.405259,0.106819,1.307065,30.176504,4.318692,1.483112,0.189294,0.531203,18.011745,3.577493,0.609614,0.162545,0.792943,17.628504,2.796038,1.069052,0.210477,1.09163,1.257969,0.579836,0.164894,0.156081,0.911615,8.200427,0.396581,0.75268,0.330058,1.875947,19.203705,1.091317,0.635519,0.353491,1.580436,14.384515,0.918773,0.647561,0.965645,0.319989,5.721086,0.269372,0.214594,1.37998
1720159380,13,0,4273.589844,4311.794922,4304.871582,4307.436035,4296.025879,4291.794922,4264.615234,4286.410156,4281.666504,4241.922852,4433.461426,4463.333496,4313.846191,4389.871582,,,,,,,,,,,,,,,,,,,,,,,,,,,,,,,,,,,,,,,,,,,,,,,,,,,,,,,,,,,,,,,,,,,,,,
1720159380,14,0,4282.05127,4300,4303.717773,4305.384766,4298.205078,4299.358887,4287.436035,4297.820313,4280.256348,4240.769043,4436.666504,4476.666504,4314.615234,4406.922852,,,,,,,,,,,,,,,,,,,,,,,,,,,,,,,,,,,,,,,,,,,,,,,,,,,,,,,,,,,,,,,,,,,,,,
1720159380,15,0,4268.333496,4296.410156,4292.307617,4313.717773,4296.538574,4299.487305,4296.794922,4295.128418,4275,4238.846191,4426.666504,4462.820313,4309.615234,4364.487305,,,,,,,,,,,,,,,,,,,,,,,,,,,,,,,,,,,,,,,,,,,,,,,,,,,,,,,,,,,,,,,,,,,,,,
1720159380,16,0,4268.205078,4299.615234,4291.538574,4310.641113,4298.717773,4295,4297.820313,4294.615234,4266.666504,4232.820313,4423.846191,4446.794922,4300.769043,4368.205078,,,,,,,,,,,,,,,,,,,,,,,,,,,,,,,,,,,,,,,,,,,,,,,,,,,,,,,,,,,,,,,,,,,,,,
1720159380,17,0,4274.615234,4301.794922,4294.743652,4306.666504,4302.307617,4285.256348,4293.333496,4298.589844,4264.487305,4233.205078,4428.589844,4455.128418,4300.641113,4388.846191,,,,,,,,,,,,,,,,,,,,,,,,,,,,,,,,,,,,,,,,,,,,,,,,,,,,,,,,,,,,,,,,,,,,,,
1720159380,18,0,4267.563965,4300.512695,4290,4307.820313,4296.666504,4278.205078,4288.717773,4294.358887,4274.358887,4240.641113,4424.871582,4463.077148,4308.333496,4370.256348,,,,,,,,,,,,,,,,,,,,,,,,,,,,,,,,,,,,,,,,,,,,,,,,,,,,,,,,,,,,,,,,,,,,,,
1720159380,19,0,4272.436035,4304.230957,4302.05127,4321.153809,4294.615234,4278.461426,4293.077148,4298.333496,4283.846191,4249.487305,4428.077148,4472.94873,4321.410156,4380.384766,,,,,,,,,,,,,,,,,,,,,,,,,,,,,,,,,,,,,,,,,,,,,,,,,,,,,,,,,,,,,,,,,,,,,,
1720159380,20,0,4275.769043,4314.358887,4312.436035,4330.897461,4298.077148,4281.794922,4290,4300.512695,4278.974121,4249.487305,4437.307617,4477.179688,4326.153809,4387.563965,,,,,,,,,,,,,,,,,,,,,,,,,,,,,,,,,,,,,,,,,,,,,,,,,,,,,,,,,,,,,,,,,,,,,,
1720159380,21,0,4274.615234,4315.769043,4306.025879,4318.846191,4301.025879,4289.871582,4283.461426,4296.282227,4277.94873,4243.589844,4436.153809,4472.692383,4320.128418,4380.128418,,,,,,,,,,,,,,,,,,,,,,,,,,,,,,,,,,,,,,,,,,,,,,,,,,,,,,,,,,,,,,,,,,,,,,
1720159380,22,0,4273.717773,4302.820313,4296.666504,4305.128418,4301.666504,4292.436035,4280.384766,4290.384766,4277.692383,4236.025879,4423.333496,4461.410156,4314.102539,4376.025879,,,,,,,,,,,,,,,,,,,,,,,,,,,,,,,,,,,,,,,,,,,,,,,,,,,,,,,,,,,,,,,,,,,,,,
1720159380,23,0,4268.846191,4290.769043,4291.794922,4308.974121,4298.077148,4283.974121,4268.589844,4283.333496,4268.461426,4229.230957,4416.282227,4448.589844,4307.563965,4374.230957,,,,,,,,,,,,,,,,,,,,,,,,,,,,,,,,,,,,,,,,,,,,,,,,,,,,,,,,,,,,,,,,,,,,,,
1720159380,24,0,4267.179688,4292.820313,4292.692383,4310,4295.256348,4280.512695,4256.410156,4285.512695,4270.641113,4232.436035,4426.922852,4450.256348,4305.384766,4379.102539,,,,,,,,,,,,,,,,,,,,,,,,,,,,,,,,,,,,,,,,,,,,,,,,,,,,,,,,,,,,,,,,,,,,,,
1720159380,25,0,4272.820313,4298.589844,4297.94873,4307.05127,4298.333496,4290.512695,4265.128418,4292.820313,4285.384766,4242.692383,4436.025879,4462.820313,4312.94873,4383.846191,,,,,,,,,,,,,,,,,,,,,,,,,,,,,,,,,,,,,,,,,,,,,,,,,,,,,,,,,,,,,,,,,,,,,,
1720159380,26,0,4270.897461,4298.205078,4298.846191,4319.102539,4302.05127,4299.743652,4290.897461,4299.871582,4294.487305,4246.794922,4425.512695,4467.692383,4321.410156,4373.077148,,,,,,,,,,,,,,,,,,,,,,,,,,,,,,,,,,,,,,,,,,,,,,,,,,,,,,,,,,,,,,,,,,,,,,
1720159380,27,0,4272.05127,4294.871582,4300.256348,4326.282227,4302.179688,4299.230957,4311.410156,4312.563965,4292.563965,4244.743652,4425.128418,4472.179688,4316.666504,4389.615234,,,,,,,,,,,,,,,,,,,,,,,,,,,,,,,,,,,,,,,,,,,,,,,,,,,,,,,,,,,,,,,,,,,,,,
1720159380,28,0,4273.333496,4295.512695,4302.692383,4314.615234,4301.153809,4296.282227,4309.743652,4315,4282.820313,4240.512695,4440.128418,4478.205078,4305.641113,4397.820313,0.81031,8.7981,0.513741,0.201345,0.271416,1.095775,17.965546,1.391895,0.465891,0.11124,1.917417,25.708529,1.628475,0.797721,0.187899,0.888077,9.220359,0.913221,0.577395,0.351035,0.27479,0.532683,0.120638,0.05586,0.100826,0.170703,6.45838,0.496931,0.365676,0.099013,1.271647,32.504215,3.347706,1.506444,0.181976,0.530276,17.568851,2.587446,0.663752,0.157831,0.787434,20.925533,2.552266,1.272329,0.206736,0.838774,1.882404,0.543994,0.196779,0.154331,0.898106,7.650117,0.315808,0.738588,0.311102,2.073243,18.417215,1.063093,0.714007,0.352071,1.531944,14.845516,0.852794,0.59738,0.993533,0.329886,5.738446,0.233308,0.194549,1.361678
1720159380,29,0,4258.461426,4297.563965,4292.436035,4307.820313,4295.641113,4292.94873,4294.615234,4294.743652,4274.102539,4233.205078,4433.974121,4463.589844,4308.333496,4352.179688,,,,,,,,,,,,,,,,,,,,,,,,,,,,,,,,,,,,,,,,,,,,,,,,,,,,,,,,,,,,,,,,,,,,,,
1720159380,30,0,4270,4298.333496,4297.94873,4309.230957,4297.692383,4286.153809,4297.436035,4296.666504,4284.358887,4237.563965,4429.102539,4469.743652,4330.512695,4382.179688,,,,,,,,,,,,,,,,,,,,,,,,,,,,,,,,,,,,,,,,,,,,,,,,,,,,,,,,,,,,,,,,,,,,,,
1720159380,31,0,4283.589844,4306.410156,4311.794922,4308.846191,4305.128418,4280.256348,4297.436035,4307.820313,4293.589844,4244.871582,4433.974121,4488.333496,4346.025879,4413.717773,,,,,,,,,,,,,,,,,,,,,,,,,,,,,,,,,,,,,,,,,,,,,,,,,,,,,,,,,,,,,,,,,,,,,,
1720159380,32,0,4276.025879,4314.230957,4311.538574,4318.077148,4301.410156,4279.615234,4274.743652,4289.102539,4285.256348,4240.128418,4430.641113,4473.461426,4333.589844,4373.974121,,,,,,,,,,,,,,,,,,,,,,,,,,,,,,,,,,,,,,,,,,,,,,,,,,,,,,,,,,,,,,,,,,,,,,
1720159380,33,0,4283.717773,4306.666504,4316.410156,4331.922852,4301.794922,4283.205078,4258.717773,4280.897461,4288.077148,4239.743652,4436.922852,4468.205078,4321.410156,4385.641113,,,,,,,,,,,,,,,,,,,,,,,,,,,,,,,,,,,,,,,,,,,,,,,,,,,,,,,,,,,,,,,,,,,,,,
1720159380,34,0,4278.461426,4295.384766,4311.282227,4324.487305,4305.384766,4287.307617,4255.512695,4287.563965,4297.436035,4240.897461,4440.128418,4473.461426,4322.179688,4389.743652,,,,,,,,,,,,,,,,,,,,,,,,,,,,,,,,,,,,,,,,,,,,,,,,,,,,,,,,,,,,,,,,,,,,,,
1720159380,35,0,4267.179688,4292.179688,4299.230957,4310.641113,4300.512695,4290.384766,4264.871582,4295.256348,4297.820313,4238.333496,4430.512695,4472.307617,4327.05127,4378.077148,,,,,,,,,,,,,,,,,,,,,,,,,,,,,,,,,,,,,,,,,,,,,,,,,,,,,,,,,,,,,,,,,,,,,,
1720159380,36,0,4276.794922,4294.871582,4305.897461,4312.307617,4298.974121,4293.077148,4294.230957,4315,4298.333496,4239.230957,4428.461426,4481.666504,4329.358887,4396.666504,,,,,,,,,,,,,,,,,,,,,,,,,,,,,,,,,,,,,,,,,,,,,,,,,,,,,,,,,,,,,,,,,,,,,,
1720159380,37,0,4275,4295.256348,4310.512695,4312.692383,4300.897461,4301.794922,4323.077148,4325.769043,4302.05127,4237.436035,4433.717773,4486.794922,4324.871582,4388.205078,,,,,,,,,,,,,,,,,,,,,,,,,,,,,,,,,,,,,,,,,,,,,,,,,,,,,,,,,,,,,,,,,,,,,,
1720159380,38,0,4266.794922,4293.717773,4300.384766,4311.153809,4297.179688,4305.769043,4329.615234,4315.897461,4296.666504,4234.487305,4433.333496,4476.794922,4323.461426,4374.615234,,,,,,,,,,,,,,,,,,,,,,,,,,,,,,,,,,,,,,,,,,,,,,,,,,,,,,,,,,,,,,,,,,,,,,
1720159380,39,0,4278.205078,4295.384766,4296.666504,4312.179688,4299.871582,4298.333496,4319.358887,4312.820313,4282.179688,4234.102539,4429.487305,4471.282227,4321.282227,4394.358887,,,,,,,,,,,,,,,,,,,,,,,,,,,,,,,,,,,,,,,,,,,,,,,,,,,,,,,,,,,,,,,,,,,,,,
1720159380,40,0,4270.128418,4288.717773,4291.922852,4300.256348,4301.666504,4293.205078,4305.769043,4308.974121,4279.358887,4231.025879,4423.589844,4464.871582,4315.641113,4377.179688,,,,,,,,,,,,,,,,,,,,,,,,,,,,,,,,,,,,,,,,,,,,,,,,,,,,,,,,,,,,,,,,,,,,,,
1720159380,41,0,4255.641113,4277.307617,4282.820313,4293.461426,4295.512695,4291.922852,4295.256348,4294.230957,4287.179688,4229.487305,4421.410156,4454.871582,4314.230957,4357.94873,,,,,,,,,,,,,,,,,,,,,,,,,,,,,,,,,,,,,,,,,,,,,,,,,,,,,,,,,,,,,,,,,,,,,,
1720159380,42,0,4274.871582,4282.692383,4292.94873,4305.256348,4301.794922,4288.589844,4288.461426,4295.384766,4285.897461,4236.794922,4430.512695,4463.333496,4319.230957,4394.358887,,,,,,,,,,,,,,,,,,,,,,,,,,,,,,,,,,,,,,,,,,,,,,,,,,,,,,,,,,,,,,,,,,,,,,
1720159380,43,0,4281.538574,4297.05127,4306.025879,4313.077148,4305.897461,4285.769043,4281.153809,4296.794922,4277.820313,4239.871582,4434.230957,4467.820313,4324.487305,4389.743652,,,,,,,,,,,,,,,,,,,,,,,,,,,,,,,,,,,,,,,,,,,,,,,,,,,,,,,,,,,,,,,,,,,,,,
1720159380,44,0,4280.512695,4296.666504,4308.974121,4313.846191,4302.692383,4286.153809,4273.205078,4289.615234,4279.615234,4238.846191,4434.615234,4466.666504,4329.615234,4375.641113,0.767475,7.907329,0.437732,0.213503,0.258464,0.953566,15.324527,1.074977,0.515505,0.11328,1.981098,22.562372,1.651238,0.877581,0.186278,0.830678,7.867741,0.81331,0.595908,0.388571,0.254274,0.437934,0.112934,0.048373,0.092388,0.157761,6.28979,0.356448,0.347451,0.089445,1.235951,33.073036,3.129604,1.520486,0.178805,0.530086,15.559881,1.900025,0.733017,0.16236,0.824534,22.473879,2.316442,1.415501,0.204743,0.612296,2.541698,0.514146,0.237695,0.149524,0.896444,6.404464,0.258187,0.765539,0.301491,2.345224,15.810057,1.14459,0.900736,0.364958,1.430851,13.743989,0.748753,0.583083,0.950943,0.363172,5.132965,0.201819,0.204042,1.340814
1720159380,45,0,4286.282227,4295.256348,4303.333496,4318.461426,4304.102539,4287.179688,4265.641113,4290.384766,4282.820313,4237.94873,4441.153809,4469.615234,4335.897461,4392.563965,,,,,,,,,,,,,,,,,,,,,,,,,,,,,,,,,,,,,,,,,,,,,,,,,,,,,,,,,,,,,,,,,,,,,,
1720159380,46,0,4277.436035,4299.102539,4294.615234,4316.410156,4302.179688,4291.410156,4266.794922,4293.717773,4280,4233.461426,4437.692383,4459.615234,4325.512695,4381.794922,,,,,,,,,,,,,,,,,,,,,,,,,,,,,,,,,,,,,,,,,,,,,,,,,,,,,,,,,,,,,,,,,,,,,,
1720159380,47,0,4272.307617,4291.794922,4294.230957,4304.358887,4302.563965,4300.512695,4283.077148,4294.743652,4280.512695,4233.461426,4423.333496,4450.512695,4304.743652,4369.743652,,,,,,,,,,,,,,,,,,,,,,,,,,,,,,,,,,,,,,,,,,,,,,,,,,,,,,,,,,,,,,,,,,,,,,
1720159380,48,0,4274.230957,4279.743652,4291.153809,4295.769043,4303.461426,4305.128418,4295.897461,4294.487305,4279.743652,4232.563965,4418.589844,4452.179688,4301.538574,4373.461426,,,,,,,,,,,,,,,,,,,,,,,,,,,,,,,,,,,,,,,,,,,,,,,,,,,,,,,,,,,,,,,,,,,,,,
1720159380,49,0,4271.794922,4277.179688,4287.179688,4297.94873,4297.94873,4300.512695,4300.769043,4301.153809,4280.641113,4227.692383,4422.307617,4457.820313,4313.974121,4379.615234,,,,,,,,,,,,,,,,,,,,,,,,,,,,,,,,,,,,,,,,,,,,,,,,,,,,,,,,,,,,,,,,,,,,,,
1720159380,50,0,4273.461426,4288.461426,4293.205078,4308.461426,4295.384766,4288.974121,4301.410156,4306.538574,4284.615234,4229.487305,4422.820313,4460,4315.512695,4380.897461,,,,,,,,,,,,,,,,,,,,,,,,,,,,,,,,,,,,,,,,,,,,,,,,,,,,,,,,,,,,,,,,,,,,,,
1720159380,51,0,4281.794922,4295,4299.487305,4313.717773,4298.589844,4277.05127,4287.179688,4293.077148,4278.077148,4230,4429.230957,4455.769043,4308.974121,4379.871582,,,,,,,,,,,,,,,,,,,,,,,,,,,,,,,,,,,,,,,,,,,,,,,,,,,,,,,,,,,,,,,,,,,,,,
1720159380,52,0,4282.563965,4284.487305,4298.589844,4308.846191,4298.333496,4271.025879,4271.666504,4278.461426,4267.563965,4223.333496,4438.077148,4453.589844,4313.974121,4382.692383,,,,,,,,,,,,,,,,,,,,,,,,,,,,,,,,,,,,,,,,,,,,,,,,,,,,,,,,,,,,,,,,,,,,,,
1720159380,53,0,4278.589844,4280.769043,4294.358887,4300.769043,4298.717773,4274.487305,4261.538574,4276.538574,4263.205078,4222.94873,4434.358887,4456.666504,4323.974121,4391.794922,,,,,,,,,,,,,,,,,,,,,,,,,,,,,,,,,,,,,,,,,,,,,,,,,,,,,,,,,,,,,,,,,,,,,,
1720159380,54,0,4274.358887,4285.897461,4283.333496,4290.769043,4300.256348,4279.871582,4252.05127,4270.769043,4260.641113,4227.563965,4417.563965,4446.666504,4316.538574,4375.641113,,,,,,,,,,,,,,,,,,,,,,,,,,,,,,,,,,,,,,,,,,,,,,,,,,,,,,,,,,,,,,,,,,,,,,
1720159380,55,0,4275.769043,4282.692383,4278.077148,4292.692383,4299.487305,4278.974121,4248.974121,4267.94873,4268.205078,4227.94873,4410.512695,4437.179688,4302.307617,4370.897461,,,,,,,,,,,,,,,,,,,,,,,,,,,,,,,,,,,,,,,,,,,,,,,,,,,,,,,,,,,,,,,,,,,,,,
1720159380,56,0,4283.589844,4285.641113,4296.410156,4308.589844,4301.282227,4279.102539,4252.179688,4282.563965,4286.153809,4234.615234,4425.769043,4453.974121,4312.563965,4396.666504,,,,,,,,,,,,,,,,,,,,,,,,,,,,,,,,,,,,,,,,,,,,,,,,,,,,,,,,,,,,,,,,,,,,,,
1720159380,57,0,4276.025879,4300.641113,4308.717773,4315.128418,4296.282227,4280.384766,4254.615234,4287.179688,4291.666504,4239.358887,4438.333496,4461.666504,4329.102539,4363.974121,,,,,,,,,,,,,,,,,,,,,,,,,,,,,,,,,,,,,,,,,,,,,,,,,,,,,,,,,,,,,,,,,,,,,,
1720159380,58,0,4283.717773,4301.025879,4311.025879,4309.358887,4294.102539,4280.128418,4265.512695,4288.717773,4288.717773,4232.563965,4446.153809,4466.410156,4325.256348,4366.282227,,,,,,,,,,,,,,,,,,,,,,,,,,,,,,,,,,,,,,,,,,,,,,,,,,,,,,,,,,,,,,,,,,,,,,
1720159380,59,0,4297.179688,4294.615234,4312.94873,4307.820313,4301.794922,4286.025879,4285,4301.153809,4286.153809,4227.05127,4450.897461,4482.05127,4318.205078,4406.282227,,,,,,,,,,,,,,,,,,,,,,,,,,,,,,,,,,,,,,,,,,,,,,,,,,,,,,,,,,,,,,,,,,,,,,
1720159380,60,0,4280,4297.692383,4305.641113,4311.666504,4299.871582,4293.077148,4295.256348,4299.871582,4271.025879,4222.563965,4438.846191,4476.025879,4325.897461,4375.641113,0.717193,6.266652,0.376939,0.250599,0.249545,0.926014,11.533718,0.854778,0.559288,0.125791,2.059548,17.396297,1.670116,1.001873,0.193268,0.808813,5.934366,0.773606,0.628165,0.43344,0.210645,0.328818,0.103994,0.044674,0.084925,0.156779,5.669616,0.346819,0.339342,0.079139,1.206222,32.275005,3.565656,1.496618,0.179861,0.52494,12.684184,1.59373,0.777043,0.175212,0.845545,21.85475,2.102638,1.450381,0.20547,0.429414,3.051944,0.50767,0.288216,0.140958,0.89147,4.799396,0.216223,0.81728,0.295538,2.578892,12.139552,1.271658,1.183587,0.382189,1.292875,11.375323,0.623618,0.618248,0.84236,0.399316,4.083941,0.180692,0.243961,1.319921
1720159380,61,0,4278.974121,4298.846191,4305.641113,4312.436035,4295.512695,4291.922852,4300.384766,4297.692383,4255.897461,4218.846191,4433.205078,4469.615234,4335.512695,4376.666504,,,,,,,,,,,,,,,,,,,,,,,,,,,,,,,,,,,,,,,,,,,,,,,,,,,,,,,,,,,,,,,,,,,,,,
1720159380,62,0,4288.717773,4297.692383,4308.717773,4308.077148,4297.436035,4290.769043,4297.05127,4298.333496,4260.256348,4219.487305,4440,4469.871582,4326.410156,4386.666504,,,,,,,,,,,,,,,,,,,,,,,,,,,,,,,,,,,,,,,,,,,,,,,,,,,,,,,,,,,,,,,,,,,,,,
1720159380,63,0,4279.230957,4295.512695,4303.205078,4308.846191,4297.94873,4290.769043,4285.641113,4288.333496,4273.333496,4224.230957,4429.743652,4461.282227,4315.512695,4368.077148,,,,,,,,,,,,,,,,,,,,,,,,,,,,,,,,,,,,,,,,,,,,,,,,,,,,,,,,,,,,,,,,,,,,,,
1720159380,64,0,4279.230957,4293.846191,4302.563965,4311.922852,4296.922852,4284.102539,4277.436035,4288.077148,4281.794922,4232.820313,4427.820313,4466.153809,4326.666504,4391.410156,,,,,,,,,,,,,,,,,,,,,,,,,,,,,,,,,,,,,,,,,,,,,,,,,,,,,,,,,,,,,,,,,,,,,,
1720159380,65,0,4281.922852,4297.563965,4302.307617,4301.282227,4295.128418,4278.717773,4267.179688,4289.871582,4289.230957,4237.436035,4449.358887,4472.436035,4337.179688,4387.563965,,,,,,,,,,,,,,,,,,,,,,,,,,,,,,,,,,,,,,,,,,,,,,,,,,,,,,,,,,,,,,,,,,,,,,
1720159380,66,0,4278.333496,4300,4298.461426,4292.692383,4296.922852,4278.333496,4259.102539,4280.641113,4293.589844,4237.307617,4449.230957,4463.077148,4330.897461,4361.794922,,,,,,,,,,,,,,,,,,,,,,,,,,,,,,,,,,,,,,,,,,,,,,,,,,,,,,,,,,,,,,,,,,,,,,
1720159380,67,0,4290,4299.871582,4304.743652,4304.230957,4306.410156,4280.512695,4267.179688,4289.358887,4290.769043,4237.94873,4438.846191,4472.692383,4333.589844,4403.846191,,,,,,,,,,,,,,,,,,,,,,,,,,,,,,,,,,,,,,,,,,,,,,,,,,,,,,,,,,,,,,,,,,,,,,
1720159380,68,0,4285.256348,4299.743652,4302.563965,4313.589844,4303.974121,4286.922852,4278.077148,4299.102539,4282.692383,4232.179688,4442.436035,4474.358887,4334.743652,4383.333496,,,,,,,,,,,,,,,,,,,,,,,,,,,,,,,,,,,,,,,,,,,,,,,,,,,,,,,,,,,,,,,,,,,,,,
1720159380,69,0,4269.230957,4295.769043,4291.282227,4310,4292.563965,4291.025879,4279.230957,4289.230957,4273.333496,4220.256348,4440,4457.692383,4321.025879,4342.436035,,,,,,,,,,,,,,,,,,,,,,,,,,,,,,,,,,,,,,,,,,,,,,,,,,,,,,,,,,,,,,,,,,,,,,
1720159380,70,0,4288.205078,4296.922852,4305.641113,4310.641113,4302.436035,4288.205078,4285.769043,4297.820313,4265.641113,4220.512695,4437.692383,4475.769043,4326.025879,4405.897461,,,,,,,,,,,,,,,,,,,,,,,,,,,,,,,,,,,,,,,,,,,,,,,,,,,,,,,,,,,,,,,,,,,,,,
1720159380,71,0,4293.333496,4309.871582,4313.461426,4312.436035,4304.487305,4287.692383,4296.410156,4304.230957,4262.307617,4225.384766,4436.794922,4483.974121,4334.102539,4401.666504,,,,,,,,,,,,,,,,,,,,,,,,,,,,,,,,,,,,,,,,,,,,,,,,,,,,,,,,,,,,,,,,,,,,,,
1720159380,72,0,4283.461426,4309.230957,4310,4310.128418,4293.205078,4291.922852,4307.307617,4299.615234,4271.538574,4227.436035,4438.974121,4474.358887,4326.282227,4372.307617,,,,,,,,,,,,,,,,,,,,,,,,,,,,,,,,,,,,,,,,,,,,,,,,,,,,,,,,,,,,,,,,,,,,,,
1720159380,73,0,4287.05127,4299.358887,4311.794922,4312.563965,4298.205078,4289.102539,4304.487305,4301.922852,4280.384766,4228.077148,4448.589844,4480.384766,4325.641113,4396.794922,,,,,,,,,,,,,,,,,,,,,,,,,,,,,,,,,,,,,,,,,,,,,,,,,,,,,,,,,,,,,,,,,,,,,,
1720159380,74,0,4284.102539,4304.487305,4301.025879,4312.692383,4305.512695,4280.256348,4284.743652,4292.820313,4276.282227,4227.563965,4452.179688,4475.769043,4333.333496,4389.487305,,,,,,,,,,,,,,,,,,,,,,,,,,,,,,,,,,,,,,,,,,,,,,,,,,,,,,,,,,,,,,,,,,,,,,
1720159380,75,0,4284.230957,4312.307617,4290.897461,4309.615234,4304.487305,4279.358887,4274.102539,4283.077148,4270.769043,4232.179688,4440.512695,4466.410156,4338.589844,4387.05127,,,,,,,,,,,,,,,,,,,,,,,,,,,,,,,,,,,,,,,,,,,,,,,,,,,,,,,,,,,,,,,,,,,,,,
1720159380,76,0,4283.589844,4311.794922,4294.487305,4311.153809,4301.410156,4288.846191,4269.743652,4275.256348,4265.128418,4227.05127,4421.794922,4457.820313,4332.179688,4384.487305,0.642189,4.349355,0.318927,0.29919,0.243574,0.96004,7.624344,0.732726,0.584304,0.142044,2.099035,11.676363,1.612895,1.144811,0.202287,0.793697,3.933602,0.752793,0.67124,0.474646,0.156663,0.230893,0.09257,0.043969,0.079736,0.161512,4.858544,0.44498,0.332908,0.069474,1.180673,30.576035,4.183341,1.438937,0.18534,0.513569,9.745468,1.553817,0.770095,0.193579,0.81056,19.223553,1.879583,1.369182,0.208029,0.315886,3.248547,0.519811,0.347292,0.128667,0.870791,3.203516,0.182317,0.864417,0.290076,2.656447,8.327473,1.345933,1.506735,0.391747,1.115503,8.375132,0.507688,0.701183,0.692247,0.425957,2.872201,0.168161,0.30657,1.304771
1720159380,77,0,4279.743652,4305.769043,4302.05127,4312.563965,4298.589844,4295.384766,4268.974121,4275.256348,4263.846191,4222.563965,4422.436035,4457.94873,4321.922852,4381.025879,,,,,,,,,,,,,,,,,,,,,,,,,,,,,,,,,,,,,,,,,,,,,,,,,,,,,,,,,,,,,,,,,,,,,,
1720159380,78,0,4281.922852,4303.974121,4300.641113,4310.512695,4295.641113,4296.410156,4274.102539,4286.153809,4267.563965,4229.102539,4438.717773,4466.025879,4323.461426,4386.025879,,,,,,,,,,,,,,,,,,,,,,,,,,,,,,,,,,,,,,,,,,,,,,,,,,,,,,,,,,,,,,,,,,,,,,
1720159380,79,0,4283.846191,4309.871582,4292.563965,4310.256348,4291.282227,4294.615234,4273.205078,4288.205078,4266.538574,4227.94873,4441.282227,4462.179688,4326.282227,4384.615234,,,,,,,,,,,,,,,,,,,,,,,,,,,,,,,,,,,,,,,,,,,,,,,,,,,,,,,,,,,,,,,,,,,,,,
1720159380,80,0,4283.846191,4311.153809,4291.153809,4312.94873,4289.358887,4284.615234,4272.820313,4288.974121,4261.922852,4227.820313,4436.025879,4457.179688,4324.102539,4382.436035,,,,,,,,,,,,,,,,,,,,,,,,,,,,,,,,,,,,,,,,,,,,,,,,,,,,,,,,,,,,,,,,,,,,,,
1720159380,81,0,4288.205078,4307.94873,4302.94873,4310,4288.205078,4279.615234,4286.282227,4299.358887,4266.794922,4233.589844,4438.077148,4473.589844,4329.358887,4387.307617,,,,,,,,,,,,,,,,,,,,,,,,,,,,,,,,,,,,,,,,,,,,,,,,,,,,,,,,,,,,,,,,,,,,,,
1720159380,82,0,4290.128418,4311.666504,4317.436035,4305.256348,4286.282227,4289.230957,4301.666504,4305.512695,4273.589844,4232.563965,4440.384766,4488.205078,4333.077148,4385.128418,,,,,,,,,,,,,,,,,,,,,,,,,,,,,,,,,,,,,,,,,,,,,,,,,,,,,,,,,,,,,,,,,,,,,,
1720159380,83,0,4287.436035,4312.307617,4312.94873,4310.384766,4285.897461,4296.410156,4308.717773,4302.692383,4270.769043,4229.487305,4435.641113,4478.589844,4326.922852,4382.307617,,,,,,,,,,,,,,,,,,,,,,,,,,,,,,,,,,,,,,,,,,,,,,,,,,,,,,,,,,,,,,,,,,,,,,
1720159380,84,0,4292.563965,4306.538574,4302.307617,4317.179688,4290.897461,4297.563965,4302.94873,4300.641113,4265.897461,4234.230957,4436.025879,4475.256348,4332.05127,4401.538574,,,,,,,,,,,,,,,,,,,,,,,,,,,,,,,,,,,,,,,,,,,,,,,,,,,,,,,,,,,,,,,,,,,,,,
1720159380,85,0,4279.615234,4309.487305,4294.487305,4305.769043,4285.769043,4295.769043,4283.077148,4283.974121,4265.128418,4231.282227,4438.846191,4466.666504,4337.563965,4367.179688,,,,,,,,,,,,,,,,,,,,,,,,,,,,,,,,,,,,,,,,,,,,,,,,,,,,,,,,,,,,,,,,,,,,,,
1720159380,86,0,4274.230957,4309.230957,4299.230957,4295.897461,4278.974121,4287.692383,4272.05127,4274.230957,4266.025879,4225.897461,4436.410156,4459.743652,4326.282227,4355,,,,,,,,,,,,,,,,,,,,,,,,,,,,,,,,,,,,,,,,,,,,,,,,,,,,,,,,,,,,,,,,,,,,,,
1720159380,87,0,4295.256348,4302.179688,4312.307617,4304.871582,4290,4277.692383,4271.666504,4284.487305,4266.794922,4234.871582,4439.358887,4478.333496,4328.589844,4411.794922,,,,,,,,,,,,,,,,,,,,,,,,,,,,,,,,,,,,,,,,,,,,,,,,,,,,,,,,,,,,,,,,,,,,,,
1720159380,88,0,4289.871582,4307.307617,4307.563965,4313.717773,4293.589844,4277.94873,4260.128418,4275.384766,4263.461426,4238.205078,4436.410156,4471.025879,4333.333496,4387.692383,,,,,,,,,,,,,,,,,,,,,,,,,,,,,,,,,,,,,,,,,,,,,,,,,,,,,,,,,,,,,,,,,,,,,,
1720159380,89,0,4280.769043,4311.538574,4297.94873,4314.102539,4288.589844,4288.205078,4258.717773,4271.922852,4261.282227,4228.717773,4424.102539,4450.256348,4318.461426,4365.769043,,,,,,,,,,,,,,,,,,,,,,,,,,,,,,,,,,,,,,,,,,,,,,,,,,,,,,,,,,,,,,,,,,,,,,
1720159380,90,0,4281.666504,4298.846191,4293.974121,4305.256348,4289.102539,4295,4281.538574,4293.461426,4262.692383,4227.179688,4423.589844,4454.615234,4314.487305,4389.615234,,,,,,,,,,,,,,,,,,,,,,,,,,,,,,,,,,,,,,,,,,,,,,,,,,,,,,,,,,,,,,,,,,,,,,
1720159380,91,0,4273.205078,4294.358887,4293.077148,4295.128418,4286.922852,4295.897461,4298.846191,4304.230957,4266.666504,4232.94873,4433.846191,4462.820313,4328.333496,4376.922852,,,,,,,,,,,,,,,,,,,,,,,,,,,,,,,,,,,,,,,,,,,,,,,,,,,,,,,,,,,,,,,,,,,,,,
1720159380,92,0,4279.743652,4308.077148,4304.871582,4302.94873,4287.307617,4295.897461,4305.128418,4308.077148,4271.922852,4235,4442.179688,4473.974121,4330.897461,4383.077148,0.573088,2.62678,0.254482,0.345078,0.239082,0.995236,4.444056,0.664119,0.588655,0.156895,2.073008,6.753257,1.429953,1.267621,0.206657,0.758225,2.296413,0.721206,0.722501,0.501189,0.103881,0.159326,0.077437,0.044774,0.076644,0.171417,4.114554,0.585098,0.330067,0.06174,1.170851,28.35498,4.501745,1.376823,0.192975,0.500153,7.331592,1.571887,0.712509,0.213088,0.723759,15.260973,1.622996,1.207885,0.210154,0.266459,3.065308,0.529506,0.409618,0.113735,0.831093,1.899729,0.152715,0.887352,0.284056,2.560531,5.111178,1.302586,1.7913,0.385148,0.961365,5.476648,0.430879,0.814838,0.537768,0.443834,1.769093,0.163877,0.378411,1.302622
1720159380,93,0,4291.794922,4319.358887,4317.05127,4322.94873,4290.897461,4291.794922,4303.205078,4311.410156,4268.974121,4231.666504,4439.487305,4486.922852,4326.153809,4395.384766,,,,,,,,,,,,,,,,,,,,,,,,,,,,,,,,,,,,,,,,,,,,,,,,,,,,,,,,,,,,,,,,,,,,,,
1720159380,94,0,4294.358887,4328.974121,4322.820313,4330.128418,4288.717773,4283.846191,4291.153809,4300.512695,4261.153809,4229.230957,4435.512695,4487.692383,4333.717773,4384.615234,,,,,,,,,,,,,,,,,,,,,,,,,,,,,,,,,,,,,,,,,,,,,,,,,,,,,,,,,,,,,,,,,,,,,,
1720159380,95,0,4299.615234,4330.769043,4329.743652,4324.358887,4289.487305,4284.102539,4290.384766,4291.410156,4260.256348,4231.666504,4438.333496,4487.692383,4339.743652,4398.333496,,,,,,,,,,,,,,,,,,,,,,,,,,,,,,,,,,,,,,,,,,,,,,,,,,,,,,,,,,,,,,,,,,,,,,
1720159380,96,0,4294.743652,4319.230957,4322.05127,4322.820313,4294.871582,4292.563965,4290.897461,4286.025879,4256.282227,4234.743652,4434.102539,4485.384766,4334.871582,4401.153809,,,,,,,,,,,,,,,,,,,,,,,,,,,,,,,,,,,,,,,,,,,,,,,,,,,,,,,,,,,,,,,,,,,,,,
1720159380,97,0,4274.102539,4308.974121,4293.846191,4315.897461,4292.563965,4295.128418,4271.666504,4265.384766,4248.333496,4231.922852,4418.077148,4457.692383,4320,4365.256348,,,,,,,,,,,,,,,,,,,,,,,,,,,,,,,,,,,,,,,,,,,,,,,,,,,,,,,,,,,,,,,,,,,,,,
1720159380,98,0,4276.538574,4303.846191,4292.05127,4302.820313,4296.666504,4294.230957,4267.307617,4265.641113,4253.974121,4228.717773,4419.743652,4447.179688,4300.512695,4381.410156,,,,,,,,,,,,,,,,,,,,,,,,,,,,,,,,,,,,,,,,,,,,,,,,,,,,,,,,,,,,,,,,,,,,,,
1720159380,99,0,4278.974121,4302.692383,4302.94873,4303.461426,4300.769043,4297.94873,4284.743652,4284.615234,4264.102539,4227.94873,4429.487305,4459.487305,4299.230957,4390,,,,,,,,,,,,,,,,,,,,,,,,,,,,,,,,,,,,,,,,,,,,,,,,,,,,,,,,,,,,,,,,,,,,,,
1720159380,100,0,4266.794922,4301.025879,4291.153809,4315.256348,4291.666504,4302.692383,4290.641113,4287.94873,4263.205078,4228.077148,4413.717773,4448.974121,4309.487305,4358.461426,,,,,,,,,,,,,,,,,,,,,,,,,,,,,,,,,,,,,,,,,,,,,,,,,,,,,,,,,,,,,,,,,,,,,,
1720159380,101,0,4271.282227,4298.333496,4286.538574,4313.846191,4292.05127,4304.230957,4292.436035,4293.461426,4265.897461,4230.512695,4400.256348,4442.94873,4312.307617,4372.05127,,,,,,,,,,,,,,,,,,,,,,,,,,,,,,,,,,,,,,,,,,,,,,,,,,,,,,,,,,,,,,,,,,,,,,
1720159380,102,0,4277.05127,4304.358887,4296.794922,4305,4294.487305,4305.128418,4298.589844,4301.922852,4276.153809,4233.205078,4415.128418,4456.922852,4314.102539,4381.794922,,,,,,,,,,,,,,,,,,,,,,,,,,,,,,,,,,,,,,,,,,,,,,,,,,,,,,,,,,,,,,,,,,,,,,
1720159380,103,0,4281.922852,4312.563965,4308.205078,4313.461426,4289.102539,4302.94873,4307.05127,4311.025879,4278.461426,4234.230957,4430.769043,4474.230957,4322.436035,4380.384766,,,,,,,,,,,,,,,,,,,,,,,,,,,,,,,,,,,,,,,,,,,,,,,,,,,,,,,,,,,,,,,,,,,,,,
1720159380,104,0,4284.358887,4313.846191,4315.384766,4324.230957,4287.436035,4296.666504,4313.717773,4317.692383,4267.436035,4234.358887,4431.282227,4485.128418,4329.743652,4387.436035,,,,,,,,,,,,,,,,,,,,,,,,,,,,,,,,,,,,,,,,,,,,,,,,,,,,,,,,,,,,,,,,,,,,,,
1720159380,105,0,4283.333496,4316.410156,4323.717773,4318.846191,4288.205078,4292.94873,4309.487305,4313.205078,4258.717773,4236.538574,4435,4498.077148,4333.974121,4392.307617,,,,,,,,,,,,,,,,,,,,,,,,,,,,,,,,,,,,,,,,,,,,,,,,,,,,,,,,,,,,,,,,,,,,,,
1720159380,106,0,4290.641113,4321.282227,4335.128418,4318.589844,4291.538574,4293.333496,4303.846191,4306.794922,4262.179688,4244.487305,4445.769043,4513.333496,4340.384766,4399.102539,,,,,,,,,,,,,,,,,,,,,,,,,,,,,,,,,,,,,,,,,,,,,,,,,,,,,,,,,,,,,,,,,,,,,,
1720159380,107,0,4292.692383,4320.512695,4334.487305,4329.102539,4297.05127,4295.641113,4298.846191,4296.538574,4262.820313,4248.589844,4444.358887,4506.153809,4340,4393.846191,,,,,,,,,,,,,,,,,,,,,,,,,,,,,,,,,,,,,,,,,,,,,,,,,,,,,,,,,,,,,,,,,,,,,,
1720159380,108,0,4286.538574,4317.05127,4326.666504,4323.205078,4297.05127,4304.230957,4292.179688,4284.615234,4263.333496,4249.230957,4431.410156,4490.512695,4330.256348,4386.922852,0.489231,1.392174,0.188871,0.378269,0.23534,0.978602,2.374502,0.604772,0.579328,0.168029,1.966833,3.384327,1.14529,1.338966,0.204436,0.681786,1.233235,0.674428,0.779051,0.504034,0.065801,0.116654,0.061048,0.04589,0.075119,0.194555,3.585409,0.698109,0.338095,0.056586,1.18697,25.908213,4.406351,1.327563,0.199167,0.501119,5.6923,1.513682,0.624556,0.228273,0.639692,10.912528,1.371892,1.031345,0.209231,0.246325,2.567518,0.523468,0.464767,0.098232,0.772035,1.021077,0.13012,0.889036,0.277795,2.33391,2.866004,1.148255,1.96256,0.362268,0.84949,3.234458,0.415637,0.929192,0.415119,0.445272,0.946429,0.172752,0.44467,1.322272
1720159380,109,0,4279.230957,4309.743652,4319.487305,4310.512695,4296.025879,4312.179688,4298.077148,4286.922852,4273.846191,4251.666504,4424.358887,4485,4325.769043,4389.743652,,,,,,,,,,,,,,,,,,,,,,,,,,,,,,,,,,,,,,,,,,,,,,,,,,,,,,,,,,,,,,,,,,,,,,
1720159380,110,0,4269.358887,4301.410156,4303.974121,4311.025879,4297.692383,4313.205078,4312.820313,4296.794922,4279.358887,4247.05127,4421.025879,4473.333496,4323.974121,4381.410156,,,,,,,,,,,,,,,,,,,,,,,,,,,,,,,,,,,,,,,,,,,,,,,,,,,,,,,,,,,,,,,,,,,,,,
1720159380,111,0,4263.974121,4296.025879,4285.384766,4305.128418,4292.820313,4312.563965,4316.025879,4301.153809,4280.256348,4241.794922,4413.846191,4457.94873,4316.666504,4363.461426,,,,,,,,,,,,,,,,,,,,,,,,,,,,,,,,,,,,,,,,,,,,,,,,,,,,,,,,,,,,,,,,,,,,,,
1720159380,112,0,4277.94873,4289.743652,4291.666504,4297.692383,4290,4307.692383,4311.153809,4314.615234,4292.436035,4253.717773,4418.461426,4468.333496,4314.487305,4395.641113,,,,,,,,,,,,,,,,,,,,,,,,,,,,,,,,,,,,,,,,,,,,,,,,,,,,,,,,,,,,,,,,,,,,,,
1720159380,113,0,4273.205078,4292.05127,4301.025879,4303.974121,4292.307617,4300.512695,4304.871582,4319.102539,4298.205078,4260.769043,4429.230957,4476.922852,4322.563965,4392.563965,,,,,,,,,,,,,,,,,,,,,,,,,,,,,,,,,,,,,,,,,,,,,,,,,,,,,,,,,,,,,,,,,,,,,,
1720159380,114,0,4258.589844,4303.333496,4293.717773,4309.487305,4292.692383,4298.333496,4296.410156,4304.743652,4286.025879,4254.230957,4428.205078,4464.102539,4328.974121,4356.282227,,,,,,,,,,,,,,,,,,,,,,,,,,,,,,,,,,,,,,,,,,,,,,,,,,,,,,,,,,,,,,,,,,,,,,
1720159380,115,0,4285.769043,4311.282227,4306.922852,4316.025879,4295.128418,4296.410156,4297.307617,4309.230957,4281.153809,4262.179688,4441.282227,4481.922852,4345.897461,4399.871582,,,,,,,,,,,,,,,,,,,,,,,,,,,,,,,,,,,,,,,,,,,,,,,,,,,,,,,,,,,,,,,,,,,,,,
1720159380,116,0,4303.205078,4325.384766,4332.307617,4329.487305,4293.205078,4292.05127,4301.666504,4317.692383,4280.769043,4274.358887,4461.538574,4507.436035,4372.436035,4408.589844,,,,,,,,,,,,,,,,,,,,,,,,,,,,,,,,,,,,,,,,,,,,,,,,,,,,,,,,,,,,,,,,,,,,,,
1720159380,117,0,4295.384766,4334.487305,4338.461426,4328.589844,4290.384766,4295.897461,4301.153809,4310.128418,4270.769043,4265.512695,4460.384766,4508.461426,4374.743652,4387.05127,,,,,,,,,,,,,,,,,,,,,,,,,,,,,,,,,,,,,,,,,,,,,,,,,,,,,,,,,,,,,,,,,,,,,,
1720159380,118,0,4288.077148,4314.230957,4318.846191,4312.563965,4294.487305,4296.794922,4291.538574,4301.153809,4259.615234,4246.922852,4451.282227,4497.05127,4349.615234,4400,,,,,,,,,,,,,,,,,,,,,,,,,,,,,,,,,,,,,,,,,,,,,,,,,,,,,,,,,,,,,,,,,,,,,,
1720159380,119,0,4271.794922,4289.871582,4288.589844,4297.05127,4292.94873,4283.846191,4268.974121,4283.205078,4246.538574,4234.743652,4431.538574,4466.153809,4329.487305,4380.641113,,,,,,,,,,,,,,,,,,,,,,,,,,,,,,,,,,,,,,,,,,,,,,,,,,,,,,,,,,,,,,,,,,,,,,
1720159380,120,0,4270.897461,4292.94873,4279.871582,4292.820313,4289.743652,4281.153809,4263.589844,4265.384766,4234.743652,4231.025879,4404.615234,4444.487305,4321.153809,4369.871582,,,,,,,,,,,,,,,,,,,,,,,,,,,,,,,,,,,,,,,,,,,,,,,,,,,,,,,,,,,,,,,,,,,,,,
1720159380,121,0,4284.358887,4303.333496,4290.384766,4311.025879,4294.871582,4296.410156,4288.333496,4272.05127,4238.589844,4231.153809,4402.05127,4455.641113,4315.897461,4387.436035,,,,,,,,,,,,,,,,,,,,,,,,,,,,,,,,,,,,,,,,,,,,,,,,,,,,,,,,,,,,,,,,,,,,,,
1720159380,122,0,4282.692383,4306.922852,4299.487305,4322.820313,4295,4307.179688,4310.256348,4291.410156,4254.615234,4237.692383,4423.589844,4467.94873,4326.025879,4379.102539,,,,,,,,,,,,,,,,,,,,,,,,,,,,,,,,,,,,,,,,,,,,,,,,,,,,,,,,,,,,,,,,,,,,,,
1720159380,123,0,4282.179688,4310.512695,4308.461426,4314.230957,4291.666504,4309.487305,4313.974121,4308.846191,4271.410156,4249.615234,4435.641113,4473.717773,4342.820313,4379.871582,,,,,,,,,,,,,,,,,,,,,,,,,,,,,,,,,,,,,,,,,,,,,,,,,,,,,,,,,,,,,,,,,,,,,,
1720159380,124,0,4291.153809,4306.410156,4312.05127,4310.512695,4294.230957,4311.282227,4315,4322.179688,4288.333496,4256.666504,4433.077148,4485.641113,4339.487305,4400.384766,0.400597,0.704447,0.144964,0.395933,0.232572,0.894208,1.334637,0.558228,0.564941,0.175526,1.79496,1.630176,0.855488,1.350277,0.19891,0.574,0.725195,0.638682,0.835693,0.479419,0.057995,0.099315,0.050177,0.047229,0.075097,0.237126,3.266067,0.770666,0.366136,0.053948,1.230887,23.468969,4.258024,1.286571,0.201901,0.526368,4.809615,1.449745,0.531504,0.235673,0.601378,7.03109,1.206423,0.896339,0.203716,0.229326,1.914302,0.50244,0.499862,0.084815,0.700486,0.56047,0.122955,0.889244,0.27304,2.055128,1.639257,0.949246,1.977547,0.331388,0.789537,1.869748,0.474841,1.008379,0.344929,0.42999,0.450636,0.19807,0.492802,1.370868
1720159380,125,0,4280.384766,4297.94873,4294.743652,4306.282227,4288.717773,4303.717773,4304.871582,4313.333496,4294.743652,4257.05127,4434.615234,4476.794922,4330.769043,4375,,,,,,,,,,,,,,,,,,,,,,,,,,,,,,,,,,,,,,,,,,,,,,,,,,,,,,,,,,,,,,,,,,,,,,
1720159380,126,0,4277.820313,4299.102539,4285.384766,4300.897461,4289.102539,4293.846191,4283.589844,4299.871582,4288.205078,4262.94873,4439.230957,4461.922852,4339.102539,4374.358887,,,,,,,,,,,,,,,,,,,,,,,,,,,,,,,,,,,,,,,,,,,,,,,,,,,,,,,,,,,,,,,,,,,,,,
1720159380,127,0,4286.025879,4304.358887,4296.025879,4304.358887,4297.307617,4292.307617,4272.563965,4297.820313,4283.589844,4268.461426,4436.025879,4465.256348,4343.333496,4394.487305,,,,,,,,,,,,,,,,,,,,,,,,,,,,,,,,,,,,,,,,,,,,,,,,,,,,,,,,,,,,,,,,,,,,,,
1720159380,0,0,4279.615234,4305.512695,4297.05127,4306.538574,4289.743652,4290.641113,4266.922852,4291.666504,4279.871582,4262.436035,4425.128418,4466.025879,4340.512695,4375.641113,,,,,,,,,,,,,,,,,,,,,,,,,,,,,,,,,,,,,,,,,,,,,,,,,,,,,,,,,,,,,,,,,,,,,,
1720159380,1,0,4285,4308.333496,4293.589844,4307.820313,4287.94873,4289.871582,4266.410156,4294.102539,4271.666504,4253.974121,4427.94873,4471.794922,4347.307617,4383.333496,,,,,,,,,,,,,,,,,,,,,,,,,,,,,,,,,,,,,,,,,,,,,,,,,,,,,,,,,,,,,,,,,,,,,,
1720159380,2,0,4289.230957,4317.94873,4298.333496,4320.769043,4299.102539,4293.717773,4275.641113,4299.615234,4260.384766,4250.256348,4438.589844,4481.538574,4352.436035,4390,,,,,,,,,,,,,,,,,,,,,,,,,,,,,,,,,,,,,,,,,,,,,,,,,,,,,,,,,,,,,,,,,,,,,,
1720159380,3,0,4289.358887,4326.538574,4312.692383,4329.743652,4298.333496,4299.358887,4291.666504,4295,4250.897461,4249.743652,4437.563965,4486.922852,4351.538574,4384.615234,,,,,,,,,,,,,,,,,,,,,,,,,,,,,,,,,,,,,,,,,,,,,,,,,,,,,,,,,,,,,,,,,,,,,,
1720159380,4,0,4301.282227,4331.153809,4330.641113,4328.846191,4292.94873,4302.307617,4309.615234,4298.077148,4245.384766,4247.692383,4440.256348,4497.692383,4351.153809,4392.436035,,,,,,,,,,,,,,,,,,,,,,,,,,,,,,,,,,,,,,,,,,,,,,,,,,,,,,,,,,,,,,,,,,,,,,
1720159380,5,0,4305.128418,4330,4338.205078,4330.512695,4296.666504,4301.025879,4321.153809,4305.384766,4244.102539,4243.205078,4440.769043,4504.615234,4348.333496,4392.820313,,,,,,,,,,,,,,,,,,,,,,,,,,,,,,,,,,,,,,,,,,,,,,,,,,,,,,,,,,,,,,,,,,,,,,
1720159380,6,0,4296.025879,4322.563965,4333.333496,4326.410156,4300.641113,4297.692383,4319.871582,4304.230957,4243.846191,4243.333496,4432.692383,4498.077148,4340.769043,4388.077148,,,,,,,,,,,,,,,,,,,,,,,,,,,,,,,,,,,,,,,,,,,,,,,,,,,,,,,,,,,,,,,,,,,,,,
1720159380,7,0,4286.666504,4312.05127,4314.615234,4315.641113,4294.358887,4296.025879,4306.153809,4299.871582,4246.922852,4244.358887,4426.666504,4482.307617,4328.717773,4379.615234,,,,,,,,,,,,,,,,,,,,,,,,,,,,,,,,,,,,,,,,,,,,,,,,,,,,,,,,,,,,,,,,,,,,,,
1720159380,8,0,4278.846191,4300.128418,4295,4302.94873,4288.974121,4295,4295.769043,4302.563965,4262.436035,4245.256348,4424.358887,4468.461426,4322.692383,4373.205078,,,,,,,,,,,,,,,,,,,,,,,,,,,,,,,,,,,,,,,,,,,,,,,,,,,,,,,,,,,,,,,,,,,,,,
1720159380,9,0,4272.307617,4291.153809,4284.743652,4296.666504,4289.230957,4292.94873,4289.615234,4307.563965,4280,4252.94873,4425.769043,4463.205078,4335.641113,4378.589844,,,,,,,,,,,,,,,,,,,,,,,,,,,,,,,,,,,,,,,,,,,,,,,,,,,,,,,,,,,,,,,,,,,,,,
1720159380,10,0,4275.897461,4293.461426,4279.871582,4300.384766,4288.974121,4290.897461,4275.641113,4300.128418,4281.538574,4262.692383,4427.436035,4458.461426,4343.333496,4381.666504,,,,,,,,,,,,,,,,,,,,,,,,,,,,,,,,,,,,,,,,,,,,,,,,,,,,,,,,,,,,,,,,,,,,,,
1720159380,11,0,4276.410156,4300.256348,4277.692383,4298.846191,4289.230957,4290.384766,4258.717773,4283.205078,4276.666504,4256.794922,4427.307617,4446.666504,4328.077148,4361.025879,,,,,,,,,,,,,,,,,,,,,,,,,,,,,,,,,,,,,,,,,,,,,,,,,,,,,,,,,,,,,,,,,,,,,,
1720159380,12,0,4281.410156,4296.666504,4282.307617,4293.846191,4295.769043,4293.333496,4251.794922,4282.05127,4276.025879,4251.538574,4435.384766,4450.128418,4330,4382.307617,0.300498,0.456201,0.151926,0.401639,0.231423,0.761759,1.01099,0.556109,0.553239,0.180614,1.58031,1.113102,0.685224,1.314061,0.197758,0.456526,0.610595,0.635071,0.888649,0.432305,0.086739,0.101122,0.051209,0.049365,0.076822,0.298257,3.043398,0.819387,0.419893,0.053362,1.285242,21.197418,4.546904,1.237408,0.202662,0.570047,4.562515,1.545986,0.454558,0.235314,0.616152,4.160443,1.208886,0.823618,0.193987,0.216845,1.290883,0.503376,0.503073,0.075907,0.634154,0.437118,0.163391,0.905368,0.273687,1.799458,1.320898,0.816525,1.84432,0.304881,0.782352,1.299575,0.629264,1.030224,0.326252,0.400263,0.239655,0.24539,0.51672,1.444424
1720159380,13,0,4283.717773,4291.794922,4278.589844,4298.717773,4296.666504,4294.102539,4247.05127,4283.846191,4270.897461,4256.922852,4438.717773,4453.974121,4345.384766,4391.794922,,,,,,,,,,,,,,,,,,,,,,,,,,,,,,,,,,,,,,,,,,,,,,,,,,,,,,,,,,,,,,,,,,,,,,
1720159381,14,0,4271.666504,4296.282227,4267.692383,4307.05127,4290.128418,4291.538574,4246.538574,4274.102539,4260.512695,4252.820313,4423.077148,4437.307617,4334.487305,4341.666504,,,,,,,,,,,,,,,,,,,,,,,,,,,,,,,,,,,,,,,,,,,,,,,,,,,,,,,,,,,,,,,,,,,,,,
1720159381,15,0,4286.153809,4304.102539,4290.897461,4313.461426,4295.128418,4295.897461,4275.512695,4287.179688,4260.641113,4248.589844,4433.077148,4454.358887,4331.282227,4372.179688,,,,,,,,,,,,,,,,,,,,,,,,,,,,,,,,,,,,,,,,,,,,,,,,,,,,,,,,,,,,,,,,,,,,,,
1720159381,16,0,4303.333496,4319.230957,4321.922852,4322.436035,4299.871582,4308.717773,4318.974121,4313.333496,4260.128418,4253.077148,4461.794922,4491.666504,4357.307617,4402.94873,,,,,,,,,,,,,,,,,,,,,,,,,,,,,,,,,,,,,,,,,,,,,,,,,,,,,,,,,,,,,,,,,,,,,,
1720159381,17,0,4299.358887,4330.256348,4325.128418,4329.871582,4296.282227,4313.077148,4338.333496,4316.538574,4250.897461,4250.897461,4458.461426,4497.307617,4366.025879,4373.077148,,,,,,,,,,,,,,,,,,,,,,,,,,,,,,,,,,,,,,,,,,,,,,,,,,,,,,,,,,,,,,,,,,,,,,
1720159381,18,0,4298.205078,4322.05127,4320.897461,4328.974121,4298.077148,4301.794922,4328.461426,4310.512695,4250.384766,4245.769043,4446.410156,4493.077148,4346.410156,4387.179688,,,,,,,,,,,,,,,,,,,,,,,,,,,,,,,,,,,,,,,,,,,,,,,,,,,,,,,,,,,,,,,,,,,,,,
1720159381,19,0,4289.615234,4308.974121,4310.641113,4318.589844,4295.897461,4292.179688,4305.512695,4301.922852,4257.692383,4247.179688,4444.871582,4481.666504,4333.205078,4388.846191,,,,,,,,,,,,,,,,,,,,,,,,,,,,,,,,,,,,,,,,,,,,,,,,,,,,,,,,,,,,,,,,,,,,,,
1720159381,20,0,4283.205078,4304.487305,4297.692383,4308.077148,4288.077148,4288.589844,4284.743652,4289.102539,4262.307617,4251.538574,4436.538574,4461.025879,4333.077148,4367.307617,,,,,,,,,,,,,,,,,,,,,,,,,,,,,,,,,,,,,,,,,,,,,,,,,,,,,,,,,,,,,,,,,,,,,,
1720159381,21,0,4290.384766,4298.974121,4294.230957,4301.025879,4291.922852,4281.410156,4272.307617,4287.563965,4266.153809,4257.692383,4430.512695,4454.615234,4331.666504,4381.922852,,,,,,,,,,,,,,,,,,,,,,,,,,,,,,,,,,,,,,,,,,,,,,,,,,,,,,,,,,,,,,,,,,,,,,
1720159381,22,0,4278.846191,4289.487305,4289.230957,4295.384766,4295.769043,4279.871582,4258.333496,4286.922852,4268.333496,4262.692383,4436.794922,4452.436035,4333.589844,4375.641113,,,,,,,,,,,,,,,,,,,,,,,,,,,,,,,,,,,,,,,,,,,,,,,,,,,,,,,,,,,,,,,,,,,,,,
1720159381,23,0,4267.179688,4291.410156,4275.128418,4298.974121,4289.487305,4290.512695,4236.153809,4268.333496,4266.922852,4262.307617,4437.94873,4439.358887,4343.205078,4355.384766,,,,,,,,,,,,,,,,,,,,,,,,,,,,,,,,,,,,,,,,,,,,,,,,,,,,,,,,,,,,,,,,,,,,,,
1720159381,24,0,4291.153809,4302.179688,4277.692383,4310.512695,4296.410156,4295.256348,4226.153809,4258.846191,4259.230957,4260.897461,4436.153809,4443.077148,4345,4388.974121,,,,,,,,,,,,,,,,,,,,,,,,,,,,,,,,,,,,,,,,,,,,,,,,,,,,,,,,,,,,,,,,,,,,,,
1720159381,25,0,4294.358887,4307.05127,4289.358887,4313.333496,4303.077148,4294.743652,4238.205078,4265,4250.256348,4256.538574,4436.282227,4450.769043,4332.94873,4383.589844,,,,,,,,,,,,,,,,,,,,,,,,,,,,,,,,,,,,,,,,,,,,,,,,,,,,,,,,,,,,,,,,,,,,,,
1720159381,26,0,4278.333496,4304.230957,4292.436035,4315,4296.025879,4304.615234,4268.461426,4277.692383,4255,4250.384766,4434.487305,4448.333496,4324.871582,4353.461426,,,,,,,,,,,,,,,,,,,,,,,,,,,,,,,,,,,,,,,,,,,,,,,,,,,,,,,,,,,,,,,,,,,,,,
1720159381,27,0,4284.871582,4295.897461,4294.871582,4311.410156,4293.589844,4307.436035,4299.102539,4298.589844,4264.871582,4250.256348,4438.589844,4460.128418,4331.666504,4373.974121,,,,,,,,,,,,,,,,,,,,,,,,,,,,,,,,,,,,,,,,,,,,,,,,,,,,,,,,,,,,,,,,,,,,,,
1720159381,28,0,4286.922852,4295.128418,4297.820313,4296.410156,4293.461426,4298.205078,4310.128418,4309.102539,4265.769043,4256.025879,4450.641113,4477.05127,4346.922852,4383.461426,0.207245,0.481292,0.2177,0.40517,0.234425,0.607583,1.065979,0.612582,0.554313,0.184611,1.348811,1.349068,0.732242,1.260741,0.209547,0.356293,0.690636,0.663947,0.932233,0.374488,0.150684,0.116363,0.063917,0.052668,0.080434,0.37062,2.802471,0.861303,0.495367,0.054363,1.333239,19.146812,5.602649,1.177753,0.205143,0.629529,4.809117,1.935773,0.414244,0.22978,0.674953,2.50772,1.381927,0.801661,0.182252,0.236436,0.84495,0.561372,0.472335,0.073562,0.583878,0.574012,0.315907,0.941839,0.282748,1.616678,1.759048,0.910256,1.623705,0.293334,0.798873,1.285691,0.87709,1.001133,0.341449,0.360049,0.231999,0.317047,0.517184,1.528054
1720159381,29,0,4288.205078,4305.256348,4309.743652,4305.256348,4292.563965,4298.205078,4316.922852,4313.461426,4270.769043,4264.487305,4459.487305,4493.717773,4359.871582,4387.179688,,,,,,,,,,,,,,,,,,,,,,,,,,,,,,,,,,,,,,,,,,,,,,,,,,,,,,,,,,,,,,,,,,,,,,
1720159381,30,0,4294.102539,4314.487305,4317.05127,4329.230957,4290.897461,4303.589844,4324.102539,4316.794922,4272.692383,4265.384766,4455.256348,4498.077148,4352.94873,4388.333496,,,,,,,,,,,,,,,,,,,,,,,,,,,,,,,,,,,,,,,,,,,,,,,,,,,,,,,,,,,,,,,,,,,,,,
1720159381,31,0,4294.358887,4308.205078,4314.230957,4324.358887,4291.666504,4299.487305,4311.538574,4307.820313,4265.897461,4260.128418,4452.05127,4486.794922,4337.692383,4378.846191,,,,,,,,,,,,,,,,,,,,,,,,,,,,,,,,,,,,,,,,,,,,,,,,,,,,,,,,,,,,,,,,,,,,,,
1720159381,32,0,4291.538574,4297.820313,4309.743652,4311.282227,4295.384766,4294.871582,4291.538574,4297.692383,4270.256348,4262.436035,4450.641113,4481.282227,4340.384766,4379.102539,,,,,,,,,,,,,,,,,,,,,,,,,,,,,,,,,,,,,,,,,,,,,,,,,,,,,,,,,,,,,,,,,,,,,,
1720159381,33,0,4286.153809,4300.512695,4301.794922,4311.153809,4296.153809,4295,4277.94873,4290.641113,4277.179688,4267.307617,4447.307617,4480.769043,4355.641113,4383.589844,,,,,,,,,,,,,,,,,,,,,,,,,,,,,,,,,,,,,,,,,,,,,,,,,,,,,,,,,,,,,,,,,,,,,,
1720159381,34,0,4287.436035,4307.692383,4304.230957,4307.563965,4296.410156,4293.589844,4264.871582,4281.410156,4274.487305,4270.897461,4454.871582,4483.077148,4365.256348,4386.922852,,,,,,,,,,,,,,,,,,,,,,,,,,,,,,,,,,,,,,,,,,,,,,,,,,,,,,,,,,,,,,,,,,,,,,
1720159381,35,0,4294.615234,4311.922852,4311.794922,4310,4297.94873,4294.102539,4251.025879,4271.666504,4273.333496,4277.692383,4456.922852,4479.743652,4363.589844,4385.897461,,,,,,,,,,,,,,,,,,,,,,,,,,,,,,,,,,,,,,,,,,,,,,,,,,,,,,,,,,,,,,,,,,,,,,
1720159381,36,0,4292.563965,4306.794922,4310.256348,4318.974121,4299.102539,4298.461426,4243.589844,4266.794922,4272.179688,4273.461426,4441.538574,4465.641113,4353.589844,4382.05127,,,,,,,,,,,,,,,,,,,,,,,,,,,,,,,,,,,,,,,,,,,,,,,,,,,,,,,,,,,,,,,,,,,,,,
1720159381,37,0,4286.282227,4300.128418,4304.871582,4312.94873,4300.512695,4305.641113,4250.769043,4272.05127,4272.436035,4266.153809,4439.230957,4463.461426,4348.846191,4378.846191,,,,,,,,,,,,,,,,,,,,,,,,,,,,,,,,,,,,,,,,,,,,,,,,,,,,,,,,,,,,,,,,,,,,,,
1720159381,38,0,4290.384766,4304.358887,4301.922852,4309.230957,4301.025879,4312.94873,4270.897461,4284.615234,4278.333496,4273.589844,4453.717773,4476.410156,4347.94873,4385.769043,,,,,,,,,,,,,,,,,,,,,,,,,,,,,,,,,,,,,,,,,,,,,,,,,,,,,,,,,,,,,,,,,,,,,,
1720159381,39,0,4283.846191,4305.384766,4297.436035,4314.230957,4292.820313,4312.05127,4294.230957,4294.615234,4276.794922,4272.692383,4451.282227,4474.230957,4340.384766,4371.025879,,,,,,,,,,,,,,,,,,,,,,,,,,,,,,,,,,,,,,,,,,,,,,,,,,,,,,,,,,,,,,,,,,,,,,
1720159381,40,0,4283.461426,4297.05127,4305.769043,4309.743652,4291.922852,4310.256348,4318.461426,4312.94873,4273.974121,4265.769043,4451.410156,4475.256348,4345,4380.641113,,,,,,,,,,,,,,,,,,,,,,,,,,,,,,,,,,,,,,,,,,,,,,,,,,,,,,,,,,,,,,,,,,,,,,
1720159381,41,0,4295,4295.256348,4319.871582,4310.256348,4300.897461,4311.153809,4337.436035,4335.641113,4280.641113,4272.05127,4465.769043,4499.743652,4363.333496,4411.666504,,,,,,,,,,,,,,,,,,,,,,,,,,,,,,,,,,,,,,,,,,,,,,,,,,,,,,,,,,,,,,,,,,,,,,
1720159381,42,0,4280.897461,4304.230957,4312.692383,4325.512695,4294.230957,4304.102539,4338.846191,4331.153809,4277.179688,4271.794922,4457.307617,4502.179688,4359.487305,4371.922852,,,,,,,,,,,,,,,,,,,,,,,,,,,,,,,,,,,,,,,,,,,,,,,,,,,,,,,,,,,,,,,,,,,,,,
1720159381,43,0,4282.692383,4307.179688,4312.94873,4330,4290.512695,4295.769043,4331.153809,4320.769043,4269.358887,4266.282227,4452.820313,4494.615234,4346.153809,4368.717773,,,,,,,,,,,,,,,,,,,,,,,,,,,,,,,,,,,,,,,,,,,,,,,,,,,,,,,,,,,,,,,,,,,,,,
1720159381,44,0,4302.436035,4307.94873,4326.282227,4324.871582,4298.077148,4295.256348,4321.666504,4319.871582,4274.487305,4275.128418,4465.384766,4501.794922,4355.769043,4400.512695,0.134024,0.644534,0.340768,0.417746,0.243673,0.483858,1.284041,0.730824,0.578436,0.187637,1.156554,2.007253,1.068775,1.232017,0.23733,0.303644,0.843177,0.722718,0.962417,0.319265,0.229207,0.140325,0.08309,0.056493,0.0857,0.441657,2.497762,0.917463,0.57788,0.056706,1.382811,17.432755,7.406936,1.129209,0.211981,0.700226,5.401041,2.651414,0.426928,0.222363,0.792207,2.065594,1.6112,0.788623,0.170717,0.313241,0.658673,0.682791,0.415711,0.078438,0.558931,0.899083,0.645983,0.991227,0.299964,1.561479,2.802881,1.376759,1.407693,0.30025,0.821674,1.586742,1.211326,0.95427,0.367477,0.315576,0.347381,0.416314,0.501586,1.602196
1720159381,45,0,4295.641113,4318.077148,4328.846191,4327.436035,4297.692383,4294.230957,4302.436035,4303.974121,4279.487305,4282.05127,4462.436035,4498.846191,4366.666504,4381.282227,,,,,,,,,,,,,,,,,,,,,,,,,,,,,,,,,,,,,,,,,,,,,,,,,,,,,,,,,,,,,,,,,,,,,,
1720159381,46,0,4295.128418,4324.487305,4333.461426,4330,4300,4297.179688,4289.358887,4290.256348,4282.436035,4280.384766,4460.641113,4498.589844,4363.205078,4388.717773,,,,,,,,,,,,,,,,,,,,,,,,,,,,,,,,,,,,,,,,,,,,,,,,,,,,,,,,,,,,,,,,,,,,,,
1720159381,47,0,4299.487305,4318.589844,4331.282227,4328.077148,4304.102539,4307.307617,4284.615234,4286.922852,4286.538574,4280.769043,4464.358887,4491.153809,4355.384766,4392.436035,,,,,,,,,,,,,,,,,,,,,,,,,,,,,,,,,,,,,,,,,,,,,,,,,,,,,,,,,,,,,,,,,,,,,,
1720159381,48,0,4284.358887,4304.743652,4314.871582,4328.974121,4301.538574,4312.820313,4275,4280.897461,4283.461426,4279.102539,4453.461426,4473.589844,4349.487305,4373.077148,,,,,,,,,,,,,,,,,,,,,,,,,,,,,,,,,,,,,,,,,,,,,,,,,,,,,,,,,,,,,,,,,,,,,,
1720159381,49,0,4279.230957,4300.641113,4304.358887,4329.743652,4305.897461,4316.282227,4267.692383,4279.358887,4278.205078,4277.05127,4450.769043,4473.846191,4350.512695,4388.589844,,,,,,,,,,,,,,,,,,,,,,,,,,,,,,,,,,,,,,,,,,,,,,,,,,,,,,,,,,,,,,,,,,,,,,
1720159381,50,0,4283.846191,4307.05127,4301.666504,4326.794922,4310.769043,4320.512695,4268.974121,4286.922852,4277.307617,4273.205078,4457.179688,4476.922852,4348.974121,4387.94873,,,,,,,,,,,,,,,,,,,,,,,,,,,,,,,,,,,,,,,,,,,,,,,,,,,,,,,,,,,,,,,,,,,,,,
1720159381,51,0,4275,4302.179688,4296.538574,4320.769043,4299.358887,4316.282227,4276.410156,4292.563965,4274.615234,4263.333496,4445.512695,4467.179688,4343.205078,4359.230957,,,,,,,,,,,,,,,,,,,,,,,,,,,,,,,,,,,,,,,,,,,,,,,,,,,,,,,,,,,,,,,,,,,,,,
1720159381,52,0,4277.94873,4291.410156,4302.436035,4315.512695,4296.410156,4310.641113,4301.025879,4312.692383,4275,4263.717773,4450.512695,4480.897461,4351.025879,4392.820313,,,,,,,,,,,,,,,,,,,,,,,,,,,,,,,,,,,,,,,,,,,,,,,,,,,,,,,,,,,,,,,,,,,,,,
1720159381,53,0,4281.794922,4293.333496,4311.794922,4312.179688,4303.461426,4312.307617,4328.589844,4335,4282.563965,4275.512695,4472.307617,4505.641113,4365.128418,4409.871582,,,,,,,,,,,,,,,,,,,,,,,,,,,,,,,,,,,,,,,,,,,,,,,,,,,,,,,,,,,,,,,,,,,,,,
1720159381,54,0,4275.256348,4298.205078,4312.307617,4313.846191,4297.05127,4313.205078,4331.153809,4327.692383,4281.025879,4275.256348,4468.077148,4500.256348,4362.692383,4372.05127,,,,,,,,,,,,,,,,,,,,,,,,,,,,,,,,,,,,,,,,,,,,,,,,,,,,,,,,,,,,,,,,,,,,,,
1720159381,55,0,4278.974121,4297.94873,4314.743652,4321.410156,4297.563965,4308.846191,4319.487305,4319.230957,4275.641113,4267.692383,4460,4493.846191,4357.692383,4381.282227,,,,,,,,,,,,,,,,,,,,,,,,,,,,,,,,,,,,,,,,,,,,,,,,,,,,,,,,,,,,,,,,,,,,,,
1720159381,56,0,4280.641113,4304.230957,4314.743652,4329.230957,4305.769043,4301.538574,4306.794922,4317.307617,4278.205078,4271.538574,4465.897461,4493.077148,4365.128418,4395.769043,,,,,,,,,,,,,,,,,,,,,,,,,,,,,,,,,,,,,,,,,,,,,,,,,,,,,,,,,,,,,,,,,,,,,,
1720159381,57,0,4286.025879,4313.589844,4320.769043,4328.077148,4302.692383,4292.94873,4291.282227,4305.897461,4281.410156,4282.692383,4474.615234,4494.487305,4378.589844,4394.102539,,,,,,,,,,,,,,,,,,,,,,,,,,,,,,,,,,,,,,,,,,,,,,,,,,,,,,,,,,,,,,,,,,,,,,
1720159381,58,0,4293.077148,4318.974121,4332.179688,4325,4298.077148,4288.461426,4278.333496,4294.743652,4278.077148,4282.05127,4478.846191,4505.384766,4386.410156,4398.589844,,,,,,,,,,,,,,,,,,,,,,,,,,,,,,,,,,,,,,,,,,,,,,,,,,,,,,,,,,,,,,,,,,,,,,
1720159381,59,0,4291.794922,4323.333496,4329.871582,4333.333496,4299.487305,4289.743652,4268.077148,4287.307617,4276.794922,4275.897461,4475.512695,4504.230957,4383.461426,4395.897461,,,,,,,,,,,,,,,,,,,,,,,,,,,,,,,,,,,,,,,,,,,,,,,,,,,,,,,,,,,,,,,,,,,,,,
1720159381,60,0,4293.589844,4319.615234,4324.102539,4338.461426,4303.205078,4296.922852,4262.179688,4284.230957,4280.256348,4278.717773,4469.615234,4497.179688,4377.307617,4394.871582,0.098877,0.893554,0.51525,0.445765,0.259992,0.439476,1.639715,0.907167,0.63402,0.188955,1.059419,3.032853,1.71573,1.260102,0.277145,0.316509,1.08086,0.816508,0.982982,0.276406,0.300461,0.169812,0.104122,0.059834,0.091589,0.496622,2.172358,0.99666,0.648008,0.060536,1.413006,16.536537,9.470284,1.12678,0.222534,0.760362,6.270323,3.57155,0.496869,0.215204,0.945961,2.684792,1.753317,0.745473,0.160358,0.449359,0.732887,0.835722,0.347867,0.089275,0.555975,1.367765,1.164712,1.03717,0.320872,1.640797,4.364432,2.244461,1.278084,0.321957,0.822027,2.089464,1.605831,0.939742,0.387017,0.282474,0.54107,0.540907,0.480983,1.651105
1720159381,61,0,4286.410156,4310.256348,4322.179688,4329.230957,4303.333496,4309.358887,4263.333496,4281.794922,4280.769043,4279.358887,4466.538574,4492.05127,4372.179688,4391.666504,,,,,,,,,,,,,,,,,,,,,,,,,,,,,,,,,,,,,,,,,,,,,,,,,,,,,,,,,,,,,,,,,,,,,,
1720159381,62,0,4272.179688,4302.820313,4312.692383,4320.128418,4302.820313,4317.436035,4269.487305,4283.589844,4277.692383,4270.897461,4456.794922,4478.333496,4353.846191,4383.589844,,,,,,,,,,,,,,,,,,,,,,,,,,,,,,,,,,,,,,,,,,,,,,,,,,,,,,,,,,,,,,,,,,,,,,
1720159381,63,0,4270.384766,4295.128418,4299.358887,4320.256348,4303.974121,4319.102539,4280.769043,4289.871582,4272.05127,4262.179688,4438.333496,4462.307617,4329.230957,4371.922852,,,,,,,,,,,,,,,,,,,,,,,,,,,,,,,,,,,,,,,,,,,,,,,,,,,,,,,,,,,,,,,,,,,,,,
1720159381,64,0,4273.205078,4290.512695,4299.871582,4321.538574,4301.025879,4321.666504,4301.922852,4302.820313,4271.538574,4266.410156,4440.897461,4469.358887,4337.692383,4375.256348,,,,,,,,,,,,,,,,,,,,,,,,,,,,,,,,,,,,,,,,,,,,,,,,,,,,,,,,,,,,,,,,,,,,,,
1720159381,65,0,4274.230957,4295,4315.897461,4318.589844,4298.974121,4321.153809,4322.94873,4320.128418,4275.384766,4278.077148,4458.846191,4492.820313,4366.153809,4386.794922,,,,,,,,,,,,,,,,,,,,,,,,,,,,,,,,,,,,,,,,,,,,,,,,,,,,,,,,,,,,,,,,,,,,,,
1720159381,66,0,4286.922852,4307.05127,4331.538574,4322.436035,4303.333496,4312.820313,4329.615234,4328.077148,4273.205078,4280.641113,4465.897461,4508.974121,4370.897461,4398.205078,,,,,,,,,,,,,,,,,,,,,,,,,,,,,,,,,,,,,,,,,,,,,,,,,,,,,,,,,,,,,,,,,,,,,,
1720159381,67,0,4284.487305,4309.487305,4328.077148,4327.820313,4300,4307.307617,4319.615234,4320.384766,4263.205078,4276.025879,4466.794922,4507.179688,4362.563965,4382.179688,,,,,,,,,,,,,,,,,,,,,,,,,,,,,,,,,,,,,,,,,,,,,,,,,,,,,,,,,,,,,,,,,,,,,,
1720159381,68,0,4272.563965,4300.256348,4314.358887,4323.461426,4292.563965,4307.05127,4308.077148,4310.384766,4260.384766,4278.333496,4468.333496,4496.538574,4368.205078,4375,,,,,,,,,,,,,,,,,,,,,,,,,,,,,,,,,,,,,,,,,,,,,,,,,,,,,,,,,,,,,,,,,,,,,,
1720159381,69,0,4285.897461,4302.05127,4315.128418,4321.794922,4299.358887,4300.641113,4300.897461,4310,4274.230957,4291.025879,4465,4499.871582,4374.871582,4415.128418,,,,,,,,,,,,,,,,,,,,,,,,,,,,,,,,,,,,,,,,,,,,,,,,,,,,,,,,,,,,,,,,,,,,,,
1720159381,70,0,4280.512695,4308.333496,4309.487305,4322.692383,4301.538574,4294.487305,4282.307617,4298.333496,4277.563965,4295.769043,4451.538574,4484.743652,4368.077148,4392.179688,,,,,,,,,,,,,,,,,,,,,,,,,,,,,,,,,,,,,,,,,,,,,,,,,,,,,,,,,,,,,,,,,,,,,,
1720159381,71,0,4269.487305,4302.179688,4298.589844,4320.256348,4292.05127,4296.410156,4256.794922,4278.589844,4270.512695,4293.846191,4450.897461,4460.128418,4361.538574,4366.025879,,,,,,,,,,,,,,,,,,,,,,,,,,,,,,,,,,,,,,,,,,,,,,,,,,,,,,,,,,,,,,,,,,,,,,
1720159381,72,0,4284.743652,4301.410156,4304.743652,4327.307617,4292.563965,4294.487305,4242.820313,4272.05127,4270.256348,4299.102539,4462.179688,4470.897461,4365.769043,4398.205078,,,,,,,,,,,,,,,,,,,,,,,,,,,,,,,,,,,,,,,,,,,,,,,,,,,,,,,,,,,,,,,,,,,,,,
1720159381,73,0,4284.230957,4311.025879,4313.461426,4337.307617,4294.871582,4295.384766,4243.205078,4269.743652,4271.410156,4302.05127,4461.410156,4482.307617,4373.974121,4389.615234,,,,,,,,,,,,,,,,,,,,,,,,,,,,,,,,,,,,,,,,,,,,,,,,,,,,,,,,,,,,,,,,,,,,,,
1720159381,74,0,4276.282227,4309.743652,4318.717773,4331.922852,4291.025879,4304.358887,4258.205078,4278.461426,4272.436035,4297.05127,4462.05127,4484.871582,4375.256348,4387.307617,,,,,,,,,,,,,,,,,,,,,,,,,,,,,,,,,,,,,,,,,,,,,,,,,,,,,,,,,,,,,,,,,,,,,,
1720159381,75,0,4279.230957,4301.666504,4316.410156,4325.256348,4289.358887,4306.410156,4281.666504,4296.282227,4276.794922,4293.717773,4464.230957,4491.153809,4368.333496,4400.769043,,,,,,,,,,,,,,,,,,,,,,,,,,,,,,,,,,,,,,,,,,,,,,,,,,,,,,,,,,,,,,,,,,,,,,
1720159381,76,0,4274.358887,4298.461426,4305.769043,4327.94873,4290.128418,4304.358887,4303.717773,4308.205078,4277.692383,4293.461426,4456.538574,4486.794922,4362.563965,4376.282227,0.092861,1.197648,0.715215,0.486345,0.281689,0.470413,2.128101,1.120939,0.719287,0.188947,1.05554,4.380066,2.577051,1.346274,0.319479,0.372977,1.43727,0.947767,1.001077,0.248762,0.337726,0.203317,0.123199,0.06155,0.09676,0.530312,1.932992,1.070634,0.685861,0.065771,1.422168,17.20517,10.986899,1.191496,0.232905,0.796519,7.447096,4.398599,0.613145,0.209475,1.123291,4.03371,1.745619,0.664627,0.151795,0.615702,0.999376,0.967741,0.285937,0.103576,0.557778,1.918641,1.775633,1.06381,0.339979,1.794354,6.291843,3.326574,1.267238,0.349614,0.79792,2.714035,1.962306,0.997093,0.393954,0.26324,0.769634,0.663839,0.465939,1.667742
1720159381,77,0,4273.589844,4294.358887,4305.384766,4322.820313,4293.077148,4310.897461,4320.641113,4321.153809,4276.666504,4293.974121,4455.769043,4483.717773,4363.589844,4375,,,,,,,,,,,,,,,,,,,,,,,,,,,,,,,,,,,,,,,,,,,,,,,,,,,,,,,,,,,,,,,,,,,,,,
1720159381,78,0,4283.589844,4292.307617,4316.410156,4316.666504,4295.897461,4313.846191,4326.282227,4331.922852,4277.179688,4290.512695,4470,4498.333496,4368.461426,4404.615234,,,,,,,,,,,,,,,,,,,,,,,,,,,,,,,,,,,,,,,,,,,,,,,,,,,,,,,,,,,,,,,,,,,,,,
1720159381,79,0,4277.307617,4302.179688,4319.615234,4328.974121,4288.974121,4308.077148,4319.743652,4319.871582,4264.487305,4282.820313,4469.358887,4501.538574,4372.820313,4387.05127,,,,,,,,,,,,,,,,,,,,,,,,,,,,,,,,,,,,,,,,,,,,,,,,,,,,,,,,,,,,,,,,,,,,,,
1720159381,80,0,4281.410156,4313.077148,4326.282227,4344.487305,4288.205078,4308.205078,4316.538574,4310.256348,4252.179688,4284.615234,4458.589844,4497.436035,4376.153809,4385.512695,,,,,,,,,,,,,,,,,,,,,,,,,,,,,,,,,,,,,,,,,,,,,,,,,,,,,,,,,,,,,,,,,,,,,,
1720159381,81,0,4298.717773,4317.692383,4338.205078,4348.205078,4296.025879,4307.820313,4316.153809,4317.692383,4261.025879,4294.743652,4466.410156,4509.487305,4377.307617,4407.692383,,,,,,,,,,,,,,,,,,,,,,,,,,,,,,,,,,,,,,,,,,,,,,,,,,,,,,,,,,,,,,,,,,,,,,
1720159381,82,0,4294.102539,4320.384766,4332.05127,4340.769043,4290.384766,4303.205078,4302.692383,4306.666504,4274.743652,4296.538574,4473.846191,4508.205078,4377.820313,4389.871582,,,,,,,,,,,,,,,,,,,,,,,,,,,,,,,,,,,,,,,,,,,,,,,,,,,,,,,,,,,,,,,,,,,,,,
1720159381,83,0,4288.974121,4314.487305,4319.487305,4334.871582,4288.461426,4304.230957,4287.179688,4293.205078,4284.487305,4296.666504,4470,4495.897461,4382.820313,4390.769043,,,,,,,,,,,,,,,,,,,,,,,,,,,,,,,,,,,,,,,,,,,,,,,,,,,,,,,,,,,,,,,,,,,,,,
1720159381,84,0,4287.94873,4306.666504,4311.025879,4333.974121,4294.487305,4306.666504,4280.384766,4293.974121,4288.589844,4297.563965,4465.384766,4487.563965,4384.615234,4393.717773,,,,,,,,,,,,,,,,,,,,,,,,,,,,,,,,,,,,,,,,,,,,,,,,,,,,,,,,,,,,,,,,,,,,,,
1720159381,85,0,4285.512695,4305.641113,4317.179688,4331.538574,4292.436035,4312.179688,4282.436035,4290.512695,4290.384766,4294.102539,4467.692383,4485.128418,4378.205078,4381.794922,,,,,,,,,,,,,,,,,,,,,,,,,,,,,,,,,,,,,,,,,,,,,,,,,,,,,,,,,,,,,,,,,,,,,,
1720159381,86,0,4284.230957,4305.641113,4330,4337.307617,4290,4320.769043,4295.384766,4292.179688,4292.307617,4295.256348,4476.153809,4494.358887,4374.871582,4385.512695,,,,,,,,,,,,,,,,,,,,,,,,,,,,,,,,,,,,,,,,,,,,,,,,,,,,,,,,,,,,,,,,,,,,,,
1720159381,87,0,4280.641113,4303.589844,4322.179688,4345.384766,4289.743652,4319.487305,4307.94873,4301.922852,4286.025879,4294.871582,4473.846191,4499.871582,4375.128418,4388.589844,,,,,,,,,,,,,,,,,,,,,,,,,,,,,,,,,,,,,,,,,,,,,,,,,,,,,,,,,,,,,,,,,,,,,,
1720159381,88,0,4273.974121,4291.794922,4304.230957,4332.94873,4287.05127,4309.358887,4314.358887,4309.230957,4273.846191,4279.871582,4456.666504,4491.410156,4362.692383,4381.153809,,,,,,,,,,,,,,,,,,,,,,,,,,,,,,,,,,,,,,,,,,,,,,,,,,,,,,,,,,,,,,,,,,,,,,
1720159381,89,0,4260.769043,4268.461426,4294.102539,4308.589844,4283.846191,4307.179688,4316.025879,4310.512695,4270.641113,4266.666504,4437.179688,4474.615234,4339.615234,4370.384766,,,,,,,,,,,,,,,,,,,,,,,,,,,,,,,,,,,,,,,,,,,,,,,,,,,,,,,,,,,,,,,,,,,,,,
1720159381,90,0,4257.94873,4256.794922,4296.410156,4304.358887,4287.05127,4311.666504,4315,4312.307617,4276.282227,4268.077148,4435.769043,4474.871582,4333.077148,4372.179688,,,,,,,,,,,,,,,,,,,,,,,,,,,,,,,,,,,,,,,,,,,,,,,,,,,,,,,,,,,,,,,,,,,,,,
1720159381,91,0,4270.769043,4268.205078,4307.179688,4316.025879,4292.692383,4314.358887,4317.94873,4318.589844,4285.384766,4273.974121,4448.205078,4490.256348,4346.410156,4375.897461,,,,,,,,,,,,,,,,,,,,,,,,,,,,,,,,,,,,,,,,,,,,,,,,,,,,,,,,,,,,,,,,,,,,,,
1720159381,92,0,4280.256348,4283.461426,4320.769043,4320.897461,4293.077148,4320.384766,4320.384766,4320.897461,4294.615234,4279.358887,4461.025879,4503.974121,4362.179688,4381.153809,0.103158,1.5102,0.89622,0.528156,0.303814,0.536299,2.697695,1.332314,0.816926,0.189135,1.105777,5.869539,3.44415,1.456861,0.352775,0.436385,1.901459,1.09751,1.018039,0.233254,0.326779,0.239104,0.136926,0.061255,0.100489,0.545522,1.880352,1.089337,0.681252,0.071692,1.416809,20.062141,11.304584,1.313918,0.238051,0.800354,8.981703,4.792551,0.748042,0.204745,1.293342,5.62321,1.594079,0.562902,0.14377,0.765716,1.362529,1.032831,0.242717,0.118551,0.553028,2.439263,2.309709,1.064426,0.352979,1.937359,8.295165,4.290103,1.350002,0.372761,0.771337,3.321967,2.164052,1.132494,0.393376,0.256645,0.97165,0.745773,0.462863,1.651511
1720159381,93,0,4281.922852,4295.897461,4332.820313,4330.769043,4292.436035,4322.94873,4314.743652,4316.153809,4292.436035,4284.487305,4474.743652,4516.153809,4375.512695,4388.846191,,,,,,,,,,,,,,,,,,,,,,,,,,,,,,,,,,,,,,,,,,,,,,,,,,,,,,,,,,,,,,,,,,,,,,
1720159381,94,0,4287.563965,4301.794922,4339.487305,4345.256348,4296.538574,4317.436035,4299.615234,4311.922852,4280.897461,4283.333496,4481.794922,4523.974121,4383.846191,4404.487305,,,,,,,,,,,,,,,,,,,,,,,,,,,,,,,,,,,,,,,,,,,,,,,,,,,,,,,,,,,,,,,,,,,,,,
1720159381,95,0,4282.563965,4295.641113,4331.153809,4344.615234,4295.512695,4310.897461,4283.589844,4305.256348,4275.128418,4277.94873,4474.358887,4515.769043,4383.846191,4391.025879,,,,,,,,,,,,,,,,,,,,,,,,,,,,,,,,,,,,,,,,,,,,,,,,,,,,,,,,,,,,,,,,,,,,,,
1720159381,96,0,4265.641113,4288.205078,4313.205078,4332.05127,4286.666504,4310.769043,4281.025879,4298.333496,4279.615234,4277.692383,4463.974121,4496.538574,4380.256348,4355.512695,,,,,,,,,,,,,,,,,,,,,,,,,,,,,,,,,,,,,,,,,,,,,,,,,,,,,,,,,,,,,,,,,,,,,,
1720159381,97,0,4272.179688,4280.256348,4315.641113,4326.153809,4287.436035,4313.589844,4297.94873,4314.358887,4291.025879,4283.717773,4469.615234,4503.205078,4380.256348,4390.897461,,,,,,,,,,,,,,,,,,,,,,,,,,,,,,,,,,,,,,,,,,,,,,,,,,,,,,,,,,,,,,,,,,,,,,
1720159381,98,0,4274.487305,4273.589844,4319.871582,4322.307617,4291.153809,4311.794922,4313.589844,4332.94873,4303.974121,4283.846191,4473.077148,4514.230957,4374.358887,4399.487305,,,,,,,,,,,,,,,,,,,,,,,,,,,,,,,,,,,,,,,,,,,,,,,,,,,,,,,,,,,,,,,,,,,,,,
1720159381,99,0,4263.717773,4277.05127,4314.487305,4320.512695,4288.205078,4312.307617,4320.897461,4334.102539,4313.717773,4283.461426,4464.615234,4505.641113,4368.589844,4365.128418,,,,,,,,,,,,,,,,,,,,,,,,,,,,,,,,,,,,,,,,,,,,,,,,,,,,,,,,,,,,,,,,,,,,,,
1720159381,100,0,4272.436035,4284.487305,4321.410156,4332.563965,4289.615234,4319.615234,4327.94873,4338.077148,4316.153809,4286.794922,4469.230957,4508.717773,4378.846191,4391.153809,,,,,,,,,,,,,,,,,,,,,,,,,,,,,,,,,,,,,,,,,,,,,,,,,,,,,,,,,,,,,,,,,,,,,,
1720159381,101,0,4273.205078,4284.487305,4326.666504,4337.05127,4289.102539,4322.94873,4329.743652,4338.205078,4308.333496,4277.692383,4472.820313,4513.461426,4386.922852,4393.333496,,,,,,,,,,,,,,,,,,,,,,,,,,,,,,,,,,,,,,,,,,,,,,,,,,,,,,,,,,,,,,,,,,,,,,
1720159381,102,0,4269.743652,4280.256348,4326.025879,4327.436035,4286.282227,4318.717773,4330.897461,4333.974121,4294.230957,4266.410156,4467.436035,4512.179688,4381.794922,4379.615234,,,,,,,,,,,,,,,,,,,,,,,,,,,,,,,,,,,,,,,,,,,,,,,,,,,,,,,,,,,,,,,,,,,,,,
1720159381,103,0,4273.846191,4278.205078,4325.128418,4326.410156,4290.256348,4317.436035,4329.358887,4333.077148,4282.820313,4265.512695,4466.282227,4513.461426,4371.282227,4393.077148,,,,,,,,,,,,,,,,,,,,,,,,,,,,,,,,,,,,,,,,,,,,,,,,,,,,,,,,,,,,,,,,,,,,,,
1720159381,104,0,4271.922852,4281.666504,4324.615234,4329.487305,4293.205078,4319.230957,4321.666504,4325.897461,4276.538574,4260.897461,4464.230957,4512.692383,4366.025879,4384.358887,,,,,,,,,,,,,,,,,,,,,,,,,,,,,,,,,,,,,,,,,,,,,,,,,,,,,,,,,,,,,,,,,,,,,,
1720159381,105,0,4274.743652,4291.025879,4332.563965,4330.128418,4288.846191,4313.333496,4312.94873,4314.102539,4278.461426,4263.974121,4472.307617,4517.436035,4377.820313,4383.717773,,,,,,,,,,,,,,,,,,,,,,,,,,,,,,,,,,,,,,,,,,,,,,,,,,,,,,,,,,,,,,,,,,,,,,
1720159381,106,0,4285,4294.871582,4342.05127,4340,4287.820313,4304.487305,4305.512695,4316.666504,4289.358887,4277.563965,4488.846191,4530.256348,4390.897461,4412.307617,,,,,,,,,,,,,,,,,,,,,,,,,,,,,,,,,,,,,,,,,,,,,,,,,,,,,,,,,,,,,,,,,,,,,,
1720159381,107,0,4274.358887,4292.692383,4332.179688,4341.922852,4287.692383,4304.615234,4306.666504,4328.589844,4305.384766,4274.743652,4482.179688,4526.025879,4379.230957,4391.922852,,,,,,,,,,,,,,,,,,,,,,,,,,,,,,,,,,,,,,,,,,,,,,,,,,,,,,,,,,,,,,,,,,,,,,
1720159381,108,0,4263.589844,4290.512695,4320.512695,4328.846191,4283.077148,4313.077148,4322.563965,4338.077148,4320.128418,4263.077148,4463.974121,4510.256348,4366.410156,4371.794922,0.125425,1.785532,1.013175,0.557306,0.320857,0.602713,3.277705,1.488938,0.898751,0.191162,1.181011,7.229639,4.070301,1.543077,0.368677,0.482828,2.401096,1.211546,1.026934,0.224493,0.275687,0.27379,0.142091,0.059517,0.103307,0.54214,2.051111,1.023599,0.637549,0.076949,1.404675,25.318346,10.348779,1.454157,0.235195,0.767969,10.957956,4.597768,0.863915,0.201017,1.394256,6.90362,1.349946,0.473956,0.1359,0.855946,1.727596,1.006647,0.222059,0.132139,0.542741,2.82688,2.610559,1.040991,0.358397,2.012721,10.052706,4.840425,1.47179,0.385673,0.766796,3.796526,2.164743,1.309386,0.393744,0.256979,1.103753,0.760359,0.47268,1.615045
1720159381,109,0,4271.410156,4285.897461,4323.077148,4324.230957,4284.743652,4317.692383,4336.794922,4345.897461,4320.128418,4261.410156,4461.922852,4508.205078,4362.820313,4393.077148,,,,,,,,,,,,,,,,,,,,,,,,,,,,,,,,,,,,,,,,,,,,,,,,,,,,,,,,,,,,,,,,,,,,,,
1720159381,110,0,4265.256348,4278.333496,4317.820313,4328.461426,4287.563965,4321.538574,4334.102539,4341.922852,4313.846191,4259.743652,4462.692383,4501.153809,4348.974121,4375.769043,,,,,,,,,,,,,,,,,,,,,,,,,,,,,,,,,,,,,,,,,,,,,,,,,,,,,,,,,,,,,,,,,,,,,,
1720159381,111,0,4262.307617,4270.769043,4313.846191,4324.615234,4287.05127,4323.846191,4329.487305,4335.769043,4319.615234,4256.538574,4464.743652,4498.205078,4352.692383,4374.487305,,,,,,,,,,,,,,,,,,,,,,,,,,,,,,,,,,,,,,,,,,,,,,,,,,,,,,,,,,,,,,,,,,,,,,
1720159381,112,0,4270.512695,4271.922852,4317.94873,4319.487305,4287.179688,4316.153809,4316.282227,4329.230957,4315.128418,4256.666504,4469.487305,4502.307617,4377.94873,4393.717773,,,,,,,,,,,,,,,,,,,,,,,,,,,,,,,,,,,,,,,,,,,,,,,,,,,,,,,,,,,,,,,,,,,,,,
1720159381,113,0,4276.282227,4279.358887,4322.05127,4328.717773,4287.563965,4308.589844,4302.436035,4316.922852,4296.410156,4255,4467.692383,4500.256348,4378.077148,4389.487305,,,,,,,,,,,,,,,,,,,,,,,,,,,,,,,,,,,,,,,,,,,,,,,,,,,,,,,,,,,,,,,,,,,,,,
1720159381,114,0,4280.897461,4284.102539,4328.846191,4340.384766,4288.974121,4312.692383,4311.794922,4318.461426,4297.692383,4252.94873,4474.871582,4508.589844,4364.358887,4388.974121,,,,,,,,,,,,,,,,,,,,,,,,,,,,,,,,,,,,,,,,,,,,,,,,,,,,,,,,,,,,,,,,,,,,,,
1720159381,115,0,4278.717773,4286.025879,4331.025879,4339.230957,4287.179688,4316.282227,4319.615234,4327.436035,4309.358887,4253.974121,4486.666504,4521.025879,4371.794922,4391.666504,,,,,,,,,,,,,,,,,,,,,,,,,,,,,,,,,,,,,,,,,,,,,,,,,,,,,,,,,,,,,,,,,,,,,,
1720159381,116,0,4287.307617,4293.846191,4340.769043,4340.384766,4288.333496,4311.794922,4318.461426,4332.820313,4310.384766,4258.717773,4485.641113,4530,4386.922852,4403.077148,,,,,,,,,,,,,,,,,,,,,,,,,,,,,,,,,,,,,,,,,,,,,,,,,,,,,,,,,,,,,,,,,,,,,,
1720159381,117,0,4296.666504,4306.666504,4351.922852,4348.974121,4292.692383,4310.512695,4318.077148,4331.794922,4306.025879,4262.94873,4483.974121,4530.897461,4386.538574,4403.205078,,,,,,,,,,,,,,,,,,,,,,,,,,,,,,,,,,,,,,,,,,,,,,,,,,,,,,,,,,,,,,,,,,,,,,
1720159381,118,0,4293.461426,4309.230957,4346.153809,4345.512695,4292.692383,4310.897461,4310.384766,4320.641113,4298.589844,4258.846191,4485.769043,4523.205078,4382.436035,4399.102539,,,,,,,,,,,,,,,,,,,,,,,,,,,,,,,,,,,,,,,,,,,,,,,,,,,,,,,,,,,,,,,,,,,,,,
1720159381,119,0,4289.615234,4300.897461,4335.897461,4340.256348,4290.512695,4310,4305.641113,4316.538574,4298.846191,4258.077148,4484.230957,4520.384766,4378.461426,4398.205078,,,,,,,,,,,,,,,,,,,,,,,,,,,,,,,,,,,,,,,,,,,,,,,,,,,,,,,,,,,,,,,,,,,,,,
1720159381,120,0,4285.512695,4289.487305,4327.05127,4342.94873,4288.205078,4311.922852,4314.358887,4328.717773,4315,4261.794922,4479.230957,4513.461426,4372.05127,4389.230957,,,,,,,,,,,,,,,,,,,,,,,,,,,,,,,,,,,,,,,,,,,,,,,,,,,,,,,,,,,,,,,,,,,,,,
1720159381,121,0,4277.436035,4279.487305,4315.512695,4333.974121,4286.025879,4313.077148,4323.077148,4338.077148,4328.077148,4259.743652,4473.077148,4499.743652,4369.615234,4380.769043,,,,,,,,,,,,,,,,,,,,,,,,,,,,,,,,,,,,,,,,,,,,,,,,,,,,,,,,,,,,,,,,,,,,,,
1720159381,122,0,4279.615234,4277.563965,4317.820313,4323.205078,4288.846191,4312.563965,4329.487305,4341.922852,4329.615234,4261.666504,4473.974121,4503.333496,4367.820313,4394.487305,,,,,,,,,,,,,,,,,,,,,,,,,,,,,,,,,,,,,,,,,,,,,,,,,,,,,,,,,,,,,,,,,,,,,,
1720159381,123,0,4286.922852,4285.897461,4328.333496,4330.384766,4291.282227,4312.307617,4331.666504,4340.897461,4326.666504,4263.974121,4484.487305,4518.333496,4372.692383,4401.282227,,,,,,,,,,,,,,,,,,,,,,,,,,,,,,,,,,,,,,,,,,,,,,,,,,,,,,,,,,,,,,,,,,,,,,
1720159381,124,0,4283.205078,4297.05127,4330.384766,4342.05127,4286.666504,4311.538574,4318.461426,4324.487305,4316.538574,4253.589844,4486.538574,4513.846191,4387.05127,4374.358887,0.157002,1.983513,1.037101,0.563558,0.327828,0.655588,3.777143,1.542519,0.942227,0.195001,1.250672,8.146081,4.274648,1.571772,0.364392,0.515684,2.818222,1.233795,1.022081,0.218231,0.205059,0.302516,0.137031,0.057195,0.106008,0.531965,2.401574,0.885145,0.570043,0.08025,1.429541,32.280174,8.493378,1.554758,0.223276,0.716491,13.32277,3.872265,0.923312,0.197744,1.384527,7.409953,1.091655,0.43055,0.128713,0.864697,2.007319,0.895572,0.221325,0.142977,0.53463,3.021108,2.613906,1.003826,0.357009,1.997733,11.248945,4.837792,1.581128,0.387023,0.814893,4.076203,2.003158,1.46791,0.400296,0.262094,1.152278,0.70514,0.491052,1.573864
1720159381,125,0,4296.538574,4304.743652,4342.436035,4343.974121,4289.230957,4310.641113,4312.307617,4319.615234,4310,4251.922852,4487.820313,4517.692383,4393.717773,4406.153809,,,,,,,,,,,,,,,,,,,,,,,,,,,,,,,,,,,,,,,,,,,,,,,,,,,,,,,,,,,,,,,,,,,,,,
1720159381,126,0,4308.974121,4306.025879,4352.692383,4347.179688,4296.538574,4315.384766,4321.538574,4328.717773,4311.282227,4261.153809,4499.871582,4534.487305,4391.410156,4430,,,,,,,,,,,,,,,,,,,,,,,,,,,,,,,,,,,,,,,,,,,,,,,,,,,,,,,,,,,,,,,,,,,,,,
1720159381,127,0,4296.794922,4303.461426,4346.666504,4353.589844,4292.179688,4322.179688,4321.153809,4325.769043,4313.461426,4258.077148,4504.230957,4532.179688,4395.641113,4392.179688,,,,,,,,,,,,,,,,,,,,,,,,,,,,,,,,,,,,,,,,,,,,,,,,,,,,,,,,,,,,,,,,,,,,,,
1720159381,0,0,4297.820313,4304.230957,4347.179688,4351.025879,4287.94873,4320.641113,4316.538574,4329.871582,4321.922852,4256.666504,4499.230957,4532.820313,4399.102539,4409.871582,,,,,,,,,,,,,,,,,,,,,,,,,,,,,,,,,,,,,,,,,,,,,,,,,,,,,,,,,,,,,,,,,,,,,,
1720159381,1,0,4294.102539,4301.153809,4346.025879,4339.487305,4289.358887,4317.307617,4320.641113,4339.615234,4326.153809,4260,4491.282227,4534.615234,4387.820313,4415.512695,,,,,,,,,,,,,,,,,,,,,,,,,,,,,,,,,,,,,,,,,,,,,,,,,,,,,,,,,,,,,,,,,,,,,,
1720159381,2,0,4285.384766,4296.538574,4342.692383,4340.256348,4288.333496,4320.384766,4328.717773,4337.436035,4321.410156,4255.897461,4491.922852,4531.282227,4384.615234,4392.05127,,,,,,,,,,,,,,,,,,,,,,,,,,,,,,,,,,,,,,,,,,,,,,,,,,,,,,,,,,,,,,,,,,,,,,
1720159381,3,0,4296.922852,4305.897461,4353.461426,4352.179688,4289.230957,4318.461426,4335.512695,4342.307617,4326.282227,4256.410156,4506.922852,4542.820313,4391.410156,4413.974121,,,,,,,,,,,,,,,,,,,,,,,,,,,,,,,,,,,,,,,,,,,,,,,,,,,,,,,,,,,,,,,,,,,,,,
1720159381,4,0,4297.94873,4314.743652,4358.589844,4350.897461,4291.410156,4311.922852,4334.230957,4349.358887,4336.666504,4259.358887,4511.282227,4546.282227,4389.230957,4412.179688,,,,,,,,,,,,,,,,,,,,,,,,,,,,,,,,,,,,,,,,,,,,,,,,,,,,,,,,,,,,,,,,,,,,,,
1720159381,5,0,4291.153809,4309.743652,4346.025879,4347.05127,4289.358887,4312.179688,4322.05127,4338.077148,4337.05127,4255.512695,4495.128418,4529.743652,4387.05127,4391.410156,,,,,,,,,,,,,,,,,,,,,,,,,,,,,,,,,,,,,,,,,,,,,,,,,,,,,,,,,,,,,,,,,,,,,,
1720159381,6,0,4300.384766,4304.871582,4337.820313,4353.333496,4293.077148,4311.666504,4316.666504,4335.769043,4338.077148,4260.128418,4483.077148,4523.333496,4385.256348,4412.05127,,,,,,,,,,,,,,,,,,,,,,,,,,,,,,,,,,,,,,,,,,,,,,,,,,,,,,,,,,,,,,,,,,,,,,
1720159381,7,0,4292.307617,4300.384766,4330.512695,4345.897461,4295,4307.820313,4320.897461,4339.743652,4339.102539,4265.512695,4484.487305,4519.615234,4381.794922,4401.282227,,,,,,,,,,,,,,,,,,,,,,,,,,,,,,,,,,,,,,,,,,,,,,,,,,,,,,,,,,,,,,,,,,,,,,
1720159381,8,0,4278.589844,4293.589844,4324.615234,4330,4289.487305,4314.615234,4316.922852,4326.538574,4330.384766,4257.05127,4492.307617,4510.256348,4382.820313,4376.922852,,,,,,,,,,,,,,,,,,,,,,,,,,,,,,,,,,,,,,,,,,,,,,,,,,,,,,,,,,,,,,,,,,,,,,
1720159381,9,0,4294.358887,4292.05127,4335.256348,4332.05127,4292.94873,4322.307617,4314.230957,4324.358887,4323.461426,4257.05127,4502.692383,4522.05127,4388.974121,4410.641113,,,,,,,,,,,,,,,,,,,,,,,,,,,,,,,,,,,,,,,,,,,,,,,,,,,,,,,,,,,,,,,,,,,,,,
1720159381,10,0,4301.410156,4297.820313,4338.974121,4344.358887,4294.871582,4316.153809,4313.717773,4328.461426,4322.563965,4264.358887,4495.128418,4528.461426,4390.256348,4412.307617,,,,,,,,,,,,,,,,,,,,,,,,,,,,,,,,,,,,,,,,,,,,,,,,,,,,,,,,,,,,,,,,,,,,,,
1720159381,11,0,4296.922852,4307.436035,4337.05127,4351.922852,4290.897461,4309.230957,4308.717773,4322.820313,4323.205078,4260.769043,4487.563965,4520.256348,4387.179688,4397.179688,,,,,,,,,,,,,,,,,,,,,,,,,,,,,,,,,,,,,,,,,,,,,,,,,,,,,,,,,,,,,,,,,,,,,,
1720159381,12,0,4297.563965,4313.589844,4344.487305,4348.974121,4293.205078,4309.487305,4304.487305,4321.538574,4326.025879,4251.794922,4492.563965,4525,4389.102539,4408.333496,0.205073,2.084004,0.966799,0.54616,0.322347,0.71355,4.121408,1.470155,0.947328,0.197786,1.285408,8.383229,4.012235,1.544476,0.343029,0.546773,3.041219,1.138951,1.006933,0.212555,0.140076,0.319506,0.123756,0.055082,0.108664,0.53464,2.816712,0.713634,0.497238,0.08085,1.52333,39.212383,6.305546,1.57079,0.202697,0.668273,15.724574,2.860644,0.907017,0.193867,1.245243,6.985297,0.901832,0.450371,0.123482,0.80843,2.14744,0.731754,0.234939,0.150849,0.545025,3.018802,2.369405,0.965861,0.351287,1.873907,11.649606,4.337485,1.651033,0.379954,0.940422,4.16923,1.775033,1.55639,0.412355,0.273111,1.138707,0.601151,0.511426,1.540543
1720159381,13,0,4294.487305,4310.384766,4346.025879,4343.589844,4291.410156,4309.615234,4306.025879,4325.256348,4326.666504,4245.641113,4488.717773,4529.615234,4387.436035,4403.717773,,,,,,,,,,,,,,,,,,,,,,,,,,,,,,,,,,,,,,,,,,,,,,,,,,,,,,,,,,,,,,,,,,,,,,
1720159382,14,0,4299.102539,4302.820313,4344.102539,4350.256348,4288.205078,4310.769043,4318.974121,4333.205078,4323.717773,4243.077148,4488.461426,4531.025879,4378.846191,4405.256348,,,,,,,,,,,,,,,,,,,,,,,,,,,,,,,,,,,,,,,,,,,,,,,,,,,,,,,,,,,,,,,,,,,,,,
1720159382,15,0,4296.538574,4300.769043,4344.358887,4352.179688,4292.05127,4313.846191,4330,4337.307617,4323.333496,4239.487305,4493.205078,4529.102539,4371.410156,4407.05127,,,,,,,,,,,,,,,,,,,,,,,,,,,,,,,,,,,,,,,,,,,,,,,,,,,,,,,,,,,,,,,,,,,,,,
1720159382,16,0,4286.025879,4296.922852,4339.743652,4339.743652,4294.102539,4313.974121,4326.153809,4332.563965,4323.717773,4239.615234,4486.922852,4518.974121,4370.384766,4401.153809,,,,,,,,,,,,,,,,,,,,,,,,,,,,,,,,,,,,,,,,,,,,,,,,,,,,,,,,,,,,,,,,,,,,,,
1720159382,17,0,4285.128418,4288.461426,4330,4339.743652,4292.94873,4312.05127,4317.307617,4328.589844,4323.589844,4244.230957,4481.282227,4509.615234,4374.487305,4392.94873,,,,,,,,,,,,,,,,,,,,,,,,,,,,,,,,,,,,,,,,,,,,,,,,,,,,,,,,,,,,,,,,,,,,,,
1720159382,18,0,4286.282227,4289.102539,4324.615234,4343.974121,4292.692383,4311.538574,4308.077148,4324.615234,4327.692383,4246.410156,4486.153809,4506.410156,4374.871582,4392.179688,,,,,,,,,,,,,,,,,,,,,,,,,,,,,,,,,,,,,,,,,,,,,,,,,,,,,,,,,,,,,,,,,,,,,,
1720159382,19,0,4284.871582,4293.461426,4320.128418,4329.230957,4293.333496,4311.538574,4298.589844,4318.077148,4331.794922,4247.94873,4485.897461,4501.025879,4368.205078,4398.077148,,,,,,,,,,,,,,,,,,,,,,,,,,,,,,,,,,,,,,,,,,,,,,,,,,,,,,,,,,,,,,,,,,,,,,
1720159382,20,0,4288.589844,4294.230957,4321.153809,4328.846191,4292.692383,4309.615234,4302.05127,4318.077148,4328.333496,4247.563965,4475,4498.205078,4359.743652,4394.615234,,,,,,,,,,,,,,,,,,,,,,,,,,,,,,,,,,,,,,,,,,,,,,,,,,,,,,,,,,,,,,,,,,,,,,
1720159382,21,0,4291.410156,4299.615234,4330.384766,4351.025879,4290.256348,4313.846191,4317.307617,4323.846191,4323.333496,4245.641113,4469.358887,4501.794922,4364.230957,4387.563965,,,,,,,,,,,,,,,,,,,,,,,,,,,,,,,,,,,,,,,,,,,,,,,,,,,,,,,,,,,,,,,,,,,,,,
1720159382,22,0,4294.358887,4306.922852,4336.538574,4361.538574,4292.179688,4321.922852,4325.641113,4331.794922,4328.077148,4248.589844,4477.307617,4508.717773,4374.102539,4400.512695,,,,,,,,,,,,,,,,,,,,,,,,,,,,,,,,,,,,,,,,,,,,,,,,,,,,,,,,,,,,,,,,,,,,,,
1720159382,23,0,4297.436035,4306.538574,4335.769043,4363.333496,4296.666504,4318.717773,4320.384766,4335.512695,4328.077148,4249.871582,4487.436035,4518.461426,4369.615234,4416.922852,,,,,,,,,,,,,,,,,,,,,,,,,,,,,,,,,,,,,,,,,,,,,,,,,,,,,,,,,,,,,,,,,,,,,,
1720159382,24,0,4283.077148,4303.846191,4328.333496,4373.974121,4295,4310.769043,4307.307617,4322.436035,4314.102539,4244.230957,4476.922852,4509.615234,4363.846191,4382.820313,,,,,,,,,,,,,,,,,,,,,,,,,,,,,,,,,,,,,,,,,,,,,,,,,,,,,,,,,,,,,,,,,,,,,,
1720159382,25,0,4282.307617,4302.563965,4327.05127,4383.974121,4295.256348,4309.487305,4302.307617,4317.563965,4312.307617,4243.461426,4470,4502.563965,4372.692383,4385,,,,,,,,,,,,,,,,,,,,,,,,,,,,,,,,,,,,,,,,,,,,,,,,,,,,,,,,,,,,,,,,,,,,,,
1720159382,26,0,4297.307617,4307.179688,4332.94873,4390.897461,4298.333496,4310.512695,4309.615234,4331.025879,4326.410156,4248.846191,4486.410156,4516.666504,4380.256348,4423.974121,,,,,,,,,,,,,,,,,,,,,,,,,,,,,,,,,,,,,,,,,,,,,,,,,,,,,,,,,,,,,,,,,,,,,,
1720159382,27,0,4290.641113,4312.307617,4330.769043,4405.641113,4292.563965,4310,4317.820313,4332.692383,4328.333496,4248.461426,4487.94873,4515,4367.820313,4392.307617,,,,,,,,,,,,,,,,,,,,,,,,,,,,,,,,,,,,,,,,,,,,,,,,,,,,,,,,,,,,,,,,,,,,,,
1720159382,28,0,4290.256348,4301.410156,4329.358887,4418.846191,4291.538574,4311.410156,4324.487305,4332.692383,4325.128418,4247.307617,4474.743652,4506.153809,4357.94873,4386.025879,0.270286,2.096921,0.833299,0.512568,0.305151,0.802038,4.294254,1.304726,0.933812,0.195422,1.298375,7.903686,3.385428,1.485202,0.311793,0.589973,3.026207,0.948528,0.991455,0.208053,0.098608,0.319465,0.106606,0.053667,0.110141,0.540274,3.13654,0.552629,0.434456,0.078847,1.651575,43.920536,4.30653,1.497157,0.176208,0.6386,17.560122,1.89123,0.829738,0.18867,0.980113,5.849546,0.836764,0.540049,0.122104,0.740415,2.142632,0.557972,0.25719,0.15599,0.579474,2.867928,2.008992,0.933721,0.344087,1.702604,11.18099,3.532567,1.669332,0.369371,1.167739,4.139741,1.586438,1.551165,0.423488,0.294831,1.10512,0.480384,0.525884,1.516451
1720159382,29,0,4292.563965,4290.641113,4325.128418,4422.692383,4296.666504,4312.307617,4323.589844,4337.692383,4332.179688,4250.128418,4472.94873,4503.205078,4366.153809,4407.05127,,,,,,,,,,,,,,,,,,,,,,,,,,,,,,,,,,,,,,,,,,,,,,,,,,,,,,,,,,,,,,,,,,,,,,
1720159382,30,0,4281.282227,4295.512695,4313.974121,4430.641113,4296.410156,4310.769043,4309.230957,4328.846191,4334.230957,4248.589844,4469.871582,4489.487305,4365.128418,4383.717773,,,,,,,,,,,,,,,,,,,,,,,,,,,,,,,,,,,,,,,,,,,,,,,,,,,,,,,,,,,,,,,,,,,,,,
1720159382,31,0,4287.563965,4296.025879,4317.94873,4445.384766,4295.384766,4309.743652,4299.358887,4317.436035,4325.512695,4248.461426,4464.102539,4487.179688,4357.563965,4387.94873,,,,,,,,,,,,,,,,,,,,,,,,,,,,,,,,,,,,,,,,,,,,,,,,,,,,,,,,,,,,,,,,,,,,,,
1720159382,32,0,4297.179688,4287.94873,4326.538574,4446.922852,4296.666504,4308.589844,4299.743652,4315.384766,4324.358887,4249.487305,4467.307617,4505,4359.358887,4412.692383,,,,,,,,,,,,,,,,,,,,,,,,,,,,,,,,,,,,,,,,,,,,,,,,,,,,,,,,,,,,,,,,,,,,,,
1720159382,33,0,4281.410156,4286.153809,4314.743652,4445.512695,4296.794922,4309.230957,4299.230957,4313.974121,4326.922852,4241.410156,4461.410156,4497.692383,4351.922852,4390.769043,,,,,,,,,,,,,,,,,,,,,,,,,,,,,,,,,,,,,,,,,,,,,,,,,,,,,,,,,,,,,,,,,,,,,,
1720159382,34,0,4278.205078,4286.538574,4307.436035,4462.05127,4297.563965,4308.333496,4304.743652,4317.436035,4322.436035,4230.384766,4456.794922,4482.179688,4341.025879,4387.820313,,,,,,,,,,,,,,,,,,,,,,,,,,,,,,,,,,,,,,,,,,,,,,,,,,,,,,,,,,,,,,,,,,,,,,
1720159382,35,0,4284.358887,4280.384766,4312.692383,4475.128418,4296.666504,4301.282227,4310.769043,4325,4315.769043,4225,4464.102539,4491.922852,4350.128418,4400.641113,,,,,,,,,,,,,,,,,,,,,,,,,,,,,,,,,,,,,,,,,,,,,,,,,,,,,,,,,,,,,,,,,,,,,,
1720159382,36,0,4278.333496,4284.487305,4314.230957,4479.615234,4289.615234,4294.871582,4304.487305,4318.717773,4316.282227,4221.410156,4460.384766,4499.102539,4356.666504,4381.153809,,,,,,,,,,,,,,,,,,,,,,,,,,,,,,,,,,,,,,,,,,,,,,,,,,,,,,,,,,,,,,,,,,,,,,
1720159382,37,0,4289.615234,4294.615234,4324.871582,4496.282227,4291.922852,4298.589844,4297.563965,4314.743652,4326.794922,4222.563965,4462.05127,4504.358887,4350.769043,4395.641113,,,,,,,,,,,,,,,,,,,,,,,,,,,,,,,,,,,,,,,,,,,,,,,,,,,,,,,,,,,,,,,,,,,,,,
1720159382,38,0,4296.666504,4294.871582,4333.717773,4516.153809,4297.307617,4303.589844,4291.922852,4313.846191,4336.794922,4230.897461,4477.563965,4511.153809,4359.230957,4407.563965,,,,,,,,,,,,,,,,,,,,,,,,,,,,,,,,,,,,,,,,,,,,,,,,,,,,,,,,,,,,,,,,,,,,,,
1720159382,39,0,4290.641113,4293.846191,4332.436035,4526.666504,4296.538574,4304.230957,4288.717773,4308.589844,4341.025879,4230,4476.922852,4510.897461,4364.358887,4394.487305,,,,,,,,,,,,,,,,,,,,,,,,,,,,,,,,,,,,,,,,,,,,,,,,,,,,,,,,,,,,,,,,,,,,,,
1720159382,40,0,4293.077148,4292.307617,4331.794922,4535.128418,4297.179688,4308.205078,4297.436035,4314.871582,4340.641113,4220.384766,4461.538574,4506.153809,4351.666504,4394.230957,,,,,,,,,,,,,,,,,,,,,,,,,,,,,,,,,,,,,,,,,,,,,,,,,,,,,,,,,,,,,,,,,,,,,,
1720159382,41,0,4290.384766,4282.820313,4319.743652,4541.666504,4293.333496,4306.025879,4305.256348,4319.102539,4336.922852,4214.871582,4454.871582,4493.974121,4346.538574,4392.179688,,,,,,,,,,,,,,,,,,,,,,,,,,,,,,,,,,,,,,,,,,,,,,,,,,,,,,,,,,,,,,,,,,,,,,
1720159382,42,0,4285,4273.974121,4305.897461,4547.05127,4290.256348,4298.461426,4312.05127,4321.666504,4338.589844,4214.743652,4460.128418,4487.05127,4344.615234,4391.666504,,,,,,,,,,,,,,,,,,,,,,,,,,,,,,,,,,,,,,,,,,,,,,,,,,,,,,,,,,,,,,,,,,,,,,
1720159382,43,0,4284.487305,4276.794922,4308.974121,4557.307617,4291.410156,4302.307617,4324.358887,4330.769043,4345.897461,4215.641113,4461.666504,4491.025879,4335.512695,4388.333496,,,,,,,,,,,,,,,,,,,,,,,,,,,,,,,,,,,,,,,,,,,,,,,,,,,,,,,,,,,,,,,,,,,,,,
1720159382,44,0,4288.717773,4281.922852,4320.512695,4570.897461,4292.563965,4308.333496,4326.794922,4335.384766,4351.025879,4216.025879,4459.615234,4501.282227,4340.384766,4393.461426,0.339305,2.052698,0.687867,0.474465,0.279772,0.911242,4.319136,1.123985,0.928052,0.184621,1.29083,6.907258,2.607584,1.417713,0.277558,0.639148,2.814183,0.72724,0.984146,0.206706,0.082852,0.300165,0.091102,0.052771,0.108606,0.542347,3.21938,0.43799,0.388994,0.075251,1.792777,44.65683,2.832797,1.372894,0.148405,0.658496,18.189857,1.230238,0.732498,0.181829,0.669869,4.49569,0.908752,0.686661,0.125228,0.714962,2.026361,0.413727,0.282585,0.157819,0.642254,2.637368,1.669071,0.906873,0.337807,1.544138,9.985578,2.679603,1.630257,0.357572,1.4607,4.054823,1.496365,1.462776,0.425647,0.326206,1.096653,0.373083,0.528198,1.49452
1720159382,45,0,4288.333496,4282.692383,4322.692383,4583.974121,4293.846191,4303.717773,4317.179688,4331.410156,4348.461426,4217.179688,4459.743652,4503.717773,4351.794922,4394.487305,,,,,,,,,,,,,,,,,,,,,,,,,,,,,,,,,,,,,,,,,,,,,,,,,,,,,,,,,,,,,,,,,,,,,,
1720159382,46,0,4283.077148,4282.820313,4315,4586.666504,4295.256348,4303.205078,4307.307617,4321.666504,4344.102539,4216.410156,4462.692383,4494.487305,4347.94873,4386.410156,,,,,,,,,,,,,,,,,,,,,,,,,,,,,,,,,,,,,,,,,,,,,,,,,,,,,,,,,,,,,,,,,,,,,,
1720159382,47,0,4283.589844,4282.563965,4306.794922,4585.256348,4298.205078,4309.230957,4298.205078,4313.205078,4342.307617,4211.922852,4458.077148,4485.384766,4340.256348,4386.922852,,,,,,,,,,,,,,,,,,,,,,,,,,,,,,,,,,,,,,,,,,,,,,,,,,,,,,,,,,,,,,,,,,,,,,
1720159382,48,0,4285,4280.384766,4299.743652,4597.820313,4300.897461,4306.282227,4290.256348,4307.820313,4341.410156,4206.538574,4450.512695,4477.820313,4339.102539,4389.871582,,,,,,,,,,,,,,,,,,,,,,,,,,,,,,,,,,,,,,,,,,,,,,,,,,,,,,,,,,,,,,,,,,,,,,
1720159382,49,0,4281.538574,4279.615234,4298.205078,4610.384766,4299.871582,4304.487305,4289.230957,4306.410156,4342.820313,4207.94873,4459.487305,4476.025879,4346.538574,4387.94873,,,,,,,,,,,,,,,,,,,,,,,,,,,,,,,,,,,,,,,,,,,,,,,,,,,,,,,,,,,,,,,,,,,,,,
1720159382,50,0,4288.333496,4286.282227,4313.717773,4617.179688,4298.974121,4306.538574,4295.128418,4311.794922,4347.692383,4212.05127,4475.897461,4491.922852,4358.846191,4391.025879,,,,,,,,,,,,,,,,,,,,,,,,,,,,,,,,,,,,,,,,,,,,,,,,,,,,,,,,,,,,,,,,,,,,,,
1720159382,51,0,4309.743652,4296.153809,4340.128418,4634.230957,4304.358887,4302.05127,4303.461426,4323.974121,4351.666504,4209.871582,4481.666504,4521.025879,4363.461426,4419.230957,,,,,,,,,,,,,,,,,,,,,,,,,,,,,,,,,,,,,,,,,,,,,,,,,,,,,,,,,,,,,,,,,,,,,,
1720159382,52,0,4303.717773,4297.820313,4340.897461,4647.05127,4302.307617,4302.307617,4305.512695,4320.897461,4350.512695,4203.589844,4471.410156,4519.871582,4362.820313,4406.410156,,,,,,,,,,,,,,,,,,,,,,,,,,,,,,,,,,,,,,,,,,,,,,,,,,,,,,,,,,,,,,,,,,,,,,
1720159382,53,0,4286.025879,4289.358887,4321.922852,4636.538574,4294.871582,4310.897461,4308.974121,4314.230957,4351.410156,4199.230957,4462.692383,4497.692383,4356.922852,4382.436035,,,,,,,,,,,,,,,,,,,,,,,,,,,,,,,,,,,,,,,,,,,,,,,,,,,,,,,,,,,,,,,,,,,,,,
1720159382,54,0,4292.820313,4278.333496,4316.666504,4628.589844,4300,4315.128418,4319.871582,4331.153809,4356.666504,4201.282227,4464.743652,4497.436035,4346.282227,4406.538574,,,,,,,,,,,,,,,,,,,,,,,,,,,,,,,,,,,,,,,,,,,,,,,,,,,,,,,,,,,,,,,,,,,,,,
1720159382,55,0,4283.461426,4271.666504,4307.94873,4633.333496,4299.615234,4311.025879,4319.102539,4334.487305,4358.205078,4198.077148,4451.538574,4485.512695,4330.256348,4388.077148,,,,,,,,,,,,,,,,,,,,,,,,,,,,,,,,,,,,,,,,,,,,,,,,,,,,,,,,,,,,,,,,,,,,,,
1720159382,56,0,4267.692383,4259.487305,4291.922852,4626.410156,4290.897461,4302.94873,4307.436035,4320.384766,4356.025879,4190,4437.179688,4464.743652,4311.922852,4368.077148,,,,,,,,,,,,,,,,,,,,,,,,,,,,,,,,,,,,,,,,,,,,,,,,,,,,,,,,,,,,,,,,,,,,,,
1720159382,57,0,4277.820313,4253.717773,4294.102539,4620.769043,4288.717773,4293.461426,4297.179688,4313.974121,4353.205078,4191.538574,4440.897461,4470.641113,4314.615234,4390.769043,,,,,,,,,,,,,,,,,,,,,,,,,,,,,,,,,,,,,,,,,,,,,,,,,,,,,,,,,,,,,,,,,,,,,,
1720159382,58,0,4290.512695,4273.205078,4310.897461,4632.692383,4293.461426,4293.333496,4293.461426,4311.794922,4353.717773,4200.769043,4449.743652,4483.717773,4339.358887,4388.077148,,,,,,,,,,,,,,,,,,,,,,,,,,,,,,,,,,,,,,,,,,,,,,,,,,,,,,,,,,,,,,,,,,,,,,
1720159382,59,0,4295.256348,4292.563965,4316.410156,4641.153809,4300.128418,4304.743652,4298.974121,4313.461426,4357.692383,4205,4460.512695,4489.358887,4355.897461,4388.205078,,,,,,,,,,,,,,,,,,,,,,,,,,,,,,,,,,,,,,,,,,,,,,,,,,,,,,,,,,,,,,,,,,,,,,
1720159382,60,0,4297.820313,4287.820313,4310.769043,4631.025879,4303.077148,4310.641113,4302.820313,4319.102539,4357.692383,4200.384766,4465.512695,4491.410156,4351.538574,4402.436035,0.392746,1.978836,0.58413,0.443002,0.252805,1.013326,4.233993,1.011214,0.947188,0.16568,1.254524,5.732822,1.920279,1.356078,0.244788,0.71739,2.51021,0.561323,0.98578,0.210171,0.083921,0.26396,0.081968,0.051918,0.102655,0.526008,3.002455,0.389862,0.358367,0.071538,1.877373,40.901932,2.032904,1.267468,0.123661,0.722313,17.236956,1.011565,0.664246,0.173855,0.406878,3.41563,1.082122,0.854927,0.132046,0.754249,1.844614,0.321948,0.305581,0.155478,0.714698,2.387337,1.438879,0.880023,0.334136,1.441681,8.392486,2.010702,1.537506,0.344343,1.767724,3.94051,1.500075,1.324076,0.415597,0.35835,1.138536,0.302342,0.515805,1.469561
1720159382,61,0,4294.487305,4282.563965,4309.102539,4619.230957,4299.487305,4308.333496,4299.487305,4318.077148,4351.282227,4193.846191,4452.179688,4486.153809,4342.05127,4386.025879,,,,,,,,,,,,,,,,,,,,,,,,,,,,,,,,,,,,,,,,,,,,,,,,,,,,,,,,,,,,,,,,,,,,,,
1720159382,62,0,4298.077148,4286.025879,4316.282227,4618.589844,4297.94873,4306.794922,4303.846191,4319.230957,4348.461426,4190.256348,4448.974121,4488.974121,4340.512695,4392.94873,,,,,,,,,,,,,,,,,,,,,,,,,,,,,,,,,,,,,,,,,,,,,,,,,,,,,,,,,,,,,,,,,,,,,,
1720159382,63,0,4306.794922,4291.666504,4331.153809,4617.05127,4303.461426,4309.102539,4321.922852,4335.897461,4353.461426,4190.256348,4473.461426,4513.717773,4354.102539,4424.358887,,,,,,,,,,,,,,,,,,,,,,,,,,,,,,,,,,,,,,,,,,,,,,,,,,,,,,,,,,,,,,,,,,,,,,
1720159382,64,0,4303.333496,4301.666504,4343.077148,4611.666504,4299.230957,4310.641113,4334.358887,4341.922852,4360.128418,4190,4481.922852,4525,4366.922852,4405.256348,,,,,,,,,,,,,,,,,,,,,,,,,,,,,,,,,,,,,,,,,,,,,,,,,,,,,,,,,,,,,,,,,,,,,,
1720159382,65,0,4311.025879,4305.512695,4350.256348,4602.820313,4292.94873,4310.384766,4338.589844,4340.256348,4362.563965,4190.769043,4469.743652,4522.179688,4357.307617,4399.487305,,,,,,,,,,,,,,,,,,,,,,,,,,,,,,,,,,,,,,,,,,,,,,,,,,,,,,,,,,,,,,,,,,,,,,
1720159382,66,0,4313.205078,4296.410156,4342.563965,4586.153809,4297.179688,4308.846191,4333.077148,4338.846191,4360.897461,4188.589844,4467.436035,4517.692383,4343.461426,4404.487305,,,,,,,,,,,,,,,,,,,,,,,,,,,,,,,,,,,,,,,,,,,,,,,,,,,,,,,,,,,,,,,,,,,,,,
1720159382,67,0,4298.333496,4288.717773,4325,4567.179688,4298.589844,4305.897461,4317.179688,4326.410156,4361.666504,4184.743652,4465.897461,4504.871582,4347.436035,4389.743652,,,,,,,,,,,,,,,,,,,,,,,,,,,,,,,,,,,,,,,,,,,,,,,,,,,,,,,,,,,,,,,,,,,,,,
1720159382,68,0,4302.692383,4294.358887,4320.512695,4559.102539,4299.615234,4305.641113,4307.820313,4322.563965,4366.282227,4192.563965,4461.666504,4498.974121,4354.487305,4396.538574,,,,,,,,,,,,,,,,,,,,,,,,,,,,,,,,,,,,,,,,,,,,,,,,,,,,,,,,,,,,,,,,,,,,,,
1720159382,69,0,4313.589844,4304.615234,4324.230957,4551.666504,4299.743652,4301.538574,4303.589844,4324.871582,4367.563965,4202.563965,4462.179688,4499.358887,4349.615234,4398.717773,,,,,,,,,,,,,,,,,,,,,,,,,,,,,,,,,,,,,,,,,,,,,,,,,,,,,,,,,,,,,,,,,,,,,,
1720159382,70,0,4316.410156,4307.436035,4331.666504,4538.461426,4295.769043,4296.025879,4306.922852,4325.384766,4367.436035,4202.94873,4469.487305,4506.666504,4355.897461,4400.384766,,,,,,,,,,,,,,,,,,,,,,,,,,,,,,,,,,,,,,,,,,,,,,,,,,,,,,,,,,,,,,,,,,,,,,
1720159382,71,0,4318.205078,4309.487305,4342.05127,4540,4294.615234,4299.615234,4313.846191,4328.589844,4361.538574,4201.282227,4479.102539,4515.512695,4375.641113,4408.589844,,,,,,,,,,,,,,,,,,,,,,,,,,,,,,,,,,,,,,,,,,,,,,,,,,,,,,,,,,,,,,,,,,,,,,
1720159382,72,0,4318.461426,4312.179688,4344.743652,4543.077148,4296.153809,4309.615234,4309.871582,4324.615234,4346.538574,4200.384766,4475.512695,4512.94873,4371.282227,4406.538574,,,,,,,,,,,,,,,,,,,,,,,,,,,,,,,,,,,,,,,,,,,,,,,,,,,,,,,,,,,,,,,,,,,,,,
1720159382,73,0,4310,4299.743652,4337.179688,4522.820313,4297.563965,4315.256348,4307.563965,4317.05127,4338.717773,4193.333496,4456.666504,4502.436035,4344.743652,4394.871582,,,,,,,,,,,,,,,,,,,,,,,,,,,,,,,,,,,,,,,,,,,,,,,,,,,,,,,,,,,,,,,,,,,,,,
1720159382,74,0,4305.256348,4289.358887,4328.974121,4505,4298.589844,4315.256348,4315.384766,4317.307617,4343.974121,4187.05127,4449.358887,4496.410156,4336.025879,4390.256348,,,,,,,,,,,,,,,,,,,,,,,,,,,,,,,,,,,,,,,,,,,,,,,,,,,,,,,,,,,,,,,,,,,,,,
1720159382,75,0,4313.205078,4298.717773,4325.256348,4504.487305,4298.717773,4310.897461,4320.384766,4322.05127,4345.897461,4189.743652,4458.333496,4496.410156,4343.589844,4396.282227,,,,,,,,,,,,,,,,,,,,,,,,,,,,,,,,,,,,,,,,,,,,,,,,,,,,,,,,,,,,,,,,,,,,,,
1720159382,76,0,4317.05127,4301.410156,4327.05127,4500.384766,4298.846191,4307.563965,4322.05127,4329.871582,4343.846191,4190.384766,4461.922852,4498.333496,4346.282227,4399.230957,0.415627,1.884534,0.554251,0.424688,0.230509,1.083498,4.062002,1.011114,0.986737,0.1421,1.188589,4.699285,1.473048,1.303365,0.215557,0.816163,2.233295,0.500278,0.984054,0.217931,0.090454,0.218322,0.080899,0.050907,0.092361,0.490518,2.518643,0.400754,0.336468,0.069069,1.871327,33.588913,1.833957,1.23463,0.104762,0.810757,14.786804,1.174598,0.652323,0.165224,0.250595,2.85523,1.291531,1.000047,0.140238,0.855832,1.627545,0.288669,0.321802,0.148203,0.767703,2.154698,1.326589,0.84839,0.333894,1.389398,6.787578,1.619912,1.407047,0.328631,1.990427,3.773909,1.54833,1.171624,0.395458,0.37677,1.218314,0.277378,0.491332,1.436798
1720159382,77,0,4314.102539,4301.282227,4331.282227,4489.487305,4296.922852,4312.179688,4325.897461,4335.769043,4342.94873,4191.153809,4464.615234,4500.897461,4350.512695,4395.897461,,,,,,,,,,,,,,,,,,,,,,,,,,,,,,,,,,,,,,,,,,,,,,,,,,,,,,,,,,,,,,,,,,,,,,
1720159382,78,0,4313.589844,4308.717773,4328.077148,4483.333496,4294.102539,4308.077148,4320.384766,4328.717773,4341.922852,4196.025879,4472.179688,4502.307617,4360.512695,4385.128418,,,,,,,,,,,,,,,,,,,,,,,,,,,,,,,,,,,,,,,,,,,,,,,,,,,,,,,,,,,,,,,,,,,,,,
1720159382,79,0,4325,4305.256348,4328.077148,4477.94873,4299.102539,4297.179688,4310,4323.333496,4342.692383,4205.512695,4478.077148,4512.820313,4367.05127,4411.538574,,,,,,,,,,,,,,,,,,,,,,,,,,,,,,,,,,,,,,,,,,,,,,,,,,,,,,,,,,,,,,,,,,,,,,
1720159382,80,0,4322.563965,4295.384766,4326.025879,4468.589844,4301.666504,4298.974121,4301.025879,4318.461426,4340.641113,4208.461426,4473.846191,4508.717773,4359.871582,4414.743652,,,,,,,,,,,,,,,,,,,,,,,,,,,,,,,,,,,,,,,,,,,,,,,,,,,,,,,,,,,,,,,,,,,,,,
1720159382,81,0,4307.05127,4294.871582,4316.794922,4458.846191,4293.589844,4302.179688,4295.256348,4305.512695,4333.846191,4203.974121,4461.538574,4481.538574,4347.179688,4372.94873,,,,,,,,,,,,,,,,,,,,,,,,,,,,,,,,,,,,,,,,,,,,,,,,,,,,,,,,,,,,,,,,,,,,,,
1720159382,82,0,4317.692383,4298.974121,4322.692383,4455.512695,4291.922852,4294.871582,4297.692383,4310.256348,4336.282227,4210.769043,4469.615234,4487.692383,4353.205078,4395.769043,,,,,,,,,,,,,,,,,,,,,,,,,,,,,,,,,,,,,,,,,,,,,,,,,,,,,,,,,,,,,,,,,,,,,,
1720159382,83,0,4324.615234,4305.512695,4329.743652,4450.897461,4295.897461,4293.461426,4298.717773,4320.512695,4342.179688,4222.179688,4486.282227,4509.102539,4368.333496,4412.820313,,,,,,,,,,,,,,,,,,,,,,,,,,,,,,,,,,,,,,,,,,,,,,,,,,,,,,,,,,,,,,,,,,,,,,
1720159382,84,0,4316.153809,4306.794922,4330.128418,4439.871582,4294.615234,4303.077148,4308.974121,4321.282227,4339.743652,4220.769043,4472.179688,4503.205078,4361.794922,4389.358887,,,,,,,,,,,,,,,,,,,,,,,,,,,,,,,,,,,,,,,,,,,,,,,,,,,,,,,,,,,,,,,,,,,,,,
1720159382,85,0,4314.871582,4296.282227,4333.589844,4437.563965,4294.871582,4308.717773,4326.538574,4329.358887,4337.820313,4215.384766,4453.205078,4494.615234,4346.538574,4393.333496,,,,,,,,,,,,,,,,,,,,,,,,,,,,,,,,,,,,,,,,,,,,,,,,,,,,,,,,,,,,,,,,,,,,,,
1720159382,86,0,4312.563965,4293.461426,4326.794922,4438.589844,4294.871582,4310.128418,4327.05127,4331.282227,4336.410156,4217.692383,4458.846191,4492.94873,4346.922852,4391.922852,,,,,,,,,,,,,,,,,,,,,,,,,,,,,,,,,,,,,,,,,,,,,,,,,,,,,,,,,,,,,,,,,,,,,,
1720159382,87,0,4314.615234,4295,4317.563965,4426.282227,4291.282227,4311.153809,4317.563965,4322.307617,4331.666504,4218.077148,4461.538574,4489.743652,4345.256348,4392.179688,,,,,,,,,,,,,,,,,,,,,,,,,,,,,,,,,,,,,,,,,,,,,,,,,,,,,,,,,,,,,,,,,,,,,,
1720159382,88,0,4323.333496,4292.563965,4324.102539,4415.512695,4291.794922,4308.333496,4311.538574,4321.794922,4328.461426,4215.897461,4454.743652,4491.282227,4335.384766,4403.461426,,,,,,,,,,,,,,,,,,,,,,,,,,,,,,,,,,,,,,,,,,,,,,,,,,,,,,,,,,,,,,,,,,,,,,
1720159382,89,0,4324.102539,4302.692383,4334.615234,4414.871582,4295.897461,4301.282227,4308.205078,4324.487305,4327.05127,4219.230957,4462.94873,4498.461426,4342.307617,4390.641113,,,,,,,,,,,,,,,,,,,,,,,,,,,,,,,,,,,,,,,,,,,,,,,,,,,,,,,,,,,,,,,,,,,,,,
1720159382,90,0,4328.846191,4318.077148,4337.179688,4415.256348,4297.05127,4295.512695,4308.846191,4322.692383,4326.666504,4226.282227,4473.333496,4507.05127,4361.282227,4390.769043,,,,,,,,,,,,,,,,,,,,,,,,,,,,,,,,,,,,,,,,,,,,,,,,,,,,,,,,,,,,,,,,,,,,,,
1720159382,91,0,4335.128418,4315.512695,4335.256348,4407.692383,4299.743652,4294.358887,4313.589844,4328.589844,4328.205078,4231.922852,4473.846191,4513.333496,4356.666504,4414.358887,,,,,,,,,,,,,,,,,,,,,,,,,,,,,,,,,,,,,,,,,,,,,,,,,,,,,,,,,,,,,,,,,,,,,,
1720159382,92,0,4316.666504,4305.256348,4318.974121,4393.205078,4299.358887,4293.717773,4305.384766,4323.461426,4323.717773,4229.102539,4471.410156,4496.410156,4340.641113,4388.974121,0.399017,1.766959,0.594653,0.419742,0.217496,1.096313,3.808619,1.106626,1.023948,0.119945,1.093451,4.010015,1.26857,1.260136,0.190846,0.926467,2.060424,0.540526,0.960111,0.228493,0.095222,0.174373,0.086376,0.050106,0.079938,0.44061,1.884689,0.43896,0.317879,0.068728,1.75153,24.674671,2.029059,1.279175,0.092758,0.889776,11.400784,1.51792,0.687267,0.15724,0.201853,2.738888,1.448638,1.077271,0.146651,0.98379,1.377985,0.305022,0.327566,0.136185,0.782789,1.958709,1.264013,0.809007,0.338189,1.36915,5.496311,1.435907,1.266504,0.311908,2.061763,3.516966,1.579409,1.032602,0.371611,0.37406,1.300165,0.2923,0.461389,1.399632
1720159382,93,0,4314.102539,4309.358887,4313.205078,4389.358887,4301.025879,4296.025879,4296.794922,4312.820313,4321.025879,4228.974121,4469.358887,4481.538574,4350.641113,4384.871582,,,,,,,,,,,,,,,,,,,,,,,,,,,,,,,,,,,,,,,,,,,,,,,,,,,,,,,,,,,,,,,,,,,,,,
1720159382,94,0,4331.538574,4314.487305,4327.563965,4398.461426,4305.769043,4305.256348,4306.153809,4319.743652,4327.94873,4236.666504,4468.717773,4493.717773,4366.538574,4408.717773,,,,,,,,,,,,,,,,,,,,,,,,,,,,,,,,,,,,,,,,,,,,,,,,,,,,,,,,,,,,,,,,,,,,,,
1720159382,95,0,4325.769043,4309.871582,4328.846191,4397.05127,4300,4311.153809,4316.153809,4323.717773,4328.077148,4240.641113,4472.05127,4501.410156,4361.410156,4391.922852,,,,,,,,,,,,,,,,,,,,,,,,,,,,,,,,,,,,,,,,,,,,,,,,,,,,,,,,,,,,,,,,,,,,,,
1720159382,96,0,4324.358887,4307.436035,4326.794922,4382.307617,4296.153809,4308.333496,4322.820313,4325.512695,4321.794922,4241.922852,4476.282227,4503.333496,4359.871582,4396.153809,,,,,,,,,,,,,,,,,,,,,,,,,,,,,,,,,,,,,,,,,,,,,,,,,,,,,,,,,,,,,,,,,,,,,,
1720159382,97,0,4329.102539,4309.743652,4327.94873,4375,4296.025879,4306.410156,4324.615234,4330.256348,4321.025879,4245.256348,4469.871582,4501.153809,4366.794922,4402.94873,,,,,,,,,,,,,,,,,,,,,,,,,,,,,,,,,,,,,,,,,,,,,,,,,,,,,,,,,,,,,,,,,,,,,,
1720159382,98,0,4323.333496,4307.692383,4323.205078,4375.128418,4294.102539,4310.641113,4316.922852,4326.153809,4325.769043,4252.05127,4467.307617,4494.358887,4364.230957,4393.589844,,,,,,,,,,,,,,,,,,,,,,,,,,,,,,,,,,,,,,,,,,,,,,,,,,,,,,,,,,,,,,,,,,,,,,
1720159382,99,0,4319.102539,4305.512695,4318.461426,4366.794922,4296.153809,4308.974121,4308.974121,4321.538574,4328.717773,4261.025879,4475.256348,4495.512695,4364.615234,4395.256348,,,,,,,,,,,,,,,,,,,,,,,,,,,,,,,,,,,,,,,,,,,,,,,,,,,,,,,,,,,,,,,,,,,,,,
1720159382,100,0,4321.410156,4311.282227,4319.487305,4362.563965,4298.205078,4299.230957,4302.05127,4319.358887,4322.179688,4262.179688,4477.05127,4498.846191,4369.487305,4396.538574,,,,,,,,,,,,,,,,,,,,,,,,,,,,,,,,,,,,,,,,,,,,,,,,,,,,,,,,,,,,,,,,,,,,,,
1720159382,101,0,4328.589844,4316.538574,4328.974121,4373.589844,4300.769043,4296.282227,4302.05127,4319.230957,4317.820313,4260.128418,4475.384766,4503.974121,4366.794922,4397.05127,,,,,,,,,,,,,,,,,,,,,,,,,,,,,,,,,,,,,,,,,,,,,,,,,,,,,,,,,,,,,,,,,,,,,,
1720159382,102,0,4333.077148,4322.05127,4336.282227,4378.461426,4304.487305,4301.282227,4311.025879,4324.871582,4321.922852,4263.333496,4477.436035,4512.94873,4372.179688,4397.307617,,,,,,,,,,,,,,,,,,,,,,,,,,,,,,,,,,,,,,,,,,,,,,,,,,,,,,,,,,,,,,,,,,,,,,
1720159382,103,0,4330.769043,4325.769043,4331.153809,4363.846191,4302.179688,4305.641113,4317.94873,4327.820313,4321.666504,4259.743652,4475,4514.230957,4376.025879,4396.282227,,,,,,,,,,,,,,,,,,,,,,,,,,,,,,,,,,,,,,,,,,,,,,,,,,,,,,,,,,,,,,,,,,,,,,
1720159382,104,0,4323.333496,4313.077148,4319.871582,4349.743652,4299.102539,4305.769043,4318.205078,4326.410156,4313.717773,4248.846191,4463.589844,4502.563965,4357.692383,4394.871582,,,,,,,,,,,,,,,,,,,,,,,,,,,,,,,,,,,,,,,,,,,,,,,,,,,,,,,,,,,,,,,,,,,,,,
1720159382,105,0,4318.077148,4299.230957,4311.153809,4344.230957,4300.256348,4302.563965,4312.563965,4325.128418,4311.282227,4246.025879,4458.717773,4490.384766,4348.461426,4397.820313,,,,,,,,,,,,,,,,,,,,,,,,,,,,,,,,,,,,,,,,,,,,,,,,,,,,,,,,,,,,,,,,,,,,,,
1720159382,106,0,4312.179688,4303.589844,4302.307617,4339.102539,4293.589844,4301.538574,4303.461426,4316.153809,4313.974121,4245.641113,4452.563965,4477.179688,4352.307617,4373.974121,,,,,,,,,,,,,,,,,,,,,,,,,,,,,,,,,,,,,,,,,,,,,,,,,,,,,,,,,,,,,,,,,,,,,,
1720159382,107,0,4320.641113,4309.487305,4311.666504,4340.384766,4294.615234,4306.922852,4306.794922,4317.179688,4320.128418,4243.333496,4447.94873,4485.128418,4346.538574,4381.922852,,,,,,,,,,,,,,,,,,,,,,,,,,,,,,,,,,,,,,,,,,,,,,,,,,,,,,,,,,,,,,,,,,,,,,
1720159382,108,0,4333.077148,4308.333496,4335,4344.615234,4305.128418,4310.512695,4318.846191,4329.743652,4328.461426,4246.025879,4467.179688,4513.589844,4357.692383,4421.666504,0.35138,1.620406,0.674772,0.425713,0.214625,1.047511,3.476087,1.234837,1.039057,0.10561,0.976678,3.692511,1.216525,1.240993,0.171429,1.055477,1.993884,0.623835,0.903381,0.239921,0.097069,0.143356,0.095241,0.050431,0.068549,0.381667,1.257287,0.472124,0.304676,0.070589,1.555597,16.251211,2.404024,1.359903,0.087715,0.931893,7.882156,1.84088,0.734322,0.151551,0.229035,2.773021,1.480507,1.056342,0.148624,1.083288,1.099936,0.355895,0.321123,0.121339,0.753416,1.816311,1.179046,0.764477,0.347686,1.337201,4.680147,1.336446,1.159545,0.298369,1.952166,3.178803,1.577857,0.930576,0.352076,0.349329,1.349979,0.337852,0.434372,1.359131
1720159382,109,0,4319.743652,4306.282227,4331.794922,4340.256348,4302.436035,4310.128418,4317.820313,4325.384766,4327.563965,4248.974121,4485.512695,4513.974121,4379.743652,4396.282227,,,,,,,,,,,,,,,,,,,,,,,,,,,,,,,,,,,,,,,,,,,,,,,,,,,,,,,,,,,,,,,,,,,,,,
1720159382,110,0,4315.256348,4301.666504,4316.410156,4330.641113,4300.512695,4312.820313,4314.102539,4322.692383,4327.692383,4251.666504,4479.230957,4499.615234,4375.897461,4388.205078,,,,,,,,,,,,,,,,,,,,,,,,,,,,,,,,,,,,,,,,,,,,,,,,,,,,,,,,,,,,,,,,,,,,,,
1720159382,111,0,4322.05127,4296.666504,4312.307617,4324.487305,4304.871582,4313.974121,4317.94873,4330.641113,4332.307617,4251.538574,4468.974121,4494.871582,4364.743652,4407.05127,,,,,,,,,,,,,,,,,,,,,,,,,,,,,,,,,,,,,,,,,,,,,,,,,,,,,,,,,,,,,,,,,,,,,,
1720159382,112,0,4317.436035,4295.769043,4313.589844,4323.333496,4302.820313,4308.589844,4316.410156,4325.897461,4326.025879,4250.256348,4472.179688,4490.769043,4372.94873,4394.615234,,,,,,,,,,,,,,,,,,,,,,,,,,,,,,,,,,,,,,,,,,,,,,,,,,,,,,,,,,,,,,,,,,,,,,
1720159382,113,0,4319.230957,4297.436035,4316.922852,4325.512695,4301.410156,4301.538574,4309.871582,4319.358887,4318.974121,4254.487305,4475.897461,4493.717773,4379.615234,4400.256348,,,,,,,,,,,,,,,,,,,,,,,,,,,,,,,,,,,,,,,,,,,,,,,,,,,,,,,,,,,,,,,,,,,,,,
1720159382,114,0,4322.820313,4303.077148,4317.563965,4323.717773,4302.692383,4299.230957,4307.436035,4322.179688,4323.461426,4254.230957,4473.717773,4500.384766,4377.563965,4405,,,,,,,,,,,,,,,,,,,,,,,,,,,,,,,,,,,,,,,,,,,,,,,,,,,,,,,,,,,,,,,,,,,,,,
1720159382,115,0,4323.589844,4310,4325.128418,4317.692383,4302.94873,4303.974121,4315.512695,4326.922852,4329.743652,4246.282227,4479.230957,4506.410156,4378.846191,4399.230957,,,,,,,,,,,,,,,,,,,,,,,,,,,,,,,,,,,,,,,,,,,,,,,,,,,,,,,,,,,,,,,,,,,,,,
1720159382,116,0,4326.922852,4306.538574,4335.512695,4319.615234,4303.461426,4308.461426,4325.128418,4328.333496,4328.974121,4240.128418,4484.743652,4512.692383,4374.871582,4407.820313,,,,,,,,,,,,,,,,,,,,,,,,,,,,,,,,,,,,,,,,,,,,,,,,,,,,,,,,,,,,,,,,,,,,,,
1720159382,117,0,4320.897461,4303.205078,4326.025879,4322.94873,4298.846191,4307.436035,4322.820313,4322.563965,4325.256348,4234.743652,4476.282227,4502.94873,4366.410156,4395.512695,,,,,,,,,,,,,,,,,,,,,,,,,,,,,,,,,,,,,,,,,,,,,,,,,,,,,,,,,,,,,,,,,,,,,,
1720159382,118,0,4314.230957,4303.717773,4312.820313,4314.358887,4293.846191,4307.436035,4315.128418,4315.897461,4324.871582,4228.461426,4468.461426,4488.589844,4363.717773,4381.025879,,,,,,,,,,,,,,,,,,,,,,,,,,,,,,,,,,,,,,,,,,,,,,,,,,,,,,,,,,,,,,,,,,,,,,
1720159382,119,0,4325.769043,4298.717773,4321.538574,4305.256348,4301.153809,4307.436035,4313.461426,4322.563965,4328.717773,4231.025879,4476.794922,4500.256348,4365.897461,4411.666504,,,,,,,,,,,,,,,,,,,,,,,,,,,,,,,,,,,,,,,,,,,,,,,,,,,,,,,,,,,,,,,,,,,,,,
1720159382,120,0,4324.871582,4301.410156,4325.641113,4308.717773,4303.846191,4302.94873,4309.743652,4323.333496,4329.102539,4233.589844,4477.692383,4505.769043,4369.487305,4403.205078,,,,,,,,,,,,,,,,,,,,,,,,,,,,,,,,,,,,,,,,,,,,,,,,,,,,,,,,,,,,,,,,,,,,,,
1720159382,121,0,4317.436035,4309.487305,4321.794922,4309.615234,4300,4302.436035,4304.743652,4315,4327.436035,4228.974121,4469.487305,4495.128418,4371.538574,4382.692383,,,,,,,,,,,,,,,,,,,,,,,,,,,,,,,,,,,,,,,,,,,,,,,,,,,,,,,,,,,,,,,,,,,,,,
1720159382,122,0,4324.102539,4302.692383,4326.410156,4299.743652,4307.179688,4308.205078,4311.282227,4322.179688,4333.333496,4230.128418,4471.025879,4499.743652,4368.333496,4407.307617,,,,,,,,,,,,,,,,,,,,,,,,,,,,,,,,,,,,,,,,,,,,,,,,,,,,,,,,,,,,,,,,,,,,,,
1720159382,123,0,4319.743652,4292.820313,4317.692383,4295.641113,4309.615234,4311.666504,4316.282227,4327.05127,4340.641113,4230.641113,4468.589844,4498.077148,4358.077148,4399.358887,,,,,,,,,,,,,,,,,,,,,,,,,,,,,,,,,,,,,,,,,,,,,,,,,,,,,,,,,,,,,,,,,,,,,,
1720159382,124,0,4317.307617,4296.282227,4302.94873,4295.384766,4306.922852,4309.871582,4317.179688,4324.743652,4339.871582,4224.487305,4460,4486.922852,4352.692383,4388.846191,0.302257,1.442787,0.754043,0.440765,0.220749,0.979567,3.077331,1.319339,1.030133,0.102739,0.885312,3.612435,1.208558,1.269685,0.158945,1.187626,1.965202,0.687739,0.819016,0.250186,0.096514,0.132113,0.10511,0.052887,0.0607,0.326897,0.78575,0.483844,0.298337,0.07424,1.330324,9.75041,2.768153,1.41691,0.087977,0.927201,4.951965,2.010872,0.759874,0.148635,0.291681,2.676553,1.358382,0.940403,0.145161,1.12751,0.82238,0.422105,0.305135,0.106916,0.719354,1.74383,1.051339,0.726109,0.362267,1.314076,4.291232,1.241863,1.134013,0.29291,1.737532,2.827294,1.560172,0.887004,0.344344,0.317486,1.345726,0.401986,0.415545,1.314595
1720159382,125,0,4316.282227,4295.641113,4297.94873,4288.846191,4310.256348,4311.282227,4314.102539,4321.538574,4331.153809,4217.820313,4458.717773,4478.846191,4353.205078,4393.077148,,,,,,,,,,,,,,,,,,,,,,,,,,,,,,,,,,,,,,,,,,,,,,,,,,,,,,,,,,,,,,,,,,,,,,
1720159382,126,0,4313.205078,4291.410156,4301.410156,4284.230957,4307.692383,4310.384766,4301.922852,4311.922852,4320.769043,4216.666504,4462.436035,4474.230957,4357.436035,4390.384766,,,,,,,,,,,,,,,,,,,,,,,,,,,,,,,,,,,,,,,,,,,,,,,,,,,,,,,,,,,,,,,,,,,,,,
1720159382,127,0,4326.282227,4303.589844,4320.512695,4293.077148,4305.769043,4307.179688,4303.974121,4314.743652,4320,4221.025879,4473.846191,4493.846191,4366.153809,4399.487305,,,,,,,,,,,,,,,,,,,,,,,,,,,,,,,,,,,,,,,,,,,,,,,,,,,,,,,,,,,,,,,,,,,,,,
1720159382,0,0,4336.025879,4319.358887,4337.692383,4296.410156,4309.487305,4308.205078,4319.102539,4325.769043,4330.256348,4224.358887,4488.333496,4520.384766,4372.436035,4406.410156,,,,,,,,,,,,,,,,,,,,,,,,,,,,,,,,,,,,,,,,,,,,,,,,,,,,,,,,,,,,,,,,,,,,,,
1720159382,1,0,4333.333496,4319.743652,4339.358887,4293.717773,4307.307617,4313.333496,4325.769043,4329.487305,4339.615234,4221.794922,4486.025879,4521.794922,4373.205078,4409.358887,,,,,,,,,,,,,,,,,,,,,,,,,,,,,,,,,,,,,,,,,,,,,,,,,,,,,,,,,,,,,,,,,,,,,,
1720159382,2,0,4329.487305,4313.717773,4330.769043,4295.512695,4303.846191,4317.563965,4324.230957,4330.512695,4342.820313,4216.666504,4470.769043,4507.820313,4369.230957,4402.307617,,,,,,,,,,,,,,,,,,,,,,,,,,,,,,,,,,,,,,,,,,,,,,,,,,,,,,,,,,,,,,,,,,,,,,
1720159382,3,0,4324.358887,4308.077148,4317.05127,4286.794922,4304.743652,4315.769043,4323.461426,4328.461426,4343.333496,4216.666504,4461.666504,4491.410156,4359.230957,4393.846191,,,,,,,,,,,,,,,,,,,,,,,,,,,,,,,,,,,,,,,,,,,,,,,,,,,,,,,,,,,,,,,,,,,,,,
1720159382,4,0,4318.205078,4296.410156,4305.512695,4273.077148,4305.512695,4310.384766,4318.205078,4321.794922,4339.615234,4212.692383,4454.487305,4476.794922,4341.922852,4392.94873,,,,,,,,,,,,,,,,,,,,,,,,,,,,,,,,,,,,,,,,,,,,,,,,,,,,,,,,,,,,,,,,,,,,,,
1720159382,5,0,4317.692383,4291.538574,4304.615234,4274.102539,4306.153809,4305.384766,4309.487305,4322.05127,4334.615234,4208.589844,4453.717773,4474.230957,4338.846191,4395.384766,,,,,,,,,,,,,,,,,,,,,,,,,,,,,,,,,,,,,,,,,,,,,,,,,,,,,,,,,,,,,,,,,,,,,,
1720159382,6,0,4314.102539,4303.333496,4308.461426,4280.641113,4303.974121,4305.769043,4308.333496,4322.05127,4339.230957,4213.846191,4461.794922,4481.794922,4353.717773,4381.025879,,,,,,,,,,,,,,,,,,,,,,,,,,,,,,,,,,,,,,,,,,,,,,,,,,,,,,,,,,,,,,,,,,,,,,
1720159382,7,0,4318.333496,4305.769043,4312.563965,4276.282227,4300.256348,4310,4313.077148,4321.538574,4348.461426,4213.205078,4469.487305,4490.769043,4357.436035,4389.358887,,,,,,,,,,,,,,,,,,,,,,,,,,,,,,,,,,,,,,,,,,,,,,,,,,,,,,,,,,,,,,,,,,,,,,
1720159382,8,0,4329.743652,4293.589844,4312.436035,4267.692383,4301.025879,4311.153809,4313.205078,4326.794922,4346.410156,4203.974121,4469.358887,4495.769043,4348.846191,4419.615234,,,,,,,,,,,,,,,,,,,,,,,,,,,,,,,,,,,,,,,,,,,,,,,,,,,,,,,,,,,,,,,,,,,,,,
1720159382,9,0,4316.666504,4292.563965,4305.769043,4261.666504,4298.205078,4309.615234,4303.974121,4317.563965,4338.846191,4198.333496,4457.179688,4482.692383,4343.077148,4387.307617,,,,,,,,,,,,,,,,,,,,,,,,,,,,,,,,,,,,,,,,,,,,,,,,,,,,,,,,,,,,,,,,,,,,,,
1720159382,10,0,4311.410156,4302.179688,4309.102539,4264.871582,4297.436035,4310.256348,4301.538574,4308.205078,4340.384766,4200.256348,4450.512695,4477.94873,4342.307617,4374.615234,,,,,,,,,,,,,,,,,,,,,,,,,,,,,,,,,,,,,,,,,,,,,,,,,,,,,,,,,,,,,,,,,,,,,,
1720159382,11,0,4323.717773,4304.871582,4315.384766,4276.922852,4303.205078,4311.666504,4303.205078,4316.025879,4343.717773,4204.743652,4459.230957,4494.102539,4351.538574,4406.410156,,,,,,,,,,,,,,,,,,,,,,,,,,,,,,,,,,,,,,,,,,,,,,,,,,,,,,,,,,,,,,,,,,,,,,
1720159382,12,0,4319.871582,4307.179688,4313.077148,4278.589844,4302.307617,4308.205078,4300,4320.641113,4343.077148,4207.05127,4466.538574,4498.333496,4368.846191,4396.282227,0.276458,1.234906,0.798006,0.460649,0.232356,0.95374,2.636088,1.31283,1.004824,0.110658,0.869423,3.547915,1.173581,1.355416,0.153274,1.295,1.881334,0.692754,0.726967,0.257047,0.09448,0.140359,0.114652,0.057496,0.057294,0.280727,0.554046,0.4741,0.298816,0.079236,1.129948,5.600816,3.00048,1.410366,0.090404,0.881631,2.970562,1.991011,0.748695,0.146966,0.348623,2.368932,1.114706,0.764287,0.137483,1.111484,0.609487,0.489882,0.283117,0.096128,0.713252,1.728581,0.924562,0.704974,0.379529,1.325691,4.093811,1.143409,1.211304,0.297379,1.508038,2.5283,1.557553,0.905292,0.352624,0.292679,1.276114,0.471073,0.404139,1.263388
1720159382,13,0,4320,4311.666504,4318.846191,4274.102539,4299.871582,4304.615234,4305.769043,4321.794922,4344.102539,4204.230957,4466.794922,4493.461426,4370.641113,4395.512695,,,,,,,,,,,,,,,,,,,,,,,,,,,,,,,,,,,,,,,,,,,,,,,,,,,,,,,,,,,,,,,,,,,,,,
1720159383,14,0,4326.153809,4308.077148,4322.436035,4277.307617,4300.897461,4304.871582,4317.820313,4324.615234,4342.436035,4200.769043,4467.179688,4489.102539,4352.692383,4408.461426,,,,,,,,,,,,,,,,,,,,,,,,,,,,,,,,,,,,,,,,,,,,,,,,,,,,,,,,,,,,,,,,,,,,,,
1720159383,15,0,4318.717773,4302.820313,4315.384766,4272.820313,4298.717773,4306.538574,4318.846191,4322.307617,4336.538574,4201.025879,4462.05127,4484.102539,4342.563965,4391.282227,,,,,,,,,,,,,,,,,,,,,,,,,,,,,,,,,,,,,,,,,,,,,,,,,,,,,,,,,,,,,,,,,,,,,,
1720159383,16,0,4319.230957,4302.05127,4316.538574,4259.743652,4297.179688,4307.307617,4308.205078,4317.563965,4335.384766,4201.794922,4456.410156,4485.641113,4348.717773,4396.282227,,,,,,,,,,,,,,,,,,,,,,,,,,,,,,,,,,,,,,,,,,,,,,,,,,,,,,,,,,,,,,,,,,,,,,
1720159383,17,0,4325.641113,4298.205078,4321.153809,4262.307617,4300.512695,4307.692383,4301.794922,4316.922852,4337.692383,4202.94873,4463.077148,4487.692383,4349.615234,4410,,,,,,,,,,,,,,,,,,,,,,,,,,,,,,,,,,,,,,,,,,,,,,,,,,,,,,,,,,,,,,,,,,,,,,
1720159383,18,0,4314.102539,4298.205078,4311.794922,4267.563965,4296.538574,4308.974121,4299.615234,4311.410156,4336.666504,4202.692383,4463.846191,4482.692383,4341.025879,4382.05127,,,,,,,,,,,,,,,,,,,,,,,,,,,,,,,,,,,,,,,,,,,,,,,,,,,,,,,,,,,,,,,,,,,,,,
1720159383,19,0,4314.743652,4303.461426,4309.230957,4261.794922,4296.282227,4307.820313,4300.897461,4312.820313,4338.205078,4201.538574,4452.820313,4483.333496,4341.794922,4388.974121,,,,,,,,,,,,,,,,,,,,,,,,,,,,,,,,,,,,,,,,,,,,,,,,,,,,,,,,,,,,,,,,,,,,,,
1720159383,20,0,4323.077148,4304.487305,4315.769043,4261.666504,4306.025879,4305.769043,4303.717773,4321.410156,4338.461426,4203.205078,4448.846191,4484.487305,4347.94873,4402.820313,,,,,,,,,,,,,,,,,,,,,,,,,,,,,,,,,,,,,,,,,,,,,,,,,,,,,,,,,,,,,,,,,,,,,,
1720159383,21,0,4317.563965,4303.077148,4314.487305,4261.666504,4302.94873,4306.538574,4304.230957,4317.692383,4335.769043,4205.512695,4455.641113,4480.256348,4347.692383,4384.358887,,,,,,,,,,,,,,,,,,,,,,,,,,,,,,,,,,,,,,,,,,,,,,,,,,,,,,,,,,,,,,,,,,,,,,
1720159383,22,0,4316.922852,4300.512695,4315.128418,4255.512695,4297.692383,4310.384766,4308.846191,4319.102539,4337.94873,4206.025879,4460.128418,4491.153809,4346.794922,4394.358887,,,,,,,,,,,,,,,,,,,,,,,,,,,,,,,,,,,,,,,,,,,,,,,,,,,,,,,,,,,,,,,,,,,,,,
1720159383,23,0,4312.94873,4297.692383,4312.436035,4259.871582,4302.179688,4311.282227,4308.717773,4320.256348,4335.256348,4202.94873,4452.820313,4493.077148,4341.025879,4396.410156,,,,,,,,,,,,,,,,,,,,,,,,,,,,,,,,,,,,,,,,,,,,,,,,,,,,,,,,,,,,,,,,,,,,,,
1720159383,24,0,4312.179688,4298.846191,4309.102539,4264.358887,4305.512695,4304.230957,4297.820313,4311.153809,4327.307617,4195.769043,4449.615234,4481.922852,4333.461426,4391.666504,,,,,,,,,,,,,,,,,,,,,,,,,,,,,,,,,,,,,,,,,,,,,,,,,,,,,,,,,,,,,,,,,,,,,,
1720159383,25,0,4318.589844,4299.743652,4310.769043,4250.641113,4301.922852,4295.897461,4293.846191,4313.846191,4328.077148,4192.563965,4458.205078,4487.563965,4340.897461,4396.666504,,,,,,,,,,,,,,,,,,,,,,,,,,,,,,,,,,,,,,,,,,,,,,,,,,,,,,,,,,,,,,,,,,,,,,
1720159383,26,0,4316.922852,4299.871582,4308.974121,4244.358887,4295.384766,4292.94873,4299.743652,4321.153809,4338.461426,4194.743652,4461.666504,4494.487305,4349.615234,4396.410156,,,,,,,,,,,,,,,,,,,,,,,,,,,,,,,,,,,,,,,,,,,,,,,,,,,,,,,,,,,,,,,,,,,,,,
1720159383,27,0,4316.410156,4306.538574,4311.666504,4248.461426,4296.410156,4295.769043,4304.871582,4320,4345,4194.102539,4458.333496,4490.384766,4345.384766,4398.333496,,,,,,,,,,,,,,,,,,,,,,,,,,,,,,,,,,,,,,,,,,,,,,,,,,,,,,,,,,,,,,,,,,,,,,
1720159383,28,0,4320.769043,4309.615234,4320.512695,4247.179688,4300.128418,4304.358887,4312.05127,4321.282227,4347.436035,4192.563965,4463.974121,4493.589844,4341.794922,4396.153809,0.296844,1.019214,0.793567,0.480954,0.244072,1.001542,2.20572,1.216917,0.975984,0.125195,0.943673,3.361348,1.09752,1.489246,0.153117,1.349278,1.706326,0.639967,0.65002,0.25854,0.095641,0.161498,0.12541,0.063289,0.057636,0.245408,0.548562,0.45819,0.302638,0.084866,0.98583,3.482717,3.086926,1.333268,0.09268,0.810617,1.887458,1.815986,0.706389,0.144491,0.391286,1.9441,0.826572,0.580795,0.128275,1.036317,0.519772,0.551562,0.259327,0.090388,0.764896,1.745233,0.859811,0.710319,0.394467,1.381728,3.865838,1.065723,1.384419,0.309741,1.348635,2.327889,1.590982,0.972786,0.375687,0.285881,1.150767,0.530829,0.397921,1.204096
1720159383,29,0,4327.179688,4308.846191,4330.128418,4254.487305,4297.820313,4311.410156,4323.461426,4332.179688,4360.128418,4195.897461,4474.871582,4510,4347.692383,4401.666504,,,,,,,,,,,,,,,,,,,,,,,,,,,,,,,,,,,,,,,,,,,,,,,,,,,,,,,,,,,,,,,,,,,,,,
