Timestamp,EEG.Counter,EEG.Interpolated,EEG.AF3,EEG.F7,EEG.F3,EEG.FC5,EEG.T7,EEG.P7,EEG.O1,EEG.O2,EEG.P8,EEG.T8,EEG.FC6,EEG.F4,EEG.F8,EEG.AF4,POW.AF3.Theta,POW.AF3.Alpha,POW.AF3.BetaL,POW.AF3.BetaH,POW.AF3.Gamma,POW.F7.Theta,POW.F7.Alpha,POW.F7.BetaL,POW.F7.BetaH,POW.F7.Gamma,POW.F3.Theta,POW.F3.Alpha,POW.F3.BetaL,POW.F3.BetaH,POW.F3.Gamma,POW.FC5.Theta,POW.FC5.Alpha,POW.FC5.BetaL,POW.FC5.BetaH,POW.FC5.Gamma,POW.T7.Theta,POW.T7.Alpha,POW.T7.BetaL,POW.T7.BetaH,POW.T7.Gamma,POW.P7.Theta,POW.P7.Alpha,POW.P7.BetaL,POW.P7.BetaH,POW.P7.Gamma,POW.O1.Theta,POW.O1.Alpha,POW.O1.BetaL,POW.O1.BetaH,POW.O1.Gamma,POW.O2.Theta,POW.O2.Alpha,POW.O2.BetaL,POW.O2.BetaH,POW.O2.Gamma,POW.P8.Theta,POW.P8.Alpha,POW.P8.BetaL,POW.P8.BetaH,POW.P8.Gamma,POW.T8.Theta,POW.T8.Alpha,POW.T8.BetaL,POW.T8.BetaH,POW.T8.Gamma,POW.FC6.Theta,POW.FC6.Alpha,POW.FC6.BetaL,POW.FC6.BetaH,POW.FC6.Gamma,POW.F4.Theta,POW.F4.Alpha,POW.F4.BetaL,POW.F4.BetaH,POW.F4.Gamma,POW.F8.Theta,POW.F8.Alpha,POW.F8.BetaL,POW.F8.BetaH,POW.F8.Gamma,POW.AF4.Theta,POW.AF4.Alpha,POW.AF4.BetaL,POW.AF4.BetaH,POW.AF4.Gamma
1720416616,13,0,4109.230957,4296.794922,4343.077148,4338.333496,4309.487305,4307.692383,4306.922852,4402.692383,4300,4294.487305,4489.743652,4478.717773,4388.717773,4549.871582,,,,,,,,,,,,,,,,,,,,,,,,,,,,,,,,,,,,,,,,,,,,,,,,,,,,,,,,,,,,,,,,,,,,,,
1720416616,14,0,4114.487305,4295.897461,4342.307617,4338.589844,4312.94873,4314.102539,4307.307617,4395.641113,4291.666504,4288.077148,4479.615234,4468.333496,4385.128418,4540.512695,,,,,,,,,,,,,,,,,,,,,,,,,,,,,,,,,,,,,,,,,,,,,,,,,,,,,,,,,,,,,,,,,,,,,,
1720416616,15,0,4126.025879,4293.077148,4339.358887,4333.461426,4310.769043,4311.153809,4301.538574,4395.128418,4296.538574,4288.846191,4480.769043,4469.487305,4389.871582,4541.282227,,,,,,,,,,,,,,,,,,,,,,,,,,,,,,,,,,,,,,,,,,,,,,,,,,,,,,,,,,,,,,,,,,,,,,
1720416616,16,0,4135.512695,4290,4336.666504,4332.563965,4309.358887,4309.358887,4298.974121,4397.692383,4308.077148,4295.769043,4496.666504,4481.538574,4397.820313,4557.05127,,,,,,,,,,,,,,,,,,,,,,,,,,,,,,,,,,,,,,,,,,,,,,,,,,,,,,,,,,,,,,,,,,,,,,
1720416616,17,0,4146.666504,4293.205078,4343.461426,4339.230957,4314.102539,4324.102539,4314.871582,4405.128418,4315.384766,4300.128418,4502.692383,4495.512695,4401.538574,4567.179688,,,,,,,,,,,,,,,,,,,,,,,,,,,,,,,,,,,,,,,,,,,,,,,,,,,,,,,,,,,,,,,,,,,,,,
1720416616,18,0,4158.205078,4292.436035,4343.846191,4335.256348,4309.615234,4321.153809,4313.974121,4399.871582,4302.94873,4290.256348,4483.717773,4484.102539,4387.692383,4556.282227,,,,,,,,,,,,,,,,,,,,,,,,,,,,,,,,,,,,,,,,,,,,,,,,,,,,,,,,,,,,,,,,,,,,,,
1720416616,19,0,4170.256348,4288.974121,4339.871582,4330.384766,4305.769043,4303.205078,4298.333496,4388.846191,4295.128418,4279.102539,4479.358887,4465.897461,4380.512695,4552.692383,,,,,,,,,,,,,,,,,,,,,,,,,,,,,,,,,,,,,,,,,,,,,,,,,,,,,,,,,,,,,,,,,,,,,,
1720416616,20,0,4182.820313,4293.205078,4342.820313,4338.589844,4309.230957,4305.256348,4304.487305,4395.512695,4306.922852,4284.743652,4492.307617,4485.641113,4393.846191,4573.333496,,,,,,,,,,,,,,,,,,,,,,,,,,,,,,,,,,,,,,,,,,,,,,,,,,,,,,,,,,,,,,,,,,,,,,
1720416616,21,0,4179.871582,4293.717773,4336.410156,4340.512695,4306.538574,4313.333496,4315.641113,4402.05127,4307.563965,4290.769043,4483.974121,4496.153809,4392.179688,4570.512695,,,,,,,,,,,,,,,,,,,,,,,,,,,,,,,,,,,,,,,,,,,,,,,,,,,,,,,,,,,,,,,,,,,,,,
1720416616,22,0,4172.307617,4292.692383,4326.922852,4333.077148,4305.641113,4311.794922,4308.589844,4395.897461,4296.538574,4290.512695,4472.307617,4468.717773,4380.384766,4550.512695,46.925621,27.576803,8.563014,2.753317,1.186889,1.896166,1.597057,0.653867,0.239226,0.235005,1.504085,1.014682,0.817453,0.523891,0.218113,1.570027,1.023649,0.332207,0.282648,0.191017,0.651405,0.360772,0.235646,0.163762,0.168987,0.515256,0.8351,1.000831,0.303058,0.358769,0.511011,0.623106,0.772186,0.190098,0.317531,0.431543,0.58695,0.74226,0.230491,0.311359,0.373635,1.067662,0.881462,0.327047,0.279066,0.57757,0.380945,0.529676,0.261789,0.216598,1.059166,0.597576,0.670609,0.328895,0.304142,0.98473,1.151935,1.219508,0.630697,0.414093,1.273058,0.596441,0.604674,0.23884,0.240907,4.97833,3.711371,4.178537,0.837297,0.486324
1720416616,23,0,4178.461426,4292.94873,4324.743652,4327.563965,4312.692383,4307.692383,4299.615234,4389.487305,4294.102539,4291.153809,4477.563965,4465.897461,4386.282227,4566.153809,,,,,,,,,,,,,,,,,,,,,,,,,,,,,,,,,,,,,,,,,,,,,,,,,,,,,,,,,,,,,,,,,,,,,,
1720416616,24,0,4181.153809,4286.666504,4316.794922,4326.794922,4310.897461,4301.666504,4299.871582,4388.589844,4296.025879,4287.05127,4479.743652,4477.436035,4390.897461,4576.794922,,,,,,,,,,,,,,,,,,,,,,,,,,,,,,,,,,,,,,,,,,,,,,,,,,,,,,,,,,,,,,,,,,,,,,
1720416616,25,0,4177.820313,4286.794922,4311.410156,4331.922852,4305.256348,4301.666504,4303.077148,4392.05127,4295.641113,4283.589844,4481.794922,4473.461426,4389.358887,4574.230957,,,,,,,,,,,,,,,,,,,,,,,,,,,,,,,,,,,,,,,,,,,,,,,,,,,,,,,,,,,,,,,,,,,,,,
1720416616,26,0,4188.077148,4296.538574,4319.743652,4335.512695,4307.307617,4306.153809,4303.461426,4394.871582,4294.871582,4288.717773,4488.461426,4477.820313,4393.333496,4629.615234,,,,,,,,,,,,,,,,,,,,,,,,,,,,,,,,,,,,,,,,,,,,,,,,,,,,,,,,,,,,,,,,,,,,,,
1720416616,27,0,4190.384766,4290.128418,4319.487305,4327.820313,4306.025879,4299.358887,4298.077148,4387.307617,4291.282227,4284.487305,4479.871582,4474.615234,4387.692383,4702.05127,,,,,,,,,,,,,,,,,,,,,,,,,,,,,,,,,,,,,,,,,,,,,,,,,,,,,,,,,,,,,,,,,,,,,,
1720416616,28,0,4176.666504,4279.615234,4306.025879,4321.922852,4302.436035,4292.563965,4291.282227,4378.846191,4288.717773,4274.102539,4468.205078,4460,4378.461426,4713.205078,,,,,,,,,,,,,,,,,,,,,,,,,,,,,,,,,,,,,,,,,,,,,,,,,,,,,,,,,,,,,,,,,,,,,,
1720416617,29,0,4185.641113,4289.102539,4307.436035,4326.666504,4306.922852,4301.666504,4292.436035,4381.538574,4293.461426,4280.641113,4474.487305,4466.538574,4385.897461,4704.615234,,,,,,,,,,,,,,,,,,,,,,,,,,,,,,,,,,,,,,,,,,,,,,,,,,,,,,,,,,,,,,,,,,,,,,
1720416617,30,0,4206.922852,4295.769043,4315.512695,4330.128418,4310.641113,4309.615234,4295.384766,4385.256348,4296.794922,4291.538574,4476.922852,4473.461426,4391.666504,4715.641113,,,,,,,,,,,,,,,,,,,,,,,,,,,,,,,,,,,,,,,,,,,,,,,,,,,,,,,,,,,,,,,,,,,,,,
1720416617,31,0,4207.692383,4290.897461,4310.897461,4327.436035,4309.102539,4306.025879,4293.077148,4386.025879,4295.256348,4290.384766,4469.358887,4458.333496,4384.358887,4713.589844,,,,,,,,,,,,,,,,,,,,,,,,,,,,,,,,,,,,,,,,,,,,,,,,,,,,,,,,,,,,,,,,,,,,,,
1720416617,32,0,4208.077148,4291.282227,4305.769043,4326.410156,4309.358887,4305.256348,4292.94873,4386.025879,4293.461426,4285,4467.307617,4453.717773,4380.641113,4699.487305,,,,,,,,,,,,,,,,,,,,,,,,,,,,,,,,,,,,,,,,,,,,,,,,,,,,,,,,,,,,,,,,,,,,,,
1720416617,33,0,4221.025879,4294.743652,4315,4332.436035,4312.436035,4310.897461,4302.692383,4389.615234,4299.358887,4285.641113,4471.794922,4466.410156,4386.922852,4694.871582,,,,,,,,,,,,,,,,,,,,,,,,,,,,,,,,,,,,,,,,,,,,,,,,,,,,,,,,,,,,,,,,,,,,,,
1720416617,34,0,4233.846191,4301.922852,4331.282227,4342.307617,4316.538574,4316.025879,4314.743652,4402.307617,4307.05127,4292.307617,4480.641113,4480.512695,4395.128418,4695.128418,,,,,,,,,,,,,,,,,,,,,,,,,,,,,,,,,,,,,,,,,,,,,,,,,,,,,,,,,,,,,,,,,,,,,,
1720416617,35,0,4238.077148,4309.871582,4335.128418,4345.256348,4321.153809,4321.922852,4320.897461,4411.410156,4310.256348,4295.384766,4490.897461,4490.384766,4398.461426,4692.05127,,,,,,,,,,,,,,,,,,,,,,,,,,,,,,,,,,,,,,,,,,,,,,,,,,,,,,,,,,,,,,,,,,,,,,
1720416617,36,0,4228.205078,4305.769043,4327.179688,4341.922852,4321.025879,4326.538574,4319.743652,4408.077148,4308.717773,4295.384766,4495.769043,4488.333496,4399.230957,4680.512695,,,,,,,,,,,,,,,,,,,,,,,,,,,,,,,,,,,,,,,,,,,,,,,,,,,,,,,,,,,,,,,,,,,,,,
1720416617,37,0,4218.333496,4297.692383,4325.512695,4342.05127,4314.358887,4319.102539,4312.820313,4399.358887,4301.922852,4292.307617,4488.077148,4484.230957,4400.256348,4666.794922,,,,,,,,,,,,,,,,,,,,,,,,,,,,,,,,,,,,,,,,,,,,,,,,,,,,,,,,,,,,,,,,,,,,,,
1720416617,38,0,4224.615234,4294.871582,4328.589844,4340.897461,4310.128418,4309.743652,4306.410156,4393.077148,4294.487305,4284.615234,4475.897461,4479.230957,4396.153809,4654.487305,59.545017,28.63941,11.418056,4.086554,1.587498,1.734898,1.151338,0.530771,0.265174,0.225313,1.582092,0.823007,0.652614,0.565342,0.205796,1.44671,0.757935,0.247357,0.274738,0.188732,0.650234,0.373612,0.229477,0.169913,0.168274,0.561882,0.871536,0.974097,0.293755,0.350639,0.64303,0.650477,0.837789,0.190044,0.302559,0.526883,0.537898,0.800999,0.239251,0.298796,0.469635,1.106268,0.878478,0.309339,0.260321,0.710423,0.453947,0.474655,0.253557,0.223984,1.208575,0.714905,0.651431,0.342807,0.277449,1.183023,1.148178,1.173455,0.673576,0.388186,1.235941,0.62759,0.49595,0.249008,0.217366,6.996683,4.216631,3.530074,0.987071,0.462037
1720416617,39,0,4227.563965,4295.384766,4323.205078,4333.461426,4309.358887,4307.179688,4307.05127,4388.077148,4292.436035,4282.179688,4471.794922,4470,4392.563965,4643.589844,,,,,,,,,,,,,,,,,,,,,,,,,,,,,,,,,,,,,,,,,,,,,,,,,,,,,,,,,,,,,,,,,,,,,,
1720416617,40,0,4223.205078,4301.922852,4322.436035,4335.128418,4306.922852,4299.487305,4307.94873,4388.461426,4295.128418,4291.922852,4477.563965,4470.641113,4398.717773,4642.94873,,,,,,,,,,,,,,,,,,,,,,,,,,,,,,,,,,,,,,,,,,,,,,,,,,,,,,,,,,,,,,,,,,,,,,
1720416617,41,0,4225.897461,4304.743652,4325.641113,4340.128418,4306.666504,4292.820313,4301.025879,4390.384766,4296.922852,4295.384766,4482.179688,4474.102539,4401.794922,4643.205078,,,,,,,,,,,,,,,,,,,,,,,,,,,,,,,,,,,,,,,,,,,,,,,,,,,,,,,,,,,,,,,,,,,,,,
1720416617,42,0,4224.743652,4296.666504,4316.538574,4332.563965,4307.05127,4301.282227,4293.974121,4386.153809,4296.922852,4285.128418,4471.922852,4465.769043,4391.153809,4633.205078,,,,,,,,,,,,,,,,,,,,,,,,,,,,,,,,,,,,,,,,,,,,,,,,,,,,,,,,,,,,,,,,,,,,,,
1720416617,43,0,4215.256348,4287.307617,4305.512695,4320.769043,4304.102539,4307.05127,4295.641113,4383.717773,4294.743652,4278.205078,4458.461426,4456.282227,4382.692383,4621.410156,,,,,,,,,,,,,,,,,,,,,,,,,,,,,,,,,,,,,,,,,,,,,,,,,,,,,,,,,,,,,,,,,,,,,,
1720416617,44,0,4215.897461,4287.563965,4305.128418,4321.538574,4304.871582,4308.461426,4304.230957,4388.205078,4296.538574,4282.307617,4461.538574,4459.743652,4386.025879,4619.743652,,,,,,,,,,,,,,,,,,,,,,,,,,,,,,,,,,,,,,,,,,,,,,,,,,,,,,,,,,,,,,,,,,,,,,
1720416617,45,0,4239.230957,4297.436035,4311.282227,4331.922852,4311.410156,4319.615234,4311.666504,4397.692383,4305.897461,4290.256348,4477.05127,4473.333496,4395,4625.128418,,,,,,,,,,,,,,,,,,,,,,,,,,,,,,,,,,,,,,,,,,,,,,,,,,,,,,,,,,,,,,,,,,,,,,
1720416617,46,0,4257.307617,4300.128418,4311.922852,4334.487305,4310.641113,4318.589844,4310.384766,4397.05127,4305.641113,4288.077148,4477.179688,4479.487305,4395.769043,4620.512695,,,,,,,,,,,,,,,,,,,,,,,,,,,,,,,,,,,,,,,,,,,,,,,,,,,,,,,,,,,,,,,,,,,,,,
1720416617,47,0,4252.05127,4291.538574,4306.025879,4325,4307.179688,4308.205078,4305.769043,4388.461426,4295.769043,4279.487305,4466.153809,4468.461426,4389.358887,4604.230957,,,,,,,,,,,,,,,,,,,,,,,,,,,,,,,,,,,,,,,,,,,,,,,,,,,,,,,,,,,,,,,,,,,,,,
1720416617,48,0,4258.205078,4291.538574,4310.512695,4322.05127,4307.820313,4311.282227,4311.153809,4392.436035,4294.871582,4284.615234,4475.128418,4473.077148,4397.563965,4606.410156,,,,,,,,,,,,,,,,,,,,,,,,,,,,,,,,,,,,,,,,,,,,,,,,,,,,,,,,,,,,,,,,,,,,,,
1720416617,49,0,4274.871582,4294.487305,4317.563965,4324.615234,4299.102539,4305.256348,4310.384766,4395.128418,4298.717773,4290.384766,4483.846191,4488.205078,4407.563965,4615.512695,,,,,,,,,,,,,,,,,,,,,,,,,,,,,,,,,,,,,,,,,,,,,,,,,,,,,,,,,,,,,,,,,,,,,,
1720416617,50,0,4278.205078,4293.461426,4314.871582,4323.974121,4295.128418,4290.897461,4298.333496,4387.179688,4295,4284.487305,4477.820313,4475.641113,4401.538574,4604.358887,,,,,,,,,,,,,,,,,,,,,,,,,,,,,,,,,,,,,,,,,,,,,,,,,,,,,,,,,,,,,,,,,,,,,,
1720416617,51,0,4286.410156,4299.743652,4316.794922,4331.282227,4305.384766,4297.94873,4298.846191,4385.769043,4292.563965,4285.128418,4483.077148,4472.692383,4403.333496,4601.538574,,,,,,,,,,,,,,,,,,,,,,,,,,,,,,,,,,,,,,,,,,,,,,,,,,,,,,,,,,,,,,,,,,,,,,
1720416617,52,0,4296.666504,4300.897461,4317.820313,4338.205078,4309.743652,4308.589844,4305.256348,4387.05127,4294.230957,4291.025879,4485.641113,4482.05127,4410.641113,4607.179688,,,,,,,,,,,,,,,,,,,,,,,,,,,,,,,,,,,,,,,,,,,,,,,,,,,,,,,,,,,,,,,,,,,,,,
1720416617,53,0,4290.256348,4292.179688,4310.897461,4329.487305,4307.307617,4305.384766,4304.102539,4384.743652,4299.871582,4289.743652,4476.922852,4473.077148,4406.794922,4595.128418,,,,,,,,,,,,,,,,,,,,,,,,,,,,,,,,,,,,,,,,,,,,,,,,,,,,,,,,,,,,,,,,,,,,,,
1720416617,54,0,4285.641113,4295,4315.641113,4325.897461,4309.487305,4308.205078,4304.487305,4390.512695,4303.461426,4293.717773,4482.05127,4474.487305,4404.230957,4586.538574,78.269104,33.555668,15.998108,6.207407,2.17869,1.634303,0.7976,0.440455,0.313094,0.214428,1.655601,0.704099,0.509676,0.603202,0.199879,1.344349,0.539469,0.203198,0.292214,0.189487,0.687525,0.378135,0.236676,0.181268,0.1705,0.579215,0.913444,0.925691,0.286246,0.341146,0.74765,0.676633,0.867441,0.222536,0.284608,0.620142,0.499085,0.802817,0.282373,0.279833,0.532892,1.156738,0.830388,0.326622,0.245218,0.782808,0.562606,0.444994,0.274417,0.23548,1.27135,0.853474,0.652049,0.397129,0.252749,1.313908,1.129687,1.057077,0.689542,0.36732,1.106576,0.675342,0.444656,0.272979,0.200491,9.951921,4.541755,2.877734,1.171652,0.451537
1720416617,55,0,4287.05127,4296.666504,4320.641113,4328.205078,4308.461426,4313.974121,4309.615234,4397.563965,4299.615234,4297.05127,4487.307617,4480.769043,4402.436035,4586.666504,,,,,,,,,,,,,,,,,,,,,,,,,,,,,,,,,,,,,,,,,,,,,,,,,,,,,,,,,,,,,,,,,,,,,,
1720416617,56,0,4280.897461,4283.077148,4312.563965,4317.307617,4299.871582,4313.461426,4311.153809,4396.794922,4300.641113,4283.717773,4475.769043,4473.974121,4393.846191,4580.384766,,,,,,,,,,,,,,,,,,,,,,,,,,,,,,,,,,,,,,,,,,,,,,,,,,,,,,,,,,,,,,,,,,,,,,
1720416617,57,0,4276.410156,4276.922852,4305.769043,4308.589844,4294.615234,4309.871582,4310.384766,4397.692383,4309.230957,4278.717773,4473.589844,4472.563965,4391.922852,4574.230957,,,,,,,,,,,,,,,,,,,,,,,,,,,,,,,,,,,,,,,,,,,,,,,,,,,,,,,,,,,,,,,,,,,,,,
1720416617,58,0,4278.717773,4281.666504,4301.794922,4311.538574,4292.563965,4304.487305,4307.692383,4398.846191,4311.538574,4290.128418,4477.307617,4472.692383,4392.563965,4570.256348,,,,,,,,,,,,,,,,,,,,,,,,,,,,,,,,,,,,,,,,,,,,,,,,,,,,,,,,,,,,,,,,,,,,,,
1720416617,59,0,4284.102539,4281.025879,4300.256348,4310.897461,4294.230957,4304.871582,4304.358887,4394.358887,4303.846191,4289.615234,4470.128418,4464.358887,4385.641113,4562.179688,,,,,,,,,,,,,,,,,,,,,,,,,,,,,,,,,,,,,,,,,,,,,,,,,,,,,,,,,,,,,,,,,,,,,,
1720416617,60,0,4296.282227,4280.897461,4310.128418,4310.128418,4298.205078,4312.05127,4304.871582,4388.589844,4296.282227,4280.641113,4472.692383,4470.256348,4386.282227,4561.153809,,,,,,,,,,,,,,,,,,,,,,,,,,,,,,,,,,,,,,,,,,,,,,,,,,,,,,,,,,,,,,,,,,,,,,
1720416617,61,0,4304.615234,4282.179688,4313.461426,4312.692383,4296.922852,4309.487305,4301.410156,4384.358887,4291.666504,4279.615234,4474.615234,4471.282227,4387.307617,4556.666504,,,,,,,,,,,,,,,,,,,,,,,,,,,,,,,,,,,,,,,,,,,,,,,,,,,,,,,,,,,,,,,,,,,,,,
1720416617,62,0,4299.487305,4279.358887,4303.717773,4309.871582,4295.641113,4299.487305,4295.512695,4381.282227,4292.563965,4278.461426,4461.025879,4453.077148,4375.256348,4538.205078,,,,,,,,,,,,,,,,,,,,,,,,,,,,,,,,,,,,,,,,,,,,,,,,,,,,,,,,,,,,,,,,,,,,,,
1720416617,63,0,4301.410156,4279.743652,4304.743652,4309.743652,4297.563965,4298.205078,4293.077148,4381.153809,4295.384766,4276.794922,4457.692383,4455,4370.512695,4534.230957,,,,,,,,,,,,,,,,,,,,,,,,,,,,,,,,,,,,,,,,,,,,,,,,,,,,,,,,,,,,,,,,,,,,,,
1720416617,64,0,4321.794922,4284.102539,4312.307617,4313.205078,4296.666504,4302.307617,4295.384766,4382.563965,4292.307617,4280.897461,4463.974121,4468.589844,4378.846191,4542.179688,,,,,,,,,,,,,,,,,,,,,,,,,,,,,,,,,,,,,,,,,,,,,,,,,,,,,,,,,,,,,,,,,,,,,,
1720416617,65,0,4339.615234,4284.358887,4313.589844,4314.102539,4295.512695,4307.692383,4303.846191,4389.230957,4290.897461,4281.410156,4462.820313,4474.102539,4382.94873,4538.974121,,,,,,,,,,,,,,,,,,,,,,,,,,,,,,,,,,,,,,,,,,,,,,,,,,,,,,,,,,,,,,,,,,,,,,
1720416617,66,0,4337.436035,4278.974121,4312.307617,4313.717773,4298.717773,4311.794922,4311.666504,4397.820313,4295.256348,4281.538574,4465.641113,4477.179688,4378.974121,4534.358887,,,,,,,,,,,,,,,,,,,,,,,,,,,,,,,,,,,,,,,,,,,,,,,,,,,,,,,,,,,,,,,,,,,,,,
1720416617,67,0,4339.358887,4278.717773,4313.589844,4314.743652,4302.307617,4308.717773,4312.307617,4396.666504,4298.333496,4286.025879,4474.871582,4476.794922,4378.717773,4542.820313,,,,,,,,,,,,,,,,,,,,,,,,,,,,,,,,,,,,,,,,,,,,,,,,,,,,,,,,,,,,,,,,,,,,,,
1720416617,68,0,4350.512695,4288.717773,4315.256348,4321.410156,4299.615234,4300.897461,4305.641113,4390.512695,4296.282227,4283.589844,4470.769043,4474.230957,4380,4546.794922,,,,,,,,,,,,,,,,,,,,,,,,,,,,,,,,,,,,,,,,,,,,,,,,,,,,,,,,,,,,,,,,,,,,,,
1720416617,69,0,4347.692383,4292.563965,4310.128418,4323.846191,4295.384766,4297.307617,4296.666504,4386.666504,4292.307617,4276.153809,4459.102539,4467.179688,4372.94873,4533.461426,,,,,,,,,,,,,,,,,,,,,,,,,,,,,,,,,,,,,,,,,,,,,,,,,,,,,,,,,,,,,,,,,,,,,,
1720416617,70,0,4346.153809,4292.94873,4306.025879,4321.282227,4299.358887,4305.769043,4295.128418,4385.384766,4289.358887,4276.538574,4455.641113,4462.563965,4366.666504,4525.128418,99.810249,40.925354,21.54332,8.768821,2.849683,1.581337,0.587552,0.405932,0.37849,0.203424,1.794149,0.660829,0.432649,0.631998,0.201674,1.247721,0.410705,0.209125,0.330148,0.19144,0.69697,0.370882,0.251243,0.200746,0.171472,0.60239,0.946296,0.867147,0.289144,0.326744,0.833387,0.683078,0.854344,0.283372,0.26549,0.693371,0.461021,0.750895,0.35728,0.256434,0.598636,1.198099,0.762829,0.379467,0.23763,0.836474,0.684599,0.432346,0.322415,0.248187,1.319273,0.973474,0.66187,0.489663,0.240521,1.383231,1.090604,0.907837,0.684791,0.36164,1.018057,0.728025,0.434778,0.306478,0.193073,14.458488,4.706649,2.509382,1.369961,0.470425
1720416617,71,0,4361.282227,4304.615234,4316.666504,4332.94873,4309.487305,4314.230957,4305.128418,4389.615234,4295.769043,4280.128418,4458.846191,4467.820313,4370.641113,4527.692383,,,,,,,,,,,,,,,,,,,,,,,,,,,,,,,,,,,,,,,,,,,,,,,,,,,,,,,,,,,,,,,,,,,,,,
1720416617,72,0,4367.94873,4315.384766,4329.743652,4347.05127,4314.230957,4315.769043,4313.717773,4395.641113,4305.256348,4279.230957,4463.333496,4474.230957,4374.871582,4521.922852,,,,,,,,,,,,,,,,,,,,,,,,,,,,,,,,,,,,,,,,,,,,,,,,,,,,,,,,,,,,,,,,,,,,,,
1720416617,73,0,4354.358887,4307.692383,4324.487305,4334.487305,4311.410156,4312.692383,4309.871582,4390.897461,4301.282227,4280.769043,4463.205078,4472.307617,4369.743652,4511.282227,,,,,,,,,,,,,,,,,,,,,,,,,,,,,,,,,,,,,,,,,,,,,,,,,,,,,,,,,,,,,,,,,,,,,,
1720416617,74,0,4350.641113,4304.358887,4319.230957,4322.563965,4310.384766,4311.666504,4307.179688,4383.974121,4293.717773,4289.102539,4464.871582,4478.974121,4372.179688,4518.077148,,,,,,,,,,,,,,,,,,,,,,,,,,,,,,,,,,,,,,,,,,,,,,,,,,,,,,,,,,,,,,,,,,,,,,
1720416617,75,0,4362.692383,4314.358887,4326.666504,4337.563965,4310.128418,4310.641113,4308.846191,4384.871582,4298.589844,4293.846191,4468.461426,4480,4378.589844,4521.025879,,,,,,,,,,,,,,,,,,,,,,,,,,,,,,,,,,,,,,,,,,,,,,,,,,,,,,,,,,,,,,,,,,,,,,
1720416617,76,0,4373.461426,4319.615234,4331.410156,4344.615234,4312.820313,4311.538574,4311.153809,4389.615234,4310.641113,4297.179688,4472.179688,4475.512695,4380.641113,4519.871582,,,,,,,,,,,,,,,,,,,,,,,,,,,,,,,,,,,,,,,,,,,,,,,,,,,,,,,,,,,,,,,,,,,,,,
1720416617,77,0,4382.563965,4323.974121,4336.153809,4342.436035,4321.282227,4324.615234,4317.563965,4398.077148,4318.589844,4306.922852,4483.974121,4495.256348,4392.05127,4536.282227,,,,,,,,,,,,,,,,,,,,,,,,,,,,,,,,,,,,,,,,,,,,,,,,,,,,,,,,,,,,,,,,,,,,,,
1720416617,78,0,4381.666504,4322.179688,4335.128418,4343.333496,4318.974121,4328.974121,4318.589844,4397.94873,4317.563965,4308.333496,4487.05127,4495.128418,4397.820313,4532.179688,,,,,,,,,,,,,,,,,,,,,,,,,,,,,,,,,,,,,,,,,,,,,,,,,,,,,,,,,,,,,,,,,,,,,,
1720416617,79,0,4378.717773,4312.307617,4324.358887,4336.666504,4309.102539,4315.256348,4308.846191,4383.077148,4305.384766,4295.512695,4476.538574,4473.717773,4388.333496,4514.743652,,,,,,,,,,,,,,,,,,,,,,,,,,,,,,,,,,,,,,,,,,,,,,,,,,,,,,,,,,,,,,,,,,,,,,
1720416617,80,0,4386.153809,4311.794922,4321.410156,4332.179688,4310.128418,4305.512695,4303.717773,4373.717773,4293.461426,4290.897461,4471.538574,4472.94873,4382.820313,4519.358887,,,,,,,,,,,,,,,,,,,,,,,,,,,,,,,,,,,,,,,,,,,,,,,,,,,,,,,,,,,,,,,,,,,,,,
1720416617,81,0,4390.769043,4319.102539,4326.922852,4336.410156,4316.410156,4316.538574,4306.410156,4375.897461,4294.358887,4298.589844,4474.871582,4478.077148,4388.717773,4526.922852,,,,,,,,,,,,,,,,,,,,,,,,,,,,,,,,,,,,,,,,,,,,,,,,,,,,,,,,,,,,,,,,,,,,,,
1720416617,82,0,4388.717773,4317.179688,4333.974121,4339.871582,4321.153809,4332.179688,4313.846191,4383.589844,4304.230957,4304.102539,4483.717773,4486.153809,4399.871582,4533.461426,,,,,,,,,,,,,,,,,,,,,,,,,,,,,,,,,,,,,,,,,,,,,,,,,,,,,,,,,,,,,,,,,,,,,,
1720416617,83,0,4398.333496,4314.743652,4342.563965,4342.436035,4325.641113,4335.256348,4325.512695,4395.641113,4315.128418,4310.384766,4495.641113,4498.974121,4407.820313,4545.128418,,,,,,,,,,,,,,,,,,,,,,,,,,,,,,,,,,,,,,,,,,,,,,,,,,,,,,,,,,,,,,,,,,,,,,
1720416617,84,0,4401.538574,4309.871582,4336.153809,4336.922852,4319.230957,4325.384766,4321.794922,4391.153809,4312.94873,4306.025879,4484.615234,4487.94873,4393.077148,4530,,,,,,,,,,,,,,,,,,,,,,,,,,,,,,,,,,,,,,,,,,,,,,,,,,,,,,,,,,,,,,,,,,,,,,
1720416617,85,0,4390.512695,4297.436035,4320.641113,4324.358887,4308.846191,4315.384766,4308.461426,4374.615234,4306.410156,4292.179688,4463.205078,4471.794922,4378.974121,4509.615234,,,,,,,,,,,,,,,,,,,,,,,,,,,,,,,,,,,,,,,,,,,,,,,,,,,,,,,,,,,,,,,,,,,,,,
1720416617,86,0,4401.282227,4301.922852,4323.974121,4328.717773,4309.487305,4317.436035,4312.692383,4380,4314.615234,4299.230957,4478.461426,4488.589844,4396.538574,4527.436035,118.023956,47.702442,26.374174,11.068666,3.413859,1.549267,0.494851,0.417833,0.44804,0.195242,1.954282,0.651847,0.425853,0.647533,0.211901,1.18002,0.362601,0.254283,0.377348,0.193685,0.684439,0.347478,0.2723,0.228427,0.16907,0.619181,0.970385,0.830705,0.303651,0.309617,0.851477,0.674151,0.814081,0.357575,0.250185,0.73513,0.428831,0.672177,0.448342,0.234907,0.613452,1.21089,0.704329,0.449613,0.238857,0.815293,0.787081,0.427341,0.383156,0.260294,1.248885,1.037375,0.671199,0.605344,0.249335,1.335775,1.032145,0.767152,0.670911,0.378632,0.873272,0.766743,0.436644,0.342927,0.196949,19.970598,4.797218,2.539589,1.554239,0.523496
1720416617,87,0,4419.102539,4313.717773,4330.897461,4335.769043,4312.820313,4316.666504,4318.461426,4388.461426,4318.846191,4314.358887,4494.230957,4496.025879,4407.563965,4538.077148,,,,,,,,,,,,,,,,,,,,,,,,,,,,,,,,,,,,,,,,,,,,,,,,,,,,,,,,,,,,,,,,,,,,,,
1720416617,88,0,4413.589844,4310.897461,4323.846191,4325.384766,4312.307617,4310.128418,4313.077148,4384.102539,4310,4310.512695,4481.922852,4486.153809,4396.538574,4523.846191,,,,,,,,,,,,,,,,,,,,,,,,,,,,,,,,,,,,,,,,,,,,,,,,,,,,,,,,,,,,,,,,,,,,,,
1720416617,89,0,4413.077148,4308.589844,4322.94873,4327.692383,4317.820313,4316.538574,4318.205078,4390.512695,4312.94873,4307.563965,4484.230957,4493.589844,4398.974121,4524.358887,,,,,,,,,,,,,,,,,,,,,,,,,,,,,,,,,,,,,,,,,,,,,,,,,,,,,,,,,,,,,,,,,,,,,,
1720416617,90,0,4425,4313.333496,4327.820313,4342.179688,4322.05127,4327.05127,4327.692383,4400.128418,4321.282227,4314.102539,4494.358887,4496.282227,4406.025879,4527.692383,,,,,,,,,,,,,,,,,,,,,,,,,,,,,,,,,,,,,,,,,,,,,,,,,,,,,,,,,,,,,,,,,,,,,,
1720416617,91,0,4421.153809,4312.820313,4322.563965,4339.230957,4314.871582,4323.589844,4319.871582,4391.794922,4311.666504,4305.897461,4482.436035,4484.102539,4398.205078,4516.666504,,,,,,,,,,,,,,,,,,,,,,,,,,,,,,,,,,,,,,,,,,,,,,,,,,,,,,,,,,,,,,,,,,,,,,
1720416617,92,0,4410.769043,4308.589844,4318.589844,4328.717773,4313.974121,4320.641113,4312.94873,4383.589844,4303.846191,4298.589844,4476.410156,4477.94873,4396.282227,4513.461426,,,,,,,,,,,,,,,,,,,,,,,,,,,,,,,,,,,,,,,,,,,,,,,,,,,,,,,,,,,,,,,,,,,,,,
1720416617,93,0,4411.666504,4305.769043,4321.538574,4326.282227,4321.666504,4328.589844,4319.871582,4389.743652,4310.512695,4307.179688,4486.794922,4486.282227,4399.871582,4522.692383,,,,,,,,,,,,,,,,,,,,,,,,,,,,,,,,,,,,,,,,,,,,,,,,,,,,,,,,,,,,,,,,,,,,,,
1720416617,94,0,4410.512695,4303.589844,4326.282227,4328.461426,4323.717773,4329.487305,4327.05127,4394.871582,4312.179688,4309.871582,4489.615234,4495.512695,4393.846191,4517.436035,,,,,,,,,,,,,,,,,,,,,,,,,,,,,,,,,,,,,,,,,,,,,,,,,,,,,,,,,,,,,,,,,,,,,,
1720416617,95,0,4405,4308.974121,4329.102539,4333.333496,4321.538574,4324.743652,4325.128418,4397.05127,4311.794922,4303.589844,4487.94873,4499.358887,4393.461426,4498.461426,,,,,,,,,,,,,,,,,,,,,,,,,,,,,,,,,,,,,,,,,,,,,,,,,,,,,,,,,,,,,,,,,,,,,,
1720416617,96,0,4401.025879,4311.282227,4329.102539,4337.692383,4323.205078,4322.94873,4319.615234,4393.589844,4313.077148,4297.692383,4485.384766,4497.436035,4395,4481.922852,,,,,,,,,,,,,,,,,,,,,,,,,,,,,,,,,,,,,,,,,,,,,,,,,,,,,,,,,,,,,,,,,,,,,,
1720416617,97,0,4404.743652,4311.538574,4335.384766,4342.94873,4328.717773,4333.077148,4324.487305,4390.897461,4311.282227,4296.666504,4479.871582,4497.179688,4391.153809,4479.230957,,,,,,,,,,,,,,,,,,,,,,,,,,,,,,,,,,,,,,,,,,,,,,,,,,,,,,,,,,,,,,,,,,,,,,
1720416617,98,0,4411.025879,4313.333496,4341.025879,4345.512695,4330.128418,4341.025879,4327.436035,4392.436035,4309.487305,4295.384766,4477.820313,4497.179688,4390,4482.436035,,,,,,,,,,,,,,,,,,,,,,,,,,,,,,,,,,,,,,,,,,,,,,,,,,,,,,,,,,,,,,,,,,,,,,
1720416617,99,0,4404.615234,4303.974121,4328.717773,4332.94873,4320.641113,4322.820313,4311.282227,4382.179688,4308.077148,4288.589844,4469.358887,4482.436035,4384.615234,4469.615234,,,,,,,,,,,,,,,,,,,,,,,,,,,,,,,,,,,,,,,,,,,,,,,,,,,,,,,,,,,,,,,,,,,,,,
1720416617,100,0,4393.333496,4294.230957,4314.743652,4322.692383,4310.897461,4303.974121,4298.077148,4372.436035,4307.692383,4283.461426,4466.153809,4476.153809,4381.794922,4459.487305,,,,,,,,,,,,,,,,,,,,,,,,,,,,,,,,,,,,,,,,,,,,,,,,,,,,,,,,,,,,,,,,,,,,,,
1720416617,101,0,4393.974121,4302.563965,4322.05127,4333.077148,4318.333496,4314.743652,4310,4380,4309.743652,4293.077148,4483.717773,4487.563965,4393.461426,4473.589844,,,,,,,,,,,,,,,,,,,,,,,,,,,,,,,,,,,,,,,,,,,,,,,,,,,,,,,,,,,,,,,,,,,,,,
1720416617,102,0,4405.128418,4314.615234,4338.205078,4346.794922,4329.230957,4332.05127,4327.820313,4392.692383,4315.128418,4305.769043,4493.589844,4501.794922,4400.641113,4490.897461,125.830223,50.425434,28.608936,12.327009,3.684915,1.538849,0.445635,0.445343,0.501864,0.191804,2.161554,0.63504,0.45659,0.647371,0.2278,1.158838,0.35208,0.314039,0.419204,0.196361,0.64076,0.30687,0.297865,0.259013,0.162341,0.655136,0.989686,0.840611,0.325372,0.294493,0.844235,0.666987,0.775944,0.425263,0.241773,0.740748,0.421296,0.608136,0.531461,0.220232,0.620744,1.179298,0.67039,0.509977,0.246378,0.770104,0.834482,0.42137,0.434108,0.269972,1.137824,1.027989,0.675289,0.718079,0.27919,1.245398,0.963003,0.67479,0.658844,0.41736,0.760678,0.779359,0.421174,0.374258,0.210817,25.954542,4.876559,2.883182,1.692142,0.599119
1720416617,103,0,4405.897461,4311.666504,4340.512695,4344.358887,4328.077148,4328.846191,4326.794922,4391.538574,4313.077148,4303.205078,4482.563965,4501.025879,4392.05127,4485.128418,,,,,,,,,,,,,,,,,,,,,,,,,,,,,,,,,,,,,,,,,,,,,,,,,,,,,,,,,,,,,,,,,,,,,,
1720416617,104,0,4391.794922,4305,4328.333496,4330.256348,4321.538574,4319.743652,4313.461426,4378.717773,4298.974121,4291.282227,4473.333496,4474.230957,4384.358887,4466.153809,,,,,,,,,,,,,,,,,,,,,,,,,,,,,,,,,,,,,,,,,,,,,,,,,,,,,,,,,,,,,,,,,,,,,,
1720416617,105,0,4390.897461,4308.589844,4321.410156,4326.922852,4318.974121,4320.384766,4311.025879,4375.769043,4294.487305,4290.128418,4479.102539,4476.410156,4389.871582,4476.666504,,,,,,,,,,,,,,,,,,,,,,,,,,,,,,,,,,,,,,,,,,,,,,,,,,,,,,,,,,,,,,,,,,,,,,
1720416617,106,0,4400.512695,4312.179688,4325.641113,4338.717773,4321.153809,4323.333496,4318.589844,4382.692383,4305.512695,4301.794922,4486.410156,4505.769043,4394.871582,4496.153809,,,,,,,,,,,,,,,,,,,,,,,,,,,,,,,,,,,,,,,,,,,,,,,,,,,,,,,,,,,,,,,,,,,,,,
1720416617,107,0,4401.153809,4310,4326.538574,4343.077148,4323.717773,4326.025879,4321.666504,4385.769043,4314.871582,4305.641113,4485.641113,4498.077148,4391.794922,4484.358887,,,,,,,,,,,,,,,,,,,,,,,,,,,,,,,,,,,,,,,,,,,,,,,,,,,,,,,,,,,,,,,,,,,,,,
1720416617,108,0,4400,4309.615234,4325.769043,4336.282227,4325.384766,4326.794922,4319.487305,4384.487305,4310.512695,4296.410156,4483.333496,4479.871582,4389.615234,4475.512695,,,,,,,,,,,,,,,,,,,,,,,,,,,,,,,,,,,,,,,,,,,,,,,,,,,,,,,,,,,,,,,,,,,,,,
1720416617,109,0,4402.692383,4312.436035,4328.077148,4336.922852,4322.820313,4319.358887,4314.358887,4381.282227,4298.717773,4290.512695,4479.743652,4483.461426,4388.717773,4485.512695,,,,,,,,,,,,,,,,,,,,,,,,,,,,,,,,,,,,,,,,,,,,,,,,,,,,,,,,,,,,,,,,,,,,,,
1720416617,110,0,4405,4312.05127,4330.384766,4343.846191,4314.871582,4310.128418,4309.743652,4373.846191,4296.025879,4291.666504,4475,4488.717773,4385.512695,4485.769043,,,,,,,,,,,,,,,,,,,,,,,,,,,,,,,,,,,,,,,,,,,,,,,,,,,,,,,,,,,,,,,,,,,,,,
1720416617,111,0,4407.820313,4312.307617,4333.461426,4343.846191,4311.794922,4311.794922,4312.307617,4371.538574,4305.769043,4294.358887,4476.794922,4492.436035,4386.538574,4483.717773,,,,,,,,,,,,,,,,,,,,,,,,,,,,,,,,,,,,,,,,,,,,,,,,,,,,,,,,,,,,,,,,,,,,,,
1720416617,112,0,4412.179688,4313.333496,4336.538574,4342.179688,4321.794922,4323.717773,4321.153809,4382.94873,4312.692383,4295.128418,4488.846191,4499.358887,4391.282227,4493.717773,,,,,,,,,,,,,,,,,,,,,,,,,,,,,,,,,,,,,,,,,,,,,,,,,,,,,,,,,,,,,,,,,,,,,,
1720416617,113,0,4413.205078,4309.358887,4333.717773,4340.512695,4326.153809,4334.615234,4323.461426,4388.974121,4309.615234,4294.487305,4490,4500.256348,4388.589844,4492.820313,,,,,,,,,,,,,,,,,,,,,,,,,,,,,,,,,,,,,,,,,,,,,,,,,,,,,,,,,,,,,,,,,,,,,,
1720416617,114,0,4414.230957,4309.615234,4328.846191,4338.974121,4316.282227,4330.769043,4318.974121,4381.538574,4309.871582,4293.333496,4478.205078,4496.538574,4385.384766,4483.333496,,,,,,,,,,,,,,,,,,,,,,,,,,,,,,,,,,,,,,,,,,,,,,,,,,,,,,,,,,,,,,,,,,,,,,
1720416617,115,0,4416.153809,4314.230957,4326.282227,4335.769043,4308.846191,4314.102539,4313.077148,4374.871582,4313.333496,4296.282227,4474.358887,4484.615234,4384.102539,4477.563965,,,,,,,,,,,,,,,,,,,,,,,,,,,,,,,,,,,,,,,,,,,,,,,,,,,,,,,,,,,,,,,,,,,,,,
1720416617,116,0,4412.692383,4307.820313,4322.05127,4326.410156,4305.897461,4306.410156,4306.794922,4371.538574,4306.794922,4292.307617,4474.743652,4480.128418,4380.769043,4472.820313,,,,,,,,,,,,,,,,,,,,,,,,,,,,,,,,,,,,,,,,,,,,,,,,,,,,,,,,,,,,,,,,,,,,,,
1720416617,117,0,4409.487305,4304.743652,4323.333496,4325.769043,4306.538574,4312.05127,4305.641113,4370.128418,4298.077148,4283.333496,4476.666504,4491.025879,4385,4478.333496,,,,,,,,,,,,,,,,,,,,,,,,,,,,,,,,,,,,,,,,,,,,,,,,,,,,,,,,,,,,,,,,,,,,,,
1720416617,118,0,4415.256348,4313.589844,4330.256348,4337.563965,4308.205078,4312.436035,4306.538574,4367.692383,4293.717773,4281.153809,4480.769043,4487.692383,4393.846191,4488.974121,118.112183,47.436684,27.271275,12.04331,3.549279,1.539719,0.391549,0.456067,0.523327,0.192664,2.318335,0.606149,0.477766,0.633222,0.242823,1.199901,0.348806,0.359579,0.443569,0.200605,0.582244,0.252742,0.324035,0.285253,0.15104,0.672139,1.004283,0.892879,0.350434,0.283981,0.784993,0.676237,0.761086,0.470275,0.238611,0.730274,0.451983,0.589445,0.586007,0.212446,0.590962,1.10235,0.668545,0.539485,0.254837,0.688302,0.8131,0.4089,0.456087,0.275767,1.001902,0.963861,0.671678,0.798229,0.321543,1.11372,0.902257,0.650333,0.653998,0.466823,0.680623,0.771312,0.378183,0.392194,0.230725,30.902748,4.999094,3.307451,1.750722,0.672049
1720416617,119,0,4423.589844,4317.820313,4335.641113,4342.179688,4308.846191,4309.487305,4307.820313,4368.333496,4293.461426,4283.077148,4481.025879,4487.179688,4395.897461,4490.769043,,,,,,,,,,,,,,,,,,,,,,,,,,,,,,,,,,,,,,,,,,,,,,,,,,,,,,,,,,,,,,,,,,,,,,
1720416617,120,0,4423.333496,4315.897461,4340.769043,4340.897461,4311.922852,4312.05127,4310.641113,4374.230957,4298.333496,4288.589844,4485.256348,4497.94873,4394.358887,4492.307617,,,,,,,,,,,,,,,,,,,,,,,,,,,,,,,,,,,,,,,,,,,,,,,,,,,,,,,,,,,,,,,,,,,,,,
1720416617,121,0,4419.487305,4315,4341.282227,4340.769043,4313.077148,4312.563965,4311.025879,4373.589844,4299.743652,4289.871582,4489.743652,4493.717773,4397.05127,4495.897461,,,,,,,,,,,,,,,,,,,,,,,,,,,,,,,,,,,,,,,,,,,,,,,,,,,,,,,,,,,,,,,,,,,,,,
1720416617,122,0,4423.077148,4311.922852,4333.461426,4333.974121,4309.871582,4309.358887,4306.153809,4366.025879,4292.94873,4284.615234,4481.794922,4481.666504,4397.307617,4489.102539,,,,,,,,,,,,,,,,,,,,,,,,,,,,,,,,,,,,,,,,,,,,,,,,,,,,,,,,,,,,,,,,,,,,,,
1720416617,123,0,4430.769043,4310.512695,4331.025879,4331.922852,4309.487305,4314.487305,4305.512695,4367.94873,4295.641113,4287.94873,4478.205078,4481.282227,4395.769043,4482.436035,,,,,,,,,,,,,,,,,,,,,,,,,,,,,,,,,,,,,,,,,,,,,,,,,,,,,,,,,,,,,,,,,,,,,,
1720416617,124,0,4430.769043,4309.871582,4336.153809,4337.307617,4315.512695,4322.179688,4310.512695,4374.615234,4305.256348,4297.692383,4483.974121,4487.436035,4396.666504,4483.717773,,,,,,,,,,,,,,,,,,,,,,,,,,,,,,,,,,,,,,,,,,,,,,,,,,,,,,,,,,,,,,,,,,,,,,
1720416617,125,0,4422.307617,4305.897461,4331.025879,4331.153809,4310.128418,4316.538574,4309.358887,4369.743652,4300.128418,4295,4479.358887,4479.871582,4392.307617,4471.153809,,,,,,,,,,,,,,,,,,,,,,,,,,,,,,,,,,,,,,,,,,,,,,,,,,,,,,,,,,,,,,,,,,,,,,
1720416617,126,0,4425.897461,4306.794922,4325.641113,4327.692383,4297.94873,4309.615234,4306.922852,4366.922852,4296.282227,4287.307617,4472.820313,4476.794922,4386.025879,4462.179688,,,,,,,,,,,,,,,,,,,,,,,,,,,,,,,,,,,,,,,,,,,,,,,,,,,,,,,,,,,,,,,,,,,,,,
1720416617,127,0,4432.307617,4303.461426,4321.666504,4325,4292.94873,4305.256348,4301.282227,4365.512695,4296.025879,4281.282227,4465.897461,4479.102539,4379.487305,4464.487305,,,,,,,,,,,,,,,,,,,,,,,,,,,,,,,,,,,,,,,,,,,,,,,,,,,,,,,,,,,,,,,,,,,,,,
1720416617,0,0,4424.230957,4289.743652,4311.922852,4309.230957,4292.436035,4296.538574,4290.897461,4355.769043,4285.256348,4271.153809,4450.769043,4469.743652,4371.025879,4454.230957,,,,,,,,,,,,,,,,,,,,,,,,,,,,,,,,,,,,,,,,,,,,,,,,,,,,,,,,,,,,,,,,,,,,,,
1720416617,1,0,4425,4292.307617,4315.641113,4310.512695,4293.589844,4297.179688,4292.436035,4356.666504,4286.153809,4276.153809,4458.846191,4466.410156,4375.641113,4452.05127,,,,,,,,,,,,,,,,,,,,,,,,,,,,,,,,,,,,,,,,,,,,,,,,,,,,,,,,,,,,,,,,,,,,,,
1720416617,2,0,4437.563965,4308.717773,4330.769043,4332.436035,4294.743652,4307.563965,4299.358887,4363.205078,4298.717773,4292.563965,4481.025879,4483.846191,4391.282227,4468.333496,,,,,,,,,,,,,,,,,,,,,,,,,,,,,,,,,,,,,,,,,,,,,,,,,,,,,,,,,,,,,,,,,,,,,,
1720416617,3,0,4439.743652,4316.153809,4334.102539,4337.179688,4299.487305,4307.05127,4296.410156,4358.717773,4297.436035,4296.794922,4478.333496,4492.436035,4397.179688,4469.743652,,,,,,,,,,,,,,,,,,,,,,,,,,,,,,,,,,,,,,,,,,,,,,,,,,,,,,,,,,,,,,,,,,,,,,
1720416617,4,0,4433.846191,4318.333496,4333.077148,4334.871582,4308.077148,4307.436035,4295.384766,4358.077148,4292.563965,4294.871582,4475.128418,4477.307617,4397.307617,4456.538574,,,,,,,,,,,,,,,,,,,,,,,,,,,,,,,,,,,,,,,,,,,,,,,,,,,,,,,,,,,,,,,,,,,,,,
1720416617,5,0,4435.128418,4323.333496,4341.153809,4345.769043,4313.077148,4319.230957,4306.410156,4367.436035,4296.666504,4297.563965,4490.512695,4483.077148,4400.512695,4457.436035,,,,,,,,,,,,,,,,,,,,,,,,,,,,,,,,,,,,,,,,,,,,,,,,,,,,,,,,,,,,,,,,,,,,,,
1720416617,6,0,4430.641113,4321.025879,4341.025879,4344.743652,4311.922852,4321.025879,4313.717773,4368.974121,4295.769043,4301.025879,4492.179688,4494.102539,4397.436035,4458.717773,97.618065,39.367664,22.600996,10.240384,3.02727,1.607345,0.335771,0.436072,0.507711,0.196056,2.417657,0.592432,0.461215,0.610364,0.251513,1.322782,0.350861,0.375292,0.448104,0.208898,0.546271,0.1971,0.348401,0.303583,0.137206,0.687703,1.006828,0.956522,0.38255,0.279603,0.736905,0.697731,0.771472,0.489951,0.237649,0.709143,0.513479,0.61483,0.606888,0.209121,0.57346,0.990581,0.681558,0.53387,0.2599,0.641491,0.732579,0.386324,0.443651,0.278004,0.92536,0.8829,0.66095,0.826797,0.364835,1.02709,0.869825,0.688059,0.656501,0.51345,0.698991,0.758624,0.319241,0.392286,0.252631,33.741447,5.104921,3.560827,1.701098,0.71996
1720416617,7,0,4415.384766,4311.922852,4328.205078,4329.358887,4309.102539,4311.538574,4304.615234,4359.358887,4289.871582,4294.230957,4475.256348,4474.358887,4388.717773,4448.077148,,,,,,,,,,,,,,,,,,,,,,,,,,,,,,,,,,,,,,,,,,,,,,,,,,,,,,,,,,,,,,,,,,,,,,
1720416617,8,0,4411.410156,4306.922852,4323.077148,4322.05127,4309.102539,4310.512695,4298.077148,4355.897461,4288.077148,4285.769043,4469.230957,4464.102539,4385.256348,4446.538574,,,,,,,,,,,,,,,,,,,,,,,,,,,,,,,,,,,,,,,,,,,,,,,,,,,,,,,,,,,,,,,,,,,,,,
1720416617,9,0,4418.974121,4309.871582,4328.974121,4327.307617,4309.487305,4318.589844,4306.282227,4365.128418,4294.487305,4286.794922,4475.128418,4475.769043,4387.436035,4454.230957,,,,,,,,,,,,,,,,,,,,,,,,,,,,,,,,,,,,,,,,,,,,,,,,,,,,,,,,,,,,,,,,,,,,,,
1720416617,10,0,4416.794922,4315,4327.436035,4328.333496,4303.077148,4308.717773,4304.358887,4366.153809,4297.05127,4286.282227,4470.256348,4478.589844,4384.487305,4453.589844,,,,,,,,,,,,,,,,,,,,,,,,,,,,,,,,,,,,,,,,,,,,,,,,,,,,,,,,,,,,,,,,,,,,,,
1720416617,11,0,4395.256348,4307.94873,4314.358887,4316.410156,4293.333496,4294.487305,4291.153809,4353.974121,4284.358887,4276.410156,4455.384766,4465.512695,4372.179688,4440.384766,,,,,,,,,,,,,,,,,,,,,,,,,,,,,,,,,,,,,,,,,,,,,,,,,,,,,,,,,,,,,,,,,,,,,,
1720416617,12,0,4378.333496,4298.077148,4308.461426,4307.436035,4293.205078,4304.102539,4292.563965,4354.743652,4286.025879,4274.358887,4452.692383,4457.563965,4365.769043,4437.307617,,,,,,,,,,,,,,,,,,,,,,,,,,,,,,,,,,,,,,,,,,,,,,,,,,,,,,,,,,,,,,,,,,,,,,
1720416617,13,0,4387.692383,4301.282227,4312.563965,4311.666504,4293.333496,4307.307617,4297.307617,4359.743652,4295.897461,4279.615234,4457.05127,4460.128418,4370.641113,4447.179688,,,,,,,,,,,,,,,,,,,,,,,,,,,,,,,,,,,,,,,,,,,,,,,,,,,,,,,,,,,,,,,,,,,,,,
1720416617,14,0,4399.871582,4308.589844,4320.512695,4320.256348,4288.077148,4291.282227,4290.256348,4351.153809,4285.384766,4278.333496,4457.307617,4470,4375,4448.589844,,,,,,,,,,,,,,,,,,,,,,,,,,,,,,,,,,,,,,,,,,,,,,,,,,,,,,,,,,,,,,,,,,,,,,
1720416617,15,0,4400,4312.05127,4332.179688,4327.563965,4296.025879,4294.487305,4290.641113,4349.230957,4278.717773,4280.512695,4466.153809,4477.179688,4381.153809,4447.179688,,,,,,,,,,,,,,,,,,,,,,,,,,,,,,,,,,,,,,,,,,,,,,,,,,,,,,,,,,,,,,,,,,,,,,
1720416617,16,0,4408.974121,4318.589844,4340.512695,4336.538574,4309.871582,4312.692383,4298.717773,4357.820313,4288.461426,4290.512695,4480.641113,4480.769043,4390.769043,4455.769043,,,,,,,,,,,,,,,,,,,,,,,,,,,,,,,,,,,,,,,,,,,,,,,,,,,,,,,,,,,,,,,,,,,,,,
1720416617,17,0,4416.025879,4321.282227,4336.025879,4337.307617,4308.461426,4309.487305,4296.410156,4354.743652,4286.282227,4291.153809,4475.641113,4480,4389.871582,4456.025879,,,,,,,,,,,,,,,,,,,,,,,,,,,,,,,,,,,,,,,,,,,,,,,,,,,,,,,,,,,,,,,,,,,,,,
1720416617,18,0,4402.94873,4314.743652,4323.846191,4329.615234,4303.333496,4301.410156,4289.871582,4341.794922,4275.128418,4281.922852,4458.589844,4463.589844,4378.461426,4440.384766,,,,,,,,,,,,,,,,,,,,,,,,,,,,,,,,,,,,,,,,,,,,,,,,,,,,,,,,,,,,,,,,,,,,,,
1720416617,19,0,4401.282227,4312.179688,4324.102539,4332.307617,4307.05127,4308.461426,4292.94873,4340.897461,4280.897461,4283.077148,4460.384766,4463.717773,4378.205078,4435.512695,,,,,,,,,,,,,,,,,,,,,,,,,,,,,,,,,,,,,,,,,,,,,,,,,,,,,,,,,,,,,,,,,,,,,,
1720416617,20,0,4413.589844,4313.205078,4336.153809,4338.589844,4308.974121,4313.333496,4299.871582,4352.563965,4286.794922,4293.205078,4475.897461,4483.333496,4390.769043,4446.794922,,,,,,,,,,,,,,,,,,,,,,,,,,,,,,,,,,,,,,,,,,,,,,,,,,,,,,,,,,,,,,,,,,,,,,
1720416617,21,0,4411.794922,4309.871582,4333.461426,4330.384766,4304.358887,4308.974121,4298.461426,4356.794922,4282.563965,4292.307617,4476.666504,4482.436035,4390.512695,4446.410156,,,,,,,,,,,,,,,,,,,,,,,,,,,,,,,,,,,,,,,,,,,,,,,,,,,,,,,,,,,,,,,,,,,,,,
1720416617,22,0,4407.820313,4308.205078,4323.717773,4323.333496,4302.692383,4308.846191,4299.743652,4356.666504,4283.717773,4287.436035,4470.769043,4476.410156,4382.563965,4437.94873,68.706398,28.430643,15.954075,7.482935,2.268981,1.708125,0.293935,0.388462,0.464182,0.199676,2.38002,0.604625,0.407771,0.585193,0.252214,1.487826,0.358433,0.360142,0.441674,0.222828,0.529431,0.151177,0.366438,0.315577,0.124806,0.667291,0.985829,0.995775,0.432856,0.281928,0.671094,0.707932,0.790989,0.49454,0.236575,0.706522,0.576708,0.656054,0.603927,0.207085,0.548907,0.862723,0.682799,0.504241,0.259178,0.63249,0.624522,0.358187,0.407054,0.277782,0.926974,0.820091,0.644139,0.803054,0.398394,0.964902,0.862723,0.760461,0.661834,0.547528,0.803674,0.757807,0.264844,0.376339,0.272156,33.567116,5.048103,3.513018,1.54547,0.734942
1720416617,23,0,4413.846191,4312.05127,4333.974121,4338.846191,4310.769043,4318.717773,4312.692383,4367.05127,4294.871582,4293.717773,4479.358887,4486.922852,4390.128418,4443.077148,,,,,,,,,,,,,,,,,,,,,,,,,,,,,,,,,,,,,,,,,,,,,,,,,,,,,,,,,,,,,,,,,,,,,,
1720416617,24,0,4409.615234,4314.358887,4343.333496,4347.436035,4311.922852,4318.717773,4312.179688,4372.307617,4301.025879,4300.769043,4485.128418,4490.128418,4400.128418,4449.358887,,,,,,,,,,,,,,,,,,,,,,,,,,,,,,,,,,,,,,,,,,,,,,,,,,,,,,,,,,,,,,,,,,,,,,
1720416617,25,0,4393.846191,4308.846191,4327.436035,4328.974121,4301.025879,4304.615234,4294.615234,4357.94873,4291.410156,4294.743652,4475.384766,4473.974121,4390.512695,4437.820313,,,,,,,,,,,,,,,,,,,,,,,,,,,,,,,,,,,,,,,,,,,,,,,,,,,,,,,,,,,,,,,,,,,,,,
1720416617,26,0,4390.128418,4309.487305,4319.743652,4320.641113,4302.05127,4304.487305,4290,4351.410156,4287.820313,4286.538574,4469.871582,4468.846191,4383.589844,4431.666504,,,,,,,,,,,,,,,,,,,,,,,,,,,,,,,,,,,,,,,,,,,,,,,,,,,,,,,,,,,,,,,,,,,,,,
1720416617,27,0,4390.641113,4312.692383,4326.282227,4328.589844,4308.461426,4315.128418,4298.717773,4358.717773,4292.436035,4283.077148,4467.563965,4473.974121,4383.846191,4437.436035,,,,,,,,,,,,,,,,,,,,,,,,,,,,,,,,,,,,,,,,,,,,,,,,,,,,,,,,,,,,,,,,,,,,,,
1720416617,28,0,4380.641113,4301.282227,4315,4319.487305,4296.282227,4305.641113,4293.589844,4353.846191,4285.384766,4279.743652,4456.794922,4462.307617,4371.153809,4428.333496,,,,,,,,,,,,,,,,,,,,,,,,,,,,,,,,,,,,,,,,,,,,,,,,,,,,,,,,,,,,,,,,,,,,,,
1720416618,29,0,4379.230957,4292.179688,4306.410156,4310.256348,4286.538574,4291.538574,4285.256348,4340.897461,4277.307617,4279.102539,4453.846191,4457.307617,4365.897461,4423.461426,,,,,,,,,,,,,,,,,,,,,,,,,,,,,,,,,,,,,,,,,,,,,,,,,,,,,,,,,,,,,,,,,,,,,,
1720416618,30,0,4396.410156,4297.307617,4320.256348,4321.410156,4294.487305,4293.974121,4288.846191,4339.230957,4276.794922,4279.871582,4461.025879,4471.922852,4375.769043,4440.897461,,,,,,,,,,,,,,,,,,,,,,,,,,,,,,,,,,,,,,,,,,,,,,,,,,,,,,,,,,,,,,,,,,,,,,
1720416618,31,0,4407.94873,4297.94873,4325.769043,4324.102539,4295,4293.974121,4289.615234,4341.794922,4276.538574,4275.128418,4459.487305,4474.358887,4376.666504,4449.871582,,,,,,,,,,,,,,,,,,,,,,,,,,,,,,,,,,,,,,,,,,,,,,,,,,,,,,,,,,,,,,,,,,,,,,
1720416618,32,0,4406.410156,4292.307617,4313.333496,4315.256348,4287.436035,4293.974121,4288.589844,4339.871582,4275,4272.179688,4455.512695,4459.487305,4371.922852,4445.641113,,,,,,,,,,,,,,,,,,,,,,,,,,,,,,,,,,,,,,,,,,,,,,,,,,,,,,,,,,,,,,,,,,,,,,
1720416618,33,0,4412.436035,4294.230957,4311.922852,4319.871582,4289.871582,4307.692383,4295.641113,4344.871582,4275.897461,4275.897461,4462.94873,4466.794922,4375.128418,4455.641113,,,,,,,,,,,,,,,,,,,,,,,,,,,,,,,,,,,,,,,,,,,,,,,,,,,,,,,,,,,,,,,,,,,,,,
1720416618,34,0,4423.974121,4300.769043,4323.974121,4329.230957,4291.282227,4308.846191,4299.102539,4349.487305,4274.102539,4277.05127,4471.666504,4482.692383,4381.153809,4467.94873,,,,,,,,,,,,,,,,,,,,,,,,,,,,,,,,,,,,,,,,,,,,,,,,,,,,,,,,,,,,,,,,,,,,,,
1720416618,35,0,4429.743652,4303.589844,4328.589844,4328.717773,4289.615234,4292.307617,4293.333496,4344.487305,4271.922852,4276.666504,4469.871582,4472.820313,4382.692383,4465.769043,,,,,,,,,,,,,,,,,,,,,,,,,,,,,,,,,,,,,,,,,,,,,,,,,,,,,,,,,,,,,,,,,,,,,,
1720416618,36,0,4431.282227,4303.846191,4322.94873,4326.153809,4295,4298.077148,4293.461426,4345.384766,4274.871582,4279.102539,4462.94873,4468.333496,4383.205078,4470.128418,,,,,,,,,,,,,,,,,,,,,,,,,,,,,,,,,,,,,,,,,,,,,,,,,,,,,,,,,,,,,,,,,,,,,,
1720416618,37,0,4426.922852,4302.179688,4311.025879,4324.102539,4298.717773,4310.641113,4297.436035,4351.666504,4277.692383,4280.897461,4461.666504,4470.897461,4380.897461,4474.102539,,,,,,,,,,,,,,,,,,,,,,,,,,,,,,,,,,,,,,,,,,,,,,,,,,,,,,,,,,,,,,,,,,,,,,
1720416618,38,0,4426.666504,4304.230957,4310,4325.128418,4294.871582,4302.179688,4295,4351.538574,4283.333496,4286.922852,4468.589844,4469.102539,4384.487305,4472.692383,41.04681,17.508917,9.277467,4.608691,1.49081,1.830931,0.278942,0.32995,0.413217,0.201538,2.201165,0.643223,0.338562,0.565781,0.247663,1.638049,0.38578,0.326088,0.440859,0.242611,0.536819,0.135622,0.375094,0.32627,0.117585,0.620516,0.931392,0.987861,0.507755,0.290365,0.603942,0.682785,0.794747,0.499107,0.235126,0.685399,0.608744,0.680222,0.594673,0.205026,0.526194,0.737496,0.656574,0.468721,0.253463,0.667623,0.528923,0.337355,0.365532,0.275972,0.977756,0.801466,0.619502,0.747015,0.418088,0.926056,0.855406,0.826338,0.66953,0.568877,0.952925,0.785872,0.227985,0.353867,0.28589,30.456167,4.724015,3.165821,1.318003,0.721885
1720416618,39,0,4433.077148,4305.128418,4316.922852,4323.589844,4292.179688,4293.077148,4291.538574,4347.692383,4289.743652,4293.589844,4473.846191,4475.641113,4391.282227,4478.974121,,,,,,,,,,,,,,,,,,,,,,,,,,,,,,,,,,,,,,,,,,,,,,,,,,,,,,,,,,,,,,,,,,,,,,
1720416618,40,0,4434.230957,4305,4320.384766,4323.077148,4294.743652,4298.333496,4293.333496,4350.897461,4294.358887,4296.410156,4476.666504,4478.717773,4393.205078,4484.871582,,,,,,,,,,,,,,,,,,,,,,,,,,,,,,,,,,,,,,,,,,,,,,,,,,,,,,,,,,,,,,,,,,,,,,
1720416618,41,0,4427.563965,4307.179688,4319.230957,4325.897461,4294.487305,4301.153809,4296.025879,4355.128418,4296.666504,4297.179688,4477.307617,4470.512695,4395,4480.641113,,,,,,,,,,,,,,,,,,,,,,,,,,,,,,,,,,,,,,,,,,,,,,,,,,,,,,,,,,,,,,,,,,,,,,
1720416618,42,0,4418.717773,4299.615234,4312.563965,4317.05127,4286.794922,4292.692383,4291.410156,4348.974121,4288.846191,4289.743652,4466.153809,4463.333496,4387.692383,4469.102539,,,,,,,,,,,,,,,,,,,,,,,,,,,,,,,,,,,,,,,,,,,,,,,,,,,,,,,,,,,,,,,,,,,,,,
1720416618,43,0,4422.307617,4294.358887,4311.153809,4310.384766,4287.436035,4296.153809,4292.179688,4346.410156,4282.307617,4280.256348,4455.384766,4465.384766,4379.230957,4463.974121,,,,,,,,,,,,,,,,,,,,,,,,,,,,,,,,,,,,,,,,,,,,,,,,,,,,,,,,,,,,,,,,,,,,,,
1720416618,44,0,4433.205078,4304.358887,4320.641113,4321.153809,4296.922852,4314.230957,4303.333496,4351.153809,4280,4280.128418,4459.230957,4469.743652,4383.205078,4472.05127,,,,,,,,,,,,,,,,,,,,,,,,,,,,,,,,,,,,,,,,,,,,,,,,,,,,,,,,,,,,,,,,,,,,,,
1720416618,45,0,4428.846191,4306.025879,4321.922852,4321.410156,4290.897461,4313.205078,4299.487305,4346.282227,4268.974121,4275.384766,4458.461426,4467.692383,4382.563965,4475.256348,,,,,,,,,,,,,,,,,,,,,,,,,,,,,,,,,,,,,,,,,,,,,,,,,,,,,,,,,,,,,,,,,,,,,,
1720416618,46,0,4412.05127,4293.461426,4309.358887,4305.641113,4276.538574,4295.512695,4284.102539,4338.077148,4266.410156,4263.205078,4447.436035,4456.410156,4370.769043,4463.589844,,,,,,,,,,,,,,,,,,,,,,,,,,,,,,,,,,,,,,,,,,,,,,,,,,,,,,,,,,,,,,,,,,,,,,
1720416618,47,0,4409.102539,4290.641113,4307.05127,4303.077148,4278.077148,4289.487305,4284.102539,4340.769043,4274.358887,4261.025879,4444.743652,4456.025879,4366.794922,4462.179688,,,,,,,,,,,,,,,,,,,,,,,,,,,,,,,,,,,,,,,,,,,,,,,,,,,,,,,,,,,,,,,,,,,,,,
1720416618,48,0,4420.641113,4296.153809,4315,4309.230957,4283.974121,4296.794922,4291.282227,4343.077148,4270,4266.538574,4449.487305,4467.563965,4372.94873,4477.307617,,,,,,,,,,,,,,,,,,,,,,,,,,,,,,,,,,,,,,,,,,,,,,,,,,,,,,,,,,,,,,,,,,,,,,
1720416618,49,0,4429.358887,4300.256348,4320.128418,4314.743652,4281.410156,4303.589844,4291.410156,4343.461426,4266.282227,4269.871582,4454.102539,4469.615234,4378.205078,4488.589844,,,,,,,,,,,,,,,,,,,,,,,,,,,,,,,,,,,,,,,,,,,,,,,,,,,,,,,,,,,,,,,,,,,,,,
1720416618,50,0,4431.410156,4308.717773,4330.256348,4323.205078,4282.05127,4305.384766,4294.230957,4350.128418,4279.230957,4275.769043,4461.922852,4472.820313,4382.563965,4495,,,,,,,,,,,,,,,,,,,,,,,,,,,,,,,,,,,,,,,,,,,,,,,,,,,,,,,,,,,,,,,,,,,,,,
1720416618,51,0,4420.384766,4306.538574,4328.717773,4318.461426,4283.589844,4298.077148,4290.769043,4347.563965,4283.589844,4277.436035,4460.641113,4471.410156,4378.077148,4492.307617,,,,,,,,,,,,,,,,,,,,,,,,,,,,,,,,,,,,,,,,,,,,,,,,,,,,,,,,,,,,,,,,,,,,,,
1720416618,52,0,4401.538574,4291.410156,4308.333496,4304.743652,4277.563965,4290.256348,4280,4336.282227,4275.769043,4272.05127,4446.025879,4456.282227,4365.641113,4476.666504,,,,,,,,,,,,,,,,,,,,,,,,,,,,,,,,,,,,,,,,,,,,,,,,,,,,,,,,,,,,,,,,,,,,,,
1720416618,53,0,4399.743652,4293.333496,4300.897461,4304.743652,4279.230957,4296.666504,4283.461426,4333.461426,4275.897461,4272.692383,4444.615234,4451.410156,4368.717773,4472.94873,,,,,,,,,,,,,,,,,,,,,,,,,,,,,,,,,,,,,,,,,,,,,,,,,,,,,,,,,,,,,,,,,,,,,,
1720416618,54,0,4412.563965,4306.794922,4317.820313,4315.256348,4290.512695,4307.307617,4294.615234,4337.563965,4279.871582,4280.769043,4461.794922,4465.641113,4386.282227,4492.94873,19.90004,9.065459,4.198648,2.360051,0.879919,1.911531,0.31401,0.283759,0.374225,0.200319,1.899384,0.716421,0.292097,0.558506,0.243484,1.717055,0.472522,0.300056,0.457269,0.267045,0.549271,0.183891,0.378112,0.338454,0.117482,0.548341,0.851884,0.939215,0.597569,0.30385,0.520142,0.623442,0.768951,0.510331,0.23538,0.660833,0.597926,0.668568,0.591179,0.204034,0.498438,0.630282,0.60481,0.439936,0.24646,0.728756,0.481769,0.34362,0.33503,0.272931,1.029502,0.853792,0.602763,0.687245,0.426181,0.875314,0.827545,0.857562,0.683997,0.582574,1.084777,0.866903,0.222692,0.337767,0.291387,24.990833,4.066105,2.615202,1.065083,0.690801
1720416618,55,0,4418.333496,4307.179688,4328.205078,4322.436035,4294.358887,4308.461426,4295.769043,4342.307617,4281.922852,4284.487305,4467.563965,4469.871582,4387.692383,4504.102539,,,,,,,,,,,,,,,,,,,,,,,,,,,,,,,,,,,,,,,,,,,,,,,,,,,,,,,,,,,,,,,,,,,,,,
1720416618,56,0,4418.717773,4302.94873,4322.436035,4322.563965,4290.897461,4301.410156,4293.717773,4342.307617,4282.05127,4281.922852,4457.05127,4463.974121,4375.512695,4495,,,,,,,,,,,,,,,,,,,,,,,,,,,,,,,,,,,,,,,,,,,,,,,,,,,,,,,,,,,,,,,,,,,,,,
1720416618,57,0,4418.205078,4307.307617,4321.025879,4318.846191,4287.05127,4296.153809,4291.922852,4339.615234,4279.615234,4281.282227,4456.025879,4466.794922,4379.102539,4497.05127,,,,,,,,,,,,,,,,,,,,,,,,,,,,,,,,,,,,,,,,,,,,,,,,,,,,,,,,,,,,,,,,,,,,,,
1720416618,58,0,4415.128418,4312.179688,4328.333496,4321.153809,4282.692383,4297.179688,4290.512695,4341.666504,4279.358887,4281.666504,4463.589844,4475,4392.563965,4514.743652,,,,,,,,,,,,,,,,,,,,,,,,,,,,,,,,,,,,,,,,,,,,,,,,,,,,,,,,,,,,,,,,,,,,,,
1720416618,59,0,4422.179688,4312.692383,4333.589844,4326.153809,4279.743652,4297.179688,4294.102539,4345.512695,4280.512695,4280.769043,4466.025879,4485.512695,4395.641113,4524.615234,,,,,,,,,,,,,,,,,,,,,,,,,,,,,,,,,,,,,,,,,,,,,,,,,,,,,,,,,,,,,,,,,,,,,,
1720416618,60,0,4424.230957,4311.922852,4330.256348,4321.025879,4279.871582,4295.128418,4295.769043,4343.974121,4277.692383,4283.205078,4465.256348,4477.820313,4392.179688,4518.461426,,,,,,,,,,,,,,,,,,,,,,,,,,,,,,,,,,,,,,,,,,,,,,,,,,,,,,,,,,,,,,,,,,,,,,
1720416618,61,0,4399.615234,4308.461426,4322.692383,4314.615234,4279.487305,4292.179688,4288.461426,4338.974121,4267.307617,4274.871582,4459.230957,4460.384766,4388.461426,4510.769043,,,,,,,,,,,,,,,,,,,,,,,,,,,,,,,,,,,,,,,,,,,,,,,,,,,,,,,,,,,,,,,,,,,,,,
1720416618,62,0,4376.922852,4310.128418,4323.717773,4318.846191,4286.153809,4293.717773,4289.102539,4340.384766,4260.384766,4263.333496,4456.538574,4465.769043,4383.077148,4509.102539,,,,,,,,,,,,,,,,,,,,,,,,,,,,,,,,,,,,,,,,,,,,,,,,,,,,,,,,,,,,,,,,,,,,,,
1720416618,63,0,4373.846191,4315.128418,4327.436035,4326.025879,4294.230957,4297.820313,4297.179688,4345.384766,4268.846191,4272.05127,4461.153809,4470.512695,4381.282227,4506.922852,,,,,,,,,,,,,,,,,,,,,,,,,,,,,,,,,,,,,,,,,,,,,,,,,,,,,,,,,,,,,,,,,,,,,,
1720416618,64,0,4362.436035,4305.128418,4318.846191,4315.384766,4285.641113,4295.641113,4289.230957,4339.230957,4272.307617,4276.538574,4448.846191,4454.230957,4373.333496,4492.179688,,,,,,,,,,,,,,,,,,,,,,,,,,,,,,,,,,,,,,,,,,,,,,,,,,,,,,,,,,,,,,,,,,,,,,
1720416618,65,0,4338.333496,4288.846191,4300.769043,4295.128418,4274.230957,4292.05127,4275.256348,4327.436035,4261.666504,4259.487305,4424.615234,4435.256348,4356.153809,4472.563965,,,,,,,,,,,,,,,,,,,,,,,,,,,,,,,,,,,,,,,,,,,,,,,,,,,,,,,,,,,,,,,,,,,,,,
1720416618,66,0,4335.128418,4291.282227,4299.230957,4296.794922,4275,4295.384766,4284.487305,4334.615234,4271.538574,4265.769043,4435.769043,4447.436035,4363.846191,4489.743652,,,,,,,,,,,,,,,,,,,,,,,,,,,,,,,,,,,,,,,,,,,,,,,,,,,,,,,,,,,,,,,,,,,,,,
1720416618,67,0,4356.794922,4305.512695,4318.846191,4315.128418,4280.512695,4296.922852,4298.589844,4349.358887,4293.589844,4291.538574,4465.384766,4480.128418,4388.461426,4527.05127,,,,,,,,,,,,,,,,,,,,,,,,,,,,,,,,,,,,,,,,,,,,,,,,,,,,,,,,,,,,,,,,,,,,,,
1720416618,68,0,4368.077148,4310.256348,4327.436035,4321.666504,4285.256348,4296.282227,4296.153809,4348.333496,4290.128418,4290.512695,4466.410156,4488.205078,4389.487305,4525,,,,,,,,,,,,,,,,,,,,,,,,,,,,,,,,,,,,,,,,,,,,,,,,,,,,,,,,,,,,,,,,,,,,,,
1720416618,69,0,4364.487305,4308.846191,4321.538574,4317.94873,4287.692383,4302.94873,4293.846191,4341.410156,4277.179688,4276.794922,4457.307617,4473.077148,4378.461426,4506.538574,,,,,,,,,,,,,,,,,,,,,,,,,,,,,,,,,,,,,,,,,,,,,,,,,,,,,,,,,,,,,,,,,,,,,,
1720416618,70,0,4370,4311.153809,4323.974121,4321.922852,4290.128418,4306.025879,4297.94873,4341.922852,4278.077148,4274.487305,4456.666504,4473.974121,4383.717773,4515.769043,8.336573,4.203228,1.359223,1.063014,0.521443,1.902761,0.415544,0.266284,0.354417,0.19571,1.539581,0.826049,0.304847,0.56018,0.24648,1.68349,0.648122,0.307431,0.488159,0.294067,0.557379,0.317056,0.381849,0.347798,0.124425,0.476323,0.769557,0.871807,0.675552,0.321035,0.430497,0.556412,0.712097,0.520698,0.239102,0.605678,0.564251,0.620641,0.5903,0.206258,0.473122,0.560791,0.539035,0.419834,0.242034,0.806384,0.506444,0.386397,0.319917,0.267888,1.046783,0.988799,0.616664,0.640041,0.427529,0.804793,0.771545,0.848644,0.702139,0.594144,1.153879,1.009894,0.256606,0.333569,0.288024,18.437056,3.181556,2.02039,0.829192,0.651585
1720416618,71,0,4381.025879,4314.615234,4332.563965,4330.769043,4290.769043,4297.436035,4295,4341.538574,4277.94873,4274.358887,4453.077148,4484.615234,4392.820313,4523.205078,,,,,,,,,,,,,,,,,,,,,,,,,,,,,,,,,,,,,,,,,,,,,,,,,,,,,,,,,,,,,,,,,,,,,,
1720416618,72,0,4378.333496,4311.794922,4331.922852,4328.077148,4284.743652,4290.128418,4289.102539,4336.794922,4273.717773,4276.794922,4447.820313,4476.666504,4388.846191,4509.743652,,,,,,,,,,,,,,,,,,,,,,,,,,,,,,,,,,,,,,,,,,,,,,,,,,,,,,,,,,,,,,,,,,,,,,
1720416618,73,0,4371.282227,4308.974121,4326.025879,4318.846191,4284.358887,4291.538574,4290.769043,4336.794922,4277.820313,4285.256348,4448.974121,4472.820313,4387.94873,4504.230957,,,,,,,,,,,,,,,,,,,,,,,,,,,,,,,,,,,,,,,,,,,,,,,,,,,,,,,,,,,,,,,,,,,,,,
1720416618,74,0,4369.743652,4314.487305,4323.846191,4321.025879,4294.358887,4295.128418,4292.820313,4340.384766,4280.897461,4291.282227,4453.205078,4474.871582,4393.333496,4500.641113,,,,,,,,,,,,,,,,,,,,,,,,,,,,,,,,,,,,,,,,,,,,,,,,,,,,,,,,,,,,,,,,,,,,,,
1720416618,75,0,4369.102539,4317.307617,4327.05127,4327.436035,4296.922852,4296.025879,4295.384766,4340.641113,4278.846191,4288.717773,4458.077148,4472.307617,4395.256348,4492.307617,,,,,,,,,,,,,,,,,,,,,,,,,,,,,,,,,,,,,,,,,,,,,,,,,,,,,,,,,,,,,,,,,,,,,,
1720416618,76,0,4372.307617,4320.897461,4336.794922,4328.974121,4292.94873,4296.538574,4300.256348,4339.358887,4278.461426,4283.589844,4462.05127,4479.102539,4396.282227,4496.922852,,,,,,,,,,,,,,,,,,,,,,,,,,,,,,,,,,,,,,,,,,,,,,,,,,,,,,,,,,,,,,,,,,,,,,
1720416618,77,0,4378.589844,4327.94873,4342.05127,4333.333496,4295.384766,4298.461426,4301.538574,4336.153809,4278.333496,4283.333496,4459.615234,4482.05127,4393.846191,4500.512695,,,,,,,,,,,,,,,,,,,,,,,,,,,,,,,,,,,,,,,,,,,,,,,,,,,,,,,,,,,,,,,,,,,,,,
1720416618,78,0,4372.179688,4319.615234,4333.461426,4332.436035,4296.410156,4300.769043,4298.077148,4330,4277.563965,4280.256348,4450.256348,4474.615234,4384.230957,4486.794922,,,,,,,,,,,,,,,,,,,,,,,,,,,,,,,,,,,,,,,,,,,,,,,,,,,,,,,,,,,,,,,,,,,,,,
1720416618,79,0,4366.922852,4310.512695,4325.641113,4325.128418,4292.563965,4300.384766,4291.666504,4326.794922,4276.794922,4273.717773,4445,4470.256348,4380.769043,4481.410156,,,,,,,,,,,,,,,,,,,,,,,,,,,,,,,,,,,,,,,,,,,,,,,,,,,,,,,,,,,,,,,,,,,,,,
1720416618,80,0,4380.128418,4317.820313,4331.538574,4330.769043,4296.410156,4306.025879,4295.384766,4334.102539,4282.820313,4278.717773,4452.179688,4475.641113,4391.666504,4494.871582,,,,,,,,,,,,,,,,,,,,,,,,,,,,,,,,,,,,,,,,,,,,,,,,,,,,,,,,,,,,,,,,,,,,,,
1720416618,81,0,4388.974121,4319.871582,4336.410156,4337.692383,4296.922852,4314.358887,4304.743652,4340.769043,4295.128418,4284.871582,4455.384766,4476.794922,4393.717773,4495,,,,,,,,,,,,,,,,,,,,,,,,,,,,,,,,,,,,,,,,,,,,,,,,,,,,,,,,,,,,,,,,,,,,,,
1720416618,82,0,4385.897461,4307.563965,4328.717773,4324.230957,4286.410156,4305,4297.563965,4331.282227,4296.025879,4282.307617,4445.128418,4467.692383,4384.358887,4483.333496,,,,,,,,,,,,,,,,,,,,,,,,,,,,,,,,,,,,,,,,,,,,,,,,,,,,,,,,,,,,,,,,,,,,,,
1720416618,83,0,4382.692383,4297.692383,4314.230957,4309.230957,4276.922852,4286.794922,4277.820313,4316.153809,4283.205078,4277.563965,4433.205078,4458.461426,4376.410156,4480.512695,,,,,,,,,,,,,,,,,,,,,,,,,,,,,,,,,,,,,,,,,,,,,,,,,,,,,,,,,,,,,,,,,,,,,,
1720416618,84,0,4372.820313,4289.743652,4300.128418,4304.743652,4274.230957,4287.179688,4273.717773,4309.102539,4270.641113,4265.384766,4421.666504,4447.05127,4362.94873,4473.461426,,,,,,,,,,,,,,,,,,,,,,,,,,,,,,,,,,,,,,,,,,,,,,,,,,,,,,,,,,,,,,,,,,,,,,
1720416618,85,0,4365.641113,4287.307617,4297.179688,4305.384766,4276.922852,4296.794922,4287.436035,4310.256348,4267.820313,4257.563965,4417.692383,4441.666504,4357.820313,4466.794922,,,,,,,,,,,,,,,,,,,,,,,,,,,,,,,,,,,,,,,,,,,,,,,,,,,,,,,,,,,,,,,,,,,,,,
1720416618,86,0,4380.897461,4300.128418,4309.358887,4313.461426,4284.743652,4296.410156,4294.615234,4313.589844,4273.333496,4270.769043,4429.102539,4451.153809,4370.897461,4479.615234,4.023555,2.343902,0.355149,0.566608,0.38184,1.753724,0.576391,0.281317,0.348561,0.189021,1.18575,0.956669,0.386422,0.561085,0.262175,1.549409,0.899688,0.356568,0.520459,0.320747,0.563525,0.5234,0.391013,0.347754,0.13657,0.428231,0.709601,0.812583,0.716992,0.341053,0.353149,0.51501,0.635329,0.516212,0.246097,0.559252,0.543771,0.550951,0.577471,0.212693,0.474294,0.562004,0.480023,0.399807,0.24202,0.927656,0.610479,0.463658,0.312145,0.25971,1.059215,1.190647,0.678498,0.603792,0.426788,0.740287,0.704948,0.81279,0.710343,0.606468,1.205687,1.196919,0.329731,0.336574,0.27883,12.262823,2.310174,1.529297,0.638504,0.611967
1720416618,87,0,4400.512695,4309.871582,4321.025879,4322.563965,4289.102539,4293.461426,4294.102539,4313.205078,4276.025879,4279.615234,4437.307617,4467.05127,4378.461426,4495.897461,,,,,,,,,,,,,,,,,,,,,,,,,,,,,,,,,,,,,,,,,,,,,,,,,,,,,,,,,,,,,,,,,,,,,,
1720416618,88,0,4398.077148,4305.128418,4319.487305,4320,4283.846191,4293.205078,4290.641113,4308.846191,4267.05127,4270.128418,4429.743652,4460.641113,4368.846191,4489.487305,,,,,,,,,,,,,,,,,,,,,,,,,,,,,,,,,,,,,,,,,,,,,,,,,,,,,,,,,,,,,,,,,,,,,,
1720416618,89,0,4389.743652,4296.794922,4312.179688,4310.769043,4279.743652,4291.794922,4287.94873,4305.512695,4260.384766,4263.333496,4420.769043,4445.256348,4359.871582,4474.615234,,,,,,,,,,,,,,,,,,,,,,,,,,,,,,,,,,,,,,,,,,,,,,,,,,,,,,,,,,,,,,,,,,,,,,
1720416618,90,0,4394.230957,4294.743652,4310.256348,4310,4283.974121,4292.307617,4291.538574,4308.846191,4271.025879,4268.333496,4425.384766,4455.897461,4361.538574,4475.641113,,,,,,,,,,,,,,,,,,,,,,,,,,,,,,,,,,,,,,,,,,,,,,,,,,,,,,,,,,,,,,,,,,,,,,
1720416618,91,0,4404.230957,4300.769043,4317.179688,4318.205078,4290.384766,4296.922852,4295.128418,4313.205078,4281.282227,4277.692383,4438.333496,4465,4367.179688,4483.717773,,,,,,,,,,,,,,,,,,,,,,,,,,,,,,,,,,,,,,,,,,,,,,,,,,,,,,,,,,,,,,,,,,,,,,
1720416618,92,0,4410.256348,4303.461426,4324.358887,4319.743652,4290.512695,4297.05127,4294.230957,4312.307617,4278.974121,4281.282227,4444.102539,4465,4372.436035,4484.615234,,,,,,,,,,,,,,,,,,,,,,,,,,,,,,,,,,,,,,,,,,,,,,,,,,,,,,,,,,,,,,,,,,,,,,
1720416618,93,0,4413.333496,4303.077148,4323.974121,4316.922852,4287.820313,4295.128418,4292.820313,4310.512695,4277.436035,4278.717773,4442.563965,4468.461426,4377.563965,4481.794922,,,,,,,,,,,,,,,,,,,,,,,,,,,,,,,,,,,,,,,,,,,,,,,,,,,,,,,,,,,,,,,,,,,,,,
1720416618,94,0,4415,4306.666504,4320.256348,4321.922852,4292.436035,4297.05127,4293.717773,4309.615234,4277.179688,4277.307617,4441.794922,4461.282227,4376.922852,4475.512695,,,,,,,,,,,,,,,,,,,,,,,,,,,,,,,,,,,,,,,,,,,,,,,,,,,,,,,,,,,,,,,,,,,,,,
1720416618,95,0,4414.615234,4308.205078,4320.128418,4326.666504,4294.871582,4295.256348,4292.05127,4309.358887,4272.692383,4277.307617,4442.179688,4457.307617,4372.563965,4465.769043,,,,,,,,,,,,,,,,,,,,,,,,,,,,,,,,,,,,,,,,,,,,,,,,,,,,,,,,,,,,,,,,,,,,,,
1720416618,96,0,4412.307617,4304.615234,4324.487305,4322.563965,4290.384766,4297.692383,4295.384766,4315.384766,4277.820313,4277.05127,4441.538574,4470.384766,4370.256348,4462.05127,,,,,,,,,,,,,,,,,,,,,,,,,,,,,,,,,,,,,,,,,,,,,,,,,,,,,,,,,,,,,,,,,,,,,,
1720416618,97,0,4410.512695,4306.153809,4330.384766,4323.205078,4292.436035,4311.410156,4307.563965,4323.205078,4290.512695,4280.384766,4442.436035,4480.128418,4373.333496,4467.179688,,,,,,,,,,,,,,,,,,,,,,,,,,,,,,,,,,,,,,,,,,,,,,,,,,,,,,,,,,,,,,,,,,,,,,
1720416618,98,0,4412.307617,4308.717773,4332.436035,4326.922852,4296.282227,4310.128418,4308.333496,4318.461426,4290.128418,4284.871582,4447.307617,4477.820313,4376.025879,4471.922852,,,,,,,,,,,,,,,,,,,,,,,,,,,,,,,,,,,,,,,,,,,,,,,,,,,,,,,,,,,,,,,,,,,,,,
1720416618,99,0,4406.922852,4298.205078,4320.512695,4317.05127,4290.128418,4296.666504,4294.615234,4307.436035,4278.589844,4282.179688,4442.436035,4470.128418,4369.358887,4461.794922,,,,,,,,,,,,,,,,,,,,,,,,,,,,,,,,,,,,,,,,,,,,,,,,,,,,,,,,,,,,,,,,,,,,,,
1720416618,100,0,4396.922852,4288.333496,4306.410156,4305.512695,4288.333496,4305,4293.974121,4309.487305,4277.307617,4278.461426,4430.128418,4457.179688,4361.410156,4445.641113,,,,,,,,,,,,,,,,,,,,,,,,,,,,,,,,,,,,,,,,,,,,,,,,,,,,,,,,,,,,,,,,,,,,,,
1720416618,101,0,4405.897461,4295.641113,4312.179688,4310.384766,4293.461426,4314.487305,4307.94873,4321.538574,4287.692383,4284.230957,4431.538574,4463.846191,4369.487305,4450.641113,,,,,,,,,,,,,,,,,,,,,,,,,,,,,,,,,,,,,,,,,,,,,,,,,,,,,,,,,,,,,,,,,,,,,,
1720416618,102,0,4415,4302.05127,4319.871582,4316.538574,4287.692383,4299.102539,4304.230957,4318.589844,4285.512695,4281.153809,4438.461426,4475.384766,4377.436035,4464.487305,3.457972,1.953806,0.293548,0.471961,0.359911,1.532836,0.753759,0.326112,0.346733,0.183764,0.932326,1.083394,0.523828,0.554846,0.293311,1.389747,1.168394,0.441712,0.541399,0.345,0.587223,0.749037,0.405649,0.33534,0.150193,0.422847,0.687016,0.772919,0.708602,0.361055,0.317416,0.515395,0.557007,0.487284,0.254117,0.537491,0.562031,0.484144,0.538128,0.220949,0.516518,0.653513,0.444432,0.368621,0.244902,1.119555,0.771413,0.558778,0.300525,0.248952,1.122183,1.40726,0.794886,0.572129,0.427554,0.719483,0.662948,0.786833,0.694729,0.620239,1.286639,1.382279,0.436654,0.33976,0.270556,7.628286,1.732345,1.240853,0.503554,0.5795
1720416618,103,0,4402.05127,4291.153809,4308.974121,4306.666504,4275.256348,4287.179688,4286.666504,4299.743652,4264.615234,4262.563965,4427.94873,4458.461426,4362.692383,4457.436035,,,,,,,,,,,,,,,,,,,,,,,,,,,,,,,,,,,,,,,,,,,,,,,,,,,,,,,,,,,,,,,,,,,,,,
1720416618,104,0,4401.025879,4286.794922,4307.692383,4302.94873,4277.307617,4291.538574,4287.179688,4293.846191,4256.410156,4261.153809,4421.282227,4454.102539,4354.615234,4455.256348,,,,,,,,,,,,,,,,,,,,,,,,,,,,,,,,,,,,,,,,,,,,,,,,,,,,,,,,,,,,,,,,,,,,,,
1720416618,105,0,4419.487305,4301.922852,4323.974121,4316.794922,4289.358887,4294.230957,4296.922852,4305.256348,4270.769043,4280.256348,4438.205078,4471.410156,4371.666504,4472.179688,,,,,,,,,,,,,,,,,,,,,,,,,,,,,,,,,,,,,,,,,,,,,,,,,,,,,,,,,,,,,,,,,,,,,,
1720416618,106,0,4424.102539,4306.153809,4323.846191,4318.717773,4292.94873,4294.487305,4288.461426,4303.461426,4277.307617,4287.820313,4441.666504,4467.179688,4379.230957,4475,,,,,,,,,,,,,,,,,,,,,,,,,,,,,,,,,,,,,,,,,,,,,,,,,,,,,,,,,,,,,,,,,,,,,,
1720416618,107,0,4421.922852,4298.333496,4314.358887,4312.436035,4291.282227,4297.94873,4278.717773,4290.384766,4274.102539,4288.205078,4430.128418,4451.025879,4372.179688,4468.077148,,,,,,,,,,,,,,,,,,,,,,,,,,,,,,,,,,,,,,,,,,,,,,,,,,,,,,,,,,,,,,,,,,,,,,
1720416618,108,0,4425.128418,4303.205078,4319.102539,4318.717773,4294.358887,4296.410156,4288.846191,4292.307617,4281.538574,4296.922852,4438.461426,4455.769043,4374.230957,4472.307617,,,,,,,,,,,,,,,,,,,,,,,,,,,,,,,,,,,,,,,,,,,,,,,,,,,,,,,,,,,,,,,,,,,,,,
1720416618,109,0,4413.717773,4307.692383,4319.615234,4317.692383,4296.282227,4295.128418,4297.94873,4298.461426,4284.615234,4297.05127,4444.230957,4461.153809,4376.025879,4467.436035,,,,,,,,,,,,,,,,,,,,,,,,,,,,,,,,,,,,,,,,,,,,,,,,,,,,,,,,,,,,,,,,,,,,,,
1720416618,110,0,4398.205078,4301.794922,4308.846191,4306.794922,4293.717773,4300.897461,4292.179688,4297.820313,4276.666504,4289.743652,4434.102539,4451.922852,4369.230957,4453.717773,,,,,,,,,,,,,,,,,,,,,,,,,,,,,,,,,,,,,,,,,,,,,,,,,,,,,,,,,,,,,,,,,,,,,,
1720416618,111,0,4406.922852,4305.512695,4311.025879,4312.05127,4295.769043,4302.179688,4292.307617,4303.846191,4278.461426,4290.897461,4436.922852,4454.871582,4372.94873,4458.205078,,,,,,,,,,,,,,,,,,,,,,,,,,,,,,,,,,,,,,,,,,,,,,,,,,,,,,,,,,,,,,,,,,,,,,
1720416618,112,0,4418.717773,4307.820313,4318.589844,4316.794922,4295.256348,4296.794922,4298.333496,4308.589844,4282.94873,4290.128418,4443.205078,4463.974121,4375.769043,4462.94873,,,,,,,,,,,,,,,,,,,,,,,,,,,,,,,,,,,,,,,,,,,,,,,,,,,,,,,,,,,,,,,,,,,,,,
1720416618,113,0,4415.384766,4294.615234,4309.487305,4303.974121,4283.589844,4294.230957,4287.563965,4297.820313,4270.641113,4278.846191,4428.717773,4452.692383,4363.846191,4441.794922,,,,,,,,,,,,,,,,,,,,,,,,,,,,,,,,,,,,,,,,,,,,,,,,,,,,,,,,,,,,,,,,,,,,,,
1720416618,114,0,4418.461426,4291.794922,4303.333496,4302.692383,4282.820313,4293.846191,4277.307617,4288.589844,4261.794922,4274.230957,4421.538574,4438.461426,4358.846191,4423.717773,,,,,,,,,,,,,,,,,,,,,,,,,,,,,,,,,,,,,,,,,,,,,,,,,,,,,,,,,,,,,,,,,,,,,,
1720416618,115,0,4433.846191,4306.282227,4319.102539,4318.589844,4298.461426,4294.871582,4288.205078,4297.692383,4273.589844,4289.487305,4438.974121,4456.538574,4372.563965,4438.333496,,,,,,,,,,,,,,,,,,,,,,,,,,,,,,,,,,,,,,,,,,,,,,,,,,,,,,,,,,,,,,,,,,,,,,
1720416618,116,0,4440.384766,4315.128418,4332.307617,4329.358887,4304.230957,4298.974121,4297.94873,4306.153809,4284.615234,4300,4451.153809,4475.384766,4380.641113,4449.487305,,,,,,,,,,,,,,,,,,,,,,,,,,,,,,,,,,,,,,,,,,,,,,,,,,,,,,,,,,,,,,,,,,,,,,
1720416618,117,0,4435,4309.358887,4322.94873,4323.333496,4294.615234,4295,4288.589844,4296.794922,4276.794922,4286.410156,4440.256348,4457.563965,4366.410156,4430,,,,,,,,,,,,,,,,,,,,,,,,,,,,,,,,,,,,,,,,,,,,,,,,,,,,,,,,,,,,,,,,,,,,,,
1720416618,118,0,4437.820313,4302.692383,4311.794922,4312.692383,4290.641113,4289.230957,4282.820313,4290.769043,4268.589844,4275.512695,4431.794922,4447.436035,4357.94873,4420.256348,3.72127,1.94332,0.441091,0.47664,0.372505,1.338486,0.88514,0.386431,0.342484,0.18375,0.838027,1.176651,0.685709,0.544184,0.337435,1.295146,1.36689,0.541825,0.545058,0.36535,0.649811,0.918787,0.417489,0.31528,0.161314,0.44872,0.697997,0.739944,0.656122,0.375092,0.327944,0.545829,0.488286,0.437741,0.260122,0.560938,0.613285,0.433997,0.4715,0.22688,0.587142,0.839535,0.439898,0.324601,0.248123,1.381765,0.942797,0.64454,0.283251,0.238426,1.268598,1.553627,0.938043,0.546063,0.430878,0.787319,0.669094,0.811574,0.650646,0.633717,1.465622,1.498431,0.554848,0.342514,0.270153,4.961307,1.52163,1.17789,0.432112,0.56143
1720416618,119,0,4445.641113,4309.487305,4315.384766,4314.871582,4295.512695,4304.743652,4293.333496,4302.307617,4277.436035,4287.179688,4441.794922,4458.077148,4370.384766,4431.538574,,,,,,,,,,,,,,,,,,,,,,,,,,,,,,,,,,,,,,,,,,,,,,,,,,,,,,,,,,,,,,,,,,,,,,
1720416618,120,0,4451.153809,4314.230957,4318.589844,4319.743652,4296.794922,4314.871582,4299.615234,4306.538574,4285.769043,4293.205078,4444.230957,4454.871582,4375.128418,4430.512695,,,,,,,,,,,,,,,,,,,,,,,,,,,,,,,,,,,,,,,,,,,,,,,,,,,,,,,,,,,,,,,,,,,,,,
1720416618,121,0,4458.205078,4301.794922,4307.820313,4313.589844,4291.922852,4299.358887,4292.179688,4293.077148,4276.410156,4278.846191,4426.153809,4442.179688,4361.538574,4415.128418,,,,,,,,,,,,,,,,,,,,,,,,,,,,,,,,,,,,,,,,,,,,,,,,,,,,,,,,,,,,,,,,,,,,,,
1720416618,122,0,4461.282227,4295.641113,4297.563965,4307.692383,4289.743652,4289.102539,4286.282227,4290.512695,4268.589844,4273.974121,4418.205078,4440,4356.922852,4408.974121,,,,,,,,,,,,,,,,,,,,,,,,,,,,,,,,,,,,,,,,,,,,,,,,,,,,,,,,,,,,,,,,,,,,,,
1720416618,123,0,4464.230957,4305.128418,4305.512695,4310.128418,4292.563965,4295.769043,4292.179688,4301.794922,4280.384766,4284.743652,4429.743652,4449.102539,4365.769043,4417.692383,,,,,,,,,,,,,,,,,,,,,,,,,,,,,,,,,,,,,,,,,,,,,,,,,,,,,,,,,,,,,,,,,,,,,,
1720416618,124,0,4469.615234,4304.487305,4312.820313,4312.179688,4292.820313,4298.461426,4293.846191,4302.179688,4286.538574,4285.512695,4430.641113,4450.641113,4362.436035,4421.153809,,,,,,,,,,,,,,,,,,,,,,,,,,,,,,,,,,,,,,,,,,,,,,,,,,,,,,,,,,,,,,,,,,,,,,
1720416618,125,0,4468.717773,4289.743652,4298.461426,4307.05127,4287.820313,4290.512695,4278.461426,4290.256348,4271.153809,4276.410156,4413.205078,4434.871582,4347.436035,4406.025879,,,,,,,,,,,,,,,,,,,,,,,,,,,,,,,,,,,,,,,,,,,,,,,,,,,,,,,,,,,,,,,,,,,,,,
1720416618,126,0,4472.563965,4292.692383,4295.641113,4305.128418,4289.230957,4291.410156,4275,4288.333496,4263.461426,4276.410156,4407.692383,4431.538574,4345.769043,4398.974121,,,,,,,,,,,,,,,,,,,,,,,,,,,,,,,,,,,,,,,,,,,,,,,,,,,,,,,,,,,,,,,,,,,,,,
1720416618,127,0,4488.846191,4308.333496,4314.358887,4312.307617,4296.922852,4297.179688,4289.358887,4296.922852,4273.461426,4281.025879,4419.487305,4449.102539,4355.641113,4410.769043,,,,,,,,,,,,,,,,,,,,,,,,,,,,,,,,,,,,,,,,,,,,,,,,,,,,,,,,,,,,,,,,,,,,,,
1720416618,0,0,4485.897461,4302.94873,4306.794922,4309.230957,4291.410156,4290.384766,4286.153809,4296.153809,4276.922852,4278.589844,4418.333496,4446.153809,4353.974121,4409.102539,,,,,,,,,,,,,,,,,,,,,,,,,,,,,,,,,,,,,,,,,,,,,,,,,,,,,,,,,,,,,,,,,,,,,,
1720416618,1,0,4472.179688,4287.179688,4288.589844,4294.871582,4281.282227,4289.102539,4282.05127,4294.615234,4273.589844,4274.615234,4410.512695,4435.641113,4346.666504,4396.153809,,,,,,,,,,,,,,,,,,,,,,,,,,,,,,,,,,,,,,,,,,,,,,,,,,,,,,,,,,,,,,,,,,,,,,
1720416618,2,0,4481.410156,4290.897461,4301.025879,4296.794922,4285.512695,4299.102539,4291.538574,4298.205078,4270,4274.230957,4414.102539,4446.666504,4350.128418,4397.563965,,,,,,,,,,,,,,,,,,,,,,,,,,,,,,,,,,,,,,,,,,,,,,,,,,,,,,,,,,,,,,,,,,,,,,
1720416618,3,0,4495.256348,4302.563965,4315.769043,4309.871582,4292.94873,4297.05127,4290.256348,4296.666504,4265.769043,4274.871582,4420.512695,4455.128418,4358.974121,4411.025879,,,,,,,,,,,,,,,,,,,,,,,,,,,,,,,,,,,,,,,,,,,,,,,,,,,,,,,,,,,,,,,,,,,,,,
1720416618,4,0,4497.563965,4304.230957,4311.922852,4312.05127,4292.94873,4288.461426,4286.282227,4298.589844,4270.384766,4277.563965,4426.922852,4456.410156,4360.641113,4417.436035,,,,,,,,,,,,,,,,,,,,,,,,,,,,,,,,,,,,,,,,,,,,,,,,,,,,,,,,,,,,,,,,,,,,,,
1720416618,5,0,4497.307617,4304.871582,4310.641113,4308.461426,4294.615234,4294.871582,4297.307617,4309.615234,4279.230957,4278.846191,4429.871582,4457.05127,4354.615234,4405.384766,,,,,,,,,,,,,,,,,,,,,,,,,,,,,,,,,,,,,,,,,,,,,,,,,,,,,,,,,,,,,,,,,,,,,,
1720416618,6,0,4496.666504,4305.641113,4314.615234,4308.717773,4298.205078,4298.461426,4303.846191,4315.256348,4282.563965,4279.743652,4429.358887,4457.179688,4355.384766,4397.05127,4.118782,2.165745,0.630645,0.505901,0.39462,1.249943,0.919852,0.448131,0.335845,0.191758,0.915195,1.208396,0.832829,0.535872,0.386935,1.312363,1.418741,0.632815,0.532992,0.380601,0.751184,0.970983,0.417105,0.297272,0.167316,0.481824,0.721881,0.696791,0.580374,0.377595,0.375586,0.575341,0.434977,0.383361,0.26355,0.628035,0.66812,0.402427,0.392783,0.228331,0.666544,1.096729,0.472484,0.276142,0.252004,1.678623,1.071118,0.699306,0.26847,0.233078,1.536849,1.566403,1.06148,0.533544,0.435758,0.965478,0.721071,0.901315,0.585477,0.645311,1.763484,1.498735,0.652929,0.349769,0.282352,3.821214,1.549928,1.282095,0.418189,0.56249
1720416618,7,0,4501.410156,4308.717773,4317.563965,4314.615234,4296.410156,4294.615234,4305.256348,4317.307617,4291.282227,4288.333496,4438.333496,4463.333496,4368.974121,4406.794922,,,,,,,,,,,,,,,,,,,,,,,,,,,,,,,,,,,,,,,,,,,,,,,,,,,,,,,,,,,,,,,,,,,,,,
1720416618,8,0,4509.487305,4316.666504,4322.820313,4320.897461,4297.05127,4300.641113,4310.641113,4321.153809,4297.820313,4295.128418,4447.307617,4471.282227,4372.820313,4408.974121,,,,,,,,,,,,,,,,,,,,,,,,,,,,,,,,,,,,,,,,,,,,,,,,,,,,,,,,,,,,,,,,,,,,,,
1720416618,9,0,4506.922852,4318.461426,4324.871582,4321.666504,4298.461426,4302.307617,4301.922852,4315.128418,4286.410156,4289.230957,4440.512695,4467.692383,4363.077148,4394.871582,,,,,,,,,,,,,,,,,,,,,,,,,,,,,,,,,,,,,,,,,,,,,,,,,,,,,,,,,,,,,,,,,,,,,,
1720416618,10,0,4497.179688,4317.820313,4322.692383,4320.769043,4296.025879,4292.692383,4293.205078,4308.974121,4277.436035,4285.769043,4437.692383,4461.794922,4366.538574,4392.563965,,,,,,,,,,,,,,,,,,,,,,,,,,,,,,,,,,,,,,,,,,,,,,,,,,,,,,,,,,,,,,,,,,,,,,
1720416618,11,0,4498.205078,4319.102539,4322.692383,4320.384766,4295.641113,4295.769043,4301.922852,4315,4282.94873,4292.563965,4445.384766,4468.077148,4375.897461,4399.615234,,,,,,,,,,,,,,,,,,,,,,,,,,,,,,,,,,,,,,,,,,,,,,,,,,,,,,,,,,,,,,,,,,,,,,
1720416618,12,0,4510.128418,4319.615234,4326.410156,4324.358887,4298.974121,4308.846191,4311.794922,4321.282227,4286.410156,4291.666504,4445.641113,4476.538574,4372.820313,4399.102539,,,,,,,,,,,,,,,,,,,,,,,,,,,,,,,,,,,,,,,,,,,,,,,,,,,,,,,,,,,,,,,,,,,,,,
1720416618,13,0,4520.384766,4319.487305,4331.794922,4329.615234,4300.897461,4310.384766,4311.794922,4321.410156,4284.230957,4283.077148,4445.128418,4478.461426,4367.692383,4398.974121,,,,,,,,,,,,,,,,,,,,,,,,,,,,,,,,,,,,,,,,,,,,,,,,,,,,,,,,,,,,,,,,,,,,,,
1720416618,14,0,4509.487305,4315,4324.102539,4318.077148,4294.615234,4299.743652,4303.717773,4313.846191,4281.153809,4279.230957,4444.102539,4470.128418,4361.410156,4392.692383,,,,,,,,,,,,,,,,,,,,,,,,,,,,,,,,,,,,,,,,,,,,,,,,,,,,,,,,,,,,,,,,,,,,,,
1720416618,15,0,4500,4309.615234,4314.615234,4308.589844,4287.563965,4291.025879,4296.538574,4308.974121,4282.94873,4280.897461,4437.436035,4468.077148,4354.871582,4385.128418,,,,,,,,,,,,,,,,,,,,,,,,,,,,,,,,,,,,,,,,,,,,,,,,,,,,,,,,,,,,,,,,,,,,,,
1720416618,16,0,4512.436035,4312.179688,4318.205078,4316.922852,4290.128418,4288.717773,4292.94873,4312.436035,4286.025879,4278.461426,4431.025879,4475.384766,4353.333496,4384.230957,,,,,,,,,,,,,,,,,,,,,,,,,,,,,,,,,,,,,,,,,,,,,,,,,,,,,,,,,,,,,,,,,,,,,,
1720416618,17,0,4522.94873,4317.94873,4322.692383,4319.871582,4296.153809,4293.461426,4292.692383,4308.974121,4278.461426,4273.077148,4429.743652,4468.589844,4353.077148,4376.794922,,,,,,,,,,,,,,,,,,,,,,,,,,,,,,,,,,,,,,,,,,,,,,,,,,,,,,,,,,,,,,,,,,,,,,
1720416618,18,0,4523.846191,4321.666504,4326.025879,4319.230957,4297.563965,4293.589844,4291.410156,4296.794922,4268.461426,4274.230957,4430.897461,4465.384766,4353.333496,4372.692383,,,,,,,,,,,,,,,,,,,,,,,,,,,,,,,,,,,,,,,,,,,,,,,,,,,,,,,,,,,,,,,,,,,,,,
1720416618,19,0,4521.666504,4325.256348,4329.358887,4326.538574,4295.512695,4288.974121,4287.692383,4296.153809,4269.230957,4276.538574,4429.743652,4469.615234,4357.307617,4370.641113,,,,,,,,,,,,,,,,,,,,,,,,,,,,,,,,,,,,,,,,,,,,,,,,,,,,,,,,,,,,,,,,,,,,,,
1720416618,20,0,4521.410156,4327.94873,4332.692383,4331.538574,4296.410156,4295.769043,4293.205078,4308.333496,4281.794922,4285.256348,4435.641113,4473.717773,4367.179688,4365.897461,,,,,,,,,,,,,,,,,,,,,,,,,,,,,,,,,,,,,,,,,,,,,,,,,,,,,,,,,,,,,,,,,,,,,,
1720416618,21,0,4530.256348,4325.128418,4336.666504,4326.282227,4300.128418,4303.205078,4302.94873,4315.512695,4292.94873,4295.897461,4449.358887,4483.846191,4374.743652,4379.871582,,,,,,,,,,,,,,,,,,,,,,,,,,,,,,,,,,,,,,,,,,,,,,,,,,,,,,,,,,,,,,,,,,,,,,
1720416618,22,0,4532.94873,4312.820313,4334.743652,4316.538574,4294.615234,4297.05127,4298.974121,4310.512695,4285.769043,4286.922852,4446.666504,4483.974121,4368.974121,4369.358887,4.755298,2.545274,0.834795,0.548743,0.420888,1.293526,0.851233,0.501743,0.331323,0.209393,1.139336,1.161773,0.936837,0.534284,0.43327,1.441293,1.304262,0.698315,0.511113,0.390473,0.881727,0.892009,0.401461,0.291771,0.169039,0.510538,0.731886,0.63625,0.50529,0.368324,0.451218,0.575715,0.401039,0.342525,0.269099,0.755349,0.687858,0.381084,0.326711,0.228987,0.736288,1.367257,0.538382,0.238244,0.261645,1.934366,1.119376,0.720567,0.266343,0.239108,1.864539,1.437438,1.124602,0.542174,0.442115,1.247815,0.789551,1.034842,0.517171,0.656794,2.119202,1.379684,0.70276,0.366168,0.308741,3.416581,1.619571,1.443741,0.440234,0.583864
1720416618,23,0,4521.538574,4302.436035,4328.974121,4309.615234,4282.179688,4290.128418,4289.487305,4305.128418,4274.102539,4273.589844,4432.94873,4477.436035,4359.487305,4289.487305,,,,,,,,,,,,,,,,,,,,,,,,,,,,,,,,,,,,,,,,,,,,,,,,,,,,,,,,,,,,,,,,,,,,,,
1720416618,24,0,4516.282227,4302.692383,4328.974121,4308.846191,4276.666504,4290.256348,4293.205078,4308.717773,4277.563965,4276.538574,4431.538574,4481.666504,4356.538574,4220.256348,,,,,,,,,,,,,,,,,,,,,,,,,,,,,,,,,,,,,,,,,,,,,,,,,,,,,,,,,,,,,,,,,,,,,,
1720416618,25,0,4520.256348,4303.974121,4328.717773,4312.820313,4281.794922,4294.615234,4298.333496,4312.692383,4281.410156,4278.333496,4437.436035,4483.077148,4355.641113,4217.692383,,,,,,,,,,,,,,,,,,,,,,,,,,,,,,,,,,,,,,,,,,,,,,,,,,,,,,,,,,,,,,,,,,,,,,
1720416618,26,0,4525.128418,4307.307617,4329.230957,4321.538574,4291.025879,4295.641113,4295.256348,4310.769043,4278.205078,4275.512695,4438.846191,4474.743652,4354.615234,4226.410156,,,,,,,,,,,,,,,,,,,,,,,,,,,,,,,,,,,,,,,,,,,,,,,,,,,,,,,,,,,,,,,,,,,,,,
1720416618,27,0,4532.820313,4313.461426,4337.05127,4330.256348,4296.538574,4285.641113,4293.461426,4311.410156,4280.512695,4278.717773,4440.128418,4480.512695,4355.256348,4223.589844,,,,,,,,,,,,,,,,,,,,,,,,,,,,,,,,,,,,,,,,,,,,,,,,,,,,,,,,,,,,,,,,,,,,,,
1720416618,28,0,4534.358887,4312.820313,4333.461426,4328.333496,4294.871582,4279.487305,4291.153809,4308.589844,4276.666504,4269.615234,4435,4480.512695,4352.563965,4222.307617,,,,,,,,,,,,,,,,,,,,,,,,,,,,,,,,,,,,,,,,,,,,,,,,,,,,,,,,,,,,,,,,,,,,,,
1720416619,29,0,4530.769043,4312.692383,4326.025879,4324.615234,4291.153809,4288.205078,4285.897461,4299.102539,4262.05127,4259.743652,4425.256348,4467.692383,4350.641113,4217.820313,,,,,,,,,,,,,,,,,,,,,,,,,,,,,,,,,,,,,,,,,,,,,,,,,,,,,,,,,,,,,,,,,,,,,,
1720416619,30,0,4525.897461,4317.94873,4329.102539,4327.307617,4293.846191,4295.384766,4288.205078,4300.641113,4261.538574,4271.153809,4431.922852,4469.230957,4355.897461,4220.128418,,,,,,,,,,,,,,,,,,,,,,,,,,,,,,,,,,,,,,,,,,,,,,,,,,,,,,,,,,,,,,,,,,,,,,
1720416619,31,0,4521.153809,4322.05127,4329.487305,4328.717773,4298.077148,4295.641113,4295.128418,4311.666504,4275.256348,4281.410156,4447.820313,4475,4364.615234,4232.563965,,,,,,,,,,,,,,,,,,,,,,,,,,,,,,,,,,,,,,,,,,,,,,,,,,,,,,,,,,,,,,,,,,,,,,
1720416619,32,0,4517.563965,4320.384766,4324.871582,4322.692383,4291.538574,4292.820313,4295.641113,4314.871582,4282.94873,4282.179688,4452.94873,4477.692383,4368.717773,4235.384766,,,,,,,,,,,,,,,,,,,,,,,,,,,,,,,,,,,,,,,,,,,,,,,,,,,,,,,,,,,,,,,,,,,,,,
1720416619,33,0,4508.974121,4313.077148,4317.563965,4308.077148,4280.641113,4288.077148,4290.128418,4310.897461,4278.846191,4279.230957,4444.102539,4475.512695,4360.256348,4224.102539,,,,,,,,,,,,,,,,,,,,,,,,,,,,,,,,,,,,,,,,,,,,,,,,,,,,,,,,,,,,,,,,,,,,,,
1720416619,34,0,4499.230957,4307.692383,4309.230957,4301.794922,4275.897461,4284.743652,4287.820313,4312.563965,4280.128418,4276.153809,4440,4474.358887,4356.153809,4221.794922,,,,,,,,,,,,,,,,,,,,,,,,,,,,,,,,,,,,,,,,,,,,,,,,,,,,,,,,,,,,,,,,,,,,,,
1720416619,35,0,4493.077148,4310.769043,4307.436035,4307.563965,4275.897461,4285.384766,4290.512695,4316.922852,4288.077148,4276.282227,4445.897461,4476.410156,4360.769043,4228.077148,,,,,,,,,,,,,,,,,,,,,,,,,,,,,,,,,,,,,,,,,,,,,,,,,,,,,,,,,,,,,,,,,,,,,,
1720416619,36,0,4489.102539,4317.94873,4311.282227,4309.230957,4280.641113,4293.077148,4294.615234,4314.871582,4283.974121,4273.333496,4441.922852,4473.205078,4353.846191,4225.128418,,,,,,,,,,,,,,,,,,,,,,,,,,,,,,,,,,,,,,,,,,,,,,,,,,,,,,,,,,,,,,,,,,,,,,
1720416619,37,0,4493.333496,4326.153809,4318.717773,4312.307617,4292.179688,4298.077148,4292.692383,4310.897461,4275.128418,4265.641113,4433.461426,4474.358887,4345.641113,4224.358887,,,,,,,,,,,,,,,,,,,,,,,,,,,,,,,,,,,,,,,,,,,,,,,,,,,,,,,,,,,,,,,,,,,,,,
1720416619,38,0,4501.538574,4329.871582,4325,4319.615234,4292.563965,4284.487305,4282.563965,4308.205078,4270.641113,4261.410156,4428.205078,4474.102539,4344.743652,4225.384766,5.116348,2.91183,1.008852,0.584441,0.444678,1.441628,0.71057,0.539164,0.331029,0.236557,1.441001,1.042882,0.986685,0.535558,0.470906,1.611556,1.064916,0.730941,0.483975,0.395249,1.001972,0.716238,0.375454,0.301132,0.169383,0.52733,0.707762,0.5685,0.445922,0.352308,0.546703,0.539769,0.387751,0.324231,0.283128,0.9205,0.64804,0.359067,0.28962,0.235021,0.783472,1.577212,0.620318,0.222845,0.28287,2.077576,1.079707,0.725105,0.280024,0.259953,2.214861,1.208189,1.102393,0.567771,0.451296,1.593103,0.829063,1.161112,0.462418,0.672427,2.445264,1.176114,0.683571,0.389736,0.346769,3.257864,1.594324,1.554751,0.4757,0.623428
1720416619,39,0,4502.05127,4328.846191,4325.256348,4322.820313,4283.333496,4275.128418,4274.743652,4305.641113,4265.128418,4261.153809,4423.846191,4471.794922,4339.487305,4219.358887,,,,,,,,,,,,,,,,,,,,,,,,,,,,,,,,,,,,,,,,,,,,,,,,,,,,,,,,,,,,,,,,,,,,,,
1720416619,40,0,4501.282227,4331.282227,4325,4326.794922,4288.717773,4289.615234,4280.128418,4307.94873,4267.820313,4262.307617,4429.615234,4481.282227,4338.333496,4220.512695,,,,,,,,,,,,,,,,,,,,,,,,,,,,,,,,,,,,,,,,,,,,,,,,,,,,,,,,,,,,,,,,,,,,,,
1720416619,41,0,4499.743652,4331.538574,4327.436035,4327.563965,4293.461426,4292.820313,4290.384766,4315.512695,4281.025879,4266.538574,4444.743652,4491.538574,4352.692383,4230.256348,,,,,,,,,,,,,,,,,,,,,,,,,,,,,,,,,,,,,,,,,,,,,,,,,,,,,,,,,,,,,,,,,,,,,,
1720416619,42,0,4492.179688,4323.717773,4324.358887,4317.692383,4282.563965,4281.153809,4292.820313,4320,4285,4264.743652,4447.692383,4479.871582,4361.282227,4228.717773,,,,,,,,,,,,,,,,,,,,,,,,,,,,,,,,,,,,,,,,,,,,,,,,,,,,,,,,,,,,,,,,,,,,,,
1720416619,43,0,4490.512695,4318.974121,4318.589844,4308.205078,4278.974121,4284.102539,4291.025879,4320.384766,4277.94873,4259.358887,4445,4473.077148,4358.846191,4229.615234,,,,,,,,,,,,,,,,,,,,,,,,,,,,,,,,,,,,,,,,,,,,,,,,,,,,,,,,,,,,,,,,,,,,,,
1720416619,44,0,4498.205078,4323.589844,4322.692383,4311.025879,4288.461426,4294.358887,4296.153809,4322.05127,4279.230957,4265.512695,4453.589844,4490,4365.256348,4241.922852,,,,,,,,,,,,,,,,,,,,,,,,,,,,,,,,,,,,,,,,,,,,,,,,,,,,,,,,,,,,,,,,,,,,,,
1720416619,45,0,4499.358887,4325.128418,4322.563965,4312.692383,4289.487305,4295.256348,4296.794922,4319.615234,4280,4263.717773,4452.692383,4488.077148,4367.692383,4242.692383,,,,,,,,,,,,,,,,,,,,,,,,,,,,,,,,,,,,,,,,,,,,,,,,,,,,,,,,,,,,,,,,,,,,,,
1720416619,46,0,4498.205078,4322.05127,4313.717773,4309.871582,4281.666504,4292.94873,4285.512695,4313.589844,4271.410156,4250,4442.179688,4479.487305,4357.436035,4241.666504,,,,,,,,,,,,,,,,,,,,,,,,,,,,,,,,,,,,,,,,,,,,,,,,,,,,,,,,,,,,,,,,,,,,,,
1720416619,47,0,4498.846191,4321.666504,4311.922852,4311.666504,4279.871582,4292.692383,4283.846191,4312.436035,4270.128418,4250,4440.384766,4484.871582,4351.410156,4244.102539,,,,,,,,,,,,,,,,,,,,,,,,,,,,,,,,,,,,,,,,,,,,,,,,,,,,,,,,,,,,,,,,,,,,,,
1720416619,48,0,4492.179688,4321.282227,4311.922852,4311.538574,4282.692383,4293.974121,4291.538574,4311.794922,4272.179688,4252.692383,4435.384766,4477.692383,4346.282227,4232.820313,,,,,,,,,,,,,,,,,,,,,,,,,,,,,,,,,,,,,,,,,,,,,,,,,,,,,,,,,,,,,,,,,,,,,,
1720416619,49,0,4489.615234,4322.436035,4313.333496,4313.205078,4289.358887,4296.666504,4295.128418,4315.256348,4277.692383,4251.794922,4435,4475.897461,4342.692383,4226.922852,,,,,,,,,,,,,,,,,,,,,,,,,,,,,,,,,,,,,,,,,,,,,,,,,,,,,,,,,,,,,,,,,,,,,,
1720416619,50,0,4496.538574,4328.077148,4321.153809,4318.205078,4293.717773,4297.692383,4293.333496,4322.05127,4287.820313,4255.128418,4442.436035,4485,4345.897461,4232.05127,,,,,,,,,,,,,,,,,,,,,,,,,,,,,,,,,,,,,,,,,,,,,,,,,,,,,,,,,,,,,,,,,,,,,,
1720416619,51,0,4499.358887,4327.307617,4323.205078,4315.128418,4287.436035,4293.461426,4286.282227,4317.307617,4287.05127,4255.641113,4435.769043,4478.077148,4341.410156,4226.025879,,,,,,,,,,,,,,,,,,,,,,,,,,,,,,,,,,,,,,,,,,,,,,,,,,,,,,,,,,,,,,,,,,,,,,
1720416619,52,0,4495,4316.794922,4315,4304.487305,4279.102539,4286.410156,4280.512695,4310.128418,4280.641113,4254.230957,4429.871582,4472.94873,4339.487305,4220.641113,,,,,,,,,,,,,,,,,,,,,,,,,,,,,,,,,,,,,,,,,,,,,,,,,,,,,,,,,,,,,,,,,,,,,,
1720416619,53,0,4482.05127,4310.128418,4306.794922,4299.102539,4273.077148,4279.871582,4278.974121,4311.666504,4281.794922,4257.94873,4438.846191,4477.563965,4351.025879,4225.512695,,,,,,,,,,,,,,,,,,,,,,,,,,,,,,,,,,,,,,,,,,,,,,,,,,,,,,,,,,,,,,,,,,,,,,
1720416619,54,0,4465.769043,4305.512695,4301.153809,4295.128418,4266.410156,4275.641113,4275,4307.692383,4275.512695,4252.307617,4439.102539,4463.077148,4354.871582,4227.563965,5.148865,3.10167,1.114466,0.591628,0.460893,1.61386,0.556041,0.563426,0.332724,0.269728,1.732597,0.885613,0.987073,0.527262,0.496783,1.741811,0.784242,0.743454,0.453143,0.394522,1.077075,0.511172,0.35483,0.317475,0.170835,0.5342,0.651115,0.515729,0.401296,0.336189,0.658057,0.484665,0.392994,0.324427,0.307782,1.129944,0.556025,0.331281,0.280673,0.250748,0.801964,1.668967,0.696618,0.233859,0.316471,2.056748,0.978977,0.734516,0.302588,0.293032,2.514122,0.951895,0.998263,0.592211,0.463018,1.923241,0.807972,1.217738,0.425139,0.691824,2.625895,0.949342,0.602045,0.409837,0.388587,3.342369,1.551187,1.593213,0.529658,0.677439
1720416619,55,0,4463.205078,4302.820313,4302.05127,4289.871582,4267.94873,4280.256348,4276.666504,4302.820313,4265.256348,4243.333496,4435.256348,4458.974121,4351.538574,4238.333496,,,,,,,,,,,,,,,,,,,,,,,,,,,,,,,,,,,,,,,,,,,,,,,,,,,,,,,,,,,,,,,,,,,,,,
1720416619,56,0,4470.384766,4310.128418,4313.717773,4298.333496,4280.512695,4292.05127,4290.897461,4315.641113,4275.641113,4256.538574,4446.794922,4477.179688,4358.589844,4262.563965,,,,,,,,,,,,,,,,,,,,,,,,,,,,,,,,,,,,,,,,,,,,,,,,,,,,,,,,,,,,,,,,,,,,,,
1720416619,57,0,4463.077148,4314.230957,4317.05127,4310.128418,4286.666504,4297.436035,4297.692383,4326.922852,4285.512695,4263.205078,4451.025879,4478.717773,4362.563965,4269.615234,,,,,,,,,,,,,,,,,,,,,,,,,,,,,,,,,,,,,,,,,,,,,,,,,,,,,,,,,,,,,,,,,,,,,,
1720416619,58,0,4449.487305,4310.897461,4312.436035,4310.769043,4283.846191,4294.615234,4294.487305,4321.538574,4276.666504,4250.641113,4443.717773,4475.256348,4357.692383,4261.794922,,,,,,,,,,,,,,,,,,,,,,,,,,,,,,,,,,,,,,,,,,,,,,,,,,,,,,,,,,,,,,,,,,,,,,
1720416619,59,0,4455.128418,4316.922852,4319.358887,4314.743652,4284.230957,4293.077148,4296.153809,4320.384766,4278.717773,4253.589844,4452.563965,4484.871582,4361.025879,4266.794922,,,,,,,,,,,,,,,,,,,,,,,,,,,,,,,,,,,,,,,,,,,,,,,,,,,,,,,,,,,,,,,,,,,,,,
1720416619,60,0,4474.487305,4329.487305,4331.666504,4325.256348,4283.974121,4293.461426,4298.846191,4326.794922,4291.922852,4266.666504,4462.307617,4493.077148,4367.436035,4279.871582,,,,,,,,,,,,,,,,,,,,,,,,,,,,,,,,,,,,,,,,,,,,,,,,,,,,,,,,,,,,,,,,,,,,,,
1720416619,61,0,4474.487305,4326.794922,4332.94873,4323.461426,4280.384766,4287.436035,4292.179688,4321.922852,4289.102539,4260,4453.333496,4486.666504,4362.436035,4275.384766,,,,,,,,,,,,,,,,,,,,,,,,,,,,,,,,,,,,,,,,,,,,,,,,,,,,,,,,,,,,,,,,,,,,,,
1720416619,62,0,4455,4314.230957,4319.743652,4309.615234,4277.05127,4278.333496,4278.461426,4308.333496,4275.128418,4244.615234,4439.871582,4472.179688,4351.922852,4256.922852,,,,,,,,,,,,,,,,,,,,,,,,,,,,,,,,,,,,,,,,,,,,,,,,,,,,,,,,,,,,,,,,,,,,,,
1720416619,63,0,4448.846191,4313.589844,4312.05127,4305.769043,4277.05127,4279.102539,4276.666504,4310.256348,4276.282227,4253.333496,4440.128418,4468.846191,4349.487305,4253.205078,,,,,,,,,,,,,,,,,,,,,,,,,,,,,,,,,,,,,,,,,,,,,,,,,,,,,,,,,,,,,,,,,,,,,,
1720416619,64,0,4457.820313,4323.461426,4318.461426,4313.077148,4280.641113,4290.384766,4284.102539,4320,4285.256348,4263.589844,4445.384766,4474.230957,4351.410156,4260.769043,,,,,,,,,,,,,,,,,,,,,,,,,,,,,,,,,,,,,,,,,,,,,,,,,,,,,,,,,,,,,,,,,,,,,,
1720416619,65,0,4450.769043,4318.205078,4316.025879,4309.743652,4279.615234,4292.94873,4280.128418,4312.820313,4278.846191,4253.205078,4438.589844,4469.871582,4344.102539,4254.102539,,,,,,,,,,,,,,,,,,,,,,,,,,,,,,,,,,,,,,,,,,,,,,,,,,,,,,,,,,,,,,,,,,,,,,
1720416619,66,0,4433.077148,4300.128418,4301.282227,4296.538574,4279.743652,4295,4281.666504,4307.179688,4274.102539,4244.487305,4430.512695,4461.794922,4339.102539,4244.230957,,,,,,,,,,,,,,,,,,,,,,,,,,,,,,,,,,,,,,,,,,,,,,,,,,,,,,,,,,,,,,,,,,,,,,
1720416619,67,0,4427.436035,4293.077148,4292.563965,4292.692383,4278.205078,4302.307617,4292.820313,4315.512695,4273.974121,4244.358887,4430,4460.384766,4338.461426,4243.333496,,,,,,,,,,,,,,,,,,,,,,,,,,,,,,,,,,,,,,,,,,,,,,,,,,,,,,,,,,,,,,,,,,,,,,
1720416619,68,0,4424.487305,4293.461426,4292.179688,4295,4269.615234,4293.205078,4288.205078,4316.922852,4269.487305,4243.333496,4429.615234,4456.794922,4333.077148,4240,,,,,,,,,,,,,,,,,,,,,,,,,,,,,,,,,,,,,,,,,,,,,,,,,,,,,,,,,,,,,,,,,,,,,,
1720416619,69,0,4421.410156,4295.512695,4298.589844,4293.589844,4263.077148,4278.589844,4278.333496,4309.487305,4270.256348,4246.025879,4430.128418,4457.692383,4335,4242.820313,,,,,,,,,,,,,,,,,,,,,,,,,,,,,,,,,,,,,,,,,,,,,,,,,,,,,,,,,,,,,,,,,,,,,,
1720416619,70,0,4422.692383,4301.666504,4304.358887,4292.94873,4264.743652,4278.717773,4278.333496,4306.282227,4267.179688,4248.461426,4429.743652,4459.102539,4341.794922,4251.153809,4.675032,3.03445,1.135692,0.562127,0.466583,1.758572,0.446888,0.595319,0.332207,0.30143,1.936391,0.738451,0.955396,0.497067,0.508349,1.773426,0.561488,0.772913,0.418658,0.386846,1.07439,0.346321,0.359442,0.328312,0.17428,0.530855,0.577023,0.492502,0.36159,0.324769,0.775265,0.434037,0.4081,0.330964,0.337582,1.321241,0.442432,0.303859,0.286275,0.27416,0.786527,1.62312,0.751874,0.268968,0.356425,1.866262,0.872871,0.76069,0.322856,0.329339,2.719146,0.761723,0.848201,0.595109,0.47368,2.157362,0.72182,1.164832,0.397477,0.705637,2.59183,0.796149,0.496375,0.413604,0.42252,4.173923,1.713146,1.641971,0.632248,0.740511
1720416619,71,0,4426.025879,4306.538574,4302.563965,4296.538574,4270.769043,4283.461426,4279.615234,4309.743652,4262.94873,4246.666504,4429.871582,4457.94873,4343.077148,4252.307617,,,,,,,,,,,,,,,,,,,,,,,,,,,,,,,,,,,,,,,,,,,,,,,,,,,,,,,,,,,,,,,,,,,,,,
1720416619,72,0,4431.538574,4307.692383,4304.615234,4298.589844,4273.846191,4281.666504,4281.538574,4316.025879,4269.487305,4249.615234,4438.077148,4471.538574,4347.436035,4260.512695,,,,,,,,,,,,,,,,,,,,,,,,,,,,,,,,,,,,,,,,,,,,,,,,,,,,,,,,,,,,,,,,,,,,,,
1720416619,73,0,4425,4303.205078,4305.769043,4295.769043,4268.589844,4276.410156,4280.769043,4312.94873,4272.05127,4249.871582,4442.563965,4474.743652,4350.384766,4261.025879,,,,,,,,,,,,,,,,,,,,,,,,,,,,,,,,,,,,,,,,,,,,,,,,,,,,,,,,,,,,,,,,,,,,,,
1720416619,74,0,4412.820313,4299.743652,4300.256348,4294.871582,4261.666504,4276.794922,4277.05127,4307.179688,4268.205078,4249.743652,4437.307617,4463.205078,4347.05127,4250.128418,,,,,,,,,,,,,,,,,,,,,,,,,,,,,,,,,,,,,,,,,,,,,,,,,,,,,,,,,,,,,,,,,,,,,,
1720416619,75,0,4421.410156,4310,4303.461426,4302.179688,4269.615234,4286.666504,4284.358887,4314.615234,4274.615234,4257.820313,4441.410156,4468.077148,4350.641113,4256.794922,,,,,,,,,,,,,,,,,,,,,,,,,,,,,,,,,,,,,,,,,,,,,,,,,,,,,,,,,,,,,,,,,,,,,,
1720416619,76,0,4439.102539,4321.153809,4311.282227,4311.666504,4282.307617,4292.94873,4291.282227,4321.410156,4281.282227,4260.384766,4449.102539,4472.436035,4353.717773,4265.512695,,,,,,,,,,,,,,,,,,,,,,,,,,,,,,,,,,,,,,,,,,,,,,,,,,,,,,,,,,,,,,,,,,,,,,
1720416619,77,0,4443.974121,4314.615234,4308.333496,4307.05127,4281.153809,4290.384766,4282.692383,4313.846191,4278.717773,4255.769043,4438.205078,4462.563965,4342.179688,4252.307617,,,,,,,,,,,,,,,,,,,,,,,,,,,,,,,,,,,,,,,,,,,,,,,,,,,,,,,,,,,,,,,,,,,,,,
1720416619,78,0,4448.205078,4306.922852,4301.538574,4296.794922,4277.436035,4292.307617,4279.615234,4309.230957,4276.922852,4256.410156,4426.410156,4458.333496,4335.769043,4246.410156,,,,,,,,,,,,,,,,,,,,,,,,,,,,,,,,,,,,,,,,,,,,,,,,,,,,,,,,,,,,,,,,,,,,,,
1720416619,79,0,4452.692383,4310.256348,4300,4300.256348,4277.692383,4292.179688,4283.077148,4312.563965,4276.794922,4256.794922,4434.615234,4460.897461,4341.538574,4257.05127,,,,,,,,,,,,,,,,,,,,,,,,,,,,,,,,,,,,,,,,,,,,,,,,,,,,,,,,,,,,,,,,,,,,,,
1720416619,80,0,4450.256348,4315.256348,4304.743652,4309.358887,4276.153809,4287.05127,4282.563965,4313.333496,4278.717773,4255.897461,4443.461426,4468.461426,4346.153809,4263.589844,,,,,,,,,,,,,,,,,,,,,,,,,,,,,,,,,,,,,,,,,,,,,,,,,,,,,,,,,,,,,,,,,,,,,,
1720416619,81,0,4451.410156,4320.769043,4312.692383,4313.974121,4277.563965,4290.128418,4287.94873,4313.077148,4277.307617,4259.230957,4439.743652,4477.436035,4344.487305,4266.025879,,,,,,,,,,,,,,,,,,,,,,,,,,,,,,,,,,,,,,,,,,,,,,,,,,,,,,,,,,,,,,,,,,,,,,
1720416619,82,0,4452.307617,4323.589844,4308.974121,4313.846191,4283.974121,4296.025879,4289.743652,4312.436035,4266.922852,4253.589844,4428.461426,4465.256348,4337.436035,4263.205078,,,,,,,,,,,,,,,,,,,,,,,,,,,,,,,,,,,,,,,,,,,,,,,,,,,,,,,,,,,,,,,,,,,,,,
1720416619,83,0,4447.436035,4323.333496,4304.743652,4310.769043,4284.743652,4293.461426,4280.128418,4311.666504,4261.922852,4243.717773,4426.282227,4456.410156,4335.897461,4265,,,,,,,,,,,,,,,,,,,,,,,,,,,,,,,,,,,,,,,,,,,,,,,,,,,,,,,,,,,,,,,,,,,,,,
1720416619,84,0,4451.153809,4327.436035,4313.974121,4313.461426,4281.025879,4291.025879,4279.230957,4313.589844,4265.512695,4247.820313,4436.282227,4472.179688,4345,4279.743652,,,,,,,,,,,,,,,,,,,,,,,,,,,,,,,,,,,,,,,,,,,,,,,,,,,,,,,,,,,,,,,,,,,,,,
1720416619,85,0,4449.487305,4323.846191,4312.05127,4313.717773,4279.230957,4289.358887,4282.94873,4310.641113,4264.871582,4249.615234,4430.769043,4468.589844,4340.256348,4286.025879,,,,,,,,,,,,,,,,,,,,,,,,,,,,,,,,,,,,,,,,,,,,,,,,,,,,,,,,,,,,,,,,,,,,,,
1720416619,86,0,4431.153809,4310.384766,4296.153809,4301.922852,4278.077148,4286.282227,4278.589844,4306.794922,4262.307617,4243.846191,4412.692383,4451.922852,4321.410156,4282.05127,4.017813,2.728521,1.091631,0.50293,0.460787,1.847299,0.41342,0.658285,0.325416,0.322828,2.012537,0.636026,0.920098,0.441883,0.503012,1.709137,0.460035,0.859255,0.3801,0.370747,0.995822,0.261075,0.401111,0.325459,0.179376,0.519756,0.505443,0.493778,0.319675,0.319569,0.885449,0.408398,0.422155,0.335167,0.361803,1.486884,0.343519,0.288935,0.291248,0.297247,0.741253,1.461294,0.78485,0.318677,0.392505,1.568515,0.809391,0.797446,0.330007,0.35729,2.829904,0.701415,0.706537,0.564641,0.477577,2.236866,0.591919,1.010103,0.366817,0.700535,2.382174,0.798936,0.4225,0.392532,0.437834,6.376897,2.301927,1.8059,0.807581,0.805542
1720416619,87,0,4422.820313,4304.102539,4288.205078,4294.615234,4272.692383,4285.897461,4276.410156,4308.717773,4263.077148,4243.461426,4412.94873,4453.077148,4317.563965,4284.743652,,,,,,,,,,,,,,,,,,,,,,,,,,,,,,,,,,,,,,,,,,,,,,,,,,,,,,,,,,,,,,,,,,,,,,
1720416619,88,0,4429.487305,4308.205078,4293.974121,4302.692383,4269.102539,4283.461426,4279.358887,4310.384766,4265.512695,4247.94873,4427.820313,4462.05127,4332.05127,4300,,,,,,,,,,,,,,,,,,,,,,,,,,,,,,,,,,,,,,,,,,,,,,,,,,,,,,,,,,,,,,,,,,,,,,
1720416619,89,0,4430.512695,4314.230957,4298.846191,4309.358887,4272.179688,4276.538574,4278.205078,4308.974121,4267.820313,4250.512695,4431.282227,4463.333496,4340.641113,4309.487305,,,,,,,,,,,,,,,,,,,,,,,,,,,,,,,,,,,,,,,,,,,,,,,,,,,,,,,,,,,,,,,,,,,,,,
1720416619,90,0,4420.384766,4315.384766,4296.282227,4308.589844,4275.769043,4282.436035,4278.333496,4310.384766,4266.025879,4248.333496,4425.128418,4458.333496,4333.846191,4300.512695,,,,,,,,,,,,,,,,,,,,,,,,,,,,,,,,,,,,,,,,,,,,,,,,,,,,,,,,,,,,,,,,,,,,,,
1720416619,91,0,4411.153809,4312.436035,4294.871582,4309.230957,4276.410156,4294.102539,4281.410156,4312.436035,4268.846191,4246.666504,4424.230957,4455.897461,4326.282227,4286.410156,,,,,,,,,,,,,,,,,,,,,,,,,,,,,,,,,,,,,,,,,,,,,,,,,,,,,,,,,,,,,,,,,,,,,,
1720416619,92,0,4412.05127,4311.153809,4294.487305,4310.512695,4273.077148,4286.922852,4279.102539,4309.102539,4276.153809,4249.615234,4427.307617,4456.666504,4326.538574,4282.307617,,,,,,,,,,,,,,,,,,,,,,,,,,,,,,,,,,,,,,,,,,,,,,,,,,,,,,,,,,,,,,,,,,,,,,
1720416619,93,0,4418.077148,4312.94873,4295.512695,4309.487305,4269.743652,4276.282227,4279.743652,4310.641113,4274.615234,4253.589844,4431.025879,4463.333496,4329.615234,4288.589844,,,,,,,,,,,,,,,,,,,,,,,,,,,,,,,,,,,,,,,,,,,,,,,,,,,,,,,,,,,,,,,,,,,,,,
1720416619,94,0,4409.230957,4309.487305,4296.410156,4302.563965,4265.384766,4279.230957,4277.820313,4311.153809,4265.641113,4251.025879,4424.102539,4462.307617,4324.487305,4288.846191,,,,,,,,,,,,,,,,,,,,,,,,,,,,,,,,,,,,,,,,,,,,,,,,,,,,,,,,,,,,,,,,,,,,,,
1720416619,95,0,4394.871582,4303.846191,4290,4293.461426,4264.871582,4280.128418,4267.820313,4299.871582,4261.794922,4245.128418,4416.282227,4447.820313,4319.102539,4283.717773,,,,,,,,,,,,,,,,,,,,,,,,,,,,,,,,,,,,,,,,,,,,,,,,,,,,,,,,,,,,,,,,,,,,,,
1720416619,96,0,4403.461426,4309.102539,4289.102539,4300.128418,4274.358887,4276.666504,4268.974121,4296.794922,4263.205078,4244.871582,4425.256348,4444.871582,4327.820313,4295.769043,,,,,,,,,,,,,,,,,,,,,,,,,,,,,,,,,,,,,,,,,,,,,,,,,,,,,,,,,,,,,,,,,,,,,,
1720416619,97,0,4413.589844,4318.461426,4302.05127,4313.589844,4279.615234,4278.974121,4279.871582,4307.307617,4261.922852,4248.077148,4432.05127,4459.487305,4335.256348,4316.794922,,,,,,,,,,,,,,,,,,,,,,,,,,,,,,,,,,,,,,,,,,,,,,,,,,,,,,,,,,,,,,,,,,,,,,
1720416619,98,0,4408.077148,4316.666504,4307.179688,4313.974121,4276.282227,4287.820313,4281.025879,4311.025879,4257.94873,4244.102539,4426.794922,4465.769043,4330.256348,4320.641113,,,,,,,,,,,,,,,,,,,,,,,,,,,,,,,,,,,,,,,,,,,,,,,,,,,,,,,,,,,,,,,,,,,,,,
1720416619,99,0,4404.358887,4311.025879,4296.538574,4310.128418,4275.384766,4294.102539,4278.205078,4307.436035,4257.307617,4237.307617,4427.307617,4460.512695,4326.025879,4317.692383,,,,,,,,,,,,,,,,,,,,,,,,,,,,,,,,,,,,,,,,,,,,,,,,,,,,,,,,,,,,,,,,,,,,,,
1720416619,100,0,4401.282227,4310.769043,4294.358887,4308.974121,4273.333496,4288.333496,4281.025879,4311.153809,4263.205078,4242.307617,4430.897461,4465.897461,4327.563965,4320.128418,,,,,,,,,,,,,,,,,,,,,,,,,,,,,,,,,,,,,,,,,,,,,,,,,,,,,,,,,,,,,,,,,,,,,,
1720416619,101,0,4388.589844,4304.358887,4292.94873,4301.538574,4263.846191,4276.922852,4275.512695,4308.974121,4263.077148,4247.820313,4417.692383,4456.666504,4320.128418,4307.307617,,,,,,,,,,,,,,,,,,,,,,,,,,,,,,,,,,,,,,,,,,,,,,,,,,,,,,,,,,,,,,,,,,,,,,
1720416619,102,0,4380.512695,4295.512695,4283.589844,4294.615234,4261.922852,4277.179688,4270.897461,4301.282227,4261.794922,4244.102539,4410.769043,4439.487305,4312.563965,4296.410156,3.405793,2.273668,1.026227,0.431972,0.44528,1.885291,0.456711,0.761407,0.311718,0.327595,1.968287,0.589382,0.899698,0.371631,0.479676,1.594243,0.491074,1.018278,0.33975,0.346413,0.863733,0.251183,0.482265,0.312442,0.184801,0.499995,0.454663,0.512748,0.280153,0.319011,0.960827,0.416987,0.431392,0.336988,0.370539,1.541239,0.283651,0.296306,0.288878,0.311145,0.665972,1.242124,0.806501,0.369379,0.414165,1.23859,0.80429,0.819481,0.319154,0.368882,2.840257,0.780411,0.608539,0.502869,0.470464,2.152802,0.464644,0.796329,0.3264,0.668055,2.071243,0.982233,0.413546,0.346825,0.429003,9.311229,3.406446,2.10937,1.042078,0.862361
1720416619,103,0,4384.871582,4293.974121,4282.94873,4295.256348,4266.410156,4281.922852,4274.358887,4305.641113,4267.94873,4245.128418,4418.077148,4447.563965,4315.128418,4307.820313,,,,,,,,,,,,,,,,,,,,,,,,,,,,,,,,,,,,,,,,,,,,,,,,,,,,,,,,,,,,,,,,,,,,,,
1720416619,104,0,4390.512695,4296.666504,4290.769043,4299.102539,4265,4280.769043,4271.794922,4309.743652,4272.179688,4250.384766,4421.922852,4453.205078,4320.256348,4318.717773,,,,,,,,,,,,,,,,,,,,,,,,,,,,,,,,,,,,,,,,,,,,,,,,,,,,,,,,,,,,,,,,,,,,,,
1720416619,105,0,4392.436035,4299.743652,4300.769043,4306.538574,4265.128418,4278.077148,4269.743652,4308.717773,4272.179688,4252.05127,4426.794922,4455.512695,4327.94873,4323.846191,,,,,,,,,,,,,,,,,,,,,,,,,,,,,,,,,,,,,,,,,,,,,,,,,,,,,,,,,,,,,,,,,,,,,,
1720416619,106,0,4390.897461,4300.256348,4305.512695,4311.153809,4265.384766,4278.333496,4273.846191,4309.230957,4268.974121,4248.333496,4432.692383,4466.153809,4332.05127,4327.94873,,,,,,,,,,,,,,,,,,,,,,,,,,,,,,,,,,,,,,,,,,,,,,,,,,,,,,,,,,,,,,,,,,,,,,
1720416619,107,0,4384.615234,4296.025879,4300.641113,4307.179688,4266.282227,4282.436035,4278.589844,4310,4262.692383,4240.769043,4430.897461,4466.666504,4326.538574,4323.717773,,,,,,,,,,,,,,,,,,,,,,,,,,,,,,,,,,,,,,,,,,,,,,,,,,,,,,,,,,,,,,,,,,,,,,
1720416619,108,0,4380.769043,4293.205078,4296.538574,4300.897461,4273.333496,4280.256348,4278.846191,4309.230957,4261.153809,4240.897461,4427.179688,4460.897461,4320.128418,4318.846191,,,,,,,,,,,,,,,,,,,,,,,,,,,,,,,,,,,,,,,,,,,,,,,,,,,,,,,,,,,,,,,,,,,,,,
1720416619,109,0,4381.282227,4294.743652,4296.794922,4299.487305,4276.666504,4279.230957,4278.589844,4311.410156,4263.974121,4246.666504,4428.589844,4466.922852,4318.461426,4320,,,,,,,,,,,,,,,,,,,,,,,,,,,,,,,,,,,,,,,,,,,,,,,,,,,,,,,,,,,,,,,,,,,,,,
1720416619,110,0,4381.666504,4295.641113,4300.256348,4304.102539,4273.974121,4290.384766,4281.794922,4314.102539,4263.717773,4245.256348,4427.94873,4469.102539,4321.025879,4322.692383,,,,,,,,,,,,,,,,,,,,,,,,,,,,,,,,,,,,,,,,,,,,,,,,,,,,,,,,,,,,,,,,,,,,,,
1720416619,111,0,4384.487305,4297.820313,4303.846191,4308.589844,4274.615234,4290.897461,4283.077148,4312.05127,4264.102539,4245.256348,4429.615234,4469.358887,4329.102539,4332.307617,,,,,,,,,,,,,,,,,,,,,,,,,,,,,,,,,,,,,,,,,,,,,,,,,,,,,,,,,,,,,,,,,,,,,,
1720416619,112,0,4387.05127,4297.820313,4302.05127,4305.384766,4275.769043,4276.666504,4278.717773,4309.615234,4265.256348,4250.769043,4437.94873,4476.922852,4335.641113,4338.846191,,,,,,,,,,,,,,,,,,,,,,,,,,,,,,,,,,,,,,,,,,,,,,,,,,,,,,,,,,,,,,,,,,,,,,
1720416619,113,0,4383.461426,4298.461426,4302.820313,4305,4272.307617,4279.358887,4277.05127,4310.256348,4265.384766,4251.538574,4442.307617,4477.307617,4334.358887,4333.077148,,,,,,,,,,,,,,,,,,,,,,,,,,,,,,,,,,,,,,,,,,,,,,,,,,,,,,,,,,,,,,,,,,,,,,
1720416619,114,0,4379.743652,4303.205078,4308.077148,4312.692383,4274.615234,4297.94873,4284.358887,4314.487305,4266.153809,4247.820313,4439.102539,4478.974121,4331.410156,4331.153809,,,,,,,,,,,,,,,,,,,,,,,,,,,,,,,,,,,,,,,,,,,,,,,,,,,,,,,,,,,,,,,,,,,,,,
1720416619,115,0,4375.256348,4301.025879,4303.846191,4310.512695,4277.307617,4294.358887,4278.846191,4311.153809,4259.615234,4244.102539,4431.538574,4474.615234,4327.820313,4328.589844,,,,,,,,,,,,,,,,,,,,,,,,,,,,,,,,,,,,,,,,,,,,,,,,,,,,,,,,,,,,,,,,,,,,,,
1720416619,116,0,4369.615234,4295.128418,4297.94873,4305.256348,4272.692383,4278.333496,4264.871582,4303.974121,4257.563965,4244.615234,4428.589844,4464.487305,4327.179688,4320.128418,,,,,,,,,,,,,,,,,,,,,,,,,,,,,,,,,,,,,,,,,,,,,,,,,,,,,,,,,,,,,,,,,,,,,,
1720416619,117,0,4365.897461,4293.589844,4300.897461,4310.128418,4272.692383,4278.205078,4268.205078,4307.05127,4271.282227,4255.256348,4432.179688,4467.05127,4329.102539,4316.538574,,,,,,,,,,,,,,,,,,,,,,,,,,,,,,,,,,,,,,,,,,,,,,,,,,,,,,,,,,,,,,,,,,,,,,
1720416619,118,0,4363.077148,4293.589844,4297.820313,4307.820313,4273.461426,4283.333496,4278.205078,4313.205078,4283.077148,4263.589844,4437.692383,4471.153809,4329.487305,4321.025879,3.147554,1.797465,0.972143,0.371254,0.42398,1.883753,0.561325,0.88823,0.295779,0.31457,1.871969,0.591003,0.894833,0.304304,0.44012,1.497274,0.616704,1.230426,0.303304,0.315606,0.737516,0.282258,0.589135,0.30132,0.188611,0.482312,0.434616,0.548393,0.254277,0.318817,0.995577,0.457917,0.441204,0.339898,0.358941,1.517248,0.269434,0.325527,0.279158,0.310034,0.593293,1.031399,0.823078,0.406759,0.414514,0.983051,0.829519,0.800007,0.293265,0.362416,2.792522,0.948376,0.560363,0.424419,0.452308,1.970967,0.38847,0.583723,0.278148,0.610382,1.802849,1.290514,0.466147,0.285748,0.398214,12.852142,4.872753,2.469233,1.277572,0.899028
1720416619,119,0,4358.846191,4291.025879,4290.128418,4296.025879,4268.974121,4283.333496,4277.94873,4312.179688,4279.487305,4256.153809,4435.384766,4465.128418,4328.077148,4322.307617,,,,,,,,,,,,,,,,,,,,,,,,,,,,,,,,,,,,,,,,,,,,,,,,,,,,,,,,,,,,,,,,,,,,,,
1720416619,120,0,4357.563965,4290.512695,4294.871582,4298.846191,4270.769043,4286.153809,4275.641113,4313.461426,4274.230957,4247.94873,4428.846191,4459.743652,4325.641113,4318.846191,,,,,,,,,,,,,,,,,,,,,,,,,,,,,,,,,,,,,,,,,,,,,,,,,,,,,,,,,,,,,,,,,,,,,,
1720416619,121,0,4363.846191,4295,4305.128418,4311.922852,4279.102539,4293.846191,4281.666504,4323.077148,4273.846191,4250.769043,4431.410156,4468.077148,4328.846191,4322.563965,,,,,,,,,,,,,,,,,,,,,,,,,,,,,,,,,,,,,,,,,,,,,,,,,,,,,,,,,,,,,,,,,,,,,,
1720416619,122,0,4364.230957,4297.05127,4304.487305,4311.538574,4278.846191,4296.794922,4287.563965,4322.692383,4270,4249.615234,4432.820313,4473.333496,4330.897461,4322.94873,,,,,,,,,,,,,,,,,,,,,,,,,,,,,,,,,,,,,,,,,,,,,,,,,,,,,,,,,,,,,,,,,,,,,,
1720416619,123,0,4360.897461,4296.922852,4299.871582,4309.615234,4277.05127,4292.692383,4282.05127,4313.589844,4263.589844,4242.820313,4427.05127,4463.589844,4326.410156,4319.102539,,,,,,,,,,,,,,,,,,,,,,,,,,,,,,,,,,,,,,,,,,,,,,,,,,,,,,,,,,,,,,,,,,,,,,
1720416619,124,0,4360.256348,4296.922852,4296.153809,4310.641113,4275.897461,4283.077148,4269.358887,4309.102539,4264.615234,4243.717773,4423.333496,4452.05127,4325.128418,4324.102539,,,,,,,,,,,,,,,,,,,,,,,,,,,,,,,,,,,,,,,,,,,,,,,,,,,,,,,,,,,,,,,,,,,,,,
1720416619,125,0,4357.05127,4294.358887,4289.615234,4301.153809,4268.077148,4275.128418,4261.538574,4302.820313,4262.307617,4248.461426,4421.410156,4451.410156,4327.307617,4333.077148,,,,,,,,,,,,,,,,,,,,,,,,,,,,,,,,,,,,,,,,,,,,,,,,,,,,,,,,,,,,,,,,,,,,,,
1720416619,126,0,4357.563965,4292.307617,4288.077148,4296.794922,4269.102539,4276.538574,4262.820313,4296.794922,4251.538574,4245.512695,4420.897461,4455,4326.538574,4334.743652,,,,,,,,,,,,,,,,,,,,,,,,,,,,,,,,,,,,,,,,,,,,,,,,,,,,,,,,,,,,,,,,,,,,,,
1720416619,127,0,4362.179688,4295.384766,4297.179688,4307.307617,4278.461426,4283.717773,4268.205078,4304.358887,4254.487305,4247.05127,4428.717773,4455.897461,4328.974121,4337.563965,,,,,,,,,,,,,,,,,,,,,,,,,,,,,,,,,,,,,,,,,,,,,,,,,,,,,,,,,,,,,,,,,,,,,,
1720416619,0,0,4363.077148,4298.846191,4302.94873,4312.436035,4278.461426,4285,4275.384766,4313.589844,4267.179688,4258.717773,4439.487305,4469.230957,4334.358887,4351.025879,,,,,,,,,,,,,,,,,,,,,,,,,,,,,,,,,,,,,,,,,,,,,,,,,,,,,,,,,,,,,,,,,,,,,,
1720416619,1,0,4362.94873,4297.692383,4301.922852,4310.256348,4275.512695,4283.461426,4279.358887,4311.666504,4269.487305,4261.410156,4440.384766,4475.897461,4332.820313,4353.461426,,,,,,,,,,,,,,,,,,,,,,,,,,,,,,,,,,,,,,,,,,,,,,,,,,,,,,,,,,,,,,,,,,,,,,
1720416619,2,0,4361.153809,4296.922852,4296.025879,4306.538574,4276.794922,4283.461426,4275,4309.102539,4265.256348,4249.487305,4432.05127,4457.436035,4328.717773,4344.871582,,,,,,,,,,,,,,,,,,,,,,,,,,,,,,,,,,,,,,,,,,,,,,,,,,,,,,,,,,,,,,,,,,,,,,
1720416619,3,0,4352.307617,4294.102539,4283.846191,4298.333496,4272.05127,4284.358887,4268.974121,4308.205078,4261.153809,4236.922852,4422.563965,4446.666504,4324.358887,4351.282227,,,,,,,,,,,,,,,,,,,,,,,,,,,,,,,,,,,,,,,,,,,,,,,,,,,,,,,,,,,,,,,,,,,,,,
1720416619,4,0,4340.128418,4283.846191,4275.512695,4291.025879,4264.615234,4277.692383,4262.05127,4302.820313,4255.641113,4232.563965,4412.307617,4442.563965,4312.05127,4359.871582,,,,,,,,,,,,,,,,,,,,,,,,,,,,,,,,,,,,,,,,,,,,,,,,,,,,,,,,,,,,,,,,,,,,,,
1720416619,5,0,4335.512695,4275.512695,4278.461426,4288.846191,4268.974121,4273.589844,4262.179688,4305.384766,4258.589844,4236.922852,4406.666504,4439.358887,4302.820313,4355.256348,,,,,,,,,,,,,,,,,,,,,,,,,,,,,,,,,,,,,,,,,,,,,,,,,,,,,,,,,,,,,,,,,,,,,,
1720416619,6,0,4336.794922,4283.333496,4289.230957,4293.717773,4278.846191,4290.512695,4280.769043,4321.153809,4269.871582,4247.05127,4419.743652,4458.717773,4311.410156,4362.179688,3.345868,1.418283,0.942561,0.338054,0.401364,1.851141,0.694877,1.005116,0.286279,0.28819,1.787996,0.624845,0.894034,0.258856,0.389675,1.452804,0.770707,1.446318,0.280652,0.282194,0.648162,0.313575,0.696488,0.304183,0.188117,0.467063,0.442709,0.604708,0.250794,0.313129,0.957834,0.518077,0.464509,0.346013,0.328178,1.356487,0.28907,0.367585,0.265674,0.292824,0.52301,0.882834,0.829058,0.418111,0.39238,0.812127,0.841701,0.72592,0.258215,0.341681,2.648298,1.124947,0.547852,0.349724,0.426947,1.743282,0.381441,0.427255,0.234036,0.539516,1.600057,1.616211,0.548468,0.227305,0.354154,15.475719,6.336731,2.749732,1.436362,0.903127
1720416619,7,0,4336.282227,4295.384766,4298.461426,4304.358887,4279.358887,4298.974121,4285.769043,4325,4268.333496,4251.153809,4435.384766,4472.94873,4321.922852,4379.358887,,,,,,,,,,,,,,,,,,,,,,,,,,,,,,,,,,,,,,,,,,,,,,,,,,,,,,,,,,,,,,,,,,,,,,
1720416619,8,0,4334.743652,4296.538574,4299.230957,4308.333496,4273.717773,4283.077148,4270,4310.897461,4260.769043,4246.538574,4432.179688,4459.487305,4320.769043,4382.94873,,,,,,,,,,,,,,,,,,,,,,,,,,,,,,,,,,,,,,,,,,,,,,,,,,,,,,,,,,,,,,,,,,,,,,
1720416619,9,0,4337.94873,4296.922852,4298.589844,4306.922852,4275.256348,4273.333496,4265.256348,4305.128418,4260.128418,4245.128418,4429.871582,4461.025879,4323.717773,4391.922852,,,,,,,,,,,,,,,,,,,,,,,,,,,,,,,,,,,,,,,,,,,,,,,,,,,,,,,,,,,,,,,,,,,,,,
1720416619,10,0,4342.307617,4307.307617,4304.102539,4314.358887,4280.512695,4279.615234,4270.256348,4310.256348,4256.922852,4251.410156,4436.538574,4473.461426,4331.794922,4411.922852,,,,,,,,,,,,,,,,,,,,,,,,,,,,,,,,,,,,,,,,,,,,,,,,,,,,,,,,,,,,,,,,,,,,,,
1720416619,11,0,4342.563965,4311.538574,4307.307617,4318.974121,4280.641113,4285.897461,4270.384766,4308.077148,4252.692383,4255.641113,4437.179688,4467.820313,4332.692383,4415.897461,,,,,,,,,,,,,,,,,,,,,,,,,,,,,,,,,,,,,,,,,,,,,,,,,,,,,,,,,,,,,,,,,,,,,,
1720416619,12,0,4340.384766,4302.436035,4302.94873,4311.153809,4280.641113,4290.256348,4275.384766,4310.641113,4257.94873,4253.077148,4433.589844,4469.743652,4329.743652,4410.769043,,,,,,,,,,,,,,,,,,,,,,,,,,,,,,,,,,,,,,,,,,,,,,,,,,,,,,,,,,,,,,,,,,,,,,
1720416619,13,0,4328.974121,4294.871582,4297.820313,4306.922852,4281.922852,4290.769043,4281.410156,4321.025879,4264.102539,4251.922852,4431.282227,4471.666504,4325.512695,4407.307617,,,,,,,,,,,,,,,,,,,,,,,,,,,,,,,,,,,,,,,,,,,,,,,,,,,,,,,,,,,,,,,,,,,,,,
1720416619,14,0,4314.871582,4292.436035,4290.897461,4302.820313,4278.717773,4280.512695,4278.589844,4318.717773,4265.641113,4257.563965,4430.897461,4463.461426,4321.153809,4403.333496,,,,,,,,,,,,,,,,,,,,,,,,,,,,,,,,,,,,,,,,,,,,,,,,,,,,,,,,,,,,,,,,,,,,,,
1720416619,15,0,4318.589844,4292.94873,4286.794922,4296.794922,4273.974121,4278.846191,4276.025879,4312.563965,4269.743652,4261.794922,4433.333496,4463.846191,4324.615234,4403.461426,,,,,,,,,,,,,,,,,,,,,,,,,,,,,,,,,,,,,,,,,,,,,,,,,,,,,,,,,,,,,,,,,,,,,,
1720416619,16,0,4325.256348,4288.846191,4288.333496,4296.153809,4269.487305,4283.077148,4271.666504,4314.102539,4269.871582,4255.384766,4431.922852,4465.512695,4326.922852,4404.743652,,,,,,,,,,,,,,,,,,,,,,,,,,,,,,,,,,,,,,,,,,,,,,,,,,,,,,,,,,,,,,,,,,,,,,
1720416619,17,0,4312.692383,4280.384766,4288.717773,4294.487305,4262.436035,4279.358887,4264.102539,4313.205078,4263.589844,4247.563965,4425.512695,4461.282227,4318.846191,4400.384766,,,,,,,,,,,,,,,,,,,,,,,,,,,,,,,,,,,,,,,,,,,,,,,,,,,,,,,,,,,,,,,,,,,,,,
1720416619,18,0,4297.05127,4281.153809,4288.077148,4291.153809,4261.153809,4274.358887,4263.077148,4307.563965,4261.922852,4248.333496,4426.538574,4460.512695,4317.05127,4399.358887,,,,,,,,,,,,,,,,,,,,,,,,,,,,,,,,,,,,,,,,,,,,,,,,,,,,,,,,,,,,,,,,,,,,,,
1720416619,19,0,4304.102539,4293.461426,4296.410156,4301.666504,4274.230957,4277.179688,4268.589844,4311.282227,4263.205078,4252.94873,4434.871582,4468.846191,4328.333496,4409.358887,,,,,,,,,,,,,,,,,,,,,,,,,,,,,,,,,,,,,,,,,,,,,,,,,,,,,,,,,,,,,,,,,,,,,,
1720416619,20,0,4320.641113,4305.384766,4310.769043,4320.897461,4287.05127,4291.025879,4278.589844,4324.230957,4267.692383,4259.871582,4442.563965,4475.256348,4337.563965,4420.384766,,,,,,,,,,,,,,,,,,,,,,,,,,,,,,,,,,,,,,,,,,,,,,,,,,,,,,,,,,,,,,,,,,,,,,
1720416619,21,0,4320.641113,4307.692383,4313.974121,4325.897461,4285.256348,4297.692383,4285.256348,4325,4274.871582,4265.384766,4448.589844,4478.077148,4340.384766,4426.282227,,,,,,,,,,,,,,,,,,,,,,,,,,,,,,,,,,,,,,,,,,,,,,,,,,,,,,,,,,,,,,,,,,,,,,
1720416619,22,0,4307.820313,4300.641113,4301.666504,4314.871582,4277.436035,4285.256348,4277.05127,4312.692383,4265.128418,4260.641113,4442.94873,4475.512695,4336.025879,4420.256348,3.920634,1.198393,0.922671,0.338397,0.379629,1.80277,0.838093,1.07133,0.291265,0.255439,1.765296,0.686642,0.880466,0.247596,0.335803,1.467509,0.907074,1.599393,0.282429,0.250574,0.625031,0.330704,0.768399,0.323741,0.181008,0.463141,0.467237,0.677087,0.269424,0.298823,0.865035,0.577105,0.505448,0.354321,0.285401,1.134486,0.321783,0.407257,0.253154,0.264102,0.466614,0.820849,0.812297,0.400024,0.353041,0.725386,0.816179,0.612076,0.22212,0.31313,2.444144,1.242911,0.547806,0.298232,0.400157,1.568131,0.432803,0.349508,0.213315,0.470782,1.504022,1.851508,0.625009,0.192362,0.307549,16.612745,7.361482,2.835941,1.462042,0.865068
1720416619,23,0,4300.256348,4291.538574,4288.205078,4303.077148,4273.077148,4275,4264.102539,4305.128418,4247.692383,4248.461426,4429.871582,4462.692383,4327.692383,4406.153809,,,,,,,,,,,,,,,,,,,,,,,,,,,,,,,,,,,,,,,,,,,,,,,,,,,,,,,,,,,,,,,,,,,,,,
1720416619,24,0,4310.128418,4296.025879,4294.487305,4308.589844,4274.487305,4280.128418,4268.589844,4311.666504,4252.307617,4247.179688,4431.410156,4461.666504,4329.615234,4408.461426,,,,,,,,,,,,,,,,,,,,,,,,,,,,,,,,,,,,,,,,,,,,,,,,,,,,,,,,,,,,,,,,,,,,,,
1720416619,25,0,4328.846191,4306.153809,4312.307617,4320.256348,4278.589844,4284.871582,4284.871582,4321.922852,4264.615234,4254.743652,4445.769043,4482.820313,4339.615234,4421.666504,,,,,,,,,,,,,,,,,,,,,,,,,,,,,,,,,,,,,,,,,,,,,,,,,,,,,,,,,,,,,,,,,,,,,,
1720416619,26,0,4335.128418,4303.333496,4316.410156,4318.846191,4281.410156,4290,4293.205078,4331.153809,4267.692383,4262.179688,4456.025879,4501.410156,4345,4428.333496,,,,,,,,,,,,,,,,,,,,,,,,,,,,,,,,,,,,,,,,,,,,,,,,,,,,,,,,,,,,,,,,,,,,,,
1720416619,27,0,4326.282227,4297.179688,4305.897461,4309.230957,4282.692383,4294.743652,4287.692383,4331.410156,4270.769043,4260.641113,4448.717773,4487.436035,4337.563965,4419.102539,,,,,,,,,,,,,,,,,,,,,,,,,,,,,,,,,,,,,,,,,,,,,,,,,,,,,,,,,,,,,,,,,,,,,,
1720416619,28,0,4315.897461,4291.666504,4288.846191,4300,4275.256348,4284.743652,4274.871582,4318.846191,4263.717773,4249.358887,4426.794922,4463.717773,4322.563965,4398.974121,,,,,,,,,,,,,,,,,,,,,,,,,,,,,,,,,,,,,,,,,,,,,,,,,,,,,,,,,,,,,,,,,,,,,,
1720416619,29,0,4302.820313,4282.307617,4271.922852,4290.384766,4266.922852,4275.384766,4261.922852,4307.436035,4248.461426,4244.871582,4409.615234,4452.436035,4312.307617,4381.666504,,,,,,,,,,,,,,,,,,,,,,,,,,,,,,,,,,,,,,,,,,,,,,,,,,,,,,,,,,,,,,,,,,,,,,
1720416620,30,0,4285.384766,4277.692383,4262.563965,4286.153809,4270.512695,4280.384766,4258.974121,4303.589844,4252.307617,4249.230957,4410.769043,4441.922852,4313.461426,4375.769043,,,,,,,,,,,,,,,,,,,,,,,,,,,,,,,,,,,,,,,,,,,,,,,,,,,,,,,,,,,,,,,,,,,,,,
1720416620,31,0,4285.641113,4279.102539,4263.461426,4290.769043,4272.436035,4281.794922,4265.897461,4306.794922,4266.666504,4252.179688,4417.563965,4444.230957,4319.487305,4382.436035,,,,,,,,,,,,,,,,,,,,,,,,,,,,,,,,,,,,,,,,,,,,,,,,,,,,,,,,,,,,,,,,,,,,,,
1720416620,32,0,4294.230957,4276.538574,4267.563965,4291.025879,4265.897461,4276.794922,4265.512695,4309.358887,4264.358887,4250,4411.410156,4448.461426,4315.384766,4380.641113,,,,,,,,,,,,,,,,,,,,,,,,,,,,,,,,,,,,,,,,,,,,,,,,,,,,,,,,,,,,,,,,,,,,,,
1720416620,33,0,4299.871582,4282.05127,4277.436035,4292.307617,4271.538574,4284.102539,4264.615234,4307.820313,4257.820313,4247.563965,4411.794922,4448.077148,4311.794922,4376.922852,,,,,,,,,,,,,,,,,,,,,,,,,,,,,,,,,,,,,,,,,,,,,,,,,,,,,,,,,,,,,,,,,,,,,,
1720416620,34,0,4317.94873,4302.05127,4294.358887,4308.974121,4281.666504,4290.897461,4275,4315.384766,4262.307617,4253.461426,4426.922852,4463.333496,4322.692383,4390.384766,,,,,,,,,,,,,,,,,,,,,,,,,,,,,,,,,,,,,,,,,,,,,,,,,,,,,,,,,,,,,,,,,,,,,,
1720416620,35,0,4332.307617,4313.974121,4301.153809,4322.820313,4278.205078,4282.563965,4283.846191,4325.512695,4266.282227,4258.205078,4431.666504,4472.436035,4327.179688,4397.563965,,,,,,,,,,,,,,,,,,,,,,,,,,,,,,,,,,,,,,,,,,,,,,,,,,,,,,,,,,,,,,,,,,,,,,
1720416620,36,0,4330.256348,4309.615234,4298.205078,4319.615234,4275.641113,4277.820313,4278.717773,4319.487305,4263.333496,4252.307617,4421.794922,4460.769043,4318.589844,4389.230957,,,,,,,,,,,,,,,,,,,,,,,,,,,,,,,,,,,,,,,,,,,,,,,,,,,,,,,,,,,,,,,,,,,,,,
1720416620,37,0,4335.897461,4309.230957,4304.487305,4319.615234,4279.230957,4279.743652,4272.563965,4307.436035,4260.256348,4250.512695,4422.692383,4462.820313,4320.512695,4390.512695,,,,,,,,,,,,,,,,,,,,,,,,,,,,,,,,,,,,,,,,,,,,,,,,,,,,,,,,,,,,,,,,,,,,,,
1720416620,38,0,4347.692383,4319.871582,4316.666504,4330,4283.205078,4282.692383,4277.692383,4313.461426,4263.205078,4260.256348,4437.05127,4478.589844,4334.102539,4404.487305,4.641538,1.136893,0.877219,0.36672,0.35802,1.723981,0.971069,1.05784,0.312632,0.223048,1.786277,0.77954,0.841058,0.27549,0.285915,1.507288,1.000033,1.632937,0.314745,0.224114,0.654887,0.33495,0.780124,0.352814,0.16717,0.470718,0.491599,0.753624,0.303782,0.279188,0.727009,0.616168,0.564952,0.365213,0.241271,0.864615,0.351142,0.43202,0.247611,0.231748,0.422381,0.837195,0.760904,0.361398,0.305194,0.681238,0.752398,0.490578,0.196632,0.282605,2.184996,1.272982,0.551952,0.285172,0.375579,1.48986,0.518812,0.344857,0.236405,0.416137,1.462205,1.931899,0.675117,0.196157,0.267099,15.674558,7.616986,2.680562,1.346664,0.783672
1720416620,39,0,4345.384766,4326.025879,4316.410156,4329.615234,4284.743652,4285.384766,4278.589844,4322.307617,4265.512695,4264.358887,4443.589844,4474.487305,4336.153809,4410.256348,,,,,,,,,,,,,,,,,,,,,,,,,,,,,,,,,,,,,,,,,,,,,,,,,,,,,,,,,,,,,,,,,,,,,,
1720416620,40,0,4338.974121,4322.436035,4313.205078,4326.666504,4284.358887,4292.94873,4278.974121,4321.282227,4262.692383,4263.717773,4442.94873,4474.487305,4332.436035,4412.179688,,,,,,,,,,,,,,,,,,,,,,,,,,,,,,,,,,,,,,,,,,,,,,,,,,,,,,,,,,,,,,,,,,,,,,
1720416620,41,0,4332.307617,4316.666504,4316.410156,4331.538574,4287.692383,4306.153809,4289.615234,4324.102539,4265.769043,4265.897461,4445.256348,4486.794922,4335.641113,4414.615234,,,,,,,,,,,,,,,,,,,,,,,,,,,,,,,,,,,,,,,,,,,,,,,,,,,,,,,,,,,,,,,,,,,,,,
1720416620,42,0,4308.974121,4303.589844,4310.256348,4321.410156,4284.102539,4302.94873,4288.974121,4326.794922,4273.589844,4262.307617,4443.333496,4484.871582,4339.743652,4415.769043,,,,,,,,,,,,,,,,,,,,,,,,,,,,,,,,,,,,,,,,,,,,,,,,,,,,,,,,,,,,,,,,,,,,,,
1720416620,43,0,4288.205078,4293.717773,4297.94873,4305.512695,4276.025879,4283.077148,4277.563965,4325.641113,4277.05127,4260.256348,4436.922852,4474.871582,4339.358887,4418.589844,,,,,,,,,,,,,,,,,,,,,,,,,,,,,,,,,,,,,,,,,,,,,,,,,,,,,,,,,,,,,,,,,,,,,,
1720416620,44,0,4289.615234,4299.102539,4294.615234,4309.615234,4273.589844,4276.922852,4276.538574,4322.307617,4272.820313,4260.128418,4431.922852,4469.230957,4333.333496,4413.589844,,,,,,,,,,,,,,,,,,,,,,,,,,,,,,,,,,,,,,,,,,,,,,,,,,,,,,,,,,,,,,,,,,,,,,
