Timestamp,EEG.Counter,EEG.Interpolated,EEG.AF3,EEG.F7,EEG.F3,EEG.FC5,EEG.T7,EEG.P7,EEG.O1,EEG.O2,EEG.P8,EEG.T8,EEG.FC6,EEG.F4,EEG.F8,EEG.AF4,POW.AF3.Theta,POW.AF3.Alpha,POW.AF3.BetaL,POW.AF3.BetaH,POW.AF3.Gamma,POW.F7.Theta,POW.F7.Alpha,POW.F7.BetaL,POW.F7.BetaH,POW.F7.Gamma,POW.F3.Theta,POW.F3.Alpha,POW.F3.BetaL,POW.F3.BetaH,POW.F3.Gamma,POW.FC5.Theta,POW.FC5.Alpha,POW.FC5.BetaL,POW.FC5.BetaH,POW.FC5.Gamma,POW.T7.Theta,POW.T7.Alpha,POW.T7.BetaL,POW.T7.BetaH,POW.T7.Gamma,POW.P7.Theta,POW.P7.Alpha,POW.P7.BetaL,POW.P7.BetaH,POW.P7.Gamma,POW.O1.Theta,POW.O1.Alpha,POW.O1.BetaL,POW.O1.BetaH,POW.O1.Gamma,POW.O2.Theta,POW.O2.Alpha,POW.O2.BetaL,POW.O2.BetaH,POW.O2.Gamma,POW.P8.Theta,POW.P8.Alpha,POW.P8.BetaL,POW.P8.BetaH,POW.P8.Gamma,POW.T8.Theta,POW.T8.Alpha,POW.T8.BetaL,POW.T8.BetaH,POW.T8.Gamma,POW.FC6.Theta,POW.FC6.Alpha,POW.FC6.BetaL,POW.FC6.BetaH,POW.FC6.Gamma,POW.F4.Theta,POW.F4.Alpha,POW.F4.BetaL,POW.F4.BetaH,POW.F4.Gamma,POW.F8.Theta,POW.F8.Alpha,POW.F8.BetaL,POW.F8.BetaH,POW.F8.Gamma,POW.AF4.Theta,POW.AF4.Alpha,POW.AF4.BetaL,POW.AF4.BetaH,POW.AF4.Gamma
1720517972,85,0,4291.666504,4281.410156,4317.307617,4294.487305,4267.563965,4266.025879,4263.974121,4277.94873,4219.487305,4191.282227,4462.307617,4432.820313,4374.230957,4424.743652,,,,,,,,,,,,,,,,,,,,,,,,,,,,,,,,,,,,,,,,,,,,,,,,,,,,,,,,,,,,,,,,,,,,,,
1720517972,86,0,4294.102539,4281.666504,4317.692383,4295.897461,4265.128418,4263.589844,4260.512695,4277.820313,4217.692383,4194.487305,4464.615234,4433.333496,4369.358887,4424.871582,,,,,,,,,,,,,,,,,,,,,,,,,,,,,,,,,,,,,,,,,,,,,,,,,,,,,,,,,,,,,,,,,,,,,,
1720517972,87,0,4293.461426,4277.307617,4315.384766,4292.692383,4265.256348,4262.563965,4260.128418,4273.974121,4214.615234,4198.589844,4462.307617,4431.025879,4370,4421.410156,,,,,,,,,,,,,,,,,,,,,,,,,,,,,,,,,,,,,,,,,,,,,,,,,,,,,,,,,,,,,,,,,,,,,,
1720517972,88,0,4292.820313,4277.94873,4317.820313,4292.563965,4267.563965,4263.461426,4261.794922,4274.230957,4212.563965,4203.077148,4460.128418,4434.487305,4368.589844,4422.563965,,,,,,,,,,,,,,,,,,,,,,,,,,,,,,,,,,,,,,,,,,,,,,,,,,,,,,,,,,,,,,,,,,,,,,
1720517972,89,0,4293.461426,4279.743652,4317.563965,4295.256348,4267.820313,4262.563965,4261.153809,4273.077148,4213.333496,4203.333496,4458.974121,4430.128418,4368.589844,4422.94873,,,,,,,,,,,,,,,,,,,,,,,,,,,,,,,,,,,,,,,,,,,,,,,,,,,,,,,,,,,,,,,,,,,,,,
1720517972,90,0,4290.769043,4279.615234,4313.974121,4294.743652,4266.410156,4260.897461,4261.922852,4275.128418,4213.205078,4202.94873,4460.512695,4430.384766,4368.974121,4424.487305,,,,,,,,,,,,,,,,,,,,,,,,,,,,,,,,,,,,,,,,,,,,,,,,,,,,,,,,,,,,,,,,,,,,,,
1720517972,91,0,4293.974121,4286.153809,4320.769043,4299.743652,4266.025879,4264.358887,4265.512695,4282.436035,4213.974121,4210.256348,4468.333496,4446.666504,4371.282227,4433.205078,,,,,,,,,,,,,,,,,,,,,,,,,,,,,,,,,,,,,,,,,,,,,,,,,,,,,,,,,,,,,,,,,,,,,,
1720517972,92,0,4298.077148,4286.538574,4320.512695,4301.538574,4267.307617,4268.846191,4266.794922,4279.358887,4217.820313,4208.974121,4467.820313,4438.717773,4380.128418,4429.615234,,,,,,,,,,,,,,,,,,,,,,,,,,,,,,,,,,,,,,,,,,,,,,,,,,,,,,,,,,,,,,,,,,,,,,
1720517972,93,0,4285.384766,4270.128418,4310.256348,4294.871582,4267.692383,4265.256348,4263.589844,4276.153809,4214.102539,4198.717773,4459.102539,4427.692383,4376.922852,4421.538574,,,,,,,,,,,,,,,,,,,,,,,,,,,,,,,,,,,,,,,,,,,,,,,,,,,,,,,,,,,,,,,,,,,,,,
1720517972,94,0,4273.717773,4262.436035,4308.717773,4293.461426,4264.615234,4262.307617,4261.794922,4280.769043,4211.025879,4200,4455.512695,4436.538574,4358.333496,4421.282227,,,,,,,,,,,,,,,,,,,,,,,,,,,,,,,,,,,,,,,,,,,,,,,,,,,,,,,,,,,,,,,,,,,,,,
1720517972,95,0,4281.282227,4273.589844,4308.461426,4298.077148,4263.333496,4266.410156,4263.589844,4280,4221.794922,4204.743652,4454.102539,4430.897461,4355.384766,4415,,,,,,,,,,,,,,,,,,,,,,,,,,,,,,,,,,,,,,,,,,,,,,,,,,,,,,,,,,,,,,,,,,,,,,
1720517972,96,0,4282.692383,4271.410156,4306.410156,4296.538574,4264.743652,4266.025879,4264.615234,4277.436035,4228.974121,4206.666504,4459.358887,4431.153809,4369.615234,4417.820313,0.376355,0.709732,0.225863,0.257015,0.182504,0.392644,0.538289,0.189349,0.232111,0.186149,0.216083,0.267433,0.172293,0.10154,0.150544,0.706157,0.380742,0.167667,0.191487,0.129442,0.275171,0.205988,0.124345,0.13663,0.123461,0.518293,0.466204,0.054807,0.098242,0.054395,0.653536,0.331243,0.141033,0.200013,0.106438,0.399879,0.239,0.056055,0.07898,0.077011,0.682807,2.393101,0.272561,0.281659,0.173327,2.552842,0.444611,0.775016,0.260029,0.170844,0.397221,0.455996,0.206187,0.13912,0.153396,1.03232,0.236359,0.264777,0.180352,0.27895,0.780304,0.732455,0.217703,0.471367,0.364137,0.617099,0.89168,0.228241,0.173158,0.272247
1720517972,97,0,4278.717773,4261.922852,4309.615234,4292.563965,4265,4262.179688,4261.666504,4276.922852,4228.717773,4209.487305,4467.179688,4437.563965,4376.794922,4425.897461,,,,,,,,,,,,,,,,,,,,,,,,,,,,,,,,,,,,,,,,,,,,,,,,,,,,,,,,,,,,,,,,,,,,,,
1720517972,98,0,4289.358887,4271.922852,4313.461426,4291.794922,4265.128418,4262.820313,4261.410156,4277.820313,4229.358887,4210,4466.922852,4434.615234,4371.922852,4426.410156,,,,,,,,,,,,,,,,,,,,,,,,,,,,,,,,,,,,,,,,,,,,,,,,,,,,,,,,,,,,,,,,,,,,,,
1720517972,99,0,4297.05127,4282.179688,4316.794922,4293.205078,4265.128418,4265.512695,4264.743652,4278.717773,4225.384766,4205.512695,4464.487305,4437.307617,4363.205078,4428.461426,,,,,,,,,,,,,,,,,,,,,,,,,,,,,,,,,,,,,,,,,,,,,,,,,,,,,,,,,,,,,,,,,,,,,,
1720517972,100,0,4292.94873,4277.436035,4317.94873,4296.282227,4265,4265.128418,4265.128418,4276.922852,4218.717773,4203.846191,4465.256348,4437.436035,4370.512695,4430.128418,,,,,,,,,,,,,,,,,,,,,,,,,,,,,,,,,,,,,,,,,,,,,,,,,,,,,,,,,,,,,,,,,,,,,,
1720517972,101,0,4292.05127,4273.461426,4318.333496,4293.846191,4264.358887,4263.333496,4261.922852,4276.410156,4216.282227,4207.692383,4467.820313,4436.282227,4384.743652,4430,,,,,,,,,,,,,,,,,,,,,,,,,,,,,,,,,,,,,,,,,,,,,,,,,,,,,,,,,,,,,,,,,,,,,,
1720517972,102,0,4292.692383,4280.769043,4318.846191,4295.256348,4266.410156,4263.461426,4261.666504,4278.333496,4216.410156,4204.871582,4468.846191,4439.743652,4380.128418,4427.563965,,,,,,,,,,,,,,,,,,,,,,,,,,,,,,,,,,,,,,,,,,,,,,,,,,,,,,,,,,,,,,,,,,,,,,
1720517972,103,0,4283.846191,4278.717773,4316.922852,4300.512695,4266.666504,4264.358887,4264.230957,4277.94873,4219.615234,4199.102539,4468.461426,4438.589844,4371.666504,4422.307617,,,,,,,,,,,,,,,,,,,,,,,,,,,,,,,,,,,,,,,,,,,,,,,,,,,,,,,,,,,,,,,,,,,,,,
1720517972,104,0,4276.538574,4269.102539,4315,4297.692383,4265.641113,4265.128418,4264.615234,4277.820313,4230.897461,4208.077148,4471.922852,4439.871582,4377.692383,4425.128418,,,,,,,,,,,,,,,,,,,,,,,,,,,,,,,,,,,,,,,,,,,,,,,,,,,,,,,,,,,,,,,,,,,,,,
1720517972,105,0,4282.307617,4272.94873,4314.743652,4297.05127,4270.256348,4266.025879,4264.358887,4280.256348,4231.538574,4216.922852,4472.94873,4441.794922,4376.282227,4429.230957,,,,,,,,,,,,,,,,,,,,,,,,,,,,,,,,,,,,,,,,,,,,,,,,,,,,,,,,,,,,,,,,,,,,,,
1720517972,106,0,4285.384766,4277.692383,4308.077148,4304.743652,4275.128418,4266.666504,4266.666504,4276.410156,4220.769043,4208.205078,4463.589844,4426.922852,4366.666504,4413.589844,,,,,,,,,,,,,,,,,,,,,,,,,,,,,,,,,,,,,,,,,,,,,,,,,,,,,,,,,,,,,,,,,,,,,,
1720517972,107,0,4286.666504,4275.897461,4311.282227,4310.512695,4276.410156,4269.102539,4272.05127,4279.743652,4222.307617,4205.769043,4465.769043,4433.974121,4370.512695,4414.743652,,,,,,,,,,,,,,,,,,,,,,,,,,,,,,,,,,,,,,,,,,,,,,,,,,,,,,,,,,,,,,,,,,,,,,
1720517972,108,0,4292.307617,4280.256348,4320.384766,4310.769043,4278.974121,4277.820313,4278.333496,4289.358887,4234.615234,4217.05127,4473.205078,4450.641113,4368.333496,4426.922852,,,,,,,,,,,,,,,,,,,,,,,,,,,,,,,,,,,,,,,,,,,,,,,,,,,,,,,,,,,,,,,,,,,,,,
1720517972,109,0,4287.307617,4279.102539,4309.615234,4309.487305,4279.743652,4277.179688,4277.307617,4283.461426,4237.307617,4217.05127,4461.282227,4428.205078,4357.692383,4409.230957,,,,,,,,,,,,,,,,,,,,,,,,,,,,,,,,,,,,,,,,,,,,,,,,,,,,,,,,,,,,,,,,,,,,,,
1720517972,110,0,4278.589844,4269.230957,4306.666504,4308.077148,4275,4266.538574,4273.846191,4280.512695,4232.563965,4217.692383,4457.436035,4425.897461,4366.410156,4408.077148,,,,,,,,,,,,,,,,,,,,,,,,,,,,,,,,,,,,,,,,,,,,,,,,,,,,,,,,,,,,,,,,,,,,,,
1720517972,111,0,4288.333496,4273.974121,4318.333496,4310.512695,4277.179688,4270.512695,4278.333496,4284.358887,4235.769043,4221.153809,4471.794922,4442.692383,4379.358887,4422.307617,,,,,,,,,,,,,,,,,,,,,,,,,,,,,,,,,,,,,,,,,,,,,,,,,,,,,,,,,,,,,,,,,,,,,,
1720517972,112,0,4298.205078,4283.077148,4317.820313,4314.487305,4285.256348,4281.794922,4282.820313,4283.205078,4237.820313,4213.589844,4471.794922,4435,4371.922852,4414.743652,0.391197,0.650014,0.2762,0.256896,0.187316,0.284852,0.492655,0.194634,0.219565,0.203982,0.264257,0.288994,0.177386,0.115796,0.14745,0.995653,0.372066,0.22391,0.186236,0.14096,0.251389,0.183447,0.143792,0.135909,0.144083,0.487907,0.375075,0.070878,0.086381,0.061368,0.652604,0.285423,0.141109,0.197481,0.127981,0.365053,0.245033,0.052202,0.059142,0.083507,1.158014,2.677986,0.307179,0.282849,0.196376,3.274911,0.408926,0.926805,0.308624,0.197716,0.395429,0.5374,0.199807,0.142211,0.172638,0.924178,0.306749,0.258977,0.165475,0.2836,0.717658,0.740244,0.245304,0.43932,0.436891,0.601258,0.906812,0.210624,0.175929,0.273068
1720517972,113,0,4287.436035,4278.974121,4314.102539,4312.820313,4283.589844,4280.641113,4280.384766,4282.820313,4231.794922,4208.205078,4465.128418,4427.436035,4359.743652,4411.282227,,,,,,,,,,,,,,,,,,,,,,,,,,,,,,,,,,,,,,,,,,,,,,,,,,,,,,,,,,,,,,,,,,,,,,
1720517972,114,0,4277.179688,4277.307617,4313.333496,4311.538574,4280.641113,4277.05127,4278.846191,4284.230957,4227.820313,4207.436035,4466.025879,4421.025879,4356.282227,4413.974121,,,,,,,,,,,,,,,,,,,,,,,,,,,,,,,,,,,,,,,,,,,,,,,,,,,,,,,,,,,,,,,,,,,,,,
1720517972,115,0,4279.358887,4280.128418,4310.769043,4312.692383,4284.871582,4280.512695,4281.666504,4284.615234,4229.615234,4209.102539,4467.307617,4416.153809,4361.282227,4411.153809,,,,,,,,,,,,,,,,,,,,,,,,,,,,,,,,,,,,,,,,,,,,,,,,,,,,,,,,,,,,,,,,,,,,,,
1720517972,116,0,4286.922852,4283.333496,4313.077148,4315.384766,4287.436035,4282.307617,4281.282227,4282.692383,4234.102539,4218.846191,4468.461426,4419.358887,4372.820313,4413.461426,,,,,,,,,,,,,,,,,,,,,,,,,,,,,,,,,,,,,,,,,,,,,,,,,,,,,,,,,,,,,,,,,,,,,,
1720517972,117,0,4296.922852,4296.282227,4319.102539,4320.641113,4290.384766,4280.769043,4278.717773,4281.025879,4235.384766,4220.769043,4468.589844,4418.974121,4373.333496,4417.820313,,,,,,,,,,,,,,,,,,,,,,,,,,,,,,,,,,,,,,,,,,,,,,,,,,,,,,,,,,,,,,,,,,,,,,
1720517972,118,0,4293.589844,4297.692383,4316.153809,4320.512695,4293.589844,4279.487305,4278.205078,4283.333496,4232.820313,4213.461426,4466.410156,4414.743652,4366.666504,4414.102539,,,,,,,,,,,,,,,,,,,,,,,,,,,,,,,,,,,,,,,,,,,,,,,,,,,,,,,,,,,,,,,,,,,,,,
1720517972,119,0,4282.307617,4281.538574,4316.538574,4313.205078,4291.153809,4278.205078,4279.102539,4287.436035,4231.153809,4217.436035,4469.102539,4420.769043,4373.846191,4418.333496,,,,,,,,,,,,,,,,,,,,,,,,,,,,,,,,,,,,,,,,,,,,,,,,,,,,,,,,,,,,,,,,,,,,,,
1720517972,120,0,4289.102539,4281.410156,4317.94873,4310.256348,4289.871582,4279.615234,4278.589844,4281.025879,4231.410156,4220.641113,4469.487305,4416.666504,4377.94873,4420.128418,,,,,,,,,,,,,,,,,,,,,,,,,,,,,,,,,,,,,,,,,,,,,,,,,,,,,,,,,,,,,,,,,,,,,,
1720517972,121,0,4297.436035,4292.563965,4314.102539,4310.769043,4286.538574,4278.717773,4275,4273.846191,4229.615234,4215.384766,4463.846191,4411.282227,4370.512695,4412.179688,,,,,,,,,,,,,,,,,,,,,,,,,,,,,,,,,,,,,,,,,,,,,,,,,,,,,,,,,,,,,,,,,,,,,,
1720517972,122,0,4286.282227,4286.025879,4316.410156,4309.487305,4277.05127,4277.436035,4273.205078,4281.794922,4229.230957,4218.205078,4464.487305,4426.666504,4366.922852,4414.487305,,,,,,,,,,,,,,,,,,,,,,,,,,,,,,,,,,,,,,,,,,,,,,,,,,,,,,,,,,,,,,,,,,,,,,
1720517972,123,0,4276.153809,4274.102539,4312.05127,4307.436035,4275.128418,4278.846191,4270.897461,4279.487305,4232.05127,4217.820313,4460.256348,4420.897461,4361.282227,4408.974121,,,,,,,,,,,,,,,,,,,,,,,,,,,,,,,,,,,,,,,,,,,,,,,,,,,,,,,,,,,,,,,,,,,,,,
1720517972,124,0,4279.102539,4279.230957,4303.974121,4302.307617,4280.256348,4278.461426,4266.410156,4269.358887,4226.538574,4212.692383,4451.153809,4412.179688,4355.128418,4400.384766,,,,,,,,,,,,,,,,,,,,,,,,,,,,,,,,,,,,,,,,,,,,,,,,,,,,,,,,,,,,,,,,,,,,,,
1720517972,125,0,4277.436035,4279.102539,4305.769043,4298.205078,4277.436035,4275.256348,4266.922852,4271.282227,4219.358887,4213.205078,4453.077148,4417.692383,4363.077148,4405.128418,,,,,,,,,,,,,,,,,,,,,,,,,,,,,,,,,,,,,,,,,,,,,,,,,,,,,,,,,,,,,,,,,,,,,,
1720517972,126,0,4268.717773,4264.102539,4305,4296.794922,4273.205078,4273.333496,4268.077148,4275.897461,4223.077148,4215.512695,4456.794922,4412.05127,4370.641113,4405.256348,,,,,,,,,,,,,,,,,,,,,,,,,,,,,,,,,,,,,,,,,,,,,,,,,,,,,,,,,,,,,,,,,,,,,,
1720517972,127,0,4263.974121,4265.128418,4298.205078,4293.589844,4274.871582,4273.717773,4267.436035,4276.153809,4229.487305,4216.153809,4453.077148,4408.974121,4361.666504,4398.846191,,,,,,,,,,,,,,,,,,,,,,,,,,,,,,,,,,,,,,,,,,,,,,,,,,,,,,,,,,,,,,,,,,,,,,
1720517972,0,0,4266.538574,4279.230957,4300.256348,4297.563965,4278.461426,4277.563965,4273.589844,4275.512695,4231.666504,4217.179688,4453.205078,4415,4356.794922,4395.256348,0.406399,0.634266,0.353009,0.264584,0.191385,0.244441,0.459273,0.216422,0.215507,0.218414,0.338699,0.312222,0.188464,0.128812,0.14216,1.321776,0.353839,0.309616,0.182887,0.146426,0.231962,0.160485,0.171209,0.133489,0.162335,0.413854,0.26668,0.102181,0.072998,0.068611,0.64008,0.253765,0.174129,0.192641,0.144125,0.316978,0.246433,0.059623,0.046794,0.092936,2.413227,3.085323,0.43242,0.327162,0.229897,3.963434,0.466066,1.026567,0.366222,0.230838,0.387366,0.574534,0.197945,0.15095,0.193502,0.807208,0.395448,0.258729,0.159796,0.295462,0.668948,0.701361,0.297464,0.408013,0.503737,0.550501,0.854628,0.201814,0.183941,0.270682
1720517972,1,0,4270.256348,4275.641113,4306.538574,4302.05127,4281.153809,4283.974121,4278.589844,4278.077148,4234.871582,4218.717773,4461.025879,4419.358887,4367.179688,4398.846191,,,,,,,,,,,,,,,,,,,,,,,,,,,,,,,,,,,,,,,,,,,,,,,,,,,,,,,,,,,,,,,,,,,,,,
1720517972,2,0,4263.077148,4258.333496,4298.077148,4288.846191,4277.436035,4278.205078,4268.974121,4280,4231.666504,4219.230957,4459.102539,4415.128418,4366.282227,4398.077148,,,,,,,,,,,,,,,,,,,,,,,,,,,,,,,,,,,,,,,,,,,,,,,,,,,,,,,,,,,,,,,,,,,,,,
1720517972,3,0,4261.025879,4263.461426,4295.512695,4281.282227,4274.487305,4266.410156,4260.641113,4274.871582,4219.358887,4212.692383,4447.94873,4410.897461,4347.05127,4391.538574,,,,,,,,,,,,,,,,,,,,,,,,,,,,,,,,,,,,,,,,,,,,,,,,,,,,,,,,,,,,,,,,,,,,,,
1720517972,4,0,4276.922852,4278.077148,4313.461426,4294.743652,4277.692383,4270.128418,4263.846191,4269.102539,4212.563965,4205.769043,4446.538574,4418.717773,4343.974121,4397.05127,,,,,,,,,,,,,,,,,,,,,,,,,,,,,,,,,,,,,,,,,,,,,,,,,,,,,,,,,,,,,,,,,,,,,,
1720517972,5,0,4284.358887,4272.94873,4326.410156,4299.102539,4279.358887,4276.410156,4265,4271.538574,4215,4211.922852,4456.538574,4429.358887,4363.717773,4407.436035,,,,,,,,,,,,,,,,,,,,,,,,,,,,,,,,,,,,,,,,,,,,,,,,,,,,,,,,,,,,,,,,,,,,,,
1720517972,6,0,4274.102539,4267.179688,4317.307617,4289.358887,4277.563965,4268.846191,4260.384766,4269.230957,4216.153809,4212.307617,4454.358887,4410.128418,4365.897461,4395.897461,,,,,,,,,,,,,,,,,,,,,,,,,,,,,,,,,,,,,,,,,,,,,,,,,,,,,,,,,,,,,,,,,,,,,,
1720517972,7,0,4271.025879,4275.769043,4306.794922,4290,4276.794922,4262.436035,4258.333496,4264.230957,4215,4206.025879,4443.205078,4404.487305,4348.846191,4390.641113,,,,,,,,,,,,,,,,,,,,,,,,,,,,,,,,,,,,,,,,,,,,,,,,,,,,,,,,,,,,,,,,,,,,,,
1720517972,8,0,4276.538574,4279.871582,4302.563965,4295.512695,4276.922852,4265,4260.512695,4273.333496,4221.922852,4211.025879,4451.282227,4432.05127,4351.410156,4409.358887,,,,,,,,,,,,,,,,,,,,,,,,,,,,,,,,,,,,,,,,,,,,,,,,,,,,,,,,,,,,,,,,,,,,,,
1720517972,9,0,4276.538574,4273.589844,4292.820313,4290.384766,4277.820313,4265.769043,4262.436035,4275.769043,4229.871582,4212.179688,4460.256348,4424.102539,4368.461426,4407.692383,,,,,,,,,,,,,,,,,,,,,,,,,,,,,,,,,,,,,,,,,,,,,,,,,,,,,,,,,,,,,,,,,,,,,,
1720517972,10,0,4276.025879,4271.538574,4290.512695,4281.794922,4278.846191,4266.153809,4260.128418,4271.282227,4225,4209.487305,4456.282227,4415.128418,4370.128418,4399.487305,,,,,,,,,,,,,,,,,,,,,,,,,,,,,,,,,,,,,,,,,,,,,,,,,,,,,,,,,,,,,,,,,,,,,,
1720517972,11,0,4277.94873,4275.128418,4291.153809,4277.563965,4277.179688,4266.410156,4254.487305,4271.282227,4215.384766,4210.512695,4451.153809,4423.589844,4354.487305,4403.205078,,,,,,,,,,,,,,,,,,,,,,,,,,,,,,,,,,,,,,,,,,,,,,,,,,,,,,,,,,,,,,,,,,,,,,
1720517972,12,0,4281.410156,4278.717773,4286.794922,4278.717773,4277.436035,4263.589844,4247.307617,4269.743652,4215,4207.179688,4451.666504,4414.871582,4345.897461,4403.974121,,,,,,,,,,,,,,,,,,,,,,,,,,,,,,,,,,,,,,,,,,,,,,,,,,,,,,,,,,,,,,,,,,,,,,
1720517972,13,0,4282.05127,4276.410156,4291.410156,4281.538574,4279.743652,4264.743652,4250.256348,4269.102539,4218.205078,4208.333496,4460,4417.563965,4358.974121,4411.538574,,,,,,,,,,,,,,,,,,,,,,,,,,,,,,,,,,,,,,,,,,,,,,,,,,,,,,,,,,,,,,,,,,,,,,
1720517972,14,0,4278.589844,4267.436035,4293.077148,4279.487305,4278.077148,4266.538574,4256.410156,4270.256348,4217.436035,4214.743652,4461.282227,4426.025879,4368.846191,4411.666504,,,,,,,,,,,,,,,,,,,,,,,,,,,,,,,,,,,,,,,,,,,,,,,,,,,,,,,,,,,,,,,,,,,,,,
1720517972,15,0,4277.820313,4265.769043,4289.358887,4278.205078,4271.410156,4264.102539,4252.692383,4269.230957,4216.410156,4213.461426,4459.615234,4419.615234,4361.922852,4406.410156,,,,,,,,,,,,,,,,,,,,,,,,,,,,,,,,,,,,,,,,,,,,,,,,,,,,,,,,,,,,,,,,,,,,,,
1720517972,16,0,4280.769043,4275.256348,4292.692383,4286.538574,4273.461426,4263.077148,4253.974121,4268.205078,4216.794922,4204.487305,4461.153809,4416.282227,4357.179688,4409.871582,0.394169,0.675145,0.447539,0.265433,0.193928,0.24173,0.444449,0.247968,0.21402,0.228837,0.428028,0.338864,0.205381,0.137137,0.136249,1.575666,0.335488,0.409227,0.177986,0.144442,0.225467,0.146883,0.199169,0.127028,0.173239,0.328795,0.167678,0.14151,0.062528,0.075695,0.630405,0.240746,0.237726,0.180769,0.151772,0.272539,0.247121,0.08016,0.041623,0.103283,4.599888,3.75125,0.62209,0.397153,0.265287,4.416966,0.591862,1.037712,0.414013,0.26237,0.3816,0.555943,0.200673,0.164488,0.209332,0.716877,0.483143,0.260437,0.15538,0.309895,0.644981,0.621821,0.366714,0.380661,0.551219,0.476729,0.752228,0.205934,0.192452,0.263617
1720517972,17,0,4283.077148,4280,4297.05127,4292.05127,4284.230957,4267.179688,4263.205078,4268.846191,4217.05127,4198.077148,4455.769043,4417.563965,4360.769043,4405.641113,,,,,,,,,,,,,,,,,,,,,,,,,,,,,,,,,,,,,,,,,,,,,,,,,,,,,,,,,,,,,,,,,,,,,,
1720517972,18,0,4281.282227,4271.538574,4292.820313,4284.358887,4285.769043,4270.128418,4262.179688,4270,4217.436035,4197.05127,4449.487305,4414.487305,4360.128418,4397.820313,,,,,,,,,,,,,,,,,,,,,,,,,,,,,,,,,,,,,,,,,,,,,,,,,,,,,,,,,,,,,,,,,,,,,,
1720517972,19,0,4275.641113,4262.563965,4286.794922,4277.179688,4278.461426,4268.077148,4253.461426,4270.512695,4221.282227,4203.717773,4450.769043,4412.94873,4349.487305,4395.128418,,,,,,,,,,,,,,,,,,,,,,,,,,,,,,,,,,,,,,,,,,,,,,,,,,,,,,,,,,,,,,,,,,,,,,
1720517972,20,0,4274.487305,4262.94873,4286.666504,4280.128418,4278.205078,4268.461426,4258.846191,4268.974121,4230.128418,4209.230957,4449.230957,4404.743652,4340.384766,4385.128418,,,,,,,,,,,,,,,,,,,,,,,,,,,,,,,,,,,,,,,,,,,,,,,,,,,,,,,,,,,,,,,,,,,,,,
1720517972,21,0,4277.307617,4264.743652,4289.102539,4283.461426,4279.487305,4271.410156,4263.461426,4270.384766,4231.153809,4211.666504,4445,4406.410156,4341.410156,4383.846191,,,,,,,,,,,,,,,,,,,,,,,,,,,,,,,,,,,,,,,,,,,,,,,,,,,,,,,,,,,,,,,,,,,,,,
1720517972,22,0,4275,4260.384766,4288.077148,4279.358887,4271.794922,4266.282227,4252.94873,4271.538574,4217.94873,4216.794922,4448.974121,4419.102539,4344.871582,4397.563965,,,,,,,,,,,,,,,,,,,,,,,,,,,,,,,,,,,,,,,,,,,,,,,,,,,,,,,,,,,,,,,,,,,,,,
1720517972,23,0,4275.128418,4262.307617,4286.410156,4279.743652,4272.307617,4264.487305,4252.179688,4267.692383,4216.153809,4218.205078,4450.128418,4406.025879,4344.615234,4393.846191,,,,,,,,,,,,,,,,,,,,,,,,,,,,,,,,,,,,,,,,,,,,,,,,,,,,,,,,,,,,,,,,,,,,,,
1720517972,24,0,4282.94873,4272.94873,4295.512695,4287.563965,4286.794922,4277.436035,4264.615234,4275,4230.256348,4220.128418,4452.436035,4412.563965,4350.256348,4395.128418,,,,,,,,,,,,,,,,,,,,,,,,,,,,,,,,,,,,,,,,,,,,,,,,,,,,,,,,,,,,,,,,,,,,,,
1720517972,25,0,4283.333496,4279.102539,4299.743652,4292.820313,4291.025879,4281.666504,4269.230957,4284.230957,4230.641113,4222.307617,4456.025879,4428.333496,4355.512695,4402.563965,,,,,,,,,,,,,,,,,,,,,,,,,,,,,,,,,,,,,,,,,,,,,,,,,,,,,,,,,,,,,,,,,,,,,,
1720517972,26,0,4276.410156,4274.102539,4292.94873,4292.179688,4283.205078,4269.358887,4263.717773,4275.128418,4217.05127,4221.025879,4450.897461,4415.769043,4350.769043,4397.820313,,,,,,,,,,,,,,,,,,,,,,,,,,,,,,,,,,,,,,,,,,,,,,,,,,,,,,,,,,,,,,,,,,,,,,
1720517972,27,0,4276.410156,4266.153809,4296.025879,4291.666504,4278.077148,4263.717773,4261.666504,4267.94873,4215.384766,4224.230957,4452.436035,4414.102539,4349.871582,4405,,,,,,,,,,,,,,,,,,,,,,,,,,,,,,,,,,,,,,,,,,,,,,,,,,,,,,,,,,,,,,,,,,,,,,
1720517972,28,0,4281.666504,4269.743652,4298.589844,4292.692383,4279.743652,4266.538574,4260.512695,4274.102539,4227.563965,4219.230957,4453.974121,4416.153809,4352.436035,4404.102539,,,,,,,,,,,,,,,,,,,,,,,,,,,,,,,,,,,,,,,,,,,,,,,,,,,,,,,,,,,,,,,,,,,,,,
1720517972,29,0,4281.794922,4271.794922,4295.128418,4291.794922,4277.179688,4266.025879,4258.461426,4276.538574,4233.333496,4211.922852,4451.282227,4420.384766,4349.102539,4399.615234,,,,,,,,,,,,,,,,,,,,,,,,,,,,,,,,,,,,,,,,,,,,,,,,,,,,,,,,,,,,,,,,,,,,,,
1720517972,30,0,4275.641113,4268.205078,4296.025879,4292.307617,4267.436035,4263.846191,4259.743652,4269.743652,4230.384766,4212.05127,4449.743652,4424.871582,4345.384766,4408.077148,,,,,,,,,,,,,,,,,,,,,,,,,,,,,,,,,,,,,,,,,,,,,,,,,,,,,,,,,,,,,,,,,,,,,,
1720517972,31,0,4275.256348,4271.794922,4298.589844,4293.461426,4266.410156,4262.307617,4258.589844,4263.974121,4228.461426,4209.358887,4445.128418,4416.410156,4342.436035,4407.436035,,,,,,,,,,,,,,,,,,,,,,,,,,,,,,,,,,,,,,,,,,,,,,,,,,,,,,,,,,,,,,,,,,,,,,
1720517972,32,0,4281.282227,4273.717773,4298.461426,4292.436035,4277.94873,4263.589844,4258.717773,4268.589844,4230.641113,4210.641113,4445.256348,4416.538574,4337.820313,4405,0.357518,0.758615,0.545226,0.253222,0.197297,0.254973,0.447549,0.278334,0.211804,0.238003,0.493806,0.379194,0.227017,0.139532,0.130773,1.677146,0.322367,0.494166,0.169366,0.136078,0.238133,0.146609,0.221156,0.116351,0.172745,0.257118,0.095467,0.178974,0.058102,0.082468,0.640608,0.243136,0.31707,0.161001,0.150211,0.244874,0.246974,0.111134,0.041483,0.111519,7.364389,4.655349,0.823915,0.473429,0.290826,4.432292,0.737696,0.960438,0.43759,0.283404,0.376882,0.492644,0.203901,0.181103,0.214793,0.657553,0.548514,0.259142,0.147462,0.321283,0.634097,0.525313,0.437368,0.359938,0.572277,0.405921,0.628045,0.220925,0.196538,0.251219
1720517972,33,0,4278.333496,4270.128418,4297.05127,4292.05127,4281.538574,4266.538574,4261.282227,4273.589844,4229.230957,4216.666504,4450.384766,4424.230957,4336.282227,4409.743652,,,,,,,,,,,,,,,,,,,,,,,,,,,,,,,,,,,,,,,,,,,,,,,,,,,,,,,,,,,,,,,,,,,,,,
1720517972,34,0,4278.077148,4275.256348,4295.256348,4293.205078,4277.05127,4269.102539,4262.820313,4271.538574,4229.230957,4211.153809,4451.922852,4414.871582,4342.436035,4408.846191,,,,,,,,,,,,,,,,,,,,,,,,,,,,,,,,,,,,,,,,,,,,,,,,,,,,,,,,,,,,,,,,,,,,,,
1720517972,35,0,4291.282227,4284.102539,4299.615234,4297.692383,4281.794922,4273.846191,4265.128418,4275.512695,4241.025879,4211.794922,4456.282227,4416.410156,4356.153809,4411.794922,,,,,,,,,,,,,,,,,,,,,,,,,,,,,,,,,,,,,,,,,,,,,,,,,,,,,,,,,,,,,,,,,,,,,,
1720517972,36,0,4298.974121,4280.769043,4309.871582,4301.666504,4285.769043,4276.282227,4267.820313,4285.897461,4250,4239.102539,4465.897461,4445,4364.230957,4429.487305,,,,,,,,,,,,,,,,,,,,,,,,,,,,,,,,,,,,,,,,,,,,,,,,,,,,,,,,,,,,,,,,,,,,,,
1720517972,37,0,4297.94873,4280.128418,4306.666504,4302.820313,4282.05127,4275.128418,4267.436035,4283.205078,4247.94873,4252.692383,4463.589844,4439.358887,4355.256348,4425.512695,,,,,,,,,,,,,,,,,,,,,,,,,,,,,,,,,,,,,,,,,,,,,,,,,,,,,,,,,,,,,,,,,,,,,,
1720517972,38,0,4296.922852,4284.871582,4301.794922,4302.307617,4279.615234,4270.256348,4264.102539,4273.461426,4243.717773,4237.307617,4452.563965,4428.205078,4340.897461,4414.102539,,,,,,,,,,,,,,,,,,,,,,,,,,,,,,,,,,,,,,,,,,,,,,,,,,,,,,,,,,,,,,,,,,,,,,
1720517972,39,0,4295.512695,4288.974121,4307.94873,4302.436035,4278.974121,4266.922852,4264.487305,4278.333496,4245.384766,4239.358887,4454.743652,4443.333496,4341.025879,4423.717773,,,,,,,,,,,,,,,,,,,,,,,,,,,,,,,,,,,,,,,,,,,,,,,,,,,,,,,,,,,,,,,,,,,,,,
1720517972,40,0,4297.94873,4295.128418,4307.563965,4303.077148,4283.333496,4271.666504,4266.922852,4284.230957,4250.384766,4262.179688,4464.230957,4438.846191,4357.820313,4428.589844,,,,,,,,,,,,,,,,,,,,,,,,,,,,,,,,,,,,,,,,,,,,,,,,,,,,,,,,,,,,,,,,,,,,,,
1720517972,41,0,4291.922852,4288.717773,4301.153809,4298.846191,4286.282227,4275.128418,4264.871582,4279.230957,4252.179688,4273.589844,4468.333496,4431.282227,4372.94873,4431.025879,,,,,,,,,,,,,,,,,,,,,,,,,,,,,,,,,,,,,,,,,,,,,,,,,,,,,,,,,,,,,,,,,,,,,,
1720517972,42,0,4277.05127,4277.94873,4296.153809,4294.102539,4281.666504,4270.769043,4263.717773,4277.179688,4250,4267.436035,4460.128418,4435,4363.589844,4429.743652,,,,,,,,,,,,,,,,,,,,,,,,,,,,,,,,,,,,,,,,,,,,,,,,,,,,,,,,,,,,,,,,,,,,,,
1720517972,43,0,4280.384766,4278.461426,4295.512695,4294.615234,4278.333496,4272.692383,4265.256348,4278.461426,4247.179688,4261.538574,4450.128418,4436.666504,4345.256348,4421.153809,,,,,,,,,,,,,,,,,,,,,,,,,,,,,,,,,,,,,,,,,,,,,,,,,,,,,,,,,,,,,,,,,,,,,,
1720517972,44,0,4290.128418,4281.410156,4297.94873,4293.333496,4279.102539,4277.820313,4266.538574,4278.461426,4247.179688,4262.436035,4456.538574,4438.717773,4351.153809,4424.871582,,,,,,,,,,,,,,,,,,,,,,,,,,,,,,,,,,,,,,,,,,,,,,,,,,,,,,,,,,,,,,,,,,,,,,
1720517972,45,0,4279.487305,4278.333496,4295.769043,4287.692383,4278.205078,4271.153809,4265.128418,4278.717773,4247.436035,4258.717773,4460.641113,4437.179688,4356.153809,4429.102539,,,,,,,,,,,,,,,,,,,,,,,,,,,,,,,,,,,,,,,,,,,,,,,,,,,,,,,,,,,,,,,,,,,,,,
1720517972,46,0,4274.230957,4276.153809,4293.974121,4286.153809,4278.846191,4267.436035,4264.871582,4278.717773,4245.769043,4252.436035,4450.897461,4433.333496,4337.94873,4419.743652,,,,,,,,,,,,,,,,,,,,,,,,,,,,,,,,,,,,,,,,,,,,,,,,,,,,,,,,,,,,,,,,,,,,,,
1720517972,47,0,4285,4279.487305,4300.769043,4293.077148,4278.717773,4276.025879,4271.410156,4279.871582,4247.307617,4260.128418,4454.615234,4440.769043,4344.871582,4420.897461,,,,,,,,,,,,,,,,,,,,,,,,,,,,,,,,,,,,,,,,,,,,,,,,,,,,,,,,,,,,,,,,,,,,,,
1720517972,48,0,4283.846191,4282.307617,4304.230957,4297.05127,4277.307617,4279.487305,4272.436035,4281.153809,4251.666504,4268.205078,4468.077148,4443.589844,4369.871582,4432.692383,0.331218,0.85447,0.626674,0.230782,0.204319,0.300799,0.465416,0.296983,0.208744,0.249959,0.522388,0.449407,0.253219,0.138571,0.126581,1.607311,0.315048,0.537489,0.157233,0.124902,0.277979,0.159517,0.232085,0.103274,0.160034,0.217039,0.054018,0.203941,0.060317,0.089267,0.661342,0.249577,0.388383,0.136993,0.141634,0.23377,0.243173,0.145975,0.043566,0.115145,9.981319,5.580004,0.984937,0.53906,0.297397,3.993451,0.859749,0.817206,0.428225,0.286665,0.37426,0.412405,0.203568,0.197248,0.209076,0.627786,0.574818,0.253172,0.136689,0.327712,0.629192,0.440371,0.497918,0.345499,0.570189,0.381032,0.513508,0.240376,0.192536,0.235065
1720517972,49,0,4280.897461,4282.436035,4301.922852,4295,4280.641113,4274.615234,4267.307617,4281.666504,4250.256348,4261.538574,4467.820313,4437.05127,4365.256348,4432.94873,,,,,,,,,,,,,,,,,,,,,,,,,,,,,,,,,,,,,,,,,,,,,,,,,,,,,,,,,,,,,,,,,,,,,,
1720517972,50,0,4290.512695,4279.615234,4307.94873,4292.94873,4281.666504,4274.102539,4269.871582,4283.077148,4249.230957,4260.769043,4466.153809,4445.641113,4356.666504,4435.128418,,,,,,,,,,,,,,,,,,,,,,,,,,,,,,,,,,,,,,,,,,,,,,,,,,,,,,,,,,,,,,,,,,,,,,
1720517972,51,0,4292.563965,4279.102539,4307.307617,4290.128418,4278.846191,4276.666504,4272.820313,4279.871582,4254.615234,4267.05127,4463.205078,4438.461426,4355.641113,4427.692383,,,,,,,,,,,,,,,,,,,,,,,,,,,,,,,,,,,,,,,,,,,,,,,,,,,,,,,,,,,,,,,,,,,,,,
1720517972,52,0,4286.538574,4280.641113,4299.102539,4288.589844,4277.94873,4269.358887,4265.641113,4276.282227,4253.461426,4260,4453.461426,4425.512695,4343.077148,4415.897461,,,,,,,,,,,,,,,,,,,,,,,,,,,,,,,,,,,,,,,,,,,,,,,,,,,,,,,,,,,,,,,,,,,,,,
1720517972,53,0,4284.487305,4277.436035,4299.358887,4289.871582,4277.307617,4262.563965,4261.282227,4277.692383,4245.384766,4251.282227,4456.410156,4433.974121,4347.692383,4422.94873,,,,,,,,,,,,,,,,,,,,,,,,,,,,,,,,,,,,,,,,,,,,,,,,,,,,,,,,,,,,,,,,,,,,,,
1720517972,54,0,4283.077148,4273.205078,4299.102539,4287.307617,4273.205078,4266.794922,4264.102539,4278.333496,4244.102539,4256.153809,4465.769043,4435,4364.743652,4427.307617,,,,,,,,,,,,,,,,,,,,,,,,,,,,,,,,,,,,,,,,,,,,,,,,,,,,,,,,,,,,,,,,,,,,,,
1720517972,55,0,4279.230957,4275,4300.128418,4285.384766,4272.94873,4271.794922,4263.974121,4277.820313,4246.538574,4261.794922,4464.358887,4438.333496,4358.205078,4425.128418,,,,,,,,,,,,,,,,,,,,,,,,,,,,,,,,,,,,,,,,,,,,,,,,,,,,,,,,,,,,,,,,,,,,,,
1720517972,56,0,4280.128418,4276.282227,4303.717773,4290,4278.077148,4275,4266.410156,4278.589844,4248.461426,4260.769043,4465,4447.179688,4356.282227,4427.307617,,,,,,,,,,,,,,,,,,,,,,,,,,,,,,,,,,,,,,,,,,,,,,,,,,,,,,,,,,,,,,,,,,,,,,
1720517972,57,0,4278.846191,4273.333496,4302.563965,4291.282227,4279.102539,4276.666504,4269.358887,4280.384766,4250.384766,4257.436035,4469.615234,4452.05127,4364.615234,4429.487305,,,,,,,,,,,,,,,,,,,,,,,,,,,,,,,,,,,,,,,,,,,,,,,,,,,,,,,,,,,,,,,,,,,,,,
1720517972,58,0,4279.358887,4277.05127,4302.179688,4291.922852,4278.205078,4275.897461,4265.641113,4280.128418,4249.487305,4254.871582,4464.102539,4451.410156,4353.589844,4425.384766,,,,,,,,,,,,,,,,,,,,,,,,,,,,,,,,,,,,,,,,,,,,,,,,,,,,,,,,,,,,,,,,,,,,,,
1720517972,59,0,4287.179688,4281.025879,4302.820313,4297.94873,4278.077148,4276.410156,4262.436035,4276.794922,4247.563965,4256.025879,4462.179688,4444.230957,4355.384766,4422.692383,,,,,,,,,,,,,,,,,,,,,,,,,,,,,,,,,,,,,,,,,,,,,,,,,,,,,,,,,,,,,,,,,,,,,,
1720517972,60,0,4292.05127,4278.589844,4305.256348,4300.128418,4280.512695,4278.589844,4263.974121,4277.436035,4246.794922,4258.589844,4471.410156,4444.743652,4365.384766,4430.641113,,,,,,,,,,,,,,,,,,,,,,,,,,,,,,,,,,,,,,,,,,,,,,,,,,,,,,,,,,,,,,,,,,,,,,
1720517972,61,0,4293.205078,4282.563965,4310.128418,4298.974121,4283.974121,4279.102539,4267.179688,4280.769043,4247.307617,4261.025879,4470.512695,4453.846191,4351.153809,4436.153809,,,,,,,,,,,,,,,,,,,,,,,,,,,,,,,,,,,,,,,,,,,,,,,,,,,,,,,,,,,,,,,,,,,,,,
1720517972,62,0,4293.205078,4281.794922,4306.410156,4295,4277.563965,4278.461426,4266.282227,4278.077148,4250.256348,4258.333496,4460.641113,4444.487305,4343.974121,4424.358887,,,,,,,,,,,,,,,,,,,,,,,,,,,,,,,,,,,,,,,,,,,,,,,,,,,,,,,,,,,,,,,,,,,,,,
1720517972,63,0,4284.871582,4266.794922,4297.179688,4284.871582,4269.358887,4278.461426,4265,4275,4251.410156,4253.717773,4462.436035,4428.589844,4355,4413.077148,,,,,,,,,,,,,,,,,,,,,,,,,,,,,,,,,,,,,,,,,,,,,,,,,,,,,,,,,,,,,,,,,,,,,,
1720517972,64,0,4269.871582,4259.743652,4300.512695,4278.589844,4272.563965,4278.077148,4266.410156,4277.820313,4246.410156,4254.487305,4465,4442.436035,4347.05127,4420.256348,0.367534,0.930492,0.664176,0.205622,0.215744,0.399102,0.490282,0.296534,0.205715,0.266738,0.509311,0.562291,0.284094,0.137991,0.124121,1.391542,0.310279,0.528064,0.142949,0.115272,0.337858,0.18291,0.232755,0.091983,0.139009,0.20865,0.037944,0.208843,0.067549,0.096677,0.685714,0.24606,0.430323,0.114119,0.130165,0.231691,0.233852,0.175137,0.045588,0.113857,11.581441,6.178414,1.069801,0.578664,0.283585,3.194131,0.942924,0.65067,0.390282,0.270961,0.376436,0.347812,0.195149,0.208469,0.196092,0.627446,0.555784,0.239659,0.125415,0.331247,0.622436,0.389907,0.541509,0.33639,0.555995,0.452389,0.433005,0.252425,0.179147,0.218408
1720517973,65,0,4265.512695,4265.512695,4301.922852,4281.922852,4274.743652,4279.358887,4265.384766,4279.102539,4244.615234,4255.384766,4458.077148,4443.974121,4333.846191,4415.256348,,,,,,,,,,,,,,,,,,,,,,,,,,,,,,,,,,,,,,,,,,,,,,,,,,,,,,,,,,,,,,,,,,,,,,
1720517973,66,0,4274.487305,4270.128418,4296.410156,4281.794922,4271.025879,4277.692383,4261.922852,4279.102539,4249.230957,4253.461426,4463.333496,4438.717773,4349.743652,4413.461426,,,,,,,,,,,,,,,,,,,,,,,,,,,,,,,,,,,,,,,,,,,,,,,,,,,,,,,,,,,,,,,,,,,,,,
1720517973,67,0,4277.692383,4272.05127,4299.230957,4277.820313,4271.666504,4274.102539,4260.897461,4280.128418,4249.871582,4252.820313,4474.230957,4452.820313,4362.820313,4430.128418,,,,,,,,,,,,,,,,,,,,,,,,,,,,,,,,,,,,,,,,,,,,,,,,,,,,,,,,,,,,,,,,,,,,,,
1720517973,68,0,4269.615234,4270.256348,4300.384766,4279.871582,4269.358887,4277.179688,4262.05127,4279.230957,4248.589844,4252.179688,4467.94873,4446.538574,4351.410156,4426.538574,,,,,,,,,,,,,,,,,,,,,,,,,,,,,,,,,,,,,,,,,,,,,,,,,,,,,,,,,,,,,,,,,,,,,,
1720517973,69,0,4263.077148,4264.358887,4299.230957,4279.615234,4263.333496,4278.333496,4262.94873,4280.384766,4250.897461,4251.153809,4464.102539,4440.641113,4342.436035,4419.102539,,,,,,,,,,,,,,,,,,,,,,,,,,,,,,,,,,,,,,,,,,,,,,,,,,,,,,,,,,,,,,,,,,,,,,
1720517973,70,0,4263.717773,4261.538574,4295.769043,4273.846191,4265.128418,4275.641113,4263.589844,4279.871582,4249.871582,4247.179688,4466.538574,4445.128418,4347.05127,4420.641113,,,,,,,,,,,,,,,,,,,,,,,,,,,,,,,,,,,,,,,,,,,,,,,,,,,,,,,,,,,,,,,,,,,,,,
1720517973,71,0,4261.922852,4261.922852,4290.769043,4275.128418,4266.410156,4275.128418,4263.974121,4277.05127,4245,4240.384766,4462.05127,4440.897461,4347.820313,4415.128418,,,,,,,,,,,,,,,,,,,,,,,,,,,,,,,,,,,,,,,,,,,,,,,,,,,,,,,,,,,,,,,,,,,,,,
1720517973,72,0,4260.897461,4263.846191,4295.384766,4278.077148,4262.692383,4270.128418,4263.077148,4281.025879,4245.641113,4241.282227,4462.563965,4443.974121,4340.128418,4413.461426,,,,,,,,,,,,,,,,,,,,,,,,,,,,,,,,,,,,,,,,,,,,,,,,,,,,,,,,,,,,,,,,,,,,,,
1720517973,73,0,4263.589844,4265.897461,4297.563965,4273.589844,4264.358887,4264.615234,4261.410156,4283.461426,4246.922852,4241.153809,4463.717773,4449.487305,4342.05127,4416.922852,,,,,,,,,,,,,,,,,,,,,,,,,,,,,,,,,,,,,,,,,,,,,,,,,,,,,,,,,,,,,,,,,,,,,,
1720517973,74,0,4264.102539,4267.820313,4293.333496,4274.102539,4267.307617,4270.512695,4261.538574,4279.743652,4249.230957,4238.333496,4461.922852,4445.128418,4348.589844,4415.384766,,,,,,,,,,,,,,,,,,,,,,,,,,,,,,,,,,,,,,,,,,,,,,,,,,,,,,,,,,,,,,,,,,,,,,
1720517973,75,0,4264.615234,4267.307617,4292.05127,4275.641113,4266.025879,4273.461426,4264.743652,4280.384766,4255.256348,4248.077148,4463.077148,4444.615234,4345.128418,4413.974121,,,,,,,,,,,,,,,,,,,,,,,,,,,,,,,,,,,,,,,,,,,,,,,,,,,,,,,,,,,,,,,,,,,,,,
1720517973,76,0,4260.897461,4263.589844,4290.512695,4269.487305,4263.205078,4265.128418,4262.179688,4281.410156,4256.153809,4253.846191,4456.025879,4441.922852,4338.077148,4406.794922,,,,,,,,,,,,,,,,,,,,,,,,,,,,,,,,,,,,,,,,,,,,,,,,,,,,,,,,,,,,,,,,,,,,,,
1720517973,77,0,4258.205078,4266.153809,4289.358887,4270.897461,4260.897461,4263.589844,4253.589844,4278.589844,4249.487305,4245.512695,4447.179688,4432.307617,4336.794922,4400,,,,,,,,,,,,,,,,,,,,,,,,,,,,,,,,,,,,,,,,,,,,,,,,,,,,,,,,,,,,,,,,,,,,,,
1720517973,78,0,4266.538574,4271.025879,4298.589844,4278.461426,4261.282227,4265.256348,4248.846191,4277.307617,4238.333496,4242.820313,4456.538574,4443.589844,4336.794922,4417.563965,,,,,,,,,,,,,,,,,,,,,,,,,,,,,,,,,,,,,,,,,,,,,,,,,,,,,,,,,,,,,,,,,,,,,,
1720517973,79,0,4272.692383,4268.333496,4301.025879,4277.820313,4261.282227,4260.769043,4248.333496,4275.128418,4233.077148,4243.461426,4462.820313,4447.307617,4336.922852,4422.820313,,,,,,,,,,,,,,,,,,,,,,,,,,,,,,,,,,,,,,,,,,,,,,,,,,,,,,,,,,,,,,,,,,,,,,
1720517973,80,0,4263.717773,4263.974121,4292.436035,4271.025879,4260.128418,4264.230957,4251.410156,4273.974121,4238.333496,4240.769043,4452.692383,4437.563965,4339.743652,4406.922852,0.497896,0.972391,0.643189,0.186837,0.229955,0.560237,0.513148,0.278933,0.204554,0.286458,0.483153,0.714939,0.320578,0.140262,0.12374,1.105104,0.305254,0.475532,0.128345,0.11022,0.412281,0.212593,0.228786,0.087107,0.116971,0.227149,0.042435,0.192614,0.077784,0.105033,0.685471,0.226709,0.433138,0.09762,0.120003,0.228866,0.222837,0.189896,0.046881,0.109884,11.578072,6.142351,1.068219,0.583345,0.255453,2.35359,0.994344,0.496106,0.338761,0.24374,0.38994,0.322712,0.17937,0.212268,0.18266,0.657618,0.513054,0.226201,0.117711,0.335667,0.625727,0.386348,0.575109,0.3381,0.543602,0.6272,0.397453,0.253152,0.159821,0.205288
1720517973,81,0,4257.563965,4263.461426,4290.897461,4267.05127,4262.05127,4274.102539,4258.205078,4278.717773,4247.179688,4244.358887,4450.256348,4444.615234,4340,4408.717773,,,,,,,,,,,,,,,,,,,,,,,,,,,,,,,,,,,,,,,,,,,,,,,,,,,,,,,,,,,,,,,,,,,,,,
1720517973,82,0,4262.05127,4261.410156,4290.512695,4266.538574,4263.974121,4276.025879,4260.897461,4279.102539,4256.153809,4243.333496,4453.974121,4442.820313,4338.461426,4410.769043,,,,,,,,,,,,,,,,,,,,,,,,,,,,,,,,,,,,,,,,,,,,,,,,,,,,,,,,,,,,,,,,,,,,,,
1720517973,83,0,4266.666504,4259.358887,4293.589844,4268.589844,4261.153809,4274.102539,4260.384766,4278.461426,4260.128418,4241.794922,4457.94873,4439.743652,4341.153809,4409.615234,,,,,,,,,,,,,,,,,,,,,,,,,,,,,,,,,,,,,,,,,,,,,,,,,,,,,,,,,,,,,,,,,,,,,,
1720517973,84,0,4274.230957,4263.974121,4300,4274.871582,4260.769043,4276.666504,4263.333496,4281.666504,4253.717773,4245.641113,4463.077148,4446.282227,4347.307617,4417.820313,,,,,,,,,,,,,,,,,,,,,,,,,,,,,,,,,,,,,,,,,,,,,,,,,,,,,,,,,,,,,,,,,,,,,,
1720517973,85,0,4277.563965,4266.794922,4302.436035,4276.538574,4264.615234,4277.436035,4263.974121,4282.05127,4245.641113,4246.025879,4464.358887,4449.358887,4349.487305,4424.358887,,,,,,,,,,,,,,,,,,,,,,,,,,,,,,,,,,,,,,,,,,,,,,,,,,,,,,,,,,,,,,,,,,,,,,
1720517973,86,0,4271.282227,4263.974121,4301.538574,4272.179688,4263.077148,4273.974121,4261.282227,4279.358887,4250.897461,4247.307617,4466.025879,4447.94873,4346.794922,4425.512695,,,,,,,,,,,,,,,,,,,,,,,,,,,,,,,,,,,,,,,,,,,,,,,,,,,,,,,,,,,,,,,,,,,,,,
1720517973,87,0,4264.102539,4260.384766,4296.410156,4270.641113,4260.256348,4273.717773,4261.025879,4281.282227,4258.461426,4248.717773,4464.358887,4440,4344.358887,4422.436035,,,,,,,,,,,,,,,,,,,,,,,,,,,,,,,,,,,,,,,,,,,,,,,,,,,,,,,,,,,,,,,,,,,,,,
1720517973,88,0,4260.641113,4260.641113,4294.487305,4270.256348,4261.794922,4273.461426,4260.512695,4286.922852,4264.230957,4247.692383,4460.641113,4439.615234,4348.077148,4418.205078,,,,,,,,,,,,,,,,,,,,,,,,,,,,,,,,,,,,,,,,,,,,,,,,,,,,,,,,,,,,,,,,,,,,,,
1720517973,89,0,4266.025879,4261.666504,4298.205078,4269.487305,4262.820313,4272.05127,4261.410156,4286.025879,4277.436035,4248.077148,4463.589844,4448.974121,4356.410156,4419.743652,,,,,,,,,,,,,,,,,,,,,,,,,,,,,,,,,,,,,,,,,,,,,,,,,,,,,,,,,,,,,,,,,,,,,,
1720517973,90,0,4270.128418,4261.666504,4295.128418,4272.307617,4262.307617,4275.256348,4263.461426,4278.974121,4283.717773,4248.461426,4468.589844,4446.794922,4359.487305,4421.794922,,,,,,,,,,,,,,,,,,,,,,,,,,,,,,,,,,,,,,,,,,,,,,,,,,,,,,,,,,,,,,,,,,,,,,
1720517973,91,0,4267.820313,4263.974121,4289.871582,4275,4262.563965,4274.743652,4262.307617,4277.179688,4268.974121,4250.769043,4465.128418,4441.410156,4353.589844,4419.871582,,,,,,,,,,,,,,,,,,,,,,,,,,,,,,,,,,,,,,,,,,,,,,,,,,,,,,,,,,,,,,,,,,,,,,
1720517973,92,0,4267.94873,4262.820313,4296.410156,4270.769043,4262.436035,4266.666504,4260.128418,4283.717773,4246.282227,4259.615234,4464.102539,4459.358887,4350.384766,4425.897461,,,,,,,,,,,,,,,,,,,,,,,,,,,,,,,,,,,,,,,,,,,,,,,,,,,,,,,,,,,,,,,,,,,,,,
1720517973,93,0,4271.922852,4262.563965,4298.846191,4269.230957,4262.436035,4267.94873,4261.410156,4284.615234,4246.794922,4261.794922,4470.769043,4459.358887,4358.589844,4425.256348,,,,,,,,,,,,,,,,,,,,,,,,,,,,,,,,,,,,,,,,,,,,,,,,,,,,,,,,,,,,,,,,,,,,,,
1720517973,94,0,4270,4266.025879,4291.794922,4270,4264.102539,4272.820313,4264.358887,4280.512695,4260.256348,4258.333496,4468.974121,4441.666504,4356.922852,4416.666504,,,,,,,,,,,,,,,,,,,,,,,,,,,,,,,,,,,,,,,,,,,,,,,,,,,,,,,,,,,,,,,,,,,,,,
1720517973,95,0,4258.461426,4259.871582,4290.641113,4265.641113,4260.641113,4266.794922,4260.641113,4280.512695,4253.461426,4257.563965,4457.179688,4443.974121,4337.563965,4413.717773,,,,,,,,,,,,,,,,,,,,,,,,,,,,,,,,,,,,,,,,,,,,,,,,,,,,,,,,,,,,,,,,,,,,,,
1720517973,96,0,4249.358887,4249.358887,4287.820313,4261.666504,4257.94873,4262.94873,4249.487305,4276.025879,4241.922852,4249.230957,4449.358887,4437.179688,4328.846191,4403.589844,0.703066,0.989159,0.573508,0.180065,0.242991,0.753835,0.524363,0.255706,0.206548,0.303224,0.463431,0.881188,0.361554,0.144867,0.125219,0.838406,0.303498,0.407516,0.115329,0.109951,0.47829,0.24267,0.227836,0.090929,0.100989,0.254884,0.064567,0.162653,0.089428,0.113809,0.6553,0.196286,0.403366,0.088894,0.113464,0.218427,0.216719,0.189294,0.048218,0.106206,9.982691,5.386805,0.991859,0.552387,0.222633,1.661768,1.038458,0.378718,0.291034,0.217255,0.407242,0.341387,0.162395,0.209654,0.1745,0.706534,0.476775,0.223176,0.117673,0.342583,0.626004,0.424585,0.610041,0.359672,0.542317,0.872641,0.404105,0.249594,0.142294,0.198482
1720517973,97,0,4253.461426,4246.025879,4285,4259.615234,4257.820313,4264.358887,4247.692383,4271.666504,4244.358887,4242.820313,4452.307617,4435.769043,4337.692383,4401.538574,,,,,,,,,,,,,,,,,,,,,,,,,,,,,,,,,,,,,,,,,,,,,,,,,,,,,,,,,,,,,,,,,,,,,,
1720517973,98,0,4261.282227,4248.974121,4289.102539,4262.563965,4253.717773,4262.563965,4259.230957,4275,4247.179688,4245.256348,4455.641113,4451.025879,4342.692383,4410.769043,,,,,,,,,,,,,,,,,,,,,,,,,,,,,,,,,,,,,,,,,,,,,,,,,,,,,,,,,,,,,,,,,,,,,,
1720517973,99,0,4260.384766,4258.461426,4294.871582,4266.410156,4249.230957,4263.205078,4262.563965,4277.94873,4246.538574,4247.94873,4456.282227,4450.641113,4341.794922,4412.820313,,,,,,,,,,,,,,,,,,,,,,,,,,,,,,,,,,,,,,,,,,,,,,,,,,,,,,,,,,,,,,,,,,,,,,
1720517973,100,0,4257.820313,4262.563965,4296.410156,4263.846191,4249.358887,4267.05127,4255.256348,4277.563965,4249.102539,4253.589844,4463.461426,4446.153809,4347.179688,4418.077148,,,,,,,,,,,,,,,,,,,,,,,,,,,,,,,,,,,,,,,,,,,,,,,,,,,,,,,,,,,,,,,,,,,,,,
1720517973,101,0,4263.077148,4256.282227,4291.410156,4261.410156,4251.153809,4264.487305,4256.282227,4278.461426,4250.769043,4255.256348,4469.230957,4449.615234,4352.94873,4422.436035,,,,,,,,,,,,,,,,,,,,,,,,,,,,,,,,,,,,,,,,,,,,,,,,,,,,,,,,,,,,,,,,,,,,,,
1720517973,102,0,4260.641113,4253.461426,4288.333496,4262.05127,4250.128418,4262.05127,4259.871582,4280.641113,4249.487305,4250,4463.717773,4450.897461,4352.436035,4418.205078,,,,,,,,,,,,,,,,,,,,,,,,,,,,,,,,,,,,,,,,,,,,,,,,,,,,,,,,,,,,,,,,,,,,,,
1720517973,103,0,4247.94873,4255.512695,4290.769043,4261.153809,4247.820313,4263.717773,4253.846191,4277.94873,4247.05127,4245.512695,4456.666504,4446.666504,4348.205078,4416.153809,,,,,,,,,,,,,,,,,,,,,,,,,,,,,,,,,,,,,,,,,,,,,,,,,,,,,,,,,,,,,,,,,,,,,,
1720517973,104,0,4239.743652,4251.153809,4289.230957,4255.128418,4246.922852,4263.077148,4247.563965,4271.922852,4252.179688,4238.846191,4458.717773,4441.025879,4345.128418,4414.102539,,,,,,,,,,,,,,,,,,,,,,,,,,,,,,,,,,,,,,,,,,,,,,,,,,,,,,,,,,,,,,,,,,,,,,
1720517973,105,0,4243.461426,4248.461426,4284.871582,4249.230957,4247.179688,4261.282227,4249.615234,4272.692383,4272.692383,4234.871582,4463.717773,4439.230957,4347.692383,4409.102539,,,,,,,,,,,,,,,,,,,,,,,,,,,,,,,,,,,,,,,,,,,,,,,,,,,,,,,,,,,,,,,,,,,,,,
1720517973,106,0,4248.205078,4251.538574,4288.589844,4249.487305,4246.538574,4263.589844,4257.820313,4280.128418,4290.256348,4242.05127,4466.922852,4453.077148,4349.871582,4414.743652,,,,,,,,,,,,,,,,,,,,,,,,,,,,,,,,,,,,,,,,,,,,,,,,,,,,,,,,,,,,,,,,,,,,,,
1720517973,107,0,4243.205078,4250.384766,4285.641113,4250.384766,4246.282227,4264.743652,4260.641113,4278.974121,4291.922852,4238.589844,4463.077148,4449.487305,4348.333496,4413.974121,,,,,,,,,,,,,,,,,,,,,,,,,,,,,,,,,,,,,,,,,,,,,,,,,,,,,,,,,,,,,,,,,,,,,,
1720517973,108,0,4239.615234,4248.077148,4278.461426,4245.897461,4247.307617,4261.794922,4254.102539,4275.256348,4292.692383,4227.563965,4459.230957,4433.974121,4349.487305,4404.230957,,,,,,,,,,,,,,,,,,,,,,,,,,,,,,,,,,,,,,,,,,,,,,,,,,,,,,,,,,,,,,,,,,,,,,
1720517973,109,0,4238.717773,4249.102539,4283.846191,4245,4248.846191,4259.743652,4249.615234,4277.820313,4295,4233.974121,4464.102539,4443.461426,4351.282227,4409.230957,,,,,,,,,,,,,,,,,,,,,,,,,,,,,,,,,,,,,,,,,,,,,,,,,,,,,,,,,,,,,,,,,,,,,,
1720517973,110,0,4236.538574,4250.897461,4283.589844,4247.436035,4244.871582,4255.512695,4250,4277.307617,4288.846191,4238.077148,4461.666504,4442.820313,4343.077148,4409.102539,,,,,,,,,,,,,,,,,,,,,,,,,,,,,,,,,,,,,,,,,,,,,,,,,,,,,,,,,,,,,,,,,,,,,,
1720517973,111,0,4232.820313,4243.589844,4276.282227,4237.820313,4235.897461,4247.94873,4246.922852,4271.922852,4278.333496,4230.256348,4452.563965,4432.820313,4333.846191,4401.153809,,,,,,,,,,,,,,,,,,,,,,,,,,,,,,,,,,,,,,,,,,,,,,,,,,,,,,,,,,,,,,,,,,,,,,
1720517973,112,0,4229.743652,4235.641113,4277.692383,4229.230957,4236.538574,4250.256348,4242.563965,4270.384766,4275.384766,4232.436035,4453.717773,4435.384766,4337.436035,4402.179688,0.931281,0.997492,0.479177,0.18615,0.249906,0.923408,0.516858,0.240817,0.210655,0.309127,0.46787,1.016501,0.398846,0.149343,0.127055,0.652157,0.312715,0.35476,0.105001,0.111846,0.520807,0.264425,0.2328,0.101427,0.094304,0.298249,0.100938,0.130931,0.101463,0.121318,0.592318,0.166346,0.356943,0.085125,0.109986,0.202513,0.217201,0.176607,0.050072,0.10432,7.322478,4.105572,0.861242,0.500419,0.193016,1.356433,1.086751,0.296469,0.257655,0.20175,0.425444,0.387149,0.151729,0.203577,0.17378,0.749535,0.46905,0.239138,0.126686,0.349294,0.615629,0.486432,0.652471,0.403817,0.551975,1.106046,0.436636,0.248728,0.135478,0.198468
1720517973,113,0,4234.230957,4246.282227,4283.589844,4240.512695,4246.153809,4258.589844,4249.487305,4273.589844,4281.794922,4242.307617,4461.410156,4438.077148,4347.692383,4408.461426,,,,,,,,,,,,,,,,,,,,,,,,,,,,,,,,,,,,,,,,,,,,,,,,,,,,,,,,,,,,,,,,,,,,,,
1720517973,114,0,4235.128418,4253.333496,4283.077148,4246.538574,4247.179688,4258.461426,4257.820313,4272.94873,4285,4236.410156,4459.615234,4438.205078,4348.846191,4410.897461,,,,,,,,,,,,,,,,,,,,,,,,,,,,,,,,,,,,,,,,,,,,,,,,,,,,,,,,,,,,,,,,,,,,,,
1720517973,115,0,4222.179688,4241.538574,4276.538574,4233.205078,4239.871582,4255.897461,4254.743652,4266.922852,4282.820313,4218.333496,4452.179688,4435.769043,4338.974121,4402.05127,,,,,,,,,,,,,,,,,,,,,,,,,,,,,,,,,,,,,,,,,,,,,,,,,,,,,,,,,,,,,,,,,,,,,,
1720517973,116,0,4212.820313,4239.743652,4274.487305,4228.461426,4237.307617,4258.846191,4249.487305,4270.128418,4290.384766,4217.94873,4454.487305,4439.102539,4338.461426,4399.743652,,,,,,,,,,,,,,,,,,,,,,,,,,,,,,,,,,,,,,,,,,,,,,,,,,,,,,,,,,,,,,,,,,,,,,
1720517973,117,0,4223.974121,4249.358887,4277.820313,4234.743652,4234.615234,4255.769043,4250.641113,4279.743652,4295.897461,4226.794922,4455.128418,4447.436035,4344.487305,4404.230957,,,,,,,,,,,,,,,,,,,,,,,,,,,,,,,,,,,,,,,,,,,,,,,,,,,,,,,,,,,,,,,,,,,,,,
1720517973,118,0,4229.615234,4248.077148,4276.153809,4233.974121,4232.179688,4249.743652,4253.077148,4278.461426,4285.769043,4220.384766,4439.102539,4443.589844,4342.05127,4399.871582,,,,,,,,,,,,,,,,,,,,,,,,,,,,,,,,,,,,,,,,,,,,,,,,,,,,,,,,,,,,,,,,,,,,,,
1720517973,119,0,4215.512695,4246.025879,4269.615234,4229.615234,4233.205078,4254.487305,4249.615234,4274.102539,4277.05127,4211.410156,4427.307617,4434.743652,4341.025879,4397.436035,,,,,,,,,,,,,,,,,,,,,,,,,,,,,,,,,,,,,,,,,,,,,,,,,,,,,,,,,,,,,,,,,,,,,,
1720517973,120,0,4207.436035,4244.743652,4272.692383,4228.077148,4233.205078,4259.102539,4249.358887,4278.846191,4280.128418,4221.538574,4436.794922,4448.077148,4343.974121,4411.025879,,,,,,,,,,,,,,,,,,,,,,,,,,,,,,,,,,,,,,,,,,,,,,,,,,,,,,,,,,,,,,,,,,,,,,
1720517973,121,0,4210.897461,4236.922852,4275,4228.461426,4235.256348,4259.102539,4257.563965,4280.128418,4288.461426,4228.717773,4441.025879,4447.692383,4344.358887,4409.871582,,,,,,,,,,,,,,,,,,,,,,,,,,,,,,,,,,,,,,,,,,,,,,,,,,,,,,,,,,,,,,,,,,,,,,
1720517973,122,0,4214.871582,4235,4269.358887,4231.538574,4235.256348,4259.102539,4260.512695,4278.974121,4295.512695,4223.077148,4431.922852,4433.974121,4343.077148,4395.769043,,,,,,,,,,,,,,,,,,,,,,,,,,,,,,,,,,,,,,,,,,,,,,,,,,,,,,,,,,,,,,,,,,,,,,
1720517973,123,0,4209.615234,4235.256348,4270.641113,4230,4230.769043,4253.461426,4253.461426,4279.871582,4291.282227,4223.846191,4434.230957,4445,4343.333496,4402.179688,,,,,,,,,,,,,,,,,,,,,,,,,,,,,,,,,,,,,,,,,,,,,,,,,,,,,,,,,,,,,,,,,,,,,,
1720517973,124,0,4205,4231.410156,4266.922852,4224.871582,4230.384766,4251.025879,4247.307617,4273.717773,4282.05127,4221.794922,4438.205078,4443.974121,4339.743652,4405.512695,,,,,,,,,,,,,,,,,,,,,,,,,,,,,,,,,,,,,,,,,,,,,,,,,,,,,,,,,,,,,,,,,,,,,,
1720517973,125,0,4210,4236.410156,4261.794922,4228.333496,4233.846191,4256.025879,4248.846191,4273.333496,4280.256348,4218.846191,4435.897461,4433.717773,4334.358887,4402.436035,,,,,,,,,,,,,,,,,,,,,,,,,,,,,,,,,,,,,,,,,,,,,,,,,,,,,,,,,,,,,,,,,,,,,,
1720517973,126,0,4211.410156,4245.897461,4267.436035,4228.461426,4231.538574,4256.025879,4254.358887,4276.666504,4279.743652,4221.666504,4436.666504,4439.615234,4336.153809,4407.179688,,,,,,,,,,,,,,,,,,,,,,,,,,,,,,,,,,,,,,,,,,,,,,,,,,,,,,,,,,,,,,,,,,,,,,
1720517973,127,0,4206.153809,4243.589844,4268.461426,4220.512695,4227.692383,4248.846191,4254.487305,4269.487305,4276.538574,4222.436035,4437.563965,4439.102539,4341.025879,4405.641113,,,,,,,,,,,,,,,,,,,,,,,,,,,,,,,,,,,,,,,,,,,,,,,,,,,,,,,,,,,,,,,,,,,,,,
1720517973,0,0,4208.717773,4241.922852,4264.102539,4223.205078,4229.487305,4250,4249.743652,4267.94873,4277.94873,4224.230957,4439.230957,4439.743652,4344.615234,4404.230957,1.117502,1.006781,0.396907,0.205617,0.247223,1.013367,0.492831,0.242371,0.215023,0.297714,0.491827,1.075801,0.420089,0.151408,0.126567,0.567959,0.337205,0.334549,0.098331,0.112212,0.523612,0.270022,0.240415,0.112895,0.094821,0.358444,0.14512,0.107835,0.112693,0.125441,0.513234,0.148474,0.311961,0.083421,0.107464,0.181928,0.22043,0.15731,0.052296,0.103437,4.541467,2.662405,0.715096,0.454621,0.171325,1.343175,1.119491,0.243875,0.241133,0.200321,0.436774,0.43273,0.15332,0.198228,0.178866,0.759547,0.489755,0.277399,0.143587,0.350207,0.590194,0.552386,0.695334,0.46146,0.563401,1.250662,0.47549,0.256976,0.146599,0.202467
1720517973,1,0,4215.769043,4245.769043,4265.897461,4230.512695,4230.384766,4256.025879,4251.538574,4274.743652,4279.102539,4225.769043,4440.512695,4447.820313,4342.820313,4408.205078,,,,,,,,,,,,,,,,,,,,,,,,,,,,,,,,,,,,,,,,,,,,,,,,,,,,,,,,,,,,,,,,,,,,,,
1720517973,2,0,4213.846191,4245.897461,4271.538574,4228.077148,4229.358887,4258.717773,4260.769043,4277.692383,4282.692383,4224.358887,4439.487305,4450.641113,4338.077148,4412.05127,,,,,,,,,,,,,,,,,,,,,,,,,,,,,,,,,,,,,,,,,,,,,,,,,,,,,,,,,,,,,,,,,,,,,,
1720517973,3,0,4212.563965,4246.025879,4274.487305,4228.974121,4231.666504,4260.769043,4265.641113,4281.538574,4293.205078,4227.563965,4444.358887,4451.794922,4342.563965,4414.487305,,,,,,,,,,,,,,,,,,,,,,,,,,,,,,,,,,,,,,,,,,,,,,,,,,,,,,,,,,,,,,,,,,,,,,
1720517973,4,0,4215.384766,4245.769043,4273.846191,4234.871582,4232.94873,4260.897461,4263.205078,4283.333496,4293.717773,4231.282227,4449.743652,4454.102539,4351.410156,4415.512695,,,,,,,,,,,,,,,,,,,,,,,,,,,,,,,,,,,,,,,,,,,,,,,,,,,,,,,,,,,,,,,,,,,,,,
1720517973,5,0,4216.410156,4246.025879,4269.102539,4231.282227,4231.666504,4261.153809,4262.436035,4277.94873,4283.717773,4220.384766,4441.282227,4450.128418,4344.358887,4408.077148,,,,,,,,,,,,,,,,,,,,,,,,,,,,,,,,,,,,,,,,,,,,,,,,,,,,,,,,,,,,,,,,,,,,,,
1720517973,6,0,4211.922852,4246.538574,4266.666504,4229.615234,4231.025879,4263.717773,4263.589844,4279.358887,4280.897461,4212.820313,4436.282227,4452.307617,4333.077148,4404.487305,,,,,,,,,,,,,,,,,,,,,,,,,,,,,,,,,,,,,,,,,,,,,,,,,,,,,,,,,,,,,,,,,,,,,,
1720517973,7,0,4202.179688,4241.153809,4265.897461,4233.077148,4230.384766,4261.153809,4261.922852,4282.692383,4282.307617,4217.820313,4443.717773,4450.641113,4337.05127,4404.230957,,,,,,,,,,,,,,,,,,,,,,,,,,,,,,,,,,,,,,,,,,,,,,,,,,,,,,,,,,,,,,,,,,,,,,
1720517973,8,0,4206.666504,4240.512695,4265,4232.692383,4232.563965,4258.974121,4260.384766,4277.05127,4281.794922,4221.410156,4443.333496,4445.256348,4337.307617,4401.794922,,,,,,,,,,,,,,,,,,,,,,,,,,,,,,,,,,,,,,,,,,,,,,,,,,,,,,,,,,,,,,,,,,,,,,
1720517973,9,0,4218.333496,4248.333496,4270.512695,4234.230957,4234.871582,4261.025879,4261.922852,4278.333496,4282.179688,4223.461426,4444.358887,4461.282227,4338.077148,4412.05127,,,,,,,,,,,,,,,,,,,,,,,,,,,,,,,,,,,,,,,,,,,,,,,,,,,,,,,,,,,,,,,,,,,,,,
1720517973,10,0,4216.153809,4248.461426,4271.410156,4235.769043,4231.538574,4255.641113,4263.461426,4279.743652,4280.897461,4221.538574,4451.282227,4465.641113,4350.769043,4416.922852,,,,,,,,,,,,,,,,,,,,,,,,,,,,,,,,,,,,,,,,,,,,,,,,,,,,,,,,,,,,,,,,,,,,,,
1720517973,11,0,4212.307617,4243.974121,4270.256348,4233.461426,4228.974121,4248.461426,4263.717773,4277.307617,4279.615234,4219.102539,4449.871582,4457.436035,4351.666504,4411.282227,,,,,,,,,,,,,,,,,,,,,,,,,,,,,,,,,,,,,,,,,,,,,,,,,,,,,,,,,,,,,,,,,,,,,,
1720517973,12,0,4216.282227,4248.205078,4272.05127,4236.922852,4232.307617,4253.461426,4263.974121,4280.128418,4280.641113,4222.179688,4447.05127,4463.589844,4342.94873,4410.641113,,,,,,,,,,,,,,,,,,,,,,,,,,,,,,,,,,,,,,,,,,,,,,,,,,,,,,,,,,,,,,,,,,,,,,
1720517973,13,0,4218.589844,4249.102539,4270.512695,4242.692383,4232.820313,4259.871582,4262.563965,4282.692383,4281.282227,4226.922852,4449.358887,4466.666504,4345.512695,4409.743652,,,,,,,,,,,,,,,,,,,,,,,,,,,,,,,,,,,,,,,,,,,,,,,,,,,,,,,,,,,,,,,,,,,,,,
1720517973,14,0,4214.743652,4243.205078,4270.769043,4237.307617,4229.743652,4259.358887,4262.436035,4280.128418,4281.666504,4227.179688,4449.358887,4466.282227,4347.436035,4408.461426,,,,,,,,,,,,,,,,,,,,,,,,,,,,,,,,,,,,,,,,,,,,,,,,,,,,,,,,,,,,,,,,,,,,,,
1720517973,15,0,4206.922852,4245.769043,4269.743652,4232.563965,4232.436035,4261.922852,4265.256348,4280.769043,4282.692383,4223.461426,4449.358887,4462.94873,4341.922852,4406.794922,,,,,,,,,,,,,,,,,,,,,,,,,,,,,,,,,,,,,,,,,,,,,,,,,,,,,,,,,,,,,,,,,,,,,,
1720517973,16,0,4201.153809,4245.897461,4265.384766,4236.794922,4235.384766,4265,4265.512695,4287.307617,4284.871582,4225.512695,4453.461426,4460.897461,4343.589844,4408.205078,1.201355,1.005629,0.35416,0.238211,0.234752,0.983875,0.456425,0.258201,0.218402,0.26749,0.513115,1.034077,0.41442,0.150612,0.121559,0.539899,0.370689,0.343616,0.09619,0.108642,0.480632,0.256199,0.243477,0.119882,0.096956,0.43756,0.187613,0.099247,0.121573,0.12448,0.425513,0.148244,0.281167,0.084529,0.104238,0.163703,0.220899,0.137522,0.054669,0.101333,2.462367,1.449891,0.605029,0.443643,0.158549,1.531915,1.110071,0.220569,0.237245,0.208132,0.452197,0.455946,0.167108,0.198742,0.185913,0.726112,0.52245,0.333838,0.165246,0.340853,0.561599,0.608595,0.726102,0.516445,0.565057,1.268746,0.506537,0.279124,0.177939,0.205685
1720517973,17,0,4199.358887,4238.974121,4264.871582,4237.692383,4232.436035,4262.307617,4265.384766,4288.461426,4288.077148,4233.717773,4453.589844,4465.512695,4348.974121,4409.358887,,,,,,,,,,,,,,,,,,,,,,,,,,,,,,,,,,,,,,,,,,,,,,,,,,,,,,,,,,,,,,,,,,,,,,
1720517973,18,0,4199.102539,4242.820313,4267.307617,4234.871582,4230.384766,4262.820313,4266.282227,4285.512695,4287.307617,4232.94873,4452.94873,4467.820313,4353.077148,4407.94873,,,,,,,,,,,,,,,,,,,,,,,,,,,,,,,,,,,,,,,,,,,,,,,,,,,,,,,,,,,,,,,,,,,,,,
1720517973,19,0,4203.461426,4247.820313,4265.512695,4232.307617,4228.974121,4261.538574,4264.743652,4283.461426,4281.153809,4226.410156,4454.743652,4463.077148,4351.538574,4406.794922,,,,,,,,,,,,,,,,,,,,,,,,,,,,,,,,,,,,,,,,,,,,,,,,,,,,,,,,,,,,,,,,,,,,,,
1720517973,20,0,4200.256348,4237.307617,4264.102539,4230.128418,4223.077148,4254.487305,4263.717773,4283.717773,4280.128418,4231.538574,4455.641113,4467.94873,4345.256348,4408.205078,,,,,,,,,,,,,,,,,,,,,,,,,,,,,,,,,,,,,,,,,,,,,,,,,,,,,,,,,,,,,,,,,,,,,,
1720517973,21,0,4182.692383,4227.94873,4257.563965,4224.230957,4217.436035,4249.358887,4261.025879,4279.743652,4281.025879,4231.794922,4448.333496,4465.512695,4340.641113,4396.794922,,,,,,,,,,,,,,,,,,,,,,,,,,,,,,,,,,,,,,,,,,,,,,,,,,,,,,,,,,,,,,,,,,,,,,
1720517973,22,0,4179.615234,4231.282227,4251.153809,4221.153809,4221.538574,4252.820313,4260.128418,4274.230957,4277.436035,4220.256348,4441.153809,4454.358887,4338.205078,4386.025879,,,,,,,,,,,,,,,,,,,,,,,,,,,,,,,,,,,,,,,,,,,,,,,,,,,,,,,,,,,,,,,,,,,,,,
1720517973,23,0,4196.025879,4234.615234,4263.333496,4226.025879,4230.512695,4260.512695,4266.922852,4283.077148,4277.563965,4222.94873,4454.230957,4471.794922,4346.282227,4403.846191,,,,,,,,,,,,,,,,,,,,,,,,,,,,,,,,,,,,,,,,,,,,,,,,,,,,,,,,,,,,,,,,,,,,,,
1720517973,24,0,4208.077148,4238.846191,4269.743652,4232.820313,4233.461426,4262.94873,4269.743652,4289.487305,4281.153809,4233.205078,4464.230957,4482.563965,4355.641113,4413.589844,,,,,,,,,,,,,,,,,,,,,,,,,,,,,,,,,,,,,,,,,,,,,,,,,,,,,,,,,,,,,,,,,,,,,,
1720517973,25,0,4216.025879,4251.410156,4266.153809,4242.05127,4234.230957,4263.333496,4266.153809,4287.05127,4280.384766,4234.743652,4457.692383,4476.410156,4355.897461,4407.820313,,,,,,,,,,,,,,,,,,,,,,,,,,,,,,,,,,,,,,,,,,,,,,,,,,,,,,,,,,,,,,,,,,,,,,
1720517973,26,0,4213.589844,4251.153809,4266.666504,4245.128418,4234.230957,4264.230957,4268.717773,4286.666504,4279.615234,4232.179688,4460.128418,4481.282227,4355.897461,4411.538574,,,,,,,,,,,,,,,,,,,,,,,,,,,,,,,,,,,,,,,,,,,,,,,,,,,,,,,,,,,,,,,,,,,,,,
1720517973,27,0,4205.128418,4236.666504,4264.102539,4236.153809,4232.05127,4265.512695,4272.692383,4290.128418,4287.692383,4227.563965,4469.230957,4481.282227,4361.666504,4414.871582,,,,,,,,,,,,,,,,,,,,,,,,,,,,,,,,,,,,,,,,,,,,,,,,,,,,,,,,,,,,,,,,,,,,,,
1720517973,28,0,4205.384766,4234.871582,4263.846191,4230.256348,4230.897461,4266.153809,4267.94873,4291.922852,4293.205078,4227.563965,4467.05127,4477.436035,4360.128418,4414.102539,,,,,,,,,,,,,,,,,,,,,,,,,,,,,,,,,,,,,,,,,,,,,,,,,,,,,,,,,,,,,,,,,,,,,,
1720517973,29,0,4205.897461,4243.974121,4265.641113,4232.94873,4232.820313,4265.256348,4265.384766,4291.538574,4288.205078,4231.410156,4463.205078,4479.230957,4353.333496,4413.974121,,,,,,,,,,,,,,,,,,,,,,,,,,,,,,,,,,,,,,,,,,,,,,,,,,,,,,,,,,,,,,,,,,,,,,
1720517973,30,0,4207.179688,4247.563965,4262.436035,4235.897461,4234.615234,4264.743652,4269.487305,4292.05127,4289.743652,4231.666504,4469.102539,4486.794922,4361.153809,4416.282227,,,,,,,,,,,,,,,,,,,,,,,,,,,,,,,,,,,,,,,,,,,,,,,,,,,,,,,,,,,,,,,,,,,,,,
1720517973,31,0,4216.666504,4248.205078,4262.436035,4236.922852,4232.563965,4263.333496,4266.794922,4292.94873,4291.282227,4225.384766,4476.025879,4496.922852,4372.94873,4422.94873,,,,,,,,,,,,,,,,,,,,,,,,,,,,,,,,,,,,,,,,,,,,,,,,,,,,,,,,,,,,,,,,,,,,,,
1720517973,32,0,4221.282227,4251.666504,4271.025879,4239.871582,4231.410156,4264.358887,4265.128418,4296.922852,4284.358887,4220.384766,4479.230957,4498.717773,4377.563965,4425.641113,1.196471,0.970037,0.357299,0.282128,0.216654,0.850899,0.414604,0.281943,0.220291,0.223814,0.512374,0.897463,0.377783,0.148387,0.112014,0.539714,0.397669,0.361055,0.099039,0.101807,0.421729,0.225964,0.235064,0.119528,0.095311,0.524409,0.221039,0.104286,0.127065,0.118243,0.351023,0.164222,0.266207,0.09103,0.100443,0.153618,0.217461,0.120995,0.056948,0.096235,1.5465,0.714722,0.577361,0.483306,0.152517,1.693132,1.035789,0.234555,0.236725,0.216263,0.492162,0.45349,0.187325,0.208762,0.19096,0.655831,0.545712,0.394332,0.187349,0.3209,0.559616,0.647415,0.731201,0.549268,0.547917,1.171682,0.523024,0.310197,0.225828,0.203876
1720517973,33,0,4220,4253.205078,4271.794922,4241.025879,4233.974121,4265.897461,4274.358887,4295.256348,4281.538574,4221.794922,4474.743652,4486.025879,4375.128418,4418.589844,,,,,,,,,,,,,,,,,,,,,,,,,,,,,,,,,,,,,,,,,,,,,,,,,,,,,,,,,,,,,,,,,,,,,,
1720517973,34,0,4216.538574,4248.333496,4264.871582,4241.025879,4233.461426,4259.615234,4276.025879,4293.077148,4283.205078,4226.153809,4468.461426,4490,4366.794922,4421.153809,,,,,,,,,,,,,,,,,,,,,,,,,,,,,,,,,,,,,,,,,,,,,,,,,,,,,,,,,,,,,,,,,,,,,,
1720517973,35,0,4203.461426,4245.128418,4259.358887,4237.820313,4229.871582,4255.512695,4265.384766,4296.410156,4281.153809,4225.256348,4471.282227,4496.922852,4359.743652,4422.94873,,,,,,,,,,,,,,,,,,,,,,,,,,,,,,,,,,,,,,,,,,,,,,,,,,,,,,,,,,,,,,,,,,,,,,
1720517973,36,0,4194.487305,4242.820313,4251.666504,4230.641113,4229.102539,4262.05127,4262.05127,4294.102539,4280.384766,4216.153809,4471.153809,4479.358887,4355.641113,4406.410156,,,,,,,,,,,,,,,,,,,,,,,,,,,,,,,,,,,,,,,,,,,,,,,,,,,,,,,,,,,,,,,,,,,,,,
1720517973,37,0,4199.871582,4239.615234,4253.589844,4232.179688,4227.436035,4263.974121,4267.179688,4293.717773,4279.743652,4216.282227,4465.769043,4479.102539,4357.307617,4403.077148,,,,,,,,,,,,,,,,,,,,,,,,,,,,,,,,,,,,,,,,,,,,,,,,,,,,,,,,,,,,,,,,,,,,,,
1720517973,38,0,4202.05127,4239.615234,4258.205078,4241.282227,4224.487305,4257.820313,4265.256348,4294.102539,4275.256348,4217.436035,4465.897461,4488.717773,4361.922852,4410.384766,,,,,,,,,,,,,,,,,,,,,,,,,,,,,,,,,,,,,,,,,,,,,,,,,,,,,,,,,,,,,,,,,,,,,,
1720517973,39,0,4201.282227,4243.589844,4256.666504,4239.871582,4226.538574,4258.205078,4265.512695,4292.563965,4275.769043,4213.205078,4467.692383,4487.307617,4362.05127,4411.666504,,,,,,,,,,,,,,,,,,,,,,,,,,,,,,,,,,,,,,,,,,,,,,,,,,,,,,,,,,,,,,,,,,,,,,
1720517973,40,0,4201.538574,4245.128418,4255.897461,4233.717773,4231.410156,4264.102539,4275,4294.102539,4283.974121,4216.410156,4467.692383,4489.615234,4361.282227,4413.974121,,,,,,,,,,,,,,,,,,,,,,,,,,,,,,,,,,,,,,,,,,,,,,,,,,,,,,,,,,,,,,,,,,,,,,
1720517973,41,0,4200.641113,4246.922852,4256.538574,4238.205078,4233.461426,4263.461426,4275.512695,4295.512695,4287.179688,4218.333496,4466.922852,4491.410156,4360.512695,4413.205078,,,,,,,,,,,,,,,,,,,,,,,,,,,,,,,,,,,,,,,,,,,,,,,,,,,,,,,,,,,,,,,,,,,,,,
1720517973,42,0,4202.94873,4250.897461,4258.461426,4240.769043,4232.94873,4259.358887,4267.307617,4294.487305,4283.077148,4218.461426,4467.692383,4493.205078,4356.410156,4411.025879,,,,,,,,,,,,,,,,,,,,,,,,,,,,,,,,,,,,,,,,,,,,,,,,,,,,,,,,,,,,,,,,,,,,,,
1720517973,43,0,4204.358887,4247.563965,4258.333496,4233.589844,4233.077148,4261.538574,4263.974121,4292.307617,4280.769043,4220.128418,4468.077148,4498.846191,4357.179688,4408.461426,,,,,,,,,,,,,,,,,,,,,,,,,,,,,,,,,,,,,,,,,,,,,,,,,,,,,,,,,,,,,,,,,,,,,,
1720517973,44,0,4197.307617,4244.871582,4257.820313,4234.230957,4233.205078,4261.538574,4264.487305,4293.333496,4280.512695,4218.589844,4466.922852,4511.282227,4357.692383,4405.384766,,,,,,,,,,,,,,,,,,,,,,,,,,,,,,,,,,,,,,,,,,,,,,,,,,,,,,,,,,,,,,,,,,,,,,
1720517973,45,0,4198.077148,4249.102539,4258.846191,4237.692383,4231.153809,4256.153809,4268.077148,4294.871582,4276.410156,4212.563965,4463.974121,4523.461426,4348.333496,4405.256348,,,,,,,,,,,,,,,,,,,,,,,,,,,,,,,,,,,,,,,,,,,,,,,,,,,,,,,,,,,,,,,,,,,,,,
1720517973,46,0,4210.897461,4248.461426,4261.538574,4236.922852,4230.641113,4256.922852,4277.307617,4295,4277.179688,4213.846191,4465.256348,4531.282227,4352.179688,4410.512695,,,,,,,,,,,,,,,,,,,,,,,,,,,,,,,,,,,,,,,,,,,,,,,,,,,,,,,,,,,,,,,,,,,,,,
1720517973,47,0,4213.333496,4248.846191,4264.230957,4241.666504,4235.128418,4265.128418,4282.820313,4294.743652,4281.538574,4220.384766,4474.743652,4539.615234,4370,4418.333496,,,,,,,,,,,,,,,,,,,,,,,,,,,,,,,,,,,,,,,,,,,,,,,,,,,,,,,,,,,,,,,,,,,,,,
1720517973,48,0,4203.717773,4253.461426,4262.179688,4242.05127,4237.179688,4264.871582,4273.974121,4297.05127,4272.05127,4217.179688,4472.05127,4542.05127,4364.871582,4417.820313,1.082339,0.877393,0.384422,0.330757,0.200328,0.653207,0.375267,0.304825,0.220995,0.178018,0.475357,0.699442,0.314883,0.146605,0.099947,0.52779,0.399616,0.362579,0.106962,0.095376,0.348695,0.18712,0.214969,0.113796,0.087933,0.594254,0.24308,0.117837,0.129834,0.108224,0.297385,0.188307,0.260843,0.105486,0.097517,0.151474,0.214073,0.109071,0.059401,0.088542,1.659999,0.460638,0.640641,0.56416,0.150517,1.682296,0.89088,0.280834,0.232987,0.217458,0.558149,0.428506,0.205416,0.22873,0.191801,0.553766,0.541804,0.439126,0.206415,0.294401,0.576162,0.657322,0.703198,0.548142,0.508632,1.000303,0.516942,0.338253,0.281326,0.195039
1720517973,49,0,4200.512695,4248.205078,4252.692383,4233.333496,4228.717773,4258.077148,4264.358887,4293.077148,4259.743652,4206.153809,4457.05127,4525.641113,4343.077148,4402.307617,,,,,,,,,,,,,,,,,,,,,,,,,,,,,,,,,,,,,,,,,,,,,,,,,,,,,,,,,,,,,,,,,,,,,,
1720517973,50,0,4199.871582,4235.641113,4244.230957,4231.282227,4219.615234,4256.666504,4263.974121,4282.436035,4262.563965,4201.410156,4453.205078,4512.436035,4335,4391.025879,,,,,,,,,,,,,,,,,,,,,,,,,,,,,,,,,,,,,,,,,,,,,,,,,,,,,,,,,,,,,,,,,,,,,,
1720517973,51,0,4197.820313,4232.563965,4249.871582,4234.743652,4217.692383,4255.256348,4265,4288.461426,4266.666504,4210.897461,4459.230957,4528.717773,4338.717773,4403.461426,,,,,,,,,,,,,,,,,,,,,,,,,,,,,,,,,,,,,,,,,,,,,,,,,,,,,,,,,,,,,,,,,,,,,,
1720517973,52,0,4197.307617,4235,4251.282227,4231.922852,4219.358887,4250.384766,4261.153809,4293.717773,4264.871582,4212.307617,4458.077148,4528.846191,4340.641113,4405.641113,,,,,,,,,,,,,,,,,,,,,,,,,,,,,,,,,,,,,,,,,,,,,,,,,,,,,,,,,,,,,,,,,,,,,,
1720517973,53,0,4190.769043,4232.436035,4245.128418,4225.897461,4218.333496,4246.794922,4259.358887,4286.410156,4265.384766,4202.563965,4456.794922,4511.538574,4343.589844,4396.666504,,,,,,,,,,,,,,,,,,,,,,,,,,,,,,,,,,,,,,,,,,,,,,,,,,,,,,,,,,,,,,,,,,,,,,
1720517973,54,0,4183.974121,4227.820313,4248.461426,4226.153809,4216.410156,4248.077148,4263.077148,4289.102539,4266.538574,4202.94873,4463.205078,4517.820313,4342.692383,4399.615234,,,,,,,,,,,,,,,,,,,,,,,,,,,,,,,,,,,,,,,,,,,,,,,,,,,,,,,,,,,,,,,,,,,,,,
1720517973,55,0,4194.102539,4233.461426,4248.717773,4231.025879,4221.538574,4251.153809,4262.179688,4289.230957,4263.717773,4201.794922,4459.102539,4519.615234,4333.589844,4392.692383,,,,,,,,,,,,,,,,,,,,,,,,,,,,,,,,,,,,,,,,,,,,,,,,,,,,,,,,,,,,,,,,,,,,,,
1720517973,56,0,4203.846191,4243.974121,4244.230957,4232.436035,4231.025879,4251.153809,4261.153809,4282.820313,4262.692383,4193.974121,4456.410156,4511.666504,4333.974121,4390.256348,,,,,,,,,,,,,,,,,,,,,,,,,,,,,,,,,,,,,,,,,,,,,,,,,,,,,,,,,,,,,,,,,,,,,,
1720517973,57,0,4195.384766,4240.769043,4247.05127,4230.384766,4229.358887,4251.410156,4265.769043,4286.025879,4264.102539,4197.05127,4467.436035,4514.358887,4344.871582,4403.974121,,,,,,,,,,,,,,,,,,,,,,,,,,,,,,,,,,,,,,,,,,,,,,,,,,,,,,,,,,,,,,,,,,,,,,
1720517973,58,0,4190.256348,4234.871582,4250.641113,4233.333496,4218.717773,4249.487305,4268.333496,4289.743652,4262.179688,4203.589844,4469.743652,4519.102539,4348.846191,4406.153809,,,,,,,,,,,,,,,,,,,,,,,,,,,,,,,,,,,,,,,,,,,,,,,,,,,,,,,,,,,,,,,,,,,,,,
1720517973,59,0,4201.153809,4243.205078,4251.794922,4241.794922,4219.743652,4249.487305,4267.436035,4286.922852,4260.128418,4199.871582,4463.461426,4521.153809,4350.256348,4402.563965,,,,,,,,,,,,,,,,,,,,,,,,,,,,,,,,,,,,,,,,,,,,,,,,,,,,,,,,,,,,,,,,,,,,,,
1720517973,60,0,4206.794922,4251.153809,4253.974121,4249.230957,4229.487305,4253.461426,4266.794922,4290.897461,4263.717773,4201.410156,4466.922852,4523.461426,4355.256348,4408.717773,,,,,,,,,,,,,,,,,,,,,,,,,,,,,,,,,,,,,,,,,,,,,,,,,,,,,,,,,,,,,,,,,,,,,,
1720517973,61,0,4199.487305,4247.307617,4249.487305,4249.743652,4228.974121,4254.487305,4266.538574,4294.615234,4264.871582,4205.128418,4466.538574,4517.692383,4353.846191,4406.282227,,,,,,,,,,,,,,,,,,,,,,,,,,,,,,,,,,,,,,,,,,,,,,,,,,,,,,,,,,,,,,,,,,,,,,
1720517973,62,0,4196.666504,4243.205078,4246.794922,4247.692383,4225.897461,4251.025879,4263.974121,4290.769043,4259.358887,4202.692383,4459.230957,4514.743652,4346.666504,4401.538574,,,,,,,,,,,,,,,,,,,,,,,,,,,,,,,,,,,,,,,,,,,,,,,,,,,,,,,,,,,,,,,,,,,,,,
1720517973,63,0,4202.05127,4246.538574,4251.410156,4249.615234,4231.025879,4250.384766,4261.282227,4287.563965,4257.94873,4203.461426,4462.563965,4517.94873,4343.974121,4406.666504,,,,,,,,,,,,,,,,,,,,,,,,,,,,,,,,,,,,,,,,,,,,,,,,,,,,,,,,,,,,,,,,,,,,,,
1720517973,64,0,4199.102539,4246.666504,4245,4252.307617,4232.436035,4252.820313,4262.94873,4281.922852,4259.358887,4202.307617,4461.410156,4504.871582,4343.717773,4397.820313,0.963555,0.734724,0.40296,0.377867,0.192349,0.466145,0.345947,0.316003,0.221938,0.14232,0.407056,0.490589,0.240194,0.147717,0.088987,0.49237,0.37023,0.334684,0.120224,0.093126,0.296496,0.150799,0.187486,0.107586,0.076381,0.622762,0.258324,0.135171,0.131198,0.097128,0.262804,0.208402,0.252803,0.128298,0.097017,0.152208,0.217116,0.100601,0.062595,0.080674,2.274912,0.515585,0.764623,0.654557,0.150749,1.466174,0.693092,0.344956,0.224132,0.209879,0.652063,0.390163,0.21108,0.253795,0.189061,0.457877,0.5045,0.452811,0.221099,0.267674,0.607875,0.629869,0.640517,0.51646,0.450677,0.820972,0.485382,0.349253,0.333014,0.180661
1720517974,65,0,4188.974121,4239.743652,4236.282227,4250.512695,4225.512695,4249.871582,4263.846191,4280.256348,4253.717773,4200.641113,4450.256348,4493.974121,4338.974121,4385.769043,,,,,,,,,,,,,,,,,,,,,,,,,,,,,,,,,,,,,,,,,,,,,,,,,,,,,,,,,,,,,,,,,,,,,,
1720517974,66,0,4183.333496,4228.974121,4235.769043,4244.487305,4217.692383,4246.153809,4253.589844,4281.410156,4246.794922,4199.871582,4443.333496,4487.05127,4328.461426,4381.153809,,,,,,,,,,,,,,,,,,,,,,,,,,,,,,,,,,,,,,,,,,,,,,,,,,,,,,,,,,,,,,,,,,,,,,
1720517974,67,0,4182.436035,4230.897461,4239.230957,4244.358887,4216.282227,4246.410156,4249.102539,4278.846191,4246.025879,4198.589844,4445.641113,4484.102539,4327.820313,4385.128418,,,,,,,,,,,,,,,,,,,,,,,,,,,,,,,,,,,,,,,,,,,,,,,,,,,,,,,,,,,,,,,,,,,,,,
1720517974,68,0,4186.538574,4243.205078,4242.307617,4251.538574,4225.384766,4246.153809,4258.205078,4280.256348,4244.102539,4201.025879,4449.615234,4491.922852,4338.589844,4396.922852,,,,,,,,,,,,,,,,,,,,,,,,,,,,,,,,,,,,,,,,,,,,,,,,,,,,,,,,,,,,,,,,,,,,,,
1720517974,69,0,4189.358887,4242.94873,4238.717773,4251.794922,4228.333496,4245.256348,4261.538574,4281.538574,4239.102539,4203.333496,4448.205078,4485.897461,4334.615234,4390,,,,,,,,,,,,,,,,,,,,,,,,,,,,,,,,,,,,,,,,,,,,,,,,,,,,,,,,,,,,,,,,,,,,,,
1720517974,70,0,4181.025879,4230.769043,4235.512695,4244.743652,4221.153809,4246.410156,4259.230957,4279.871582,4240.384766,4202.820313,4448.461426,4480.641113,4327.179688,4377.692383,,,,,,,,,,,,,,,,,,,,,,,,,,,,,,,,,,,,,,,,,,,,,,,,,,,,,,,,,,,,,,,,,,,,,,
1720517974,71,0,4176.666504,4228.461426,4236.538574,4246.153809,4216.282227,4246.410156,4256.410156,4279.487305,4246.153809,4202.307617,4452.692383,4490,4333.077148,4382.436035,,,,,,,,,,,,,,,,,,,,,,,,,,,,,,,,,,,,,,,,,,,,,,,,,,,,,,,,,,,,,,,,,,,,,,
1720517974,72,0,4189.615234,4239.615234,4237.820313,4256.538574,4217.307617,4243.333496,4255,4282.563965,4250.256348,4206.794922,4452.563965,4493.846191,4334.743652,4390.384766,,,,,,,,,,,,,,,,,,,,,,,,,,,,,,,,,,,,,,,,,,,,,,,,,,,,,,,,,,,,,,,,,,,,,,
1720517974,73,0,4198.589844,4242.179688,4240.128418,4260.128418,4222.563965,4245,4257.179688,4284.102539,4247.05127,4213.205078,4450,4490.897461,4331.538574,4389.102539,,,,,,,,,,,,,,,,,,,,,,,,,,,,,,,,,,,,,,,,,,,,,,,,,,,,,,,,,,,,,,,,,,,,,,
1720517974,74,0,4196.025879,4238.717773,4242.94873,4259.615234,4230.897461,4247.436035,4256.666504,4281.794922,4238.846191,4214.871582,4451.538574,4490.641113,4336.282227,4388.589844,,,,,,,,,,,,,,,,,,,,,,,,,,,,,,,,,,,,,,,,,,,,,,,,,,,,,,,,,,,,,,,,,,,,,,
1720517974,75,0,4200,4242.05127,4242.307617,4262.692383,4233.205078,4244.743652,4252.436035,4277.820313,4231.538574,4211.666504,4453.717773,4492.94873,4342.436035,4393.333496,,,,,,,,,,,,,,,,,,,,,,,,,,,,,,,,,,,,,,,,,,,,,,,,,,,,,,,,,,,,,,,,,,,,,,
1720517974,76,0,4204.743652,4247.05127,4242.179688,4265.897461,4227.94873,4243.461426,4257.94873,4279.358887,4232.563965,4218.461426,4457.436035,4500,4345,4401.666504,,,,,,,,,,,,,,,,,,,,,,,,,,,,,,,,,,,,,,,,,,,,,,,,,,,,,,,,,,,,,,,,,,,,,,
1720517974,77,0,4199.102539,4246.666504,4243.333496,4265.512695,4229.871582,4247.563965,4267.307617,4285.512695,4243.717773,4230.384766,4456.538574,4499.871582,4339.102539,4401.538574,,,,,,,,,,,,,,,,,,,,,,,,,,,,,,,,,,,,,,,,,,,,,,,,,,,,,,,,,,,,,,,,,,,,,,
1720517974,78,0,4195.512695,4238.717773,4239.743652,4261.666504,4232.179688,4251.538574,4264.615234,4283.846191,4248.717773,4225.128418,4448.461426,4483.974121,4329.487305,4384.230957,,,,,,,,,,,,,,,,,,,,,,,,,,,,,,,,,,,,,,,,,,,,,,,,,,,,,,,,,,,,,,,,,,,,,,
1720517974,79,0,4199.358887,4239.230957,4242.307617,4264.230957,4227.692383,4250.384766,4262.179688,4282.436035,4246.538574,4226.153809,4451.538574,4486.410156,4335.384766,4385,,,,,,,,,,,,,,,,,,,,,,,,,,,,,,,,,,,,,,,,,,,,,,,,,,,,,,,,,,,,,,,,,,,,,,
1720517974,80,0,4200.256348,4247.692383,4243.974121,4263.974121,4228.589844,4247.692383,4266.922852,4282.307617,4242.692383,4239.102539,4457.563965,4491.666504,4349.358887,4395.512695,0.909527,0.586514,0.398576,0.423145,0.194491,0.342184,0.337837,0.311751,0.225462,0.123238,0.337944,0.320477,0.174828,0.152763,0.082056,0.453324,0.319368,0.286037,0.138689,0.096436,0.264789,0.128344,0.159704,0.105563,0.063921,0.593906,0.274057,0.154102,0.131832,0.087716,0.24085,0.21417,0.23495,0.157238,0.09922,0.153697,0.229924,0.092481,0.06623,0.07494,2.853649,0.68605,0.887017,0.713722,0.151382,1.131536,0.494218,0.402944,0.211811,0.1974,0.762033,0.355103,0.200406,0.275337,0.184705,0.407936,0.460257,0.430155,0.233036,0.246437,0.640371,0.575771,0.552364,0.472358,0.383406,0.697383,0.441832,0.338593,0.372706,0.164994
1720517974,81,0,4198.461426,4248.974121,4239.487305,4253.461426,4233.589844,4248.846191,4268.846191,4281.025879,4238.717773,4238.333496,4452.563965,4482.820313,4345.897461,4387.179688,,,,,,,,,,,,,,,,,,,,,,,,,,,,,,,,,,,,,,,,,,,,,,,,,,,,,,,,,,,,,,,,,,,,,,
1720517974,82,0,4208.974121,4250.641113,4245.641113,4252.563965,4233.974121,4249.358887,4264.102539,4285.641113,4237.692383,4232.692383,4452.94873,4488.077148,4338.974121,4387.436035,,,,,,,,,,,,,,,,,,,,,,,,,,,,,,,,,,,,,,,,,,,,,,,,,,,,,,,,,,,,,,,,,,,,,,
1720517974,83,0,4218.846191,4255.641113,4250.128418,4262.94873,4232.820313,4249.487305,4260.897461,4286.153809,4243.205078,4235.256348,4457.94873,4488.461426,4341.666504,4396.153809,,,,,,,,,,,,,,,,,,,,,,,,,,,,,,,,,,,,,,,,,,,,,,,,,,,,,,,,,,,,,,,,,,,,,,
1720517974,84,0,4213.205078,4250.384766,4247.436035,4263.717773,4235,4254.743652,4265.128418,4283.077148,4248.205078,4233.461426,4456.922852,4483.077148,4345,4395.641113,,,,,,,,,,,,,,,,,,,,,,,,,,,,,,,,,,,,,,,,,,,,,,,,,,,,,,,,,,,,,,,,,,,,,,
1720517974,85,0,4215,4246.538574,4248.461426,4261.153809,4234.358887,4256.025879,4265.384766,4285.128418,4247.307617,4232.05127,4455.512695,4488.205078,4342.05127,4394.358887,,,,,,,,,,,,,,,,,,,,,,,,,,,,,,,,,,,,,,,,,,,,,,,,,,,,,,,,,,,,,,,,,,,,,,
1720517974,86,0,4218.717773,4252.94873,4247.436035,4265,4233.974121,4251.025879,4261.538574,4285.641113,4249.230957,4235.128418,4452.563965,4485.897461,4331.282227,4393.717773,,,,,,,,,,,,,,,,,,,,,,,,,,,,,,,,,,,,,,,,,,,,,,,,,,,,,,,,,,,,,,,,,,,,,,
1720517974,87,0,4202.692383,4248.205078,4244.102539,4262.179688,4236.538574,4250.897461,4261.282227,4279.743652,4247.436035,4225.384766,4451.153809,4482.05127,4329.487305,4390.641113,,,,,,,,,,,,,,,,,,,,,,,,,,,,,,,,,,,,,,,,,,,,,,,,,,,,,,,,,,,,,,,,,,,,,,
1720517974,88,0,4196.794922,4241.410156,4246.538574,4258.846191,4234.615234,4251.025879,4262.307617,4277.307617,4239.358887,4213.589844,4455.641113,4485.512695,4341.410156,4389.871582,,,,,,,,,,,,,,,,,,,,,,,,,,,,,,,,,,,,,,,,,,,,,,,,,,,,,,,,,,,,,,,,,,,,,,
1720517974,89,0,4217.820313,4249.230957,4247.436035,4263.461426,4232.307617,4248.974121,4261.794922,4278.717773,4235.256348,4216.025879,4452.94873,4486.666504,4338.333496,4392.692383,,,,,,,,,,,,,,,,,,,,,,,,,,,,,,,,,,,,,,,,,,,,,,,,,,,,,,,,,,,,,,,,,,,,,,
1720517974,90,0,4222.307617,4252.563965,4249.487305,4264.871582,4236.538574,4255.512695,4263.205078,4280.897461,4239.743652,4224.487305,4452.179688,4493.589844,4335.128418,4401.538574,,,,,,,,,,,,,,,,,,,,,,,,,,,,,,,,,,,,,,,,,,,,,,,,,,,,,,,,,,,,,,,,,,,,,,
1720517974,91,0,4203.205078,4245.641113,4258.717773,4263.205078,4238.717773,4260,4267.820313,4285.128418,4243.846191,4226.282227,4460.128418,4500.769043,4339.871582,4406.538574,,,,,,,,,,,,,,,,,,,,,,,,,,,,,,,,,,,,,,,,,,,,,,,,,,,,,,,,,,,,,,,,,,,,,,
1720517974,92,0,4198.077148,4246.922852,4253.846191,4265.384766,4236.025879,4252.94873,4263.974121,4279.743652,4237.94873,4216.538574,4448.974121,4482.563965,4321.153809,4389.230957,,,,,,,,,,,,,,,,,,,,,,,,,,,,,,,,,,,,,,,,,,,,,,,,,,,,,,,,,,,,,,,,,,,,,,
1720517974,93,0,4206.538574,4246.794922,4242.05127,4261.666504,4233.333496,4247.820313,4253.974121,4275.384766,4232.820313,4211.922852,4435.256348,4477.436035,4306.025879,4380.769043,,,,,,,,,,,,,,,,,,,,,,,,,,,,,,,,,,,,,,,,,,,,,,,,,,,,,,,,,,,,,,,,,,,,,,
1720517974,94,0,4204.358887,4239.102539,4242.05127,4253.333496,4231.410156,4247.563965,4246.794922,4279.743652,4237.307617,4216.153809,4447.820313,4484.358887,4328.077148,4392.436035,,,,,,,,,,,,,,,,,,,,,,,,,,,,,,,,,,,,,,,,,,,,,,,,,,,,,,,,,,,,,,,,,,,,,,
1720517974,95,0,4196.538574,4237.820313,4241.538574,4251.794922,4232.179688,4248.077148,4249.615234,4279.230957,4243.077148,4217.563965,4461.025879,4475.384766,4344.102539,4394.102539,,,,,,,,,,,,,,,,,,,,,,,,,,,,,,,,,,,,,,,,,,,,,,,,,,,,,,,,,,,,,,,,,,,,,,
1720517974,96,0,4203.205078,4247.05127,4240.384766,4257.94873,4234.230957,4250.256348,4258.333496,4278.974121,4245.128418,4216.666504,4455.641113,4481.282227,4330,4392.05127,0.967489,0.490799,0.370112,0.465608,0.203922,0.309398,0.362406,0.292864,0.233484,0.120078,0.279602,0.223259,0.130274,0.160967,0.079882,0.423395,0.27126,0.230563,0.160318,0.10391,0.268697,0.129737,0.14068,0.112212,0.054498,0.5156,0.296831,0.172997,0.131183,0.081538,0.221484,0.209046,0.207158,0.188339,0.103188,0.152214,0.251976,0.084236,0.069709,0.07236,3.105216,0.848849,0.950589,0.711168,0.14976,0.794766,0.346193,0.433351,0.198313,0.185392,0.864415,0.342605,0.174718,0.286453,0.180004,0.483693,0.475509,0.373977,0.24721,0.233318,0.679215,0.523076,0.450501,0.44354,0.317882,0.661828,0.411252,0.307005,0.399155,0.153121
1720517974,97,0,4210.897461,4250.128418,4242.179688,4263.717773,4232.94873,4251.410156,4256.282227,4279.487305,4247.05127,4213.333496,4449.615234,4492.436035,4323.461426,4389.358887,,,,,,,,,,,,,,,,,,,,,,,,,,,,,,,,,,,,,,,,,,,,,,,,,,,,,,,,,,,,,,,,,,,,,,
1720517974,98,0,4202.563965,4237.692383,4242.94873,4257.820313,4232.692383,4249.615234,4250.256348,4279.487305,4247.436035,4211.153809,4453.846191,4493.205078,4333.846191,4389.102539,,,,,,,,,,,,,,,,,,,,,,,,,,,,,,,,,,,,,,,,,,,,,,,,,,,,,,,,,,,,,,,,,,,,,,
1720517974,99,0,4197.692383,4231.538574,4241.282227,4250,4232.179688,4249.615234,4251.666504,4279.871582,4246.153809,4215.512695,4452.436035,4492.563965,4331.153809,4392.307617,,,,,,,,,,,,,,,,,,,,,,,,,,,,,,,,,,,,,,,,,,,,,,,,,,,,,,,,,,,,,,,,,,,,,,
1720517974,100,0,4209.230957,4243.461426,4245.128418,4255.769043,4231.794922,4251.410156,4260.128418,4281.794922,4247.820313,4219.230957,4448.974121,4498.205078,4324.743652,4396.282227,,,,,,,,,,,,,,,,,,,,,,,,,,,,,,,,,,,,,,,,,,,,,,,,,,,,,,,,,,,,,,,,,,,,,,
1720517974,101,0,4225.512695,4254.487305,4254.871582,4267.05127,4238.077148,4254.230957,4267.94873,4284.743652,4250,4219.230957,4458.717773,4508.974121,4338.846191,4408.846191,,,,,,,,,,,,,,,,,,,,,,,,,,,,,,,,,,,,,,,,,,,,,,,,,,,,,,,,,,,,,,,,,,,,,,
1720517974,102,0,4234.743652,4251.153809,4257.820313,4266.794922,4245.128418,4260.384766,4268.077148,4284.743652,4251.666504,4219.102539,4468.461426,4508.974121,4354.487305,4417.94873,,,,,,,,,,,,,,,,,,,,,,,,,,,,,,,,,,,,,,,,,,,,,,,,,,,,,,,,,,,,,,,,,,,,,,
1720517974,103,0,4227.179688,4248.589844,4256.538574,4261.666504,4243.461426,4263.974121,4270.384766,4286.922852,4258.077148,4225.384766,4469.871582,4502.436035,4350.384766,4416.025879,,,,,,,,,,,,,,,,,,,,,,,,,,,,,,,,,,,,,,,,,,,,,,,,,,,,,,,,,,,,,,,,,,,,,,
1720517974,104,0,4218.077148,4253.717773,4261.410156,4265.128418,4243.974121,4263.974121,4277.179688,4296.153809,4265.641113,4232.820313,4473.974121,4510.256348,4347.307617,4419.358887,,,,,,,,,,,,,,,,,,,,,,,,,,,,,,,,,,,,,,,,,,,,,,,,,,,,,,,,,,,,,,,,,,,,,,
1720517974,105,0,4226.282227,4252.436035,4263.205078,4265.384766,4244.102539,4263.205078,4276.282227,4300.897461,4261.922852,4229.358887,4475,4515.897461,4350.897461,4427.179688,,,,,,,,,,,,,,,,,,,,,,,,,,,,,,,,,,,,,,,,,,,,,,,,,,,,,,,,,,,,,,,,,,,,,,
1720517974,106,0,4230.897461,4250.512695,4255.128418,4263.077148,4237.307617,4258.333496,4262.820313,4286.410156,4250,4215.384766,4466.025879,4494.102539,4345.769043,4415.641113,,,,,,,,,,,,,,,,,,,,,,,,,,,,,,,,,,,,,,,,,,,,,,,,,,,,,,,,,,,,,,,,,,,,,,
1720517974,107,0,4218.717773,4253.077148,4251.410156,4263.333496,4235.512695,4249.615234,4256.538574,4276.025879,4244.358887,4211.153809,4460.128418,4488.974121,4339.487305,4405.769043,,,,,,,,,,,,,,,,,,,,,,,,,,,,,,,,,,,,,,,,,,,,,,,,,,,,,,,,,,,,,,,,,,,,,,
1720517974,108,0,4212.179688,4251.282227,4253.717773,4261.410156,4237.563965,4248.077148,4260.641113,4285.897461,4247.692383,4217.436035,4462.436035,4500.384766,4343.974121,4412.05127,,,,,,,,,,,,,,,,,,,,,,,,,,,,,,,,,,,,,,,,,,,,,,,,,,,,,,,,,,,,,,,,,,,,,,
1720517974,109,0,4217.820313,4247.05127,4255.128418,4260.384766,4233.846191,4255.384766,4262.820313,4288.974121,4250.512695,4214.230957,4462.820313,4491.538574,4348.717773,4411.794922,,,,,,,,,,,,,,,,,,,,,,,,,,,,,,,,,,,,,,,,,,,,,,,,,,,,,,,,,,,,,,,,,,,,,,
1720517974,110,0,4218.846191,4252.820313,4256.922852,4264.102539,4233.205078,4253.846191,4264.615234,4282.05127,4251.794922,4212.436035,4459.102539,4488.461426,4343.461426,4411.922852,,,,,,,,,,,,,,,,,,,,,,,,,,,,,,,,,,,,,,,,,,,,,,,,,,,,,,,,,,,,,,,,,,,,,,
1720517974,111,0,4215.769043,4261.538574,4254.743652,4264.743652,4241.025879,4248.974121,4262.563965,4279.615234,4247.820313,4212.563965,4458.846191,4492.05127,4339.230957,4413.974121,,,,,,,,,,,,,,,,,,,,,,,,,,,,,,,,,,,,,,,,,,,,,,,,,,,,,,,,,,,,,,,,,,,,,,
1720517974,112,0,4224.102539,4260.641113,4252.436035,4264.871582,4245.384766,4253.461426,4261.922852,4280.512695,4237.05127,4208.461426,4463.077148,4491.282227,4345.512695,4415.512695,1.141382,0.486344,0.329788,0.502046,0.216467,0.36059,0.422824,0.263944,0.245872,0.127892,0.264148,0.207622,0.105785,0.170073,0.080999,0.438604,0.255913,0.18034,0.181073,0.11219,0.300665,0.157388,0.135633,0.129188,0.051185,0.411758,0.326044,0.189528,0.128282,0.078278,0.20069,0.205145,0.17429,0.217998,0.107056,0.147735,0.276991,0.076345,0.072703,0.071997,2.963224,0.949328,0.911308,0.64119,0.143105,0.564197,0.266658,0.422984,0.184342,0.177268,0.934503,0.365507,0.137963,0.284728,0.175144,0.729162,0.622949,0.299075,0.267231,0.227894,0.727636,0.504994,0.34627,0.44997,0.263606,0.709605,0.423262,0.262984,0.416926,0.149752
1720517974,113,0,4236.794922,4262.820313,4256.666504,4271.153809,4244.615234,4256.025879,4265.641113,4278.717773,4232.05127,4206.922852,4463.589844,4490.128418,4346.153809,4418.717773,,,,,,,,,,,,,,,,,,,,,,,,,,,,,,,,,,,,,,,,,,,,,,,,,,,,,,,,,,,,,,,,,,,,,,
1720517974,114,0,4237.179688,4267.179688,4257.692383,4272.820313,4243.846191,4248.717773,4259.487305,4274.102539,4229.743652,4201.794922,4454.871582,4483.205078,4333.205078,4411.410156,,,,,,,,,,,,,,,,,,,,,,,,,,,,,,,,,,,,,,,,,,,,,,,,,,,,,,,,,,,,,,,,,,,,,,
1720517974,115,0,4229.487305,4262.692383,4255.256348,4271.153809,4242.563965,4247.94873,4252.692383,4276.538574,4229.230957,4197.563965,4451.025879,4481.794922,4327.05127,4403.461426,,,,,,,,,,,,,,,,,,,,,,,,,,,,,,,,,,,,,,,,,,,,,,,,,,,,,,,,,,,,,,,,,,,,,,
1720517974,116,0,4231.538574,4261.666504,4254.743652,4275.641113,4245.512695,4258.717773,4260.256348,4284.743652,4240.512695,4207.307617,4456.666504,4487.436035,4335.897461,4407.563965,,,,,,,,,,,,,,,,,,,,,,,,,,,,,,,,,,,,,,,,,,,,,,,,,,,,,,,,,,,,,,,,,,,,,,
1720517974,117,0,4233.589844,4265.384766,4256.153809,4278.589844,4250.128418,4263.717773,4267.94873,4286.025879,4252.94873,4217.307617,4462.179688,4487.563965,4345.512695,4410.256348,,,,,,,,,,,,,,,,,,,,,,,,,,,,,,,,,,,,,,,,,,,,,,,,,,,,,,,,,,,,,,,,,,,,,,
1720517974,118,0,4231.794922,4265.128418,4261.538574,4278.589844,4248.974121,4262.307617,4263.205078,4282.307617,4253.589844,4214.102539,4464.230957,4488.205078,4342.563965,4408.205078,,,,,,,,,,,,,,,,,,,,,,,,,,,,,,,,,,,,,,,,,,,,,,,,,,,,,,,,,,,,,,,,,,,,,,
1720517974,119,0,4240.769043,4268.974121,4265.641113,4281.794922,4245.641113,4261.538574,4259.102539,4284.230957,4250.512695,4213.974121,4463.205078,4494.358887,4339.358887,4413.974121,,,,,,,,,,,,,,,,,,,,,,,,,,,,,,,,,,,,,,,,,,,,,,,,,,,,,,,,,,,,,,,,,,,,,,
1720517974,120,0,4249.102539,4270.641113,4263.333496,4283.717773,4247.307617,4262.179688,4260.769043,4281.666504,4249.230957,4219.487305,4466.025879,4491.025879,4344.358887,4418.077148,,,,,,,,,,,,,,,,,,,,,,,,,,,,,,,,,,,,,,,,,,,,,,,,,,,,,,,,,,,,,,,,,,,,,,
1720517974,121,0,4247.563965,4262.820313,4265,4284.615234,4248.846191,4263.589844,4263.846191,4276.794922,4245.769043,4218.717773,4467.563965,4493.077148,4344.871582,4420.384766,,,,,,,,,,,,,,,,,,,,,,,,,,,,,,,,,,,,,,,,,,,,,,,,,,,,,,,,,,,,,,,,,,,,,,
1720517974,122,0,4248.077148,4265.641113,4264.871582,4289.358887,4248.589844,4263.717773,4265.769043,4280.384766,4243.846191,4212.820313,4465,4495.256348,4343.846191,4422.05127,,,,,,,,,,,,,,,,,,,,,,,,,,,,,,,,,,,,,,,,,,,,,,,,,,,,,,,,,,,,,,,,,,,,,,
1720517974,123,0,4249.615234,4273.717773,4257.94873,4291.794922,4249.871582,4264.615234,4265.384766,4281.794922,4243.205078,4207.820313,4463.333496,4485.128418,4342.436035,4412.179688,,,,,,,,,,,,,,,,,,,,,,,,,,,,,,,,,,,,,,,,,,,,,,,,,,,,,,,,,,,,,,,,,,,,,,
1720517974,124,0,4245.512695,4270,4258.717773,4292.307617,4250.128418,4265.512695,4270.769043,4278.974121,4240.897461,4213.077148,4463.717773,4488.717773,4335.641113,4408.205078,,,,,,,,,,,,,,,,,,,,,,,,,,,,,,,,,,,,,,,,,,,,,,,,,,,,,,,,,,,,,,,,,,,,,,
1720517974,125,0,4244.871582,4263.461426,4259.487305,4291.666504,4250.384766,4263.333496,4276.153809,4281.153809,4242.179688,4217.436035,4465.384766,4490,4338.077148,4410.897461,,,,,,,,,,,,,,,,,,,,,,,,,,,,,,,,,,,,,,,,,,,,,,,,,,,,,,,,,,,,,,,,,,,,,,
1720517974,126,0,4247.436035,4264.743652,4258.077148,4291.153809,4249.871582,4257.820313,4269.743652,4285.384766,4244.743652,4213.205078,4469.487305,4489.487305,4353.589844,4414.743652,,,,,,,,,,,,,,,,,,,,,,,,,,,,,,,,,,,,,,,,,,,,,,,,,,,,,,,,,,,,,,,,,,,,,,
1720517974,127,0,4246.666504,4273.717773,4264.358887,4295.512695,4246.282227,4257.05127,4262.05127,4283.717773,4244.615234,4214.487305,4473.846191,4501.153809,4361.282227,4422.179688,,,,,,,,,,,,,,,,,,,,,,,,,,,,,,,,,,,,,,,,,,,,,,,,,,,,,,,,,,,,,,,,,,,,,,
1720517974,0,0,4251.666504,4280.512695,4267.05127,4303.077148,4246.922852,4262.692383,4268.589844,4282.563965,4246.410156,4218.717773,4471.538574,4498.717773,4355.512695,4420.512695,1.343662,0.572812,0.296819,0.527947,0.230493,0.457741,0.507823,0.231384,0.260141,0.141513,0.272682,0.256398,0.093691,0.177238,0.08324,0.467627,0.292808,0.142879,0.196325,0.11825,0.344369,0.204017,0.141908,0.153824,0.054601,0.312768,0.354499,0.1982,0.122652,0.076337,0.19777,0.218569,0.142565,0.241641,0.109158,0.146115,0.296223,0.068087,0.074896,0.071995,2.470715,0.965419,0.768601,0.527863,0.130593,0.502531,0.240325,0.373973,0.169177,0.173359,0.956963,0.42393,0.097283,0.272482,0.17049,1.117977,0.928552,0.223736,0.291403,0.22787,0.792968,0.542827,0.249883,0.494798,0.229045,0.784267,0.501046,0.218161,0.43136,0.157594
1720517974,1,0,4249.230957,4270.641113,4262.179688,4296.922852,4253.333496,4265.769043,4275.769043,4287.820313,4249.487305,4217.179688,4467.94873,4488.333496,4347.307617,4414.102539,,,,,,,,,,,,,,,,,,,,,,,,,,,,,,,,,,,,,,,,,,,,,,,,,,,,,,,,,,,,,,,,,,,,,,
1720517974,2,0,4233.717773,4257.436035,4255.769043,4284.871582,4252.05127,4265.128418,4270.128418,4285.641113,4248.333496,4215.512695,4462.05127,4481.410156,4342.563965,4406.282227,,,,,,,,,,,,,,,,,,,,,,,,,,,,,,,,,,,,,,,,,,,,,,,,,,,,,,,,,,,,,,,,,,,,,,
1720517974,3,0,4228.333496,4261.282227,4254.358887,4287.05127,4246.922852,4266.025879,4264.743652,4282.05127,4248.333496,4217.436035,4458.846191,4477.307617,4343.589844,4400.641113,,,,,,,,,,,,,,,,,,,,,,,,,,,,,,,,,,,,,,,,,,,,,,,,,,,,,,,,,,,,,,,,,,,,,,
1720517974,4,0,4236.153809,4266.153809,4257.05127,4288.846191,4249.358887,4265,4265.384766,4285,4251.153809,4219.871582,4462.563965,4478.461426,4337.436035,4401.538574,,,,,,,,,,,,,,,,,,,,,,,,,,,,,,,,,,,,,,,,,,,,,,,,,,,,,,,,,,,,,,,,,,,,,,
1720517974,5,0,4240.641113,4262.820313,4256.794922,4284.230957,4250.897461,4258.974121,4264.230957,4284.230957,4249.358887,4219.358887,4464.615234,4482.692383,4331.922852,4402.563965,,,,,,,,,,,,,,,,,,,,,,,,,,,,,,,,,,,,,,,,,,,,,,,,,,,,,,,,,,,,,,,,,,,,,,
1720517974,6,0,4242.05127,4264.615234,4256.153809,4287.307617,4246.666504,4257.94873,4261.538574,4279.358887,4248.077148,4215.641113,4464.487305,4483.846191,4345.897461,4402.307617,,,,,,,,,,,,,,,,,,,,,,,,,,,,,,,,,,,,,,,,,,,,,,,,,,,,,,,,,,,,,,,,,,,,,,
1720517974,7,0,4246.410156,4266.282227,4265.256348,4290.641113,4245.256348,4261.282227,4264.358887,4283.974121,4249.358887,4219.743652,4470.512695,4495.512695,4354.358887,4412.692383,,,,,,,,,,,,,,,,,,,,,,,,,,,,,,,,,,,,,,,,,,,,,,,,,,,,,,,,,,,,,,,,,,,,,,
1720517974,8,0,4241.025879,4260.256348,4269.358887,4283.461426,4247.692383,4259.230957,4269.743652,4287.563965,4245.128418,4225.256348,4471.025879,4497.94873,4341.410156,4414.871582,,,,,,,,,,,,,,,,,,,,,,,,,,,,,,,,,,,,,,,,,,,,,,,,,,,,,,,,,,,,,,,,,,,,,,
1720517974,9,0,4237.179688,4259.615234,4262.307617,4280.512695,4249.871582,4258.974121,4274.743652,4280,4245.769043,4220.512695,4463.461426,4483.077148,4341.794922,4403.205078,,,,,,,,,,,,,,,,,,,,,,,,,,,,,,,,,,,,,,,,,,,,,,,,,,,,,,,,,,,,,,,,,,,,,,
1720517974,10,0,4238.846191,4263.589844,4265.256348,4281.922852,4248.717773,4263.077148,4278.461426,4283.717773,4252.179688,4223.205078,4466.153809,4493.205078,4355,4411.410156,,,,,,,,,,,,,,,,,,,,,,,,,,,,,,,,,,,,,,,,,,,,,,,,,,,,,,,,,,,,,,,,,,,,,,
1720517974,11,0,4234.487305,4258.589844,4268.974121,4273.461426,4246.538574,4263.077148,4275.641113,4291.025879,4249.230957,4233.461426,4473.589844,4501.282227,4350.641113,4417.820313,,,,,,,,,,,,,,,,,,,,,,,,,,,,,,,,,,,,,,,,,,,,,,,,,,,,,,,,,,,,,,,,,,,,,,
1720517974,12,0,4244.615234,4264.102539,4268.846191,4277.94873,4255.512695,4262.692383,4277.05127,4288.717773,4247.692383,4233.205078,4476.282227,4494.358887,4349.615234,4414.615234,,,,,,,,,,,,,,,,,,,,,,,,,,,,,,,,,,,,,,,,,,,,,,,,,,,,,,,,,,,,,,,,,,,,,,
1720517974,13,0,4263.461426,4279.487305,4271.794922,4292.563965,4262.820313,4263.974121,4282.05127,4290,4252.692383,4230.769043,4479.615234,4499.358887,4362.94873,4422.436035,,,,,,,,,,,,,,,,,,,,,,,,,,,,,,,,,,,,,,,,,,,,,,,,,,,,,,,,,,,,,,,,,,,,,,
1720517974,14,0,4257.436035,4271.794922,4270.512695,4287.436035,4252.563965,4260.897461,4277.307617,4290.512695,4246.922852,4233.205078,4480.512695,4499.102539,4363.974121,4422.307617,,,,,,,,,,,,,,,,,,,,,,,,,,,,,,,,,,,,,,,,,,,,,,,,,,,,,,,,,,,,,,,,,,,,,,
1720517974,15,0,4242.94873,4260.512695,4270,4279.871582,4247.820313,4259.230957,4272.307617,4285.641113,4243.717773,4231.794922,4474.487305,4496.666504,4355,4418.461426,,,,,,,,,,,,,,,,,,,,,,,,,,,,,,,,,,,,,,,,,,,,,,,,,,,,,,,,,,,,,,,,,,,,,,
1720517974,16,0,4255.897461,4272.563965,4273.461426,4290.897461,4259.102539,4263.461426,4277.94873,4285.128418,4258.333496,4221.410156,4471.922852,4500.384766,4358.846191,4423.846191,1.544538,0.71554,0.288468,0.539876,0.247266,0.572269,0.59251,0.20093,0.272678,0.158008,0.305131,0.343194,0.088144,0.180655,0.084621,0.51833,0.382652,0.117625,0.2029,0.121255,0.392768,0.260307,0.152078,0.180334,0.062756,0.249816,0.371388,0.194083,0.116363,0.074101,0.237549,0.260073,0.120865,0.25748,0.109583,0.156379,0.302276,0.059904,0.077286,0.071619,1.825772,0.900679,0.569346,0.41435,0.114034,0.619821,0.234158,0.302436,0.153379,0.171517,0.943876,0.502941,0.064253,0.256978,0.166592,1.5683,1.347426,0.162973,0.313463,0.230547,0.907446,0.625032,0.173917,0.564573,0.21917,0.85522,0.641445,0.186469,0.444748,0.175123
1720517974,17,0,4268.974121,4279.487305,4273.589844,4300.128418,4262.307617,4265.128418,4279.615234,4288.974121,4267.692383,4207.820313,4477.563965,4497.563965,4368.974121,4424.615234,,,,,,,,,,,,,,,,,,,,,,,,,,,,,,,,,,,,,,,,,,,,,,,,,,,,,,,,,,,,,,,,,,,,,,
1720517974,18,0,4261.794922,4272.179688,4273.205078,4295.769043,4258.333496,4263.717773,4272.436035,4289.487305,4264.871582,4198.461426,4480.128418,4493.846191,4367.05127,4421.153809,,,,,,,,,,,,,,,,,,,,,,,,,,,,,,,,,,,,,,,,,,,,,,,,,,,,,,,,,,,,,,,,,,,,,,
1720517974,19,0,4260.897461,4276.410156,4277.820313,4295.641113,4261.794922,4264.102539,4272.563965,4286.538574,4265.769043,4199.230957,4478.461426,4499.102539,4354.615234,4426.538574,,,,,,,,,,,,,,,,,,,,,,,,,,,,,,,,,,,,,,,,,,,,,,,,,,,,,,,,,,,,,,,,,,,,,,
1720517974,20,0,4261.922852,4274.871582,4276.282227,4296.410156,4264.102539,4265.256348,4276.410156,4282.307617,4266.410156,4201.282227,4473.077148,4492.436035,4350.256348,4423.461426,,,,,,,,,,,,,,,,,,,,,,,,,,,,,,,,,,,,,,,,,,,,,,,,,,,,,,,,,,,,,,,,,,,,,,
1720517974,21,0,4259.743652,4266.153809,4276.538574,4293.461426,4263.461426,4267.05127,4278.846191,4284.615234,4263.205078,4202.820313,4473.333496,4488.717773,4360.641113,4421.153809,,,,,,,,,,,,,,,,,,,,,,,,,,,,,,,,,,,,,,,,,,,,,,,,,,,,,,,,,,,,,,,,,,,,,,
1720517974,22,0,4261.410156,4273.205078,4278.589844,4296.410156,4264.615234,4266.538574,4276.666504,4288.846191,4264.358887,4202.307617,4479.102539,4494.743652,4362.563965,4425,,,,,,,,,,,,,,,,,,,,,,,,,,,,,,,,,,,,,,,,,,,,,,,,,,,,,,,,,,,,,,,,,,,,,,
1720517974,23,0,4257.692383,4277.307617,4272.436035,4300.897461,4261.282227,4262.820313,4271.410156,4283.205078,4262.563965,4201.410156,4475.128418,4484.487305,4356.538574,4414.615234,,,,,,,,,,,,,,,,,,,,,,,,,,,,,,,,,,,,,,,,,,,,,,,,,,,,,,,,,,,,,,,,,,,,,,
1720517974,24,0,4253.461426,4271.794922,4277.563965,4305.512695,4256.025879,4261.922852,4271.538574,4283.205078,4254.358887,4210.641113,4475.384766,4484.871582,4359.102539,4415.769043,,,,,,,,,,,,,,,,,,,,,,,,,,,,,,,,,,,,,,,,,,,,,,,,,,,,,,,,,,,,,,,,,,,,,,
1720517974,25,0,4263.589844,4274.487305,4284.487305,4307.436035,4257.563965,4262.94873,4270.256348,4285.512695,4247.94873,4211.666504,4477.820313,4486.282227,4355.256348,4422.05127,,,,,,,,,,,,,,,,,,,,,,,,,,,,,,,,,,,,,,,,,,,,,,,,,,,,,,,,,,,,,,,,,,,,,,
1720517974,26,0,4266.922852,4273.974121,4276.153809,4305.384766,4260.384766,4261.794922,4267.94873,4281.282227,4248.077148,4200.897461,4472.94873,4477.820313,4351.153809,4415.256348,,,,,,,,,,,,,,,,,,,,,,,,,,,,,,,,,,,,,,,,,,,,,,,,,,,,,,,,,,,,,,,,,,,,,,
1720517974,27,0,4252.307617,4262.179688,4271.538574,4304.358887,4258.717773,4263.589844,4274.230957,4280.769043,4245.384766,4199.615234,4474.358887,4484.230957,4358.974121,4413.077148,,,,,,,,,,,,,,,,,,,,,,,,,,,,,,,,,,,,,,,,,,,,,,,,,,,,,,,,,,,,,,,,,,,,,,
1720517974,28,0,4252.436035,4261.794922,4273.333496,4308.333496,4259.615234,4267.179688,4278.461426,4282.692383,4236.666504,4205,4476.282227,4485.384766,4359.358887,4413.589844,,,,,,,,,,,,,,,,,,,,,,,,,,,,,,,,,,,,,,,,,,,,,,,,,,,,,,,,,,,,,,,,,,,,,,
1720517974,29,0,4264.615234,4268.589844,4275.641113,4315.769043,4262.179688,4264.358887,4275.641113,4285.641113,4231.666504,4210.256348,4472.436035,4481.153809,4353.846191,4411.538574,,,,,,,,,,,,,,,,,,,,,,,,,,,,,,,,,,,,,,,,,,,,,,,,,,,,,,,,,,,,,,,,,,,,,,
1720517974,30,0,4262.563965,4265.256348,4278.077148,4321.153809,4261.410156,4261.410156,4276.666504,4287.820313,4233.974121,4212.94873,4471.153809,4484.871582,4358.589844,4413.589844,,,,,,,,,,,,,,,,,,,,,,,,,,,,,,,,,,,,,,,,,,,,,,,,,,,,,,,,,,,,,,,,,,,,,,
1720517974,31,0,4262.05127,4265.897461,4278.461426,4324.230957,4261.410156,4263.589844,4273.077148,4283.205078,4231.282227,4212.692383,4475.384766,4485.897461,4363.205078,4419.358887,,,,,,,,,,,,,,,,,,,,,,,,,,,,,,,,,,,,,,,,,,,,,,,,,,,,,,,,,,,,,,,,,,,,,,
1720517974,32,0,4269.102539,4274.230957,4279.871582,4325.641113,4262.563965,4259.743652,4261.282227,4274.871582,4218.974121,4211.153809,4475.641113,4481.410156,4362.436035,4419.615234,1.683897,0.858397,0.310686,0.537287,0.267719,0.672339,0.645339,0.176957,0.279981,0.176021,0.352337,0.441791,0.08964,0.180154,0.084029,0.548644,0.497689,0.100826,0.199716,0.122393,0.424493,0.311438,0.158772,0.200891,0.072249,0.231527,0.370877,0.177876,0.112847,0.070911,0.336501,0.328578,0.115849,0.265394,0.110404,0.188073,0.295006,0.053564,0.081649,0.071686,1.246475,0.782904,0.385214,0.342807,0.097078,0.890606,0.225407,0.231263,0.139489,0.169233,0.928632,0.574913,0.050056,0.24754,0.163525,1.957531,1.77084,0.127465,0.326967,0.233079,1.081882,0.712869,0.130946,0.635935,0.233763,0.924614,0.807439,0.182201,0.455797,0.196331
1720517974,33,0,4271.922852,4281.025879,4282.179688,4332.307617,4262.820313,4253.846191,4260.897461,4270.128418,4213.077148,4217.179688,4475.897461,4481.922852,4372.179688,4421.153809,,,,,,,,,,,,,,,,,,,,,,,,,,,,,,,,,,,,,,,,,,,,,,,,,,,,,,,,,,,,,,,,,,,,,,
1720517974,34,0,4279.871582,4283.333496,4281.410156,4339.615234,4265.769043,4257.94873,4264.615234,4270.641113,4217.307617,4222.307617,4478.205078,4479.871582,4381.666504,4423.589844,,,,,,,,,,,,,,,,,,,,,,,,,,,,,,,,,,,,,,,,,,,,,,,,,,,,,,,,,,,,,,,,,,,,,,
1720517974,35,0,4283.333496,4280.641113,4282.94873,4335.384766,4266.794922,4262.94873,4262.692383,4276.794922,4222.94873,4225.641113,4478.589844,4484.102539,4373.717773,4425.769043,,,,,,,,,,,,,,,,,,,,,,,,,,,,,,,,,,,,,,,,,,,,,,,,,,,,,,,,,,,,,,,,,,,,,,
1720517974,36,0,4271.538574,4278.077148,4281.922852,4331.410156,4260.897461,4262.820313,4263.205078,4280.641113,4228.846191,4230.897461,4479.358887,4485.769043,4363.846191,4423.333496,,,,,,,,,,,,,,,,,,,,,,,,,,,,,,,,,,,,,,,,,,,,,,,,,,,,,,,,,,,,,,,,,,,,,,
1720517974,37,0,4264.615234,4274.871582,4271.794922,4335.256348,4259.743652,4263.333496,4265.897461,4271.538574,4231.025879,4222.436035,4472.307617,4463.461426,4365.769043,4409.871582,,,,,,,,,,,,,,,,,,,,,,,,,,,,,,,,,,,,,,,,,,,,,,,,,,,,,,,,,,,,,,,,,,,,,,
1720517974,38,0,4269.871582,4267.94873,4272.307617,4332.307617,4262.436035,4263.077148,4259.102539,4268.974121,4225.128418,4217.820313,4467.563965,4462.05127,4359.615234,4409.358887,,,,,,,,,,,,,,,,,,,,,,,,,,,,,,,,,,,,,,,,,,,,,,,,,,,,,,,,,,,,,,,,,,,,,,
1720517974,39,0,4267.436035,4263.077148,4276.794922,4323.717773,4258.717773,4260.256348,4249.615234,4272.94873,4218.077148,4223.717773,4464.102539,4468.974121,4341.538574,4410.641113,,,,,,,,,,,,,,,,,,,,,,,,,,,,,,,,,,,,,,,,,,,,,,,,,,,,,,,,,,,,,,,,,,,,,,
1720517974,40,0,4256.922852,4264.487305,4270,4325.128418,4256.410156,4261.794922,4256.025879,4272.563965,4220.897461,4223.846191,4461.282227,4456.282227,4341.538574,4402.05127,,,,,,,,,,,,,,,,,,,,,,,,,,,,,,,,,,,,,,,,,,,,,,,,,,,,,,,,,,,,,,,,,,,,,,
1720517974,41,0,4254.871582,4262.307617,4269.102539,4327.692383,4254.871582,4264.743652,4263.589844,4274.487305,4220.384766,4219.358887,4465.641113,4456.538574,4351.538574,4403.077148,,,,,,,,,,,,,,,,,,,,,,,,,,,,,,,,,,,,,,,,,,,,,,,,,,,,,,,,,,,,,,,,,,,,,,
1720517974,42,0,4259.615234,4258.461426,4270,4325.384766,4254.230957,4263.717773,4253.846191,4272.820313,4208.846191,4213.205078,4462.179688,4459.743652,4345.384766,4403.205078,,,,,,,,,,,,,,,,,,,,,,,,,,,,,,,,,,,,,,,,,,,,,,,,,,,,,,,,,,,,,,,,,,,,,,
1720517974,43,0,4263.333496,4260,4266.282227,4325.897461,4256.794922,4258.205078,4246.025879,4268.205078,4198.974121,4210.512695,4456.666504,4452.563965,4339.487305,4397.05127,,,,,,,,,,,,,,,,,,,,,,,,,,,,,,,,,,,,,,,,,,,,,,,,,,,,,,,,,,,,,,,,,,,,,,
1720517974,44,0,4264.358887,4262.563965,4266.025879,4326.153809,4255.512695,4251.538574,4247.94873,4266.666504,4198.846191,4210.769043,4457.94873,4451.153809,4344.230957,4396.153809,,,,,,,,,,,,,,,,,,,,,,,,,,,,,,,,,,,,,,,,,,,,,,,,,,,,,,,,,,,,,,,,,,,,,,
1720517974,45,0,4267.05127,4263.205078,4268.461426,4324.743652,4254.615234,4255.641113,4247.05127,4268.846191,4206.666504,4213.461426,4459.358887,4456.025879,4347.563965,4399.871582,,,,,,,,,,,,,,,,,,,,,,,,,,,,,,,,,,,,,,,,,,,,,,,,,,,,,,,,,,,,,,,,,,,,,,
1720517974,46,0,4273.974121,4266.410156,4273.333496,4324.487305,4259.487305,4258.974121,4245.384766,4271.153809,4204.487305,4220.256348,4462.05127,4456.153809,4353.846191,4404.487305,,,,,,,,,,,,,,,,,,,,,,,,,,,,,,,,,,,,,,,,,,,,,,,,,,,,,,,,,,,,,,,,,,,,,,
1720517974,47,0,4278.333496,4273.461426,4283.333496,4328.205078,4260.897461,4252.563965,4248.846191,4274.487305,4190.128418,4229.230957,4467.94873,4461.282227,4359.743652,4417.307617,,,,,,,,,,,,,,,,,,,,,,,,,,,,,,,,,,,,,,,,,,,,,,,,,,,,,,,,,,,,,,,,,,,,,,
1720517974,48,0,4281.153809,4277.692383,4286.153809,4329.102539,4258.461426,4252.820313,4250.897461,4277.692383,4189.487305,4233.461426,4465.769043,4462.820313,4355.769043,4420.512695,1.754526,0.94961,0.357585,0.523936,0.290894,0.734748,0.642495,0.161502,0.279888,0.194689,0.406679,0.524011,0.100557,0.175206,0.081182,0.547443,0.594382,0.089007,0.188401,0.123566,0.43038,0.343399,0.157933,0.208863,0.08021,0.254729,0.355395,0.154632,0.114511,0.066953,0.490832,0.409676,0.124556,0.265751,0.113857,0.238584,0.280842,0.04984,0.089172,0.073897,0.908638,0.662974,0.271738,0.330218,0.083712,1.283877,0.223486,0.181474,0.131364,0.165999,0.930703,0.612106,0.059553,0.249941,0.160415,2.230922,2.062306,0.121455,0.328916,0.23265,1.303289,0.76009,0.129776,0.686887,0.266688,0.995654,0.943528,0.211767,0.460351,0.212979
1720517974,49,0,4281.922852,4273.461426,4279.871582,4324.743652,4259.102539,4260.641113,4250,4278.333496,4200.512695,4236.282227,4460.897461,4459.743652,4356.282227,4412.05127,,,,,,,,,,,,,,,,,,,,,,,,,,,,,,,,,,,,,,,,,,,,,,,,,,,,,,,,,,,,,,,,,,,,,,
1720517974,50,0,4277.563965,4266.538574,4277.820313,4324.230957,4257.563965,4261.538574,4250.769043,4276.025879,4202.179688,4243.077148,4465.256348,4460,4358.461426,4414.871582,,,,,,,,,,,,,,,,,,,,,,,,,,,,,,,,,,,,,,,,,,,,,,,,,,,,,,,,,,,,,,,,,,,,,,
1720517974,51,0,4273.077148,4263.205078,4275,4326.794922,4255.384766,4259.230957,4251.282227,4269.358887,4195.256348,4236.538574,4461.922852,4448.846191,4353.589844,4411.538574,,,,,,,,,,,,,,,,,,,,,,,,,,,,,,,,,,,,,,,,,,,,,,,,,,,,,,,,,,,,,,,,,,,,,,
1720517974,52,0,4275.641113,4263.589844,4274.615234,4325.128418,4258.589844,4261.410156,4249.230957,4268.461426,4188.589844,4227.436035,4456.153809,4446.282227,4347.179688,4404.615234,,,,,,,,,,,,,,,,,,,,,,,,,,,,,,,,,,,,,,,,,,,,,,,,,,,,,,,,,,,,,,,,,,,,,,
1720517974,53,0,4281.153809,4264.615234,4278.589844,4322.94873,4260.512695,4262.692383,4246.282227,4269.871582,4180.897461,4232.820313,4456.666504,4448.077148,4345.897461,4406.922852,,,,,,,,,,,,,,,,,,,,,,,,,,,,,,,,,,,,,,,,,,,,,,,,,,,,,,,,,,,,,,,,,,,,,,
1720517974,54,0,4279.871582,4265.128418,4281.153809,4325.384766,4262.563965,4258.077148,4247.436035,4263.333496,4178.974121,4236.410156,4455.256348,4443.077148,4345.897461,4410,,,,,,,,,,,,,,,,,,,,,,,,,,,,,,,,,,,,,,,,,,,,,,,,,,,,,,,,,,,,,,,,,,,,,,
1720517974,55,0,4277.563965,4265.384766,4286.282227,4327.179688,4263.846191,4249.871582,4250.512695,4261.282227,4182.179688,4235.128418,4458.461426,4450.769043,4349.743652,4415,,,,,,,,,,,,,,,,,,,,,,,,,,,,,,,,,,,,,,,,,,,,,,,,,,,,,,,,,,,,,,,,,,,,,,
1720517974,56,0,4281.282227,4265.641113,4282.436035,4327.436035,4260.769043,4250.384766,4250.128418,4265.256348,4183.077148,4234.615234,4462.436035,4453.333496,4355.897461,4415.512695,,,,,,,,,,,,,,,,,,,,,,,,,,,,,,,,,,,,,,,,,,,,,,,,,,,,,,,,,,,,,,,,,,,,,,
1720517974,57,0,4281.153809,4262.94873,4275,4325.128418,4258.717773,4257.307617,4248.205078,4269.230957,4190.128418,4237.820313,4461.666504,4450.128418,4357.05127,4411.666504,,,,,,,,,,,,,,,,,,,,,,,,,,,,,,,,,,,,,,,,,,,,,,,,,,,,,,,,,,,,,,,,,,,,,,
1720517974,58,0,4282.563965,4265.128418,4279.230957,4325,4258.717773,4258.974121,4249.230957,4271.410156,4201.538574,4244.871582,4464.230957,4454.230957,4360.512695,4414.102539,,,,,,,,,,,,,,,,,,,,,,,,,,,,,,,,,,,,,,,,,,,,,,,,,,,,,,,,,,,,,,,,,,,,,,
1720517974,59,0,4292.05127,4272.179688,4283.077148,4333.846191,4257.436035,4257.820313,4251.794922,4267.563965,4200.128418,4243.461426,4466.282227,4451.153809,4361.666504,4415.128418,,,,,,,,,,,,,,,,,,,,,,,,,,,,,,,,,,,,,,,,,,,,,,,,,,,,,,,,,,,,,,,,,,,,,,
1720517974,60,0,4293.077148,4270,4278.846191,4339.615234,4257.94873,4256.794922,4250.256348,4261.922852,4187.05127,4233.461426,4461.025879,4440.128418,4351.282227,4406.794922,,,,,,,,,,,,,,,,,,,,,,,,,,,,,,,,,,,,,,,,,,,,,,,,,,,,,,,,,,,,,,,,,,,,,,
1720517974,61,0,4285,4264.230957,4280.256348,4339.487305,4262.692383,4257.307617,4248.974121,4264.743652,4185.384766,4233.333496,4459.487305,4442.307617,4343.846191,4405.641113,,,,,,,,,,,,,,,,,,,,,,,,,,,,,,,,,,,,,,,,,,,,,,,,,,,,,,,,,,,,,,,,,,,,,,
1720517974,62,0,4284.230957,4265.769043,4280.641113,4341.538574,4265.769043,4261.282227,4251.282227,4265.128418,4196.282227,4237.563965,4458.846191,4436.538574,4347.94873,4407.307617,,,,,,,,,,,,,,,,,,,,,,,,,,,,,,,,,,,,,,,,,,,,,,,,,,,,,,,,,,,,,,,,,,,,,,
1720517974,63,0,4284.743652,4264.743652,4274.871582,4341.666504,4261.410156,4262.563965,4251.153809,4262.05127,4199.615234,4234.743652,4450,4429.230957,4350.769043,4402.820313,,,,,,,,,,,,,,,,,,,,,,,,,,,,,,,,,,,,,,,,,,,,,,,,,,,,,,,,,,,,,,,,,,,,,,
1720517974,64,0,4278.846191,4261.025879,4279.358887,4339.230957,4252.692383,4258.461426,4250.897461,4263.333496,4193.974121,4240,4450.897461,4441.666504,4347.05127,4406.410156,1.783986,0.96824,0.411458,0.505858,0.31403,0.758041,0.587188,0.155153,0.272376,0.212353,0.463086,0.566806,0.121461,0.165783,0.076813,0.54034,0.637923,0.081704,0.173196,0.125978,0.409245,0.350682,0.150921,0.201002,0.08513,0.299762,0.332526,0.133078,0.121124,0.062901,0.664098,0.481156,0.140738,0.259052,0.120342,0.296455,0.267198,0.049981,0.099506,0.079062,0.857843,0.591583,0.242387,0.361995,0.07657,1.732731,0.251054,0.167012,0.131927,0.16314,0.953075,0.59719,0.086885,0.263274,0.155937,2.321073,2.12191,0.143424,0.319137,0.227246,1.528937,0.740922,0.168751,0.704765,0.308325,1.076271,0.998048,0.269248,0.453616,0.218274
1720517975,65,0,4283.846191,4264.102539,4281.666504,4342.692383,4250,4257.692383,4252.05127,4263.589844,4190.384766,4239.102539,4457.05127,4437.820313,4348.077148,4409.102539,,,,,,,,,,,,,,,,,,,,,,,,,,,,,,,,,,,,,,,,,,,,,,,,,,,,,,,,,,,,,,,,,,,,,,
1720517975,66,0,4296.538574,4268.974121,4278.205078,4349.615234,4256.922852,4261.410156,4249.743652,4262.436035,4184.615234,4227.94873,4456.666504,4433.205078,4350.769043,4408.717773,,,,,,,,,,,,,,,,,,,,,,,,,,,,,,,,,,,,,,,,,,,,,,,,,,,,,,,,,,,,,,,,,,,,,,
1720517975,67,0,4296.025879,4267.436035,4281.153809,4352.05127,4260.769043,4260.256348,4245.128418,4261.538574,4179.230957,4221.538574,4457.307617,4441.794922,4346.794922,4410.897461,,,,,,,,,,,,,,,,,,,,,,,,,,,,,,,,,,,,,,,,,,,,,,,,,,,,,,,,,,,,,,,,,,,,,,
1720517975,68,0,4290.769043,4264.358887,4282.820313,4351.538574,4258.205078,4251.538574,4243.717773,4260.256348,4187.692383,4219.230957,4460,4437.692383,4346.282227,4409.615234,,,,,,,,,,,,,,,,,,,,,,,,,,,,,,,,,,,,,,,,,,,,,,,,,,,,,,,,,,,,,,,,,,,,,,
1720517975,69,0,4292.563965,4263.077148,4281.922852,4353.205078,4259.230957,4247.94873,4246.025879,4263.589844,4201.538574,4222.94873,4460.641113,4436.282227,4350.897461,4411.025879,,,,,,,,,,,,,,,,,,,,,,,,,,,,,,,,,,,,,,,,,,,,,,,,,,,,,,,,,,,,,,,,,,,,,,
1720517975,70,0,4296.282227,4264.102539,4282.563965,4356.922852,4263.333496,4254.615234,4251.538574,4267.436035,4209.487305,4226.410156,4460.641113,4439.743652,4349.230957,4411.794922,,,,,,,,,,,,,,,,,,,,,,,,,,,,,,,,,,,,,,,,,,,,,,,,,,,,,,,,,,,,,,,,,,,,,,
1720517975,71,0,4293.461426,4264.871582,4284.743652,4358.077148,4263.589844,4261.025879,4251.410156,4266.538574,4208.974121,4224.487305,4462.820313,4436.666504,4345.641113,4409.230957,,,,,,,,,,,,,,,,,,,,,,,,,,,,,,,,,,,,,,,,,,,,,,,,,,,,,,,,,,,,,,,,,,,,,,
1720517975,72,0,4293.205078,4265.384766,4283.077148,4357.692383,4260.256348,4259.743652,4248.333496,4266.410156,4206.794922,4226.410156,4463.077148,4433.461426,4349.102539,4409.743652,,,,,,,,,,,,,,,,,,,,,,,,,,,,,,,,,,,,,,,,,,,,,,,,,,,,,,,,,,,,,,,,,,,,,,
1720517975,73,0,4296.794922,4267.563965,4282.179688,4358.461426,4261.922852,4254.871582,4254.743652,4267.94873,4205.641113,4228.461426,4458.974121,4435.128418,4350.897461,4412.05127,,,,,,,,,,,,,,,,,,,,,,,,,,,,,,,,,,,,,,,,,,,,,,,,,,,,,,,,,,,,,,,,,,,,,,
1720517975,74,0,4294.230957,4265.769043,4282.563965,4356.282227,4263.333496,4249.358887,4256.538574,4264.615234,4203.333496,4220.641113,4454.487305,4435.897461,4342.692383,4409.871582,,,,,,,,,,,,,,,,,,,,,,,,,,,,,,,,,,,,,,,,,,,,,,,,,,,,,,,,,,,,,,,,,,,,,,
1720517975,75,0,4295.769043,4262.820313,4281.794922,4355,4259.102539,4248.717773,4250.641113,4260.641113,4208.846191,4219.871582,4457.436035,4443.077148,4338.461426,4409.487305,,,,,,,,,,,,,,,,,,,,,,,,,,,,,,,,,,,,,,,,,,,,,,,,,,,,,,,,,,,,,,,,,,,,,,
1720517975,76,0,4305.897461,4269.871582,4283.974121,4360.384766,4262.563965,4256.410156,4253.589844,4263.461426,4217.692383,4226.282227,4463.589844,4445.128418,4345.128418,4412.94873,,,,,,,,,,,,,,,,,,,,,,,,,,,,,,,,,,,,,,,,,,,,,,,,,,,,,,,,,,,,,,,,,,,,,,
1720517975,77,0,4311.025879,4279.102539,4287.179688,4365.897461,4272.94873,4263.846191,4260,4264.871582,4213.205078,4218.717773,4462.179688,4438.846191,4349.871582,4412.820313,,,,,,,,,,,,,,,,,,,,,,,,,,,,,,,,,,,,,,,,,,,,,,,,,,,,,,,,,,,,,,,,,,,,,,
1720517975,78,0,4303.333496,4277.436035,4289.487305,4367.94873,4271.922852,4264.358887,4261.282227,4263.205078,4205.897461,4216.153809,4460.384766,4443.589844,4348.589844,4415.512695,,,,,,,,,,,,,,,,,,,,,,,,,,,,,,,,,,,,,,,,,,,,,,,,,,,,,,,,,,,,,,,,,,,,,,
1720517975,79,0,4296.794922,4272.05127,4287.692383,4366.282227,4263.205078,4262.820313,4261.666504,4263.717773,4212.179688,4219.358887,4461.410156,4438.717773,4348.077148,4412.436035,,,,,,,,,,,,,,,,,,,,,,,,,,,,,,,,,,,,,,,,,,,,,,,,,,,,,,,,,,,,,,,,,,,,,,
1720517975,80,0,4302.05127,4269.615234,4286.538574,4363.717773,4262.820313,4262.563965,4262.05127,4265.769043,4216.538574,4217.820313,4461.666504,4438.077148,4351.922852,4413.461426,1.806699,0.923525,0.453152,0.4879,0.332463,0.754219,0.512687,0.157664,0.259905,0.225975,0.504643,0.561077,0.147673,0.153993,0.072152,0.568133,0.617325,0.080819,0.158687,0.129332,0.369643,0.334357,0.141244,0.178315,0.086776,0.342273,0.310276,0.11961,0.129367,0.05961,0.802632,0.521938,0.157481,0.246582,0.12815,0.344972,0.256267,0.055986,0.111433,0.085847,1.018452,0.59015,0.27188,0.403851,0.076558,2.160412,0.322899,0.189704,0.139768,0.160696,0.978856,0.532947,0.119841,0.27893,0.148375,2.253547,1.929554,0.183175,0.300331,0.215528,1.713548,0.674637,0.236625,0.683615,0.347304,1.170879,0.95244,0.338343,0.433447,0.209217
1720517975,81,0,4308.717773,4268.461426,4286.922852,4364.102539,4266.410156,4263.077148,4263.461426,4264.743652,4213.461426,4217.692383,4462.436035,4446.922852,4356.410156,4418.974121,,,,,,,,,,,,,,,,,,,,,,,,,,,,,,,,,,,,,,,,,,,,,,,,,,,,,,,,,,,,,,,,,,,,,,
1720517975,82,0,4311.153809,4272.820313,4289.358887,4370.256348,4266.666504,4264.871582,4268.205078,4265.384766,4219.871582,4217.692383,4467.563965,4445.897461,4355.384766,4416.282227,,,,,,,,,,,,,,,,,,,,,,,,,,,,,,,,,,,,,,,,,,,,,,,,,,,,,,,,,,,,,,,,,,,,,,
1720517975,83,0,4309.102539,4279.743652,4297.94873,4372.05127,4270.256348,4266.794922,4267.179688,4271.153809,4223.077148,4218.205078,4469.871582,4451.538574,4349.487305,4422.05127,,,,,,,,,,,,,,,,,,,,,,,,,,,,,,,,,,,,,,,,,,,,,,,,,,,,,,,,,,,,,,,,,,,,,,
1720517975,84,0,4305.384766,4277.436035,4298.846191,4365.897461,4275.256348,4265.256348,4265,4270.384766,4218.205078,4217.692383,4464.487305,4452.179688,4349.743652,4424.102539,,,,,,,,,,,,,,,,,,,,,,,,,,,,,,,,,,,,,,,,,,,,,,,,,,,,,,,,,,,,,,,,,,,,,,
1720517975,85,0,4306.794922,4271.025879,4295.128418,4366.922852,4275.128418,4264.358887,4268.333496,4268.717773,4218.333496,4216.025879,4462.820313,4450.256348,4357.692383,4421.666504,,,,,,,,,,,,,,,,,,,,,,,,,,,,,,,,,,,,,,,,,,,,,,,,,,,,,,,,,,,,,,,,,,,,,,
1720517975,86,0,4313.589844,4274.871582,4299.487305,4374.230957,4275.897461,4264.102539,4266.794922,4268.589844,4221.410156,4218.077148,4467.436035,4455.769043,4360.256348,4427.307617,,,,,,,,,,,,,,,,,,,,,,,,,,,,,,,,,,,,,,,,,,,,,,,,,,,,,,,,,,,,,,,,,,,,,,
1720517975,87,0,4312.94873,4281.153809,4300.256348,4373.333496,4276.410156,4262.307617,4260.769043,4266.282227,4218.974121,4221.153809,4466.282227,4449.102539,4356.410156,4424.743652,,,,,,,,,,,,,,,,,,,,,,,,,,,,,,,,,,,,,,,,,,,,,,,,,,,,,,,,,,,,,,,,,,,,,,
1720517975,88,0,4308.077148,4278.974121,4297.179688,4372.05127,4271.410156,4261.282227,4259.615234,4269.743652,4216.538574,4220.128418,4462.179688,4443.974121,4355.256348,4421.282227,,,,,,,,,,,,,,,,,,,,,,,,,,,,,,,,,,,,,,,,,,,,,,,,,,,,,,,,,,,,,,,,,,,,,,
1720517975,89,0,4310.641113,4275.897461,4298.461426,4375.128418,4268.717773,4263.461426,4263.974121,4275.384766,4223.846191,4220.641113,4469.487305,4455.641113,4354.230957,4426.410156,,,,,,,,,,,,,,,,,,,,,,,,,,,,,,,,,,,,,,,,,,,,,,,,,,,,,,,,,,,,,,,,,,,,,,
1720517975,90,0,4315.128418,4274.615234,4295,4368.717773,4272.820313,4264.230957,4266.410156,4268.077148,4227.820313,4224.102539,4470.128418,4450.256348,4349.102539,4420,,,,,,,,,,,,,,,,,,,,,,,,,,,,,,,,,,,,,,,,,,,,,,,,,,,,,,,,,,,,,,,,,,,,,,
1720517975,91,0,4311.794922,4275.641113,4293.205078,4367.436035,4276.282227,4263.589844,4266.922852,4261.794922,4221.538574,4225.128418,4463.589844,4438.589844,4352.692383,4412.563965,,,,,,,,,,,,,,,,,,,,,,,,,,,,,,,,,,,,,,,,,,,,,,,,,,,,,,,,,,,,,,,,,,,,,,
1720517975,92,0,4300.769043,4277.94873,4304.230957,4377.05127,4277.563965,4265.128418,4266.282227,4271.666504,4216.922852,4229.230957,4468.846191,4451.922852,4362.94873,4425.769043,,,,,,,,,,,,,,,,,,,,,,,,,,,,,,,,,,,,,,,,,,,,,,,,,,,,,,,,,,,,,,,,,,,,,,
1720517975,93,0,4291.666504,4278.205078,4305.384766,4373.333496,4276.538574,4266.282227,4262.563965,4271.538574,4217.436035,4232.179688,4468.717773,4446.922852,4358.077148,4422.692383,,,,,,,,,,,,,,,,,,,,,,,,,,,,,,,,,,,,,,,,,,,,,,,,,,,,,,,,,,,,,,,,,,,,,,
1720517975,94,0,4292.692383,4278.205078,4297.820313,4370.641113,4277.820313,4266.153809,4260.641113,4263.077148,4218.717773,4231.538574,4463.205078,4434.358887,4348.717773,4409.743652,,,,,,,,,,,,,,,,,,,,,,,,,,,,,,,,,,,,,,,,,,,,,,,,,,,,,,,,,,,,,,,,,,,,,,
1720517975,95,0,4295.897461,4279.615234,4300,4378.333496,4279.102539,4266.410156,4261.666504,4267.563965,4219.871582,4235.897461,4468.846191,4444.871582,4351.153809,4418.461426,,,,,,,,,,,,,,,,,,,,,,,,,,,,,,,,,,,,,,,,,,,,,,,,,,,,,,,,,,,,,,,,,,,,,,
1720517975,96,0,4295.384766,4276.153809,4298.205078,4377.563965,4271.282227,4263.717773,4260.769043,4271.666504,4219.743652,4237.563965,4471.025879,4442.436035,4353.461426,4420.512695,1.834581,0.850143,0.468393,0.470336,0.340746,0.742309,0.46729,0.166893,0.24565,0.231692,0.536803,0.514093,0.170628,0.144075,0.068312,0.65047,0.546709,0.087768,0.148093,0.131762,0.333209,0.302093,0.132451,0.146615,0.085897,0.365863,0.295348,0.118315,0.134891,0.058071,0.869443,0.520545,0.172353,0.229971,0.134175,0.367541,0.245828,0.069821,0.12332,0.09136,1.284582,0.643396,0.321625,0.428798,0.083966,2.492242,0.444172,0.239987,0.151163,0.157371,0.979889,0.443971,0.145681,0.284888,0.13644,2.073889,1.557924,0.227562,0.276047,0.197997,1.830145,0.615496,0.314803,0.62496,0.372262,1.278021,0.831897,0.398794,0.401062,0.187748
1720517975,97,0,4295.256348,4275.641113,4292.692383,4374.230957,4269.230957,4261.025879,4260.769043,4266.410156,4217.94873,4236.922852,4466.666504,4430.512695,4355.641113,4413.461426,,,,,,,,,,,,,,,,,,,,,,,,,,,,,,,,,,,,,,,,,,,,,,,,,,,,,,,,,,,,,,,,,,,,,,
1720517975,98,0,4292.307617,4279.871582,4292.563965,4378.846191,4277.307617,4263.461426,4263.974121,4263.589844,4216.666504,4239.615234,4470.256348,4430.641113,4361.666504,4410.897461,,,,,,,,,,,,,,,,,,,,,,,,,,,,,,,,,,,,,,,,,,,,,,,,,,,,,,,,,,,,,,,,,,,,,,
1720517975,99,0,4287.436035,4271.538574,4290.897461,4374.871582,4277.692383,4262.179688,4261.666504,4264.358887,4212.563965,4238.717773,4467.05127,4433.589844,4359.102539,4409.743652,,,,,,,,,,,,,,,,,,,,,,,,,,,,,,,,,,,,,,,,,,,,,,,,,,,,,,,,,,,,,,,,,,,,,,
1720517975,100,0,4286.282227,4261.282227,4288.333496,4366.794922,4271.538574,4256.794922,4255.256348,4263.717773,4206.794922,4231.538574,4456.410156,4431.794922,4347.563965,4408.974121,,,,,,,,,,,,,,,,,,,,,,,,,,,,,,,,,,,,,,,,,,,,,,,,,,,,,,,,,,,,,,,,,,,,,,
1720517975,101,0,4281.666504,4263.205078,4288.077148,4369.230957,4269.743652,4257.820313,4256.153809,4262.563965,4204.358887,4229.487305,4457.94873,4428.205078,4342.563965,4406.410156,,,,,,,,,,,,,,,,,,,,,,,,,,,,,,,,,,,,,,,,,,,,,,,,,,,,,,,,,,,,,,,,,,,,,,
1720517975,102,0,4278.461426,4266.153809,4288.589844,4371.538574,4270.128418,4260.897461,4259.743652,4266.282227,4207.692383,4239.487305,4462.179688,4427.05127,4347.436035,4403.461426,,,,,,,,,,,,,,,,,,,,,,,,,,,,,,,,,,,,,,,,,,,,,,,,,,,,,,,,,,,,,,,,,,,,,,
1720517975,103,0,4284.871582,4262.436035,4292.307617,4369.102539,4274.230957,4261.666504,4261.282227,4274.743652,4216.153809,4247.179688,4463.974121,4432.307617,4352.307617,4410.384766,,,,,,,,,,,,,,,,,,,,,,,,,,,,,,,,,,,,,,,,,,,,,,,,,,,,,,,,,,,,,,,,,,,,,,
1720517975,104,0,4291.153809,4261.922852,4294.358887,4367.692383,4279.102539,4262.692383,4260.512695,4271.922852,4216.025879,4239.615234,4466.025879,4432.05127,4350.769043,4415.128418,,,,,,,,,,,,,,,,,,,,,,,,,,,,,,,,,,,,,,,,,,,,,,,,,,,,,,,,,,,,,,,,,,,,,,
1720517975,105,0,4297.692383,4270.512695,4296.282227,4371.538574,4276.794922,4262.05127,4262.05127,4266.794922,4212.05127,4234.615234,4467.436035,4431.410156,4352.94873,4412.307617,,,,,,,,,,,,,,,,,,,,,,,,,,,,,,,,,,,,,,,,,,,,,,,,,,,,,,,,,,,,,,,,,,,,,,
1720517975,106,0,4310.641113,4280.384766,4307.692383,4381.922852,4276.922852,4261.538574,4269.358887,4274.487305,4221.666504,4247.307617,4477.692383,4450.769043,4364.230957,4427.05127,,,,,,,,,,,,,,,,,,,,,,,,,,,,,,,,,,,,,,,,,,,,,,,,,,,,,,,,,,,,,,,,,,,,,,
1720517975,107,0,4315.512695,4283.589844,4308.846191,4388.205078,4281.282227,4266.025879,4272.563965,4277.307617,4232.94873,4252.307617,4482.820313,4448.589844,4365.256348,4431.153809,,,,,,,,,,,,,,,,,,,,,,,,,,,,,,,,,,,,,,,,,,,,,,,,,,,,,,,,,,,,,,,,,,,,,,
1720517975,108,0,4310.256348,4281.410156,4300.641113,4385.512695,4282.05127,4268.077148,4272.94873,4271.794922,4229.615234,4245.769043,4474.871582,4433.461426,4357.820313,4418.205078,,,,,,,,,,,,,,,,,,,,,,,,,,,,,,,,,,,,,,,,,,,,,,,,,,,,,,,,,,,,,,,,,,,,,,
1720517975,109,0,4309.487305,4280.641113,4301.794922,4381.282227,4280,4264.230957,4273.589844,4269.358887,4223.205078,4243.717773,4473.717773,4440.384766,4358.717773,4420.512695,,,,,,,,,,,,,,,,,,,,,,,,,,,,,,,,,,,,,,,,,,,,,,,,,,,,,,,,,,,,,,,,,,,,,,
1720517975,110,0,4309.871582,4281.410156,4299.743652,4382.05127,4278.717773,4262.94873,4269.230957,4267.307617,4219.871582,4239.230957,4476.153809,4439.871582,4359.102539,4420.897461,,,,,,,,,,,,,,,,,,,,,,,,,,,,,,,,,,,,,,,,,,,,,,,,,,,,,,,,,,,,,,,,,,,,,,
1720517975,111,0,4309.487305,4281.025879,4296.794922,4383.974121,4279.358887,4264.358887,4261.666504,4267.05127,4214.743652,4236.282227,4473.461426,4436.025879,4357.563965,4421.153809,,,,,,,,,,,,,,,,,,,,,,,,,,,,,,,,,,,,,,,,,,,,,,,,,,,,,,,,,,,,,,,,,,,,,,
1720517975,112,0,4317.563965,4280.256348,4302.820313,4382.307617,4278.974121,4263.205078,4261.538574,4268.461426,4214.743652,4236.922852,4473.589844,4437.692383,4360.128418,4427.05127,1.86438,0.785581,0.457114,0.449287,0.33497,0.733725,0.485203,0.180593,0.232139,0.226567,0.555975,0.445311,0.181655,0.140041,0.065669,0.76526,0.457936,0.101108,0.141893,0.130838,0.315106,0.262717,0.12634,0.115827,0.083835,0.363851,0.287121,0.127261,0.135965,0.059058,0.851708,0.476104,0.184272,0.21095,0.135691,0.358271,0.232248,0.090609,0.133284,0.09268,1.551135,0.718752,0.364317,0.430615,0.098675,2.669748,0.600521,0.29998,0.163065,0.151499,0.928575,0.363742,0.1584,0.27277,0.120127,1.843545,1.128884,0.26848,0.248946,0.17662,1.869985,0.618736,0.383289,0.537881,0.37518,1.379969,0.687218,0.435188,0.359534,0.158679
1720517975,113,0,4320.769043,4281.025879,4306.794922,4382.179688,4280.641113,4263.589844,4264.230957,4268.333496,4219.230957,4237.307617,4476.538574,4437.563965,4358.333496,4423.846191,,,,,,,,,,,,,,,,,,,,,,,,,,,,,,,,,,,,,,,,,,,,,,,,,,,,,,,,,,,,,,,,,,,,,,
1720517975,114,0,4312.94873,4280.128418,4300.769043,4380,4281.025879,4269.358887,4261.282227,4267.94873,4216.922852,4240.512695,4470.641113,4437.436035,4350.512695,4415.769043,,,,,,,,,,,,,,,,,,,,,,,,,,,,,,,,,,,,,,,,,,,,,,,,,,,,,,,,,,,,,,,,,,,,,,
1720517975,115,0,4308.461426,4276.282227,4297.563965,4371.282227,4277.692383,4275.641113,4259.871582,4266.538574,4224.102539,4237.692383,4464.871582,4432.436035,4350.641113,4416.410156,,,,,,,,,,,,,,,,,,,,,,,,,,,,,,,,,,,,,,,,,,,,,,,,,,,,,,,,,,,,,,,,,,,,,,
1720517975,116,0,4311.538574,4277.179688,4301.410156,4372.436035,4276.538574,4278.461426,4262.563965,4268.205078,4244.102539,4229.358887,4470.512695,4429.871582,4354.358887,4421.538574,,,,,,,,,,,,,,,,,,,,,,,,,,,,,,,,,,,,,,,,,,,,,,,,,,,,,,,,,,,,,,,,,,,,,,
