Timestamp,EEG.Counter,EEG.Interpolated,EEG.AF3,EEG.F7,EEG.F3,EEG.FC5,EEG.T7,EEG.P7,EEG.O1,EEG.O2,EEG.P8,EEG.T8,EEG.FC6,EEG.F4,EEG.F8,EEG.AF4,POW.AF3.Theta,POW.AF3.Alpha,POW.AF3.BetaL,POW.AF3.BetaH,POW.AF3.Gamma,POW.F7.Theta,POW.F7.Alpha,POW.F7.BetaL,POW.F7.BetaH,POW.F7.Gamma,POW.F3.Theta,POW.F3.Alpha,POW.F3.BetaL,POW.F3.BetaH,POW.F3.Gamma,POW.FC5.Theta,POW.FC5.Alpha,POW.FC5.BetaL,POW.FC5.BetaH,POW.FC5.Gamma,POW.T7.Theta,POW.T7.Alpha,POW.T7.BetaL,POW.T7.BetaH,POW.T7.Gamma,POW.P7.Theta,POW.P7.Alpha,POW.P7.BetaL,POW.P7.BetaH,POW.P7.Gamma,POW.O1.Theta,POW.O1.Alpha,POW.O1.BetaL,POW.O1.BetaH,POW.O1.Gamma,POW.O2.Theta,POW.O2.Alpha,POW.O2.BetaL,POW.O2.BetaH,POW.O2.Gamma,POW.P8.Theta,POW.P8.Alpha,POW.P8.BetaL,POW.P8.BetaH,POW.P8.Gamma,POW.T8.Theta,POW.T8.Alpha,POW.T8.BetaL,POW.T8.BetaH,POW.T8.Gamma,POW.FC6.Theta,POW.FC6.Alpha,POW.FC6.BetaL,POW.FC6.BetaH,POW.FC6.Gamma,POW.F4.Theta,POW.F4.Alpha,POW.F4.BetaL,POW.F4.BetaH,POW.F4.Gamma,POW.F8.Theta,POW.F8.Alpha,POW.F8.BetaL,POW.F8.BetaH,POW.F8.Gamma,POW.AF4.Theta,POW.AF4.Alpha,POW.AF4.BetaL,POW.AF4.BetaH,POW.AF4.Gamma
1720525869,112,0,4286.666504,4265.256348,4293.846191,4292.179688,4277.563965,4334.102539,4289.230957,4282.563965,4256.410156,4293.077148,4466.282227,4476.282227,4376.025879,4429.743652,,,,,,,,,,,,,,,,,,,,,,,,,,,,,,,,,,,,,,,,,,,,,,,,,,,,,,,,,,,,,,,,,,,,,,
1720525869,113,0,4303.589844,4272.179688,4308.205078,4298.461426,4281.922852,4344.615234,4297.179688,4281.025879,4261.025879,4291.153809,4465.897461,4483.589844,4382.820313,4433.846191,,,,,,,,,,,,,,,,,,,,,,,,,,,,,,,,,,,,,,,,,,,,,,,,,,,,,,,,,,,,,,,,,,,,,,
1720525869,114,0,4310.512695,4279.743652,4320.512695,4306.794922,4278.589844,4341.922852,4298.077148,4282.436035,4261.538574,4298.974121,4468.717773,4491.410156,4382.179688,4433.205078,,,,,,,,,,,,,,,,,,,,,,,,,,,,,,,,,,,,,,,,,,,,,,,,,,,,,,,,,,,,,,,,,,,,,,
1720525869,115,0,4313.589844,4277.179688,4324.871582,4311.025879,4273.846191,4328.717773,4293.077148,4285.512695,4255.641113,4301.922852,4469.615234,4492.94873,4381.282227,4436.025879,,,,,,,,,,,,,,,,,,,,,,,,,,,,,,,,,,,,,,,,,,,,,,,,,,,,,,,,,,,,,,,,,,,,,,
1720525869,116,0,4322.179688,4281.666504,4324.487305,4313.461426,4275.512695,4325.384766,4293.333496,4279.230957,4258.077148,4291.922852,4461.153809,4483.333496,4380.641113,4439.230957,,,,,,,,,,,,,,,,,,,,,,,,,,,,,,,,,,,,,,,,,,,,,,,,,,,,,,,,,,,,,,,,,,,,,,
1720525869,117,0,4325.769043,4291.538574,4330,4318.461426,4280,4332.05127,4297.179688,4291.282227,4265.769043,4303.589844,4464.102539,4491.666504,4376.282227,4443.333496,,,,,,,,,,,,,,,,,,,,,,,,,,,,,,,,,,,,,,,,,,,,,,,,,,,,,,,,,,,,,,,,,,,,,,
1720525869,118,0,4313.333496,4285.128418,4323.846191,4313.205078,4279.615234,4327.436035,4288.846191,4294.871582,4266.410156,4307.692383,4465.256348,4485.384766,4361.794922,4429.871582,,,,,,,,,,,,,,,,,,,,,,,,,,,,,,,,,,,,,,,,,,,,,,,,,,,,,,,,,,,,,,,,,,,,,,
1720525869,119,0,4299.487305,4273.717773,4304.102539,4296.282227,4277.179688,4319.102539,4276.153809,4269.615234,4260,4288.333496,4450.512695,4451.794922,4347.436035,4405,,,,,,,,,,,,,,,,,,,,,,,,,,,,,,,,,,,,,,,,,,,,,,,,,,,,,,,,,,,,,,,,,,,,,,
1720525869,120,0,4294.358887,4272.307617,4297.563965,4291.922852,4278.333496,4326.025879,4276.410156,4275.128418,4251.538574,4296.922852,4448.205078,4449.871582,4343.846191,4400.256348,,,,,,,,,,,,,,,,,,,,,,,,,,,,,,,,,,,,,,,,,,,,,,,,,,,,,,,,,,,,,,,,,,,,,,
1720525869,121,0,4290.128418,4276.794922,4292.563965,4301.538574,4278.846191,4327.94873,4279.230957,4285.641113,4248.717773,4306.282227,4446.794922,4451.153809,4344.743652,4399.743652,,,,,,,,,,,,,,,,,,,,,,,,,,,,,,,,,,,,,,,,,,,,,,,,,,,,,,,,,,,,,,,,,,,,,,
1720525869,122,0,4290.128418,4278.974121,4288.205078,4306.538574,4274.487305,4322.179688,4276.666504,4275.384766,4251.282227,4295,4440.256348,4443.333496,4344.743652,4395.897461,2.003595,9.695998,1.326808,1.368633,0.194207,0.969817,3.782279,1.728374,0.993381,0.257251,1.626789,6.695826,0.629969,0.9868,0.216846,0.737152,4.087191,1.207086,0.748145,0.217947,0.182873,0.707344,0.296873,0.140307,0.187365,0.397626,1.081885,0.250785,0.253922,0.125834,1.014073,1.902009,0.351278,0.424592,0.134043,0.246101,0.429227,0.171348,0.17932,0.323953,1.310287,3.11317,0.583442,0.664184,0.199814,0.099966,0.070205,0.028254,0.083649,0.24491,0.641351,3.204891,0.426087,0.45087,0.189252,2.608574,13.785773,0.793497,1.451316,0.50218,1.224745,10.843775,1.138505,1.006982,0.206474,1.84495,14.246492,1.547121,1.427665,0.266349
1720525869,123,0,4294.743652,4278.461426,4296.410156,4305.769043,4272.820313,4322.820313,4276.025879,4277.563965,4248.333496,4296.153809,4448.974121,4457.307617,4350.641113,4405.256348,,,,,,,,,,,,,,,,,,,,,,,,,,,,,,,,,,,,,,,,,,,,,,,,,,,,,,,,,,,,,,,,,,,,,,
1720525870,124,0,4297.05127,4288.461426,4301.410156,4313.974121,4279.615234,4326.666504,4278.461426,4282.307617,4245.897461,4299.871582,4460.128418,4466.794922,4359.102539,4416.794922,,,,,,,,,,,,,,,,,,,,,,,,,,,,,,,,,,,,,,,,,,,,,,,,,,,,,,,,,,,,,,,,,,,,,,
1720525870,125,0,4300.641113,4297.307617,4301.922852,4322.94873,4283.077148,4326.794922,4279.102539,4277.307617,4248.846191,4295.512695,4458.461426,4461.153809,4360.641113,4416.410156,,,,,,,,,,,,,,,,,,,,,,,,,,,,,,,,,,,,,,,,,,,,,,,,,,,,,,,,,,,,,,,,,,,,,,
1720525870,126,0,4304.230957,4288.333496,4312.05127,4317.94873,4279.615234,4323.846191,4277.436035,4282.307617,4247.94873,4301.282227,4461.025879,4470.384766,4357.692383,4416.025879,,,,,,,,,,,,,,,,,,,,,,,,,,,,,,,,,,,,,,,,,,,,,,,,,,,,,,,,,,,,,,,,,,,,,,
1720525870,127,0,4303.717773,4283.717773,4314.358887,4315.512695,4284.230957,4323.461426,4283.461426,4284.743652,4245.512695,4300.897461,4460,4471.282227,4352.94873,4414.230957,,,,,,,,,,,,,,,,,,,,,,,,,,,,,,,,,,,,,,,,,,,,,,,,,,,,,,,,,,,,,,,,,,,,,,
1720525870,0,0,4306.282227,4297.179688,4305.641113,4321.153809,4287.94873,4328.717773,4297.436035,4279.230957,4248.589844,4290.256348,4449.230957,4456.794922,4349.102539,4410,,,,,,,,,,,,,,,,,,,,,,,,,,,,,,,,,,,,,,,,,,,,,,,,,,,,,,,,,,,,,,,,,,,,,,
1720525870,1,0,4312.436035,4299.102539,4310.512695,4318.333496,4281.025879,4325.641113,4299.358887,4289.487305,4251.666504,4297.692383,4454.102539,4469.871582,4350.256348,4419.102539,,,,,,,,,,,,,,,,,,,,,,,,,,,,,,,,,,,,,,,,,,,,,,,,,,,,,,,,,,,,,,,,,,,,,,
1720525870,2,0,4311.666504,4284.230957,4317.05127,4310,4278.846191,4311.794922,4283.461426,4285,4252.436035,4295.897461,4456.282227,4475,4350.641113,4424.487305,,,,,,,,,,,,,,,,,,,,,,,,,,,,,,,,,,,,,,,,,,,,,,,,,,,,,,,,,,,,,,,,,,,,,,
1720525870,3,0,4311.666504,4282.563965,4315.897461,4311.282227,4282.692383,4310.512695,4269.102539,4274.102539,4250.897461,4294.487305,4452.563965,4465.256348,4347.94873,4419.743652,,,,,,,,,,,,,,,,,,,,,,,,,,,,,,,,,,,,,,,,,,,,,,,,,,,,,,,,,,,,,,,,,,,,,,
1720525870,4,0,4309.743652,4290.512695,4307.820313,4315.256348,4281.025879,4315.256348,4263.205078,4274.615234,4241.666504,4302.692383,4453.717773,4456.153809,4339.871582,4409.358887,,,,,,,,,,,,,,,,,,,,,,,,,,,,,,,,,,,,,,,,,,,,,,,,,,,,,,,,,,,,,,,,,,,,,,
1720525870,5,0,4293.974121,4281.794922,4291.025879,4307.692383,4280.256348,4310.512695,4260.897461,4267.179688,4231.025879,4294.615234,4450.769043,4441.538574,4329.615234,4392.692383,,,,,,,,,,,,,,,,,,,,,,,,,,,,,,,,,,,,,,,,,,,,,,,,,,,,,,,,,,,,,,,,,,,,,,
1720525870,6,0,4279.230957,4262.563965,4283.205078,4294.358887,4278.717773,4304.743652,4260.769043,4273.461426,4228.846191,4299.487305,4453.846191,4448.077148,4324.743652,4390.128418,,,,,,,,,,,,,,,,,,,,,,,,,,,,,,,,,,,,,,,,,,,,,,,,,,,,,,,,,,,,,,,,,,,,,,
1720525870,7,0,4276.410156,4263.333496,4281.025879,4292.05127,4270.512695,4302.436035,4260.128418,4278.461426,4231.666504,4301.025879,4452.820313,4447.563965,4329.871582,4390.512695,,,,,,,,,,,,,,,,,,,,,,,,,,,,,,,,,,,,,,,,,,,,,,,,,,,,,,,,,,,,,,,,,,,,,,
1720525870,8,0,4275.641113,4278.717773,4278.461426,4298.077148,4267.94873,4304.102539,4262.436035,4274.871582,4232.820313,4293.589844,4452.820313,4440.769043,4339.230957,4389.615234,,,,,,,,,,,,,,,,,,,,,,,,,,,,,,,,,,,,,,,,,,,,,,,,,,,,,,,,,,,,,,,,,,,,,,
1720525870,9,0,4276.153809,4275.897461,4281.666504,4295.769043,4271.666504,4305.897461,4263.077148,4279.358887,4231.922852,4297.94873,4457.94873,4447.94873,4339.871582,4391.922852,,,,,,,,,,,,,,,,,,,,,,,,,,,,,,,,,,,,,,,,,,,,,,,,,,,,,,,,,,,,,,,,,,,,,,
1720525870,10,0,4291.153809,4272.179688,4292.94873,4299.358887,4276.410156,4308.205078,4265.256348,4278.717773,4233.974121,4296.922852,4452.179688,4449.487305,4340.641113,4388.333496,1.735986,10.786177,1.317874,1.369769,0.201111,0.855965,4.661222,1.998599,1.041371,0.254106,1.526245,7.629995,0.576103,1.057876,0.211598,0.684571,5.064353,1.521897,0.784917,0.208606,0.206457,0.739161,0.395458,0.15277,0.191433,0.336731,0.995283,0.250685,0.27842,0.131809,0.872441,2.117252,0.342648,0.523304,0.129309,0.199537,0.594465,0.145532,0.219426,0.31238,1.113593,2.74024,0.575962,0.691201,0.190467,0.125,0.085685,0.028257,0.085432,0.235882,0.578043,3.635093,0.395563,0.47314,0.194546,2.290442,16.504328,0.607465,1.590935,0.490945,1.174999,11.573277,1.089738,1.173465,0.201311,1.814741,15.48031,1.298184,1.609602,0.267265
1720525870,11,0,4305.256348,4282.820313,4303.077148,4311.922852,4278.717773,4313.333496,4275.769043,4278.205078,4233.205078,4294.871582,4450.384766,4452.820313,4340.256348,4390.641113,,,,,,,,,,,,,,,,,,,,,,,,,,,,,,,,,,,,,,,,,,,,,,,,,,,,,,,,,,,,,,,,,,,,,,
1720525870,12,0,4300.384766,4286.666504,4304.230957,4317.436035,4277.179688,4312.179688,4280.641113,4280.769043,4231.538574,4298.205078,4457.820313,4459.487305,4333.205078,4398.717773,,,,,,,,,,,,,,,,,,,,,,,,,,,,,,,,,,,,,,,,,,,,,,,,,,,,,,,,,,,,,,,,,,,,,,
1720525870,13,0,4299.743652,4280.897461,4304.230957,4317.563965,4277.692383,4306.282227,4277.820313,4279.615234,4240,4301.410156,4457.436035,4456.153809,4333.974121,4398.205078,,,,,,,,,,,,,,,,,,,,,,,,,,,,,,,,,,,,,,,,,,,,,,,,,,,,,,,,,,,,,,,,,,,,,,
1720525870,14,0,4309.615234,4282.436035,4310.256348,4316.153809,4277.436035,4305,4279.871582,4281.282227,4248.717773,4303.717773,4456.794922,4457.820313,4342.563965,4400.128418,,,,,,,,,,,,,,,,,,,,,,,,,,,,,,,,,,,,,,,,,,,,,,,,,,,,,,,,,,,,,,,,,,,,,,
1720525870,15,0,4303.974121,4286.922852,4307.05127,4312.563965,4275.897461,4301.025879,4278.461426,4280.897461,4243.974121,4301.538574,4459.871582,4461.153809,4341.282227,4403.589844,,,,,,,,,,,,,,,,,,,,,,,,,,,,,,,,,,,,,,,,,,,,,,,,,,,,,,,,,,,,,,,,,,,,,,
1720525870,16,0,4288.333496,4278.333496,4291.538574,4306.282227,4278.077148,4294.871582,4266.025879,4274.102539,4242.307617,4294.871582,4453.589844,4450.384766,4333.333496,4394.615234,,,,,,,,,,,,,,,,,,,,,,,,,,,,,,,,,,,,,,,,,,,,,,,,,,,,,,,,,,,,,,,,,,,,,,
1720525870,17,0,4276.922852,4260.769043,4282.692383,4293.461426,4273.974121,4295.897461,4261.153809,4280.769043,4246.538574,4302.307617,4448.077148,4446.410156,4328.333496,4382.563965,,,,,,,,,,,,,,,,,,,,,,,,,,,,,,,,,,,,,,,,,,,,,,,,,,,,,,,,,,,,,,,,,,,,,,
1720525870,18,0,4271.153809,4256.666504,4276.025879,4284.230957,4261.794922,4295.769043,4262.563965,4281.794922,4244.102539,4304.871582,4448.077148,4441.922852,4322.820313,4382.05127,,,,,,,,,,,,,,,,,,,,,,,,,,,,,,,,,,,,,,,,,,,,,,,,,,,,,,,,,,,,,,,,,,,,,,
1720525870,19,0,4281.794922,4271.410156,4277.307617,4296.538574,4263.846191,4299.871582,4265,4265,4246.538574,4291.153809,4447.692383,4433.589844,4330.769043,4401.794922,,,,,,,,,,,,,,,,,,,,,,,,,,,,,,,,,,,,,,,,,,,,,,,,,,,,,,,,,,,,,,,,,,,,,,
1720525870,20,0,4296.794922,4272.692383,4297.563965,4307.436035,4272.05127,4308.717773,4273.333496,4277.179688,4249.743652,4304.102539,4456.666504,4459.230957,4342.692383,4434.615234,,,,,,,,,,,,,,,,,,,,,,,,,,,,,,,,,,,,,,,,,,,,,,,,,,,,,,,,,,,,,,,,,,,,,,
1720525870,21,0,4295.769043,4264.358887,4300.256348,4297.563965,4267.692383,4300.641113,4274.358887,4285.256348,4237.94873,4308.717773,4456.410156,4469.743652,4334.358887,4440.641113,,,,,,,,,,,,,,,,,,,,,,,,,,,,,,,,,,,,,,,,,,,,,,,,,,,,,,,,,,,,,,,,,,,,,,
1720525870,22,0,4294.615234,4272.436035,4286.922852,4290.897461,4264.487305,4294.487305,4271.282227,4271.025879,4229.358887,4293.846191,4447.05127,4450.256348,4324.615234,4428.077148,,,,,,,,,,,,,,,,,,,,,,,,,,,,,,,,,,,,,,,,,,,,,,,,,,,,,,,,,,,,,,,,,,,,,,
1720525870,23,0,4297.692383,4277.307617,4288.205078,4297.692383,4268.205078,4304.743652,4275.897461,4280,4233.717773,4301.538574,4448.461426,4451.153809,4328.974121,4428.717773,,,,,,,,,,,,,,,,,,,,,,,,,,,,,,,,,,,,,,,,,,,,,,,,,,,,,,,,,,,,,,,,,,,,,,
1720525870,24,0,4285.384766,4263.461426,4286.153809,4297.436035,4267.692383,4301.153809,4276.794922,4283.077148,4234.487305,4303.333496,4446.153809,4444.871582,4330.128418,4417.307617,,,,,,,,,,,,,,,,,,,,,,,,,,,,,,,,,,,,,,,,,,,,,,,,,,,,,,,,,,,,,,,,,,,,,,
1720525870,25,0,4276.410156,4259.743652,4282.692383,4291.153809,4263.205078,4288.974121,4273.461426,4273.077148,4231.538574,4293.589844,4441.410156,4434.230957,4321.794922,4399.871582,,,,,,,,,,,,,,,,,,,,,,,,,,,,,,,,,,,,,,,,,,,,,,,,,,,,,,,,,,,,,,,,,,,,,,
1720525870,26,0,4294.102539,4277.179688,4298.077148,4299.871582,4262.94873,4292.563965,4273.333496,4279.615234,4234.358887,4302.179688,4450,4455.897461,4328.333496,4419.743652,1.423767,11.415669,1.43077,1.406775,0.201996,0.785801,5.35602,2.403164,1.106167,0.244416,1.401439,8.432651,0.571207,1.126055,0.199073,0.659388,5.852735,1.934224,0.831778,0.193903,0.246343,0.720989,0.517244,0.166863,0.184499,0.267862,0.914396,0.234823,0.306783,0.138418,0.700538,2.684896,0.405815,0.621075,0.119644,0.169945,0.833123,0.128931,0.256739,0.305633,0.956531,2.443131,0.526763,0.713241,0.179782,0.146067,0.113108,0.032624,0.086899,0.23566,0.529822,4.031863,0.401852,0.487549,0.20209,2.019912,18.890905,0.441313,1.685473,0.469051,1.168136,11.801791,1.042139,1.285707,0.202122,1.796558,16.006458,1.04051,1.747453,0.262908
1720525870,27,0,4309.230957,4279.615234,4306.282227,4305.641113,4264.230957,4292.179688,4265.512695,4274.743652,4234.358887,4301.282227,4457.563965,4465.256348,4342.436035,4443.974121,,,,,,,,,,,,,,,,,,,,,,,,,,,,,,,,,,,,,,,,,,,,,,,,,,,,,,,,,,,,,,,,,,,,,,
1720525870,28,0,4300.769043,4266.153809,4291.410156,4291.922852,4261.922852,4283.461426,4256.153809,4258.717773,4230.897461,4285.769043,4452.94873,4445.769043,4341.922852,4434.615234,,,,,,,,,,,,,,,,,,,,,,,,,,,,,,,,,,,,,,,,,,,,,,,,,,,,,,,,,,,,,,,,,,,,,,
1720525870,29,0,4287.692383,4261.538574,4285.641113,4283.077148,4260.256348,4288.717773,4262.307617,4275.769043,4232.820313,4301.922852,4454.615234,4456.025879,4336.153809,4427.692383,,,,,,,,,,,,,,,,,,,,,,,,,,,,,,,,,,,,,,,,,,,,,,,,,,,,,,,,,,,,,,,,,,,,,,
1720525870,30,0,4281.153809,4258.461426,4281.794922,4282.436035,4262.179688,4295.256348,4265.641113,4282.94873,4231.538574,4307.179688,4447.820313,4458.077148,4329.743652,4422.94873,,,,,,,,,,,,,,,,,,,,,,,,,,,,,,,,,,,,,,,,,,,,,,,,,,,,,,,,,,,,,,,,,,,,,,
1720525870,31,0,4276.666504,4253.461426,4273.974121,4276.282227,4263.846191,4293.077148,4265.256348,4268.846191,4232.820313,4288.333496,4436.922852,4435.769043,4324.743652,4408.974121,,,,,,,,,,,,,,,,,,,,,,,,,,,,,,,,,,,,,,,,,,,,,,,,,,,,,,,,,,,,,,,,,,,,,,
1720525870,32,0,4279.358887,4259.615234,4280.128418,4280.512695,4266.538574,4292.05127,4270,4278.461426,4241.794922,4297.179688,4448.846191,4446.410156,4331.538574,4415.897461,,,,,,,,,,,,,,,,,,,,,,,,,,,,,,,,,,,,,,,,,,,,,,,,,,,,,,,,,,,,,,,,,,,,,,
1720525870,33,0,4286.538574,4268.846191,4281.282227,4295.512695,4267.179688,4287.307617,4267.307617,4277.307617,4241.410156,4302.307617,4451.282227,4451.922852,4335.256348,4428.333496,,,,,,,,,,,,,,,,,,,,,,,,,,,,,,,,,,,,,,,,,,,,,,,,,,,,,,,,,,,,,,,,,,,,,,
1720525870,34,0,4286.538574,4263.589844,4275.769043,4295.512695,4263.077148,4281.538574,4258.589844,4266.153809,4228.974121,4297.05127,4443.205078,4438.461426,4324.230957,4419.743652,,,,,,,,,,,,,,,,,,,,,,,,,,,,,,,,,,,,,,,,,,,,,,,,,,,,,,,,,,,,,,,,,,,,,,
1720525870,35,0,4284.230957,4263.333496,4279.615234,4291.153809,4267.563965,4289.743652,4261.410156,4272.94873,4229.358887,4297.05127,4448.077148,4439.102539,4321.922852,4408.717773,,,,,,,,,,,,,,,,,,,,,,,,,,,,,,,,,,,,,,,,,,,,,,,,,,,,,,,,,,,,,,,,,,,,,,
1720525870,36,0,4281.538574,4266.153809,4283.974121,4295.256348,4272.307617,4298.717773,4269.230957,4278.846191,4235.769043,4295.769043,4452.692383,4441.282227,4328.846191,4408.589844,,,,,,,,,,,,,,,,,,,,,,,,,,,,,,,,,,,,,,,,,,,,,,,,,,,,,,,,,,,,,,,,,,,,,,
1720525870,37,0,4278.461426,4258.846191,4281.538574,4293.205078,4264.102539,4292.94873,4272.692383,4277.692383,4234.358887,4296.282227,4446.282227,4434.743652,4323.333496,4406.153809,,,,,,,,,,,,,,,,,,,,,,,,,,,,,,,,,,,,,,,,,,,,,,,,,,,,,,,,,,,,,,,,,,,,,,
1720525870,38,0,4284.871582,4258.589844,4283.077148,4289.230957,4261.025879,4289.615234,4275,4275.641113,4240.641113,4298.077148,4441.282227,4436.025879,4320.256348,4402.692383,,,,,,,,,,,,,,,,,,,,,,,,,,,,,,,,,,,,,,,,,,,,,,,,,,,,,,,,,,,,,,,,,,,,,,
1720525870,39,0,4295.512695,4265.256348,4290,4295.128418,4267.820313,4294.615234,4272.05127,4278.846191,4250,4298.717773,4448.846191,4455.897461,4332.179688,4415,,,,,,,,,,,,,,,,,,,,,,,,,,,,,,,,,,,,,,,,,,,,,,,,,,,,,,,,,,,,,,,,,,,,,,
1720525870,40,0,4292.436035,4267.436035,4287.179688,4297.692383,4267.436035,4293.461426,4265.256348,4279.743652,4251.922852,4297.692383,4453.589844,4467.820313,4344.102539,4428.589844,,,,,,,,,,,,,,,,,,,,,,,,,,,,,,,,,,,,,,,,,,,,,,,,,,,,,,,,,,,,,,,,,,,,,,
1720525870,41,0,4279.230957,4260,4278.461426,4288.077148,4262.820313,4284.871582,4263.077148,4270.128418,4248.461426,4298.333496,4455,4458.077148,4342.436035,4420.512695,,,,,,,,,,,,,,,,,,,,,,,,,,,,,,,,,,,,,,,,,,,,,,,,,,,,,,,,,,,,,,,,,,,,,,
1720525870,42,0,4277.692383,4248.974121,4278.333496,4278.333496,4262.179688,4279.102539,4258.333496,4263.589844,4235.897461,4300.256348,4458.333496,4447.94873,4330.897461,4412.179688,1.199566,11.741659,1.633242,1.461056,0.19449,0.816882,5.769793,2.827614,1.174382,0.233694,1.341523,9.217603,0.599592,1.165305,0.180092,0.705489,6.365326,2.327884,0.896179,0.181328,0.285792,0.668963,0.640283,0.181798,0.170196,0.201649,0.867318,0.209281,0.332731,0.144008,0.541354,3.538975,0.535581,0.700173,0.108922,0.151468,1.101977,0.124883,0.281495,0.303719,0.883176,2.366742,0.472071,0.722461,0.166057,0.168928,0.144104,0.04179,0.087077,0.243743,0.530531,4.399855,0.442565,0.492365,0.20688,1.930732,20.759882,0.316221,1.705081,0.437591,1.253205,11.817793,1.00186,1.320618,0.205052,1.851849,16.126467,0.832275,1.80928,0.251321
1720525870,43,0,4280.641113,4248.077148,4282.436035,4280.256348,4262.692383,4276.922852,4251.025879,4267.436035,4226.922852,4298.333496,4453.717773,4449.358887,4327.179688,4416.282227,,,,,,,,,,,,,,,,,,,,,,,,,,,,,,,,,,,,,,,,,,,,,,,,,,,,,,,,,,,,,,,,,,,,,,
1720525870,44,0,4269.487305,4250.384766,4273.077148,4281.282227,4262.05127,4274.615234,4247.05127,4263.205078,4227.692383,4289.871582,4436.666504,4439.230957,4321.922852,4402.94873,,,,,,,,,,,,,,,,,,,,,,,,,,,,,,,,,,,,,,,,,,,,,,,,,,,,,,,,,,,,,,,,,,,,,,
1720525870,45,0,4254.230957,4237.820313,4261.282227,4267.563965,4258.974121,4274.615234,4245.769043,4263.846191,4220.641113,4293.461426,4427.94873,4425.641113,4299.871582,4379.230957,,,,,,,,,,,,,,,,,,,,,,,,,,,,,,,,,,,,,,,,,,,,,,,,,,,,,,,,,,,,,,,,,,,,,,
1720525870,46,0,4252.563965,4233.205078,4263.717773,4261.538574,4257.563965,4276.025879,4250.897461,4273.846191,4217.05127,4303.077148,4435.128418,4426.666504,4293.333496,4378.974121,,,,,,,,,,,,,,,,,,,,,,,,,,,,,,,,,,,,,,,,,,,,,,,,,,,,,,,,,,,,,,,,,,,,,,
1720525870,47,0,4264.358887,4256.153809,4270.512695,4282.692383,4264.743652,4280.641113,4264.230957,4263.461426,4238.205078,4291.025879,4437.94873,4423.717773,4315.897461,4391.282227,,,,,,,,,,,,,,,,,,,,,,,,,,,,,,,,,,,,,,,,,,,,,,,,,,,,,,,,,,,,,,,,,,,,,,
1720525870,48,0,4279.102539,4269.871582,4286.410156,4298.589844,4272.94873,4291.410156,4281.025879,4275,4251.538574,4297.179688,4451.538574,4445,4329.615234,4408.077148,,,,,,,,,,,,,,,,,,,,,,,,,,,,,,,,,,,,,,,,,,,,,,,,,,,,,,,,,,,,,,,,,,,,,,
1720525870,49,0,4291.538574,4264.358887,4305.256348,4298.974121,4279.358887,4296.538574,4290.384766,4298.205078,4249.358887,4308.205078,4464.358887,4473.589844,4331.025879,4421.538574,,,,,,,,,,,,,,,,,,,,,,,,,,,,,,,,,,,,,,,,,,,,,,,,,,,,,,,,,,,,,,,,,,,,,,
1720525870,50,0,4299.615234,4265.769043,4304.743652,4303.589844,4279.102539,4292.05127,4285.384766,4283.077148,4254.487305,4293.846191,4453.846191,4464.230957,4341.666504,4422.307617,,,,,,,,,,,,,,,,,,,,,,,,,,,,,,,,,,,,,,,,,,,,,,,,,,,,,,,,,,,,,,,,,,,,,,
1720525870,51,0,4294.743652,4267.436035,4295.641113,4303.461426,4271.282227,4289.230957,4279.102539,4279.871582,4256.666504,4298.205078,4450.256348,4459.615234,4346.794922,4425.512695,,,,,,,,,,,,,,,,,,,,,,,,,,,,,,,,,,,,,,,,,,,,,,,,,,,,,,,,,,,,,,,,,,,,,,
1720525870,52,0,4281.153809,4262.563965,4287.563965,4293.333496,4270.641113,4285.897461,4275.769043,4287.05127,4251.666504,4305.641113,4456.410156,4463.077148,4342.820313,4424.871582,,,,,,,,,,,,,,,,,,,,,,,,,,,,,,,,,,,,,,,,,,,,,,,,,,,,,,,,,,,,,,,,,,,,,,
1720525870,53,0,4279.487305,4263.205078,4286.153809,4289.871582,4271.153809,4279.102539,4268.205078,4274.871582,4246.666504,4297.436035,4455.641113,4454.871582,4342.179688,4412.94873,,,,,,,,,,,,,,,,,,,,,,,,,,,,,,,,,,,,,,,,,,,,,,,,,,,,,,,,,,,,,,,,,,,,,,
1720525870,54,0,4290.384766,4263.461426,4294.230957,4293.077148,4267.307617,4277.563965,4262.563965,4273.333496,4236.410156,4300.256348,4451.922852,4455.128418,4339.358887,4409.743652,,,,,,,,,,,,,,,,,,,,,,,,,,,,,,,,,,,,,,,,,,,,,,,,,,,,,,,,,,,,,,,,,,,,,,
1720525870,55,0,4293.333496,4260,4299.743652,4293.589844,4272.820313,4279.871582,4266.538574,4281.025879,4231.538574,4300,4451.153809,4461.153809,4336.153809,4414.615234,,,,,,,,,,,,,,,,,,,,,,,,,,,,,,,,,,,,,,,,,,,,,,,,,,,,,,,,,,,,,,,,,,,,,,
1720525870,56,0,4285.384766,4262.94873,4291.538574,4292.307617,4277.307617,4280.641113,4268.589844,4270.641113,4242.692383,4286.025879,4450.384766,4449.871582,4335.512695,4409.230957,,,,,,,,,,,,,,,,,,,,,,,,,,,,,,,,,,,,,,,,,,,,,,,,,,,,,,,,,,,,,,,,,,,,,,
1720525870,57,0,4275.128418,4264.743652,4281.153809,4290,4267.94873,4280.641113,4264.615234,4272.692383,4246.538574,4297.179688,4455.641113,4450.384766,4329.871582,4402.94873,,,,,,,,,,,,,,,,,,,,,,,,,,,,,,,,,,,,,,,,,,,,,,,,,,,,,,,,,,,,,,,,,,,,,,
1720525870,58,0,4269.358887,4260.641113,4272.692383,4289.615234,4262.436035,4276.794922,4259.102539,4276.538574,4235.641113,4306.153809,4452.563965,4451.410156,4327.692383,4399.230957,1.161642,11.937073,1.855024,1.512082,0.181409,0.957455,5.868711,3.116329,1.217312,0.230814,1.396364,10.03322,0.642857,1.166859,0.15966,0.840331,6.58105,2.580356,0.969659,0.178718,0.316507,0.603697,0.733551,0.194752,0.153606,0.157349,0.867789,0.187508,0.34863,0.148793,0.442173,4.516346,0.71426,0.742881,0.101385,0.139138,1.340773,0.135923,0.287336,0.303019,0.928412,2.503222,0.443337,0.704679,0.149272,0.188202,0.167489,0.054566,0.084755,0.25631,0.592656,4.687776,0.486621,0.486335,0.205088,2.068073,21.833263,0.23901,1.639138,0.403812,1.437158,11.81683,0.950977,1.276408,0.204758,2.072229,16.067331,0.703319,1.798469,0.235487
1720525870,59,0,4272.436035,4265,4267.307617,4292.563965,4264.487305,4275.769043,4253.974121,4258.974121,4230.769043,4288.589844,4438.589844,4427.05127,4334.358887,4392.94873,,,,,,,,,,,,,,,,,,,,,,,,,,,,,,,,,,,,,,,,,,,,,,,,,,,,,,,,,,,,,,,,,,,,,,
1720525870,60,0,4280.128418,4276.922852,4280.256348,4295,4265.128418,4277.94873,4259.743652,4263.717773,4234.871582,4294.615234,4445.128418,4427.94873,4339.230957,4400.769043,,,,,,,,,,,,,,,,,,,,,,,,,,,,,,,,,,,,,,,,,,,,,,,,,,,,,,,,,,,,,,,,,,,,,,
1720525870,61,0,4285.769043,4281.153809,4295.641113,4302.436035,4272.94873,4279.102539,4274.102539,4276.666504,4245.256348,4300,4454.743652,4445.641113,4344.743652,4408.974121,,,,,,,,,,,,,,,,,,,,,,,,,,,,,,,,,,,,,,,,,,,,,,,,,,,,,,,,,,,,,,,,,,,,,,
1720525870,62,0,4290.641113,4280,4299.487305,4313.589844,4281.410156,4285.769043,4284.102539,4278.974121,4254.358887,4294.102539,4461.282227,4454.358887,4352.307617,4413.846191,,,,,,,,,,,,,,,,,,,,,,,,,,,,,,,,,,,,,,,,,,,,,,,,,,,,,,,,,,,,,,,,,,,,,,
1720525870,63,0,4285.769043,4278.717773,4290.641113,4312.563965,4277.692383,4289.230957,4279.230957,4279.871582,4250.256348,4297.179688,4460.769043,4453.974121,4347.05127,4414.615234,,,,,,,,,,,,,,,,,,,,,,,,,,,,,,,,,,,,,,,,,,,,,,,,,,,,,,,,,,,,,,,,,,,,,,
1720525870,64,0,4267.179688,4271.410156,4277.436035,4293.077148,4268.974121,4281.282227,4267.307617,4275.384766,4243.589844,4295.256348,4443.717773,4439.230957,4332.563965,4398.205078,,,,,,,,,,,,,,,,,,,,,,,,,,,,,,,,,,,,,,,,,,,,,,,,,,,,,,,,,,,,,,,,,,,,,,
1720525870,65,0,4253.333496,4261.025879,4271.538574,4275.641113,4263.846191,4276.282227,4264.230957,4276.794922,4248.589844,4294.871582,4441.794922,4432.94873,4327.179688,4385.769043,,,,,,,,,,,,,,,,,,,,,,,,,,,,,,,,,,,,,,,,,,,,,,,,,,,,,,,,,,,,,,,,,,,,,,
1720525870,66,0,4247.179688,4255.641113,4265.897461,4277.820313,4262.563965,4278.205078,4262.05127,4275.384766,4247.436035,4296.025879,4447.820313,4429.871582,4327.436035,4381.794922,,,,,,,,,,,,,,,,,,,,,,,,,,,,,,,,,,,,,,,,,,,,,,,,,,,,,,,,,,,,,,,,,,,,,,
1720525870,67,0,4246.666504,4257.436035,4266.922852,4288.077148,4263.205078,4278.333496,4258.461426,4268.974121,4235.769043,4295.512695,4443.077148,4426.025879,4326.282227,4380,,,,,,,,,,,,,,,,,,,,,,,,,,,,,,,,,,,,,,,,,,,,,,,,,,,,,,,,,,,,,,,,,,,,,,
1720525870,68,0,4258.461426,4264.743652,4276.538574,4293.333496,4265.384766,4278.717773,4257.692383,4266.538574,4233.974121,4295.897461,4440.769043,4436.410156,4325.384766,4387.820313,,,,,,,,,,,,,,,,,,,,,,,,,,,,,,,,,,,,,,,,,,,,,,,,,,,,,,,,,,,,,,,,,,,,,,
1720525870,69,0,4265.897461,4266.025879,4279.615234,4294.102539,4265.512695,4278.333496,4252.05127,4264.487305,4238.205078,4296.282227,4443.205078,4442.563965,4324.871582,4394.487305,,,,,,,,,,,,,,,,,,,,,,,,,,,,,,,,,,,,,,,,,,,,,,,,,,,,,,,,,,,,,,,,,,,,,,
1720525870,70,0,4260.384766,4260.384766,4277.436035,4292.820313,4260.512695,4274.358887,4247.820313,4263.461426,4231.538574,4294.743652,4441.538574,4432.179688,4324.230957,4387.179688,,,,,,,,,,,,,,,,,,,,,,,,,,,,,,,,,,,,,,,,,,,,,,,,,,,,,,,,,,,,,,,,,,,,,,
1720525870,71,0,4262.307617,4267.307617,4278.589844,4291.922852,4262.179688,4276.282227,4257.94873,4269.102539,4229.358887,4296.153809,4442.05127,4432.05127,4326.153809,4386.025879,,,,,,,,,,,,,,,,,,,,,,,,,,,,,,,,,,,,,,,,,,,,,,,,,,,,,,,,,,,,,,,,,,,,,,
1720525870,72,0,4264.743652,4270,4275.897461,4286.410156,4264.743652,4281.282227,4266.538574,4267.94873,4239.487305,4295.641113,4444.743652,4437.05127,4326.922852,4393.077148,,,,,,,,,,,,,,,,,,,,,,,,,,,,,,,,,,,,,,,,,,,,,,,,,,,,,,,,,,,,,,,,,,,,,,
1720525870,73,0,4256.282227,4253.589844,4275.897461,4276.538574,4257.05127,4280,4268.589844,4270.256348,4245.769043,4296.410156,4444.615234,4433.077148,4324.487305,4393.077148,,,,,,,,,,,,,,,,,,,,,,,,,,,,,,,,,,,,,,,,,,,,,,,,,,,,,,,,,,,,,,,,,,,,,,
1720525870,74,0,4254.743652,4248.846191,4280.128418,4277.179688,4251.153809,4276.410156,4276.922852,4280,4245.128418,4300.769043,4446.282227,4431.153809,4323.717773,4394.230957,1.275734,12.021996,1.997882,1.545969,0.168462,1.160481,5.664641,3.122453,1.206956,0.242269,1.551135,10.767236,0.672974,1.140471,0.143515,1.037095,6.5177,2.590617,1.031452,0.189339,0.330815,0.541578,0.767239,0.201785,0.138946,0.140262,0.909021,0.184117,0.346992,0.1539,0.433989,5.379552,0.897347,0.738236,0.09929,0.13561,1.487408,0.159252,0.273479,0.300083,1.102019,2.714975,0.455298,0.651294,0.13239,0.210962,0.174547,0.068785,0.078583,0.268549,0.691948,4.79453,0.498846,0.4741,0.195431,2.349852,21.796478,0.225362,1.50693,0.377062,1.661763,11.769157,0.875843,1.175608,0.198864,2.449872,15.804403,0.672443,1.760792,0.221262
1720525870,75,0,4262.820313,4263.717773,4274.487305,4286.282227,4256.538574,4276.282227,4277.692383,4265.769043,4246.153809,4286.410156,4438.974121,4424.743652,4328.333496,4396.153809,,,,,,,,,,,,,,,,,,,,,,,,,,,,,,,,,,,,,,,,,,,,,,,,,,,,,,,,,,,,,,,,,,,,,,
1720525870,76,0,4266.025879,4265.897461,4278.205078,4292.307617,4256.282227,4279.871582,4273.974121,4269.743652,4248.333496,4294.487305,4443.333496,4439.615234,4330.897461,4404.230957,,,,,,,,,,,,,,,,,,,,,,,,,,,,,,,,,,,,,,,,,,,,,,,,,,,,,,,,,,,,,,,,,,,,,,
1720525870,77,0,4262.563965,4257.179688,4286.794922,4288.461426,4248.589844,4279.615234,4278.077148,4293.846191,4247.692383,4316.025879,4456.922852,4462.692383,4327.436035,4413.077148,,,,,,,,,,,,,,,,,,,,,,,,,,,,,,,,,,,,,,,,,,,,,,,,,,,,,,,,,,,,,,,,,,,,,,
1720525870,78,0,4260.384766,4258.461426,4280.128418,4283.974121,4254.487305,4277.05127,4277.820313,4276.922852,4247.307617,4297.307617,4450.897461,4452.563965,4329.871582,4414.743652,,,,,,,,,,,,,,,,,,,,,,,,,,,,,,,,,,,,,,,,,,,,,,,,,,,,,,,,,,,,,,,,,,,,,,
1720525870,79,0,4260,4254.358887,4280,4281.410156,4262.563965,4280.897461,4269.743652,4267.05127,4248.333496,4289.743652,4450.641113,4455.256348,4332.436035,4420.512695,,,,,,,,,,,,,,,,,,,,,,,,,,,,,,,,,,,,,,,,,,,,,,,,,,,,,,,,,,,,,,,,,,,,,,
1720525870,80,0,4257.820313,4249.230957,4281.282227,4275.897461,4260,4280.128418,4261.153809,4276.922852,4247.563965,4301.922852,4455.769043,4460.256348,4328.974121,4415.256348,,,,,,,,,,,,,,,,,,,,,,,,,,,,,,,,,,,,,,,,,,,,,,,,,,,,,,,,,,,,,,,,,,,,,,
1720525870,81,0,4258.717773,4259.871582,4276.025879,4280.384766,4263.077148,4281.025879,4262.94873,4272.05127,4247.307617,4298.846191,4449.743652,4439.358887,4332.436035,4402.94873,,,,,,,,,,,,,,,,,,,,,,,,,,,,,,,,,,,,,,,,,,,,,,,,,,,,,,,,,,,,,,,,,,,,,,
1720525870,82,0,4260.256348,4269.615234,4277.692383,4294.102539,4270.256348,4287.94873,4276.025879,4277.436035,4247.820313,4296.922852,4445.384766,4435.897461,4334.743652,4404.487305,,,,,,,,,,,,,,,,,,,,,,,,,,,,,,,,,,,,,,,,,,,,,,,,,,,,,,,,,,,,,,,,,,,,,,
1720525870,83,0,4261.922852,4268.461426,4281.538574,4296.794922,4268.205078,4282.179688,4279.102539,4282.94873,4248.974121,4298.205078,4441.794922,4445.769043,4330.512695,4409.102539,,,,,,,,,,,,,,,,,,,,,,,,,,,,,,,,,,,,,,,,,,,,,,,,,,,,,,,,,,,,,,,,,,,,,,
1720525870,84,0,4280.641113,4274.358887,4296.282227,4294.230957,4264.358887,4271.922852,4272.436035,4270.641113,4247.563965,4293.846191,4442.692383,4447.820313,4342.307617,4420.256348,,,,,,,,,,,,,,,,,,,,,,,,,,,,,,,,,,,,,,,,,,,,,,,,,,,,,,,,,,,,,,,,,,,,,,
1720525870,85,0,4305.384766,4287.692383,4317.05127,4305.128418,4267.307617,4278.974121,4272.820313,4275.256348,4246.410156,4299.743652,4452.05127,4460.769043,4356.666504,4441.666504,,,,,,,,,,,,,,,,,,,,,,,,,,,,,,,,,,,,,,,,,,,,,,,,,,,,,,,,,,,,,,,,,,,,,,
1720525870,86,0,4301.666504,4286.794922,4310.512695,4312.94873,4264.358887,4281.922852,4271.282227,4280.384766,4247.94873,4302.179688,4452.05127,4463.589844,4351.922852,4444.358887,,,,,,,,,,,,,,,,,,,,,,,,,,,,,,,,,,,,,,,,,,,,,,,,,,,,,,,,,,,,,,,,,,,,,,
1720525870,87,0,4286.410156,4278.974121,4290.384766,4301.666504,4262.820313,4269.743652,4269.230957,4264.871582,4251.794922,4286.153809,4447.179688,4445.128418,4357.05127,4434.615234,,,,,,,,,,,,,,,,,,,,,,,,,,,,,,,,,,,,,,,,,,,,,,,,,,,,,,,,,,,,,,,,,,,,,,
1720525870,88,0,4288.974121,4279.487305,4295.641113,4293.333496,4265,4271.538574,4277.436035,4275.256348,4252.179688,4289.871582,4461.922852,4457.820313,4368.717773,4444.615234,,,,,,,,,,,,,,,,,,,,,,,,,,,,,,,,,,,,,,,,,,,,,,,,,,,,,,,,,,,,,,,,,,,,,,
1720525870,89,0,4295.512695,4286.794922,4304.102539,4299.358887,4260.384766,4281.538574,4281.538574,4285.128418,4249.487305,4295.641113,4466.538574,4472.820313,4362.436035,4447.05127,,,,,,,,,,,,,,,,,,,,,,,,,,,,,,,,,,,,,,,,,,,,,,,,,,,,,,,,,,,,,,,,,,,,,,
1720525870,90,0,4296.666504,4287.179688,4305.769043,4307.820313,4258.461426,4281.153809,4278.205078,4274.743652,4251.025879,4285.256348,4456.282227,4465.769043,4356.794922,4438.333496,1.450436,11.84236,2.010892,1.560083,0.161393,1.338619,5.216207,2.799296,1.134724,0.268863,1.718348,11.158904,0.680325,1.111077,0.134706,1.223733,6.221015,2.339338,1.062777,0.210349,0.339869,0.492726,0.727488,0.202897,0.12794,0.150949,0.969115,0.209021,0.324592,0.159482,0.511399,5.914219,1.041487,0.692473,0.101629,0.148824,1.512763,0.190276,0.245483,0.294238,1.354984,2.857803,0.514575,0.569907,0.120273,0.225906,0.163062,0.081648,0.06855,0.276694,0.77896,4.627677,0.467133,0.466468,0.18007,2.621012,20.458265,0.308257,1.35094,0.364418,1.828297,11.464869,0.806289,1.052221,0.189747,2.927564,15.10042,0.780806,1.751158,0.21477
1720525870,91,0,4298.589844,4281.153809,4312.179688,4308.717773,4262.563965,4278.333496,4280.641113,4280,4252.179688,4285,4460.769043,4472.820313,4358.589844,4446.153809,,,,,,,,,,,,,,,,,,,,,,,,,,,,,,,,,,,,,,,,,,,,,,,,,,,,,,,,,,,,,,,,,,,,,,
1720525870,92,0,4295,4280.256348,4303.589844,4305.128418,4262.307617,4279.358887,4281.922852,4280.641113,4249.743652,4283.589844,4458.077148,4470.897461,4351.794922,4445.256348,,,,,,,,,,,,,,,,,,,,,,,,,,,,,,,,,,,,,,,,,,,,,,,,,,,,,,,,,,,,,,,,,,,,,,
1720525870,93,0,4288.461426,4281.410156,4291.410156,4305.512695,4267.820313,4281.794922,4279.615234,4276.282227,4251.153809,4284.358887,4444.230957,4458.974121,4340.512695,4430.128418,,,,,,,,,,,,,,,,,,,,,,,,,,,,,,,,,,,,,,,,,,,,,,,,,,,,,,,,,,,,,,,,,,,,,,
1720525870,94,0,4289.871582,4287.05127,4296.153809,4307.563965,4278.974121,4282.820313,4280.769043,4280,4258.077148,4287.692383,4440.512695,4460.641113,4339.743652,4423.205078,,,,,,,,,,,,,,,,,,,,,,,,,,,,,,,,,,,,,,,,,,,,,,,,,,,,,,,,,,,,,,,,,,,,,,
1720525870,95,0,4298.846191,4292.307617,4306.538574,4310,4273.589844,4282.307617,4281.410156,4278.974121,4261.922852,4287.05127,4441.410156,4467.179688,4345.128418,4430.128418,,,,,,,,,,,,,,,,,,,,,,,,,,,,,,,,,,,,,,,,,,,,,,,,,,,,,,,,,,,,,,,,,,,,,,
1720525870,96,0,4309.871582,4291.025879,4313.974121,4305.769043,4260.256348,4276.666504,4276.410156,4271.410156,4256.410156,4285,4444.230957,4469.102539,4347.94873,4442.05127,,,,,,,,,,,,,,,,,,,,,,,,,,,,,,,,,,,,,,,,,,,,,,,,,,,,,,,,,,,,,,,,,,,,,,
1720525870,97,0,4313.205078,4289.743652,4315.128418,4297.563965,4261.282227,4267.820313,4266.666504,4264.871582,4240.256348,4278.974121,4450,4464.871582,4352.563965,4445.256348,,,,,,,,,,,,,,,,,,,,,,,,,,,,,,,,,,,,,,,,,,,,,,,,,,,,,,,,,,,,,,,,,,,,,,
1720525870,98,0,4312.94873,4293.846191,4314.230957,4301.922852,4264.615234,4262.307617,4262.436035,4263.846191,4227.436035,4278.333496,4452.436035,4464.487305,4362.179688,4441.025879,,,,,,,,,,,,,,,,,,,,,,,,,,,,,,,,,,,,,,,,,,,,,,,,,,,,,,,,,,,,,,,,,,,,,,
1720525870,99,0,4312.563965,4297.563965,4309.615234,4311.794922,4261.794922,4261.794922,4265.512695,4270.256348,4235.256348,4282.179688,4455.256348,4463.974121,4368.717773,4438.461426,,,,,,,,,,,,,,,,,,,,,,,,,,,,,,,,,,,,,,,,,,,,,,,,,,,,,,,,,,,,,,,,,,,,,,
1720525870,100,0,4305,4294.230957,4299.230957,4312.307617,4260.641113,4263.717773,4262.94873,4272.179688,4246.410156,4277.307617,4456.538574,4454.102539,4366.922852,4432.436035,,,,,,,,,,,,,,,,,,,,,,,,,,,,,,,,,,,,,,,,,,,,,,,,,,,,,,,,,,,,,,,,,,,,,,
1720525870,101,0,4292.820313,4288.974121,4291.282227,4303.333496,4258.205078,4268.461426,4259.743652,4270.769043,4246.666504,4275.384766,4453.974121,4451.538574,4366.282227,4427.94873,,,,,,,,,,,,,,,,,,,,,,,,,,,,,,,,,,,,,,,,,,,,,,,,,,,,,,,,,,,,,,,,,,,,,,
1720525870,102,0,4288.846191,4286.153809,4291.666504,4294.615234,4257.820313,4273.461426,4269.487305,4280.384766,4257.05127,4287.436035,4459.102539,4470.384766,4368.333496,4439.871582,,,,,,,,,,,,,,,,,,,,,,,,,,,,,,,,,,,,,,,,,,,,,,,,,,,,,,,,,,,,,,,,,,,,,,
1720525870,103,0,4292.436035,4290.128418,4292.820313,4298.974121,4263.974121,4275.384766,4276.282227,4271.538574,4269.358887,4280.512695,4458.077148,4469.871582,4367.563965,4442.94873,,,,,,,,,,,,,,,,,,,,,,,,,,,,,,,,,,,,,,,,,,,,,,,,,,,,,,,,,,,,,,,,,,,,,,
1720525870,104,0,4293.589844,4290.897461,4297.563965,4306.282227,4262.563965,4279.102539,4271.410156,4264.230957,4256.666504,4273.077148,4449.102539,4453.846191,4361.025879,4429.871582,,,,,,,,,,,,,,,,,,,,,,,,,,,,,,,,,,,,,,,,,,,,,,,,,,,,,,,,,,,,,,,,,,,,,,
1720525870,105,0,4291.538574,4283.846191,4302.05127,4300.512695,4264.615234,4280.128418,4273.205078,4285.897461,4241.153809,4289.871582,4447.563965,4453.333496,4347.94873,4420.769043,,,,,,,,,,,,,,,,,,,,,,,,,,,,,,,,,,,,,,,,,,,,,,,,,,,,,,,,,,,,,,,,,,,,,,
1720525870,106,0,4290,4281.282227,4296.153809,4299.230957,4276.538574,4277.05127,4282.820313,4283.717773,4248.589844,4283.077148,4444.102539,4449.358887,4345,4414.871582,1.621399,11.181637,1.899147,1.56239,0.162681,1.442714,4.589524,2.218381,1.014287,0.303667,1.829718,10.940405,0.672333,1.107254,0.132608,1.346211,5.727143,1.898469,1.058168,0.234894,0.350621,0.45821,0.622754,0.20208,0.119958,0.177394,1.017156,0.26154,0.285377,0.164097,0.643971,6.026748,1.118705,0.625785,0.105247,0.182067,1.436636,0.220603,0.213784,0.288273,1.595484,2.862021,0.605083,0.481761,0.116959,0.235379,0.138281,0.090713,0.056589,0.280302,0.807865,4.158893,0.406032,0.473084,0.164674,2.742564,17.877544,0.490264,1.219663,0.368667,1.899601,10.676484,0.785327,0.932611,0.182874,3.451677,13.71105,1.04516,1.795472,0.218806
1720525870,107,0,4290.769043,4280.128418,4297.563965,4301.025879,4272.05127,4279.743652,4282.436035,4268.589844,4252.820313,4274.487305,4444.615234,4454.743652,4351.025879,4417.436035,,,,,,,,,,,,,,,,,,,,,,,,,,,,,,,,,,,,,,,,,,,,,,,,,,,,,,,,,,,,,,,,,,,,,,
1720525870,108,0,4290,4276.922852,4303.589844,4287.179688,4257.179688,4276.025879,4270.128418,4273.333496,4244.487305,4281.282227,4453.846191,4462.692383,4351.410156,4424.743652,,,,,,,,,,,,,,,,,,,,,,,,,,,,,,,,,,,,,,,,,,,,,,,,,,,,,,,,,,,,,,,,,,,,,,
1720525870,109,0,4291.153809,4276.794922,4299.230957,4280.384766,4258.974121,4264.871582,4260.769043,4273.205078,4243.717773,4277.563965,4453.717773,4451.153809,4349.487305,4421.666504,,,,,,,,,,,,,,,,,,,,,,,,,,,,,,,,,,,,,,,,,,,,,,,,,,,,,,,,,,,,,,,,,,,,,,
1720525870,110,0,4291.922852,4276.410156,4296.282227,4291.794922,4265.384766,4263.205078,4259.358887,4267.94873,4242.307617,4274.102539,4448.846191,4445.256348,4345.641113,4411.666504,,,,,,,,,,,,,,,,,,,,,,,,,,,,,,,,,,,,,,,,,,,,,,,,,,,,,,,,,,,,,,,,,,,,,,
1720525870,111,0,4285.384766,4275.128418,4290.384766,4294.743652,4261.282227,4264.102539,4258.077148,4265.256348,4232.436035,4269.102539,4447.563965,4441.666504,4340.512695,4407.820313,,,,,,,,,,,,,,,,,,,,,,,,,,,,,,,,,,,,,,,,,,,,,,,,,,,,,,,,,,,,,,,,,,,,,,
1720525870,112,0,4290.512695,4278.717773,4291.410156,4292.05127,4259.230957,4265,4261.410156,4264.743652,4230.512695,4262.563965,4447.692383,4442.05127,4343.717773,4416.153809,,,,,,,,,,,,,,,,,,,,,,,,,,,,,,,,,,,,,,,,,,,,,,,,,,,,,,,,,,,,,,,,,,,,,,
1720525870,113,0,4306.282227,4283.717773,4306.410156,4302.307617,4262.436035,4272.436035,4273.846191,4274.230957,4243.077148,4269.358887,4451.794922,4465,4350.769043,4428.589844,,,,,,,,,,,,,,,,,,,,,,,,,,,,,,,,,,,,,,,,,,,,,,,,,,,,,,,,,,,,,,,,,,,,,,
1720525870,114,0,4307.692383,4281.153809,4312.563965,4306.410156,4264.487305,4278.846191,4283.846191,4282.94873,4259.615234,4271.410156,4457.94873,4479.102539,4350.769043,4427.820313,,,,,,,,,,,,,,,,,,,,,,,,,,,,,,,,,,,,,,,,,,,,,,,,,,,,,,,,,,,,,,,,,,,,,,
1720525870,115,0,4293.846191,4279.615234,4301.282227,4295.512695,4264.871582,4273.461426,4280,4271.922852,4264.871582,4253.974121,4450,4453.589844,4349.615234,4410.769043,,,,,,,,,,,,,,,,,,,,,,,,,,,,,,,,,,,,,,,,,,,,,,,,,,,,,,,,,,,,,,,,,,,,,,
1720525870,116,0,4281.153809,4278.589844,4289.230957,4287.692383,4260.512695,4267.307617,4270.641113,4269.487305,4253.974121,4259.358887,4442.94873,4443.333496,4348.717773,4405,,,,,,,,,,,,,,,,,,,,,,,,,,,,,,,,,,,,,,,,,,,,,,,,,,,,,,,,,,,,,,,,,,,,,,
1720525870,117,0,4277.820313,4272.692383,4284.358887,4291.282227,4261.794922,4273.589844,4266.538574,4274.358887,4249.102539,4271.282227,4450.384766,4455.897461,4352.436035,4416.538574,,,,,,,,,,,,,,,,,,,,,,,,,,,,,,,,,,,,,,,,,,,,,,,,,,,,,,,,,,,,,,,,,,,,,,
1720525870,118,0,4285.512695,4271.410156,4287.05127,4295.769043,4268.205078,4277.563965,4265.641113,4267.05127,4250.897461,4259.743652,4452.05127,4452.05127,4362.692383,4423.589844,,,,,,,,,,,,,,,,,,,,,,,,,,,,,,,,,,,,,,,,,,,,,,,,,,,,,,,,,,,,,,,,,,,,,,
1720525870,119,0,4293.461426,4276.794922,4297.563965,4292.179688,4266.282227,4269.871582,4261.922852,4266.922852,4239.615234,4255.384766,4450.256348,4451.410156,4361.282227,4425.512695,,,,,,,,,,,,,,,,,,,,,,,,,,,,,,,,,,,,,,,,,,,,,,,,,,,,,,,,,,,,,,,,,,,,,,
1720525870,120,0,4294.230957,4281.410156,4303.589844,4291.153809,4263.589844,4270,4259.487305,4266.153809,4235.256348,4252.692383,4450.384766,4455.128418,4350,4421.666504,,,,,,,,,,,,,,,,,,,,,,,,,,,,,,,,,,,,,,,,,,,,,,,,,,,,,,,,,,,,,,,,,,,,,,
1720525870,121,0,4293.205078,4285.512695,4304.102539,4299.102539,4268.205078,4280.641113,4264.487305,4266.794922,4248.077148,4247.692383,4451.794922,4459.487305,4350.512695,4417.05127,,,,,,,,,,,,,,,,,,,,,,,,,,,,,,,,,,,,,,,,,,,,,,,,,,,,,,,,,,,,,,,,,,,,,,
1720525870,122,0,4284.487305,4281.153809,4294.615234,4297.820313,4267.05127,4274.743652,4267.94873,4272.05127,4249.487305,4246.282227,4452.179688,4458.333496,4350.384766,4412.563965,1.769061,9.958845,1.716658,1.557685,0.170231,1.461559,3.872152,1.547674,0.871486,0.334566,1.845786,9.995243,0.659728,1.14352,0.133823,1.370507,5.075265,1.406026,1.025401,0.255027,0.369001,0.440791,0.482849,0.204622,0.113414,0.204932,1.030412,0.329383,0.238971,0.165208,0.79091,5.757381,1.119759,0.562097,0.107189,0.23231,1.310396,0.242524,0.188898,0.286352,1.720728,2.730279,0.695896,0.408606,0.123123,0.234159,0.107775,0.093748,0.045331,0.281405,0.767791,3.451608,0.345508,0.494112,0.155022,2.66746,14.431761,0.733779,1.145203,0.385967,1.902937,9.323498,0.830521,0.826038,0.181964,3.976439,11.606418,1.413342,1.871064,0.229707
1720525870,123,0,4270.897461,4265.641113,4279.487305,4283.205078,4257.307617,4259.230957,4266.666504,4270.897461,4240.256348,4239.102539,4448.589844,4447.05127,4342.94873,4407.436035,,,,,,,,,,,,,,,,,,,,,,,,,,,,,,,,,,,,,,,,,,,,,,,,,,,,,,,,,,,,,,,,,,,,,,
1720525871,124,0,4278.205078,4266.153809,4291.025879,4284.230957,4258.717773,4263.205078,4277.05127,4276.666504,4244.230957,4236.922852,4453.205078,4451.794922,4348.974121,4414.743652,,,,,,,,,,,,,,,,,,,,,,,,,,,,,,,,,,,,,,,,,,,,,,,,,,,,,,,,,,,,,,,,,,,,,,
1720525871,125,0,4290.897461,4279.871582,4309.743652,4299.358887,4266.410156,4272.94873,4285,4280.641113,4254.102539,4239.487305,4456.794922,4464.487305,4357.307617,4419.230957,,,,,,,,,,,,,,,,,,,,,,,,,,,,,,,,,,,,,,,,,,,,,,,,,,,,,,,,,,,,,,,,,,,,,,
1720525871,126,0,4283.846191,4272.820313,4300,4295.897461,4264.871582,4267.179688,4271.666504,4271.666504,4250.641113,4234.487305,4447.692383,4456.282227,4342.436035,4401.153809,,,,,,,,,,,,,,,,,,,,,,,,,,,,,,,,,,,,,,,,,,,,,,,,,,,,,,,,,,,,,,,,,,,,,,
1720525871,127,0,4276.794922,4265.256348,4284.487305,4285.769043,4263.589844,4260.769043,4257.179688,4263.974121,4237.692383,4228.205078,4437.436035,4438.846191,4325.897461,4384.487305,,,,,,,,,,,,,,,,,,,,,,,,,,,,,,,,,,,,,,,,,,,,,,,,,,,,,,,,,,,,,,,,,,,,,,
1720525871,0,0,4274.743652,4274.230957,4284.230957,4291.153809,4267.436035,4266.282227,4259.615234,4265,4235.897461,4223.461426,4438.846191,4441.153809,4329.102539,4387.05127,,,,,,,,,,,,,,,,,,,,,,,,,,,,,,,,,,,,,,,,,,,,,,,,,,,,,,,,,,,,,,,,,,,,,,
1720525871,1,0,4267.94873,4269.358887,4285,4294.487305,4265.769043,4271.153809,4263.974121,4266.282227,4246.922852,4220.897461,4443.461426,4450.256348,4339.230957,4393.717773,,,,,,,,,,,,,,,,,,,,,,,,,,,,,,,,,,,,,,,,,,,,,,,,,,,,,,,,,,,,,,,,,,,,,,
1720525871,2,0,4270.256348,4259.615234,4285.641113,4290.256348,4262.436035,4266.282227,4260.897461,4273.077148,4248.717773,4224.358887,4444.743652,4447.820313,4346.794922,4396.922852,,,,,,,,,,,,,,,,,,,,,,,,,,,,,,,,,,,,,,,,,,,,,,,,,,,,,,,,,,,,,,,,,,,,,,
1720525871,3,0,4277.94873,4271.538574,4286.538574,4290.512695,4268.846191,4261.922852,4262.94873,4270.769043,4247.307617,4214.615234,4444.487305,4435.769043,4349.230957,4390.256348,,,,,,,,,,,,,,,,,,,,,,,,,,,,,,,,,,,,,,,,,,,,,,,,,,,,,,,,,,,,,,,,,,,,,,
1720525871,4,0,4283.077148,4283.077148,4292.05127,4296.153809,4276.153809,4272.179688,4276.282227,4270.384766,4257.179688,4210.384766,4446.922852,4446.538574,4350.769043,4388.717773,,,,,,,,,,,,,,,,,,,,,,,,,,,,,,,,,,,,,,,,,,,,,,,,,,,,,,,,,,,,,,,,,,,,,,
1720525871,5,0,4290.384766,4279.743652,4305.384766,4305,4272.307617,4281.538574,4287.179688,4290.641113,4263.846191,4228.333496,4454.743652,4479.358887,4355.897461,4406.794922,,,,,,,,,,,,,,,,,,,,,,,,,,,,,,,,,,,,,,,,,,,,,,,,,,,,,,,,,,,,,,,,,,,,,,
1720525871,6,0,4291.153809,4279.102539,4302.436035,4306.922852,4265.128418,4270.256348,4283.846191,4283.333496,4261.025879,4216.666504,4453.333496,4473.717773,4357.307617,4410,,,,,,,,,,,,,,,,,,,,,,,,,,,,,,,,,,,,,,,,,,,,,,,,,,,,,,,,,,,,,,,,,,,,,,
1720525871,7,0,4283.589844,4277.179688,4290.384766,4295.512695,4261.025879,4259.743652,4277.436035,4269.102539,4256.282227,4199.871582,4451.282227,4459.743652,4351.153809,4401.153809,,,,,,,,,,,,,,,,,,,,,,,,,,,,,,,,,,,,,,,,,,,,,,,,,,,,,,,,,,,,,,,,,,,,,,
1720525871,8,0,4285.256348,4271.922852,4294.358887,4290.641113,4261.922852,4264.871582,4276.922852,4279.358887,4248.333496,4210.384766,4451.538574,4466.538574,4345.512695,4403.205078,,,,,,,,,,,,,,,,,,,,,,,,,,,,,,,,,,,,,,,,,,,,,,,,,,,,,,,,,,,,,,,,,,,,,,
1720525871,9,0,4292.820313,4273.974121,4302.05127,4298.974121,4271.922852,4271.025879,4275.641113,4275.384766,4243.205078,4205.512695,4443.846191,4454.358887,4341.666504,4400,,,,,,,,,,,,,,,,,,,,,,,,,,,,,,,,,,,,,,,,,,,,,,,,,,,,,,,,,,,,,,,,,,,,,,
1720525871,10,0,4294.487305,4279.230957,4301.794922,4299.615234,4277.179688,4273.974121,4274.743652,4271.666504,4243.717773,4197.692383,4444.358887,4442.05127,4339.358887,4394.358887,1.909431,8.284874,1.535611,1.544135,0.180281,1.434957,3.161248,0.970337,0.732041,0.350772,1.767548,8.412569,0.650156,1.214244,0.135983,1.328873,4.310421,0.997502,0.979562,0.266621,0.394666,0.445527,0.348297,0.213756,0.107733,0.21953,1.021683,0.397273,0.196173,0.161093,0.903665,5.251889,1.071376,0.516981,0.106784,0.28468,1.192378,0.255626,0.176347,0.291018,1.675275,2.544125,0.778021,0.366519,0.136769,0.22718,0.081627,0.091652,0.037022,0.282714,0.675709,2.645135,0.319906,0.518702,0.154207,2.428125,10.708694,0.979314,1.131438,0.408275,1.886419,7.574335,0.935597,0.726628,0.186855,4.388511,9.036722,1.78242,1.922301,0.24063
1720525871,11,0,4288.461426,4281.153809,4298.333496,4297.692383,4269.615234,4275,4272.820313,4278.205078,4243.461426,4204.358887,4446.410156,4444.102539,4342.94873,4392.563965,,,,,,,,,,,,,,,,,,,,,,,,,,,,,,,,,,,,,,,,,,,,,,,,,,,,,,,,,,,,,,,,,,,,,,
1720525871,12,0,4271.025879,4270.769043,4282.820313,4294.487305,4262.692383,4265,4263.589844,4270.897461,4238.461426,4196.922852,4435.769043,4437.179688,4332.820313,4377.05127,,,,,,,,,,,,,,,,,,,,,,,,,,,,,,,,,,,,,,,,,,,,,,,,,,,,,,,,,,,,,,,,,,,,,,
1720525871,13,0,4251.025879,4248.461426,4264.358887,4275.769043,4260.641113,4257.692383,4256.410156,4269.358887,4236.025879,4187.05127,4427.563965,4429.743652,4313.717773,4361.538574,,,,,,,,,,,,,,,,,,,,,,,,,,,,,,,,,,,,,,,,,,,,,,,,,,,,,,,,,,,,,,,,,,,,,,
1720525871,14,0,4251.282227,4241.922852,4270.641113,4266.153809,4259.358887,4267.563965,4266.666504,4283.333496,4248.333496,4198.333496,4432.94873,4442.820313,4322.692383,4372.307617,,,,,,,,,,,,,,,,,,,,,,,,,,,,,,,,,,,,,,,,,,,,,,,,,,,,,,,,,,,,,,,,,,,,,,
1720525871,15,0,4269.487305,4258.461426,4288.717773,4283.589844,4263.846191,4280.128418,4281.666504,4275.897461,4268.589844,4197.307617,4438.461426,4451.282227,4346.538574,4388.333496,,,,,,,,,,,,,,,,,,,,,,,,,,,,,,,,,,,,,,,,,,,,,,,,,,,,,,,,,,,,,,,,,,,,,,
1720525871,16,0,4281.025879,4270.641113,4297.05127,4298.333496,4268.717773,4277.94873,4283.205078,4272.179688,4270.641113,4190.512695,4444.871582,4454.871582,4348.717773,4391.922852,,,,,,,,,,,,,,,,,,,,,,,,,,,,,,,,,,,,,,,,,,,,,,,,,,,,,,,,,,,,,,,,,,,,,,
1720525871,17,0,4279.487305,4272.05127,4297.820313,4297.820313,4265.128418,4265.512695,4277.692383,4283.461426,4258.333496,4193.717773,4449.743652,4460.897461,4341.538574,4393.717773,,,,,,,,,,,,,,,,,,,,,,,,,,,,,,,,,,,,,,,,,,,,,,,,,,,,,,,,,,,,,,,,,,,,,,
1720525871,18,0,4285.384766,4279.230957,4302.179688,4302.307617,4265.512695,4266.410156,4279.615234,4277.692383,4259.230957,4191.794922,4452.563965,4463.461426,4348.974121,4402.820313,,,,,,,,,,,,,,,,,,,,,,,,,,,,,,,,,,,,,,,,,,,,,,,,,,,,,,,,,,,,,,,,,,,,,,
1720525871,19,0,4297.436035,4285.512695,4308.205078,4307.820313,4267.563965,4274.358887,4282.436035,4276.922852,4263.333496,4193.461426,4460.384766,4478.461426,4359.230957,4417.436035,,,,,,,,,,,,,,,,,,,,,,,,,,,,,,,,,,,,,,,,,,,,,,,,,,,,,,,,,,,,,,,,,,,,,,
1720525871,20,0,4292.94873,4281.153809,4299.358887,4301.794922,4262.94873,4266.025879,4279.615234,4281.282227,4251.794922,4187.05127,4450.897461,4475.641113,4357.05127,4416.153809,,,,,,,,,,,,,,,,,,,,,,,,,,,,,,,,,,,,,,,,,,,,,,,,,,,,,,,,,,,,,,,,,,,,,,
1720525871,21,0,4283.077148,4275.384766,4291.410156,4294.871582,4267.436035,4260.256348,4277.820313,4275.897461,4245.128418,4182.820313,4440.256348,4455.769043,4347.563965,4403.717773,,,,,,,,,,,,,,,,,,,,,,,,,,,,,,,,,,,,,,,,,,,,,,,,,,,,,,,,,,,,,,,,,,,,,,
1720525871,22,0,4287.820313,4273.846191,4296.282227,4296.666504,4274.743652,4267.05127,4272.179688,4272.179688,4247.436035,4189.743652,4447.436035,4453.974121,4341.922852,4404.102539,,,,,,,,,,,,,,,,,,,,,,,,,,,,,,,,,,,,,,,,,,,,,,,,,,,,,,,,,,,,,,,,,,,,,,
1720525871,23,0,4298.461426,4276.794922,4297.94873,4302.692383,4267.94873,4266.794922,4263.333496,4270.512695,4239.871582,4183.461426,4443.205078,4454.615234,4340.256348,4408.205078,,,,,,,,,,,,,,,,,,,,,,,,,,,,,,,,,,,,,,,,,,,,,,,,,,,,,,,,,,,,,,,,,,,,,,
1720525871,24,0,4295.641113,4279.871582,4296.153809,4305,4263.461426,4262.179688,4259.615234,4271.538574,4234.230957,4174.487305,4433.205078,4448.077148,4337.436035,4405.897461,,,,,,,,,,,,,,,,,,,,,,,,,,,,,,,,,,,,,,,,,,,,,,,,,,,,,,,,,,,,,,,,,,,,,,
1720525871,25,0,4282.05127,4277.307617,4296.922852,4301.410156,4266.922852,4263.461426,4258.974121,4269.230957,4240.769043,4177.436035,4437.94873,4441.153809,4334.358887,4401.410156,,,,,,,,,,,,,,,,,,,,,,,,,,,,,,,,,,,,,,,,,,,,,,,,,,,,,,,,,,,,,,,,,,,,,,
1720525871,26,0,4276.666504,4272.436035,4290.641113,4296.794922,4265.769043,4260.641113,4254.871582,4265.256348,4242.94873,4179.230957,4439.743652,4436.538574,4330.128418,4395.512695,2.036697,6.45619,1.384835,1.517088,0.189293,1.411425,2.535716,0.59111,0.612195,0.348045,1.611687,6.493357,0.640531,1.300328,0.139679,1.257182,3.499944,0.74542,0.93296,0.271383,0.423077,0.47842,0.252128,0.229524,0.104633,0.215473,1.026176,0.45265,0.165171,0.152994,0.950096,4.675745,1.042895,0.495542,0.10627,0.322908,1.115978,0.268956,0.175548,0.300645,1.470686,2.394877,0.862748,0.364532,0.155341,0.233309,0.067434,0.087497,0.032902,0.286373,0.560085,1.915428,0.345648,0.530553,0.161095,2.079421,7.32319,1.171376,1.162153,0.428008,1.873941,5.811563,1.062653,0.626778,0.193876,4.568595,6.49233,2.033227,1.899111,0.245888
1720525871,27,0,4284.102539,4276.666504,4285.128418,4295.769043,4269.102539,4262.179688,4257.563965,4267.692383,4243.077148,4176.666504,4435.128418,4438.077148,4327.307617,4391.666504,,,,,,,,,,,,,,,,,,,,,,,,,,,,,,,,,,,,,,,,,,,,,,,,,,,,,,,,,,,,,,,,,,,,,,
1720525871,28,0,4285.769043,4277.436035,4288.205078,4295.769043,4272.820313,4270.897461,4271.025879,4274.358887,4248.077148,4178.205078,4439.230957,4446.153809,4332.563965,4393.205078,,,,,,,,,,,,,,,,,,,,,,,,,,,,,,,,,,,,,,,,,,,,,,,,,,,,,,,,,,,,,,,,,,,,,,
1720525871,29,0,4275.384766,4266.025879,4286.025879,4290.769043,4264.102539,4268.589844,4277.94873,4276.794922,4252.692383,4177.179688,4444.487305,4450.384766,4335.897461,4397.307617,,,,,,,,,,,,,,,,,,,,,,,,,,,,,,,,,,,,,,,,,,,,,,,,,,,,,,,,,,,,,,,,,,,,,,
1720525871,30,0,4279.230957,4264.871582,4286.153809,4291.922852,4259.358887,4261.025879,4276.666504,4277.563965,4256.538574,4177.563965,4450.512695,4454.871582,4335,4403.589844,,,,,,,,,,,,,,,,,,,,,,,,,,,,,,,,,,,,,,,,,,,,,,,,,,,,,,,,,,,,,,,,,,,,,,
1720525871,31,0,4297.436035,4278.461426,4296.410156,4300.769043,4264.487305,4262.307617,4278.333496,4274.358887,4257.820313,4176.794922,4454.230957,4457.94873,4338.974121,4408.846191,,,,,,,,,,,,,,,,,,,,,,,,,,,,,,,,,,,,,,,,,,,,,,,,,,,,,,,,,,,,,,,,,,,,,,
1720525871,32,0,4305.641113,4282.820313,4299.358887,4301.153809,4262.692383,4263.974121,4282.94873,4274.615234,4250.897461,4172.179688,4449.487305,4454.743652,4343.589844,4407.94873,,,,,,,,,,,,,,,,,,,,,,,,,,,,,,,,,,,,,,,,,,,,,,,,,,,,,,,,,,,,,,,,,,,,,,
1720525871,33,0,4304.871582,4278.461426,4297.820313,4302.436035,4259.743652,4263.205078,4282.94873,4288.589844,4243.461426,4179.358887,4452.94873,4465.512695,4345.128418,4413.205078,,,,,,,,,,,,,,,,,,,,,,,,,,,,,,,,,,,,,,,,,,,,,,,,,,,,,,,,,,,,,,,,,,,,,,
1720525871,34,0,4305.384766,4281.666504,4299.230957,4309.358887,4265.512695,4263.205078,4275.641113,4276.794922,4242.307617,4173.717773,4454.871582,4467.179688,4347.179688,4415.897461,,,,,,,,,,,,,,,,,,,,,,,,,,,,,,,,,,,,,,,,,,,,,,,,,,,,,,,,,,,,,,,,,,,,,,
1720525871,35,0,4299.487305,4283.461426,4298.589844,4305.128418,4266.922852,4263.974121,4265.512695,4258.717773,4237.692383,4163.846191,4444.615234,4455.512695,4344.358887,4402.563965,,,,,,,,,,,,,,,,,,,,,,,,,,,,,,,,,,,,,,,,,,,,,,,,,,,,,,,,,,,,,,,,,,,,,,
1720525871,36,0,4285.384766,4278.846191,4292.307617,4294.615234,4263.205078,4261.794922,4258.717773,4273.974121,4230.384766,4175,4441.153809,4450.128418,4338.717773,4393.589844,,,,,,,,,,,,,,,,,,,,,,,,,,,,,,,,,,,,,,,,,,,,,,,,,,,,,,,,,,,,,,,,,,,,,,
1720525871,37,0,4275.769043,4277.436035,4281.025879,4292.563965,4261.666504,4252.436035,4257.692383,4272.179688,4234.487305,4174.358887,4443.589844,4438.717773,4340.128418,4393.333496,,,,,,,,,,,,,,,,,,,,,,,,,,,,,,,,,,,,,,,,,,,,,,,,,,,,,,,,,,,,,,,,,,,,,,
1720525871,38,0,4275.641113,4276.794922,4282.307617,4294.487305,4259.102539,4253.077148,4259.871582,4261.922852,4247.05127,4169.230957,4450.384766,4440.384766,4346.666504,4394.871582,,,,,,,,,,,,,,,,,,,,,,,,,,,,,,,,,,,,,,,,,,,,,,,,,,,,,,,,,,,,,,,,,,,,,,
1720525871,39,0,4278.333496,4272.94873,4293.333496,4294.230957,4256.282227,4259.871582,4262.179688,4273.717773,4250,4173.077148,4454.487305,4450.769043,4341.922852,4393.205078,,,,,,,,,,,,,,,,,,,,,,,,,,,,,,,,,,,,,,,,,,,,,,,,,,,,,,,,,,,,,,,,,,,,,,
1720525871,40,0,4282.563965,4270.641113,4298.205078,4293.974121,4258.333496,4256.666504,4262.179688,4275,4238.974121,4168.461426,4447.563965,4446.538574,4329.487305,4390.256348,,,,,,,,,,,,,,,,,,,,,,,,,,,,,,,,,,,,,,,,,,,,,,,,,,,,,,,,,,,,,,,,,,,,,,
1720525871,41,0,4288.205078,4276.538574,4302.05127,4295.256348,4262.94873,4256.538574,4263.717773,4269.615234,4233.205078,4166.666504,4444.487305,4448.974121,4325.769043,4393.461426,,,,,,,,,,,,,,,,,,,,,,,,,,,,,,,,,,,,,,,,,,,,,,,,,,,,,,,,,,,,,,,,,,,,,,
1720525871,42,0,4288.077148,4280.769043,4300.256348,4296.922852,4264.230957,4259.358887,4265.512695,4273.974121,4238.461426,4172.307617,4454.615234,4457.307617,4327.05127,4397.436035,2.143512,4.861601,1.251998,1.473882,0.195543,1.417031,2.060915,0.410266,0.519407,0.328518,1.427337,4.652349,0.630908,1.378373,0.147848,1.196674,2.744776,0.637159,0.891522,0.273962,0.440076,0.531806,0.204981,0.248468,0.106077,0.196662,1.059464,0.484946,0.150211,0.145923,0.921461,4.138168,1.107072,0.48776,0.109249,0.337701,1.076243,0.295419,0.180937,0.310108,1.166658,2.322437,0.974671,0.400484,0.177023,0.245862,0.068624,0.084926,0.033181,0.292086,0.456041,1.416063,0.407426,0.515271,0.170179,1.72525,4.754808,1.287396,1.204756,0.441178,1.910429,4.452011,1.152249,0.529189,0.199753,4.486959,4.51802,2.087535,1.782036,0.244416
1720525871,43,0,4278.077148,4271.666504,4290.641113,4295.128418,4260.384766,4257.179688,4266.410156,4266.025879,4244.615234,4168.461426,4456.538574,4448.461426,4328.461426,4397.05127,,,,,,,,,,,,,,,,,,,,,,,,,,,,,,,,,,,,,,,,,,,,,,,,,,,,,,,,,,,,,,,,,,,,,,
1720525871,44,0,4273.974121,4262.179688,4292.179688,4290.641113,4252.05127,4258.461426,4271.922852,4265.641113,4246.794922,4168.717773,4452.436035,4452.563965,4336.538574,4400.128418,,,,,,,,,,,,,,,,,,,,,,,,,,,,,,,,,,,,,,,,,,,,,,,,,,,,,,,,,,,,,,,,,,,,,,
1720525871,45,0,4285,4268.974121,4304.102539,4290.769043,4247.563965,4261.153809,4279.487305,4284.743652,4245.769043,4179.871582,4455.128418,4475,4344.871582,4413.205078,,,,,,,,,,,,,,,,,,,,,,,,,,,,,,,,,,,,,,,,,,,,,,,,,,,,,,,,,,,,,,,,,,,,,,
1720525871,46,0,4299.743652,4281.794922,4305.769043,4296.282227,4253.846191,4253.846191,4279.487305,4278.333496,4247.05127,4174.358887,4456.410156,4470.256348,4344.487305,4422.563965,,,,,,,,,,,,,,,,,,,,,,,,,,,,,,,,,,,,,,,,,,,,,,,,,,,,,,,,,,,,,,,,,,,,,,
1720525871,47,0,4302.436035,4283.717773,4305.897461,4300.897461,4259.358887,4252.563965,4274.230957,4269.871582,4246.666504,4174.358887,4463.205078,4460.641113,4344.743652,4424.871582,,,,,,,,,,,,,,,,,,,,,,,,,,,,,,,,,,,,,,,,,,,,,,,,,,,,,,,,,,,,,,,,,,,,,,
1720525871,48,0,4289.358887,4277.692383,4299.487305,4295.512695,4258.589844,4257.436035,4265.897461,4275.769043,4237.436035,4180.256348,4460.384766,4458.077148,4344.615234,4418.077148,,,,,,,,,,,,,,,,,,,,,,,,,,,,,,,,,,,,,,,,,,,,,,,,,,,,,,,,,,,,,,,,,,,,,,
1720525871,49,0,4277.563965,4273.974121,4283.846191,4288.333496,4258.589844,4258.461426,4259.358887,4272.820313,4231.153809,4173.589844,4446.282227,4449.230957,4336.794922,4404.871582,,,,,,,,,,,,,,,,,,,,,,,,,,,,,,,,,,,,,,,,,,,,,,,,,,,,,,,,,,,,,,,,,,,,,,
1720525871,50,0,4278.333496,4274.871582,4285.384766,4292.820313,4262.563965,4262.436035,4262.179688,4270.641113,4237.179688,4175.769043,4450.641113,4448.846191,4329.102539,4396.410156,,,,,,,,,,,,,,,,,,,,,,,,,,,,,,,,,,,,,,,,,,,,,,,,,,,,,,,,,,,,,,,,,,,,,,
1720525871,51,0,4279.871582,4278.717773,4293.717773,4296.922852,4265.641113,4266.410156,4264.230957,4266.794922,4241.410156,4177.94873,4455.897461,4448.205078,4327.820313,4389.871582,,,,,,,,,,,,,,,,,,,,,,,,,,,,,,,,,,,,,,,,,,,,,,,,,,,,,,,,,,,,,,,,,,,,,,
1720525871,52,0,4279.615234,4278.974121,4293.205078,4293.717773,4263.974121,4262.179688,4258.846191,4263.717773,4232.94873,4174.230957,4447.563965,4445.256348,4327.692383,4389.487305,,,,,,,,,,,,,,,,,,,,,,,,,,,,,,,,,,,,,,,,,,,,,,,,,,,,,,,,,,,,,,,,,,,,,,
1720525871,53,0,4280.128418,4276.153809,4292.94873,4293.461426,4262.94873,4253.205078,4257.436035,4267.179688,4227.94873,4173.846191,4443.846191,4445.256348,4327.179688,4393.717773,,,,,,,,,,,,,,,,,,,,,,,,,,,,,,,,,,,,,,,,,,,,,,,,,,,,,,,,,,,,,,,,,,,,,,
1720525871,54,0,4280.256348,4276.794922,4296.794922,4297.05127,4264.102539,4254.487305,4268.461426,4271.666504,4237.820313,4176.025879,4452.05127,4452.436035,4331.922852,4395.769043,,,,,,,,,,,,,,,,,,,,,,,,,,,,,,,,,,,,,,,,,,,,,,,,,,,,,,,,,,,,,,,,,,,,,,
1720525871,55,0,4284.871582,4279.871582,4300.384766,4302.820313,4262.563965,4263.717773,4277.692383,4273.846191,4247.692383,4176.025879,4460.256348,4465,4343.205078,4406.922852,,,,,,,,,,,,,,,,,,,,,,,,,,,,,,,,,,,,,,,,,,,,,,,,,,,,,,,,,,,,,,,,,,,,,,
1720525871,56,0,4293.205078,4279.615234,4304.871582,4307.436035,4261.410156,4258.974121,4276.666504,4274.102539,4245,4173.333496,4459.743652,4468.974121,4351.153809,4419.102539,,,,,,,,,,,,,,,,,,,,,,,,,,,,,,,,,,,,,,,,,,,,,,,,,,,,,,,,,,,,,,,,,,,,,,
1720525871,57,0,4294.102539,4278.589844,4308.333496,4305.128418,4262.563965,4250,4277.692383,4275.641113,4244.358887,4173.589844,4454.743652,4465,4348.846191,4413.077148,,,,,,,,,,,,,,,,,,,,,,,,,,,,,,,,,,,,,,,,,,,,,,,,,,,,,,,,,,,,,,,,,,,,,,
1720525871,58,0,4297.692383,4286.282227,4308.461426,4305,4261.025879,4249.487305,4276.153809,4278.846191,4247.436035,4177.94873,4462.820313,4468.333496,4354.102539,4415.256348,2.200759,3.762459,1.116482,1.416218,0.200243,1.441501,1.762702,0.361586,0.459109,0.299113,1.24546,3.212087,0.627724,1.428252,0.163419,1.154254,2.129388,0.607434,0.853835,0.277867,0.434702,0.588156,0.194213,0.266247,0.111737,0.173074,1.105601,0.486347,0.150227,0.146527,0.836523,3.682916,1.283918,0.475601,0.118248,0.326241,1.040383,0.341136,0.185099,0.314171,0.837331,2.322429,1.127352,0.458311,0.200041,0.278369,0.083175,0.086338,0.037075,0.297126,0.374955,1.201012,0.467109,0.469932,0.175333,1.42047,3.185764,1.311078,1.222918,0.449795,1.963141,3.686422,1.141066,0.444703,0.204254,4.163558,3.356175,1.926149,1.591534,0.241237
1720525871,59,0,4308.077148,4299.230957,4305.512695,4311.922852,4259.871582,4244.871582,4265.512695,4274.230957,4238.461426,4179.230957,4475.769043,4472.307617,4372.820313,4435,,,,,,,,,,,,,,,,,,,,,,,,,,,,,,,,,,,,,,,,,,,,,,,,,,,,,,,,,,,,,,,,,,,,,,
1720525871,60,0,4303.205078,4297.179688,4300.897461,4311.538574,4261.282227,4237.94873,4257.94873,4263.717773,4231.153809,4173.461426,4468.717773,4463.461426,4374.743652,4432.05127,,,,,,,,,,,,,,,,,,,,,,,,,,,,,,,,,,,,,,,,,,,,,,,,,,,,,,,,,,,,,,,,,,,,,,
1720525871,61,0,4292.307617,4283.717773,4303.077148,4305,4263.974121,4249.230957,4261.153809,4274.487305,4233.205078,4180.641113,4462.692383,4462.692383,4358.974121,4414.358887,,,,,,,,,,,,,,,,,,,,,,,,,,,,,,,,,,,,,,,,,,,,,,,,,,,,,,,,,,,,,,,,,,,,,,
1720525871,62,0,4290.769043,4283.846191,4299.615234,4304.871582,4271.025879,4258.589844,4262.563965,4276.282227,4233.461426,4179.230957,4461.282227,4454.358887,4352.307617,4405,,,,,,,,,,,,,,,,,,,,,,,,,,,,,,,,,,,,,,,,,,,,,,,,,,,,,,,,,,,,,,,,,,,,,,
1720525871,63,0,4288.333496,4291.410156,4291.153809,4307.94873,4277.05127,4253.461426,4261.410156,4261.025879,4237.94873,4164.487305,4453.077148,4439.102539,4351.410156,4397.820313,,,,,,,,,,,,,,,,,,,,,,,,,,,,,,,,,,,,,,,,,,,,,,,,,,,,,,,,,,,,,,,,,,,,,,
1720525871,64,0,4277.820313,4284.871582,4288.077148,4305.897461,4273.077148,4252.307617,4264.615234,4272.820313,4241.025879,4171.666504,4456.666504,4446.282227,4337.94873,4395.128418,,,,,,,,,,,,,,,,,,,,,,,,,,,,,,,,,,,,,,,,,,,,,,,,,,,,,,,,,,,,,,,,,,,,,,
1720525871,65,0,4275.384766,4279.871582,4284.358887,4305.384766,4272.436035,4255.256348,4264.102539,4279.102539,4235.897461,4173.077148,4459.487305,4448.333496,4333.717773,4395.897461,,,,,,,,,,,,,,,,,,,,,,,,,,,,,,,,,,,,,,,,,,,,,,,,,,,,,,,,,,,,,,,,,,,,,,
1720525871,66,0,4291.922852,4288.717773,4295.256348,4315.384766,4279.102539,4251.666504,4265.128418,4270.128418,4235.128418,4168.589844,4458.333496,4452.436035,4352.692383,4405,,,,,,,,,,,,,,,,,,,,,,,,,,,,,,,,,,,,,,,,,,,,,,,,,,,,,,,,,,,,,,,,,,,,,,
1720525871,67,0,4310.256348,4298.974121,4313.461426,4322.05127,4280,4249.487305,4269.358887,4277.05127,4241.282227,4180.769043,4464.358887,4470.897461,4369.743652,4420.384766,,,,,,,,,,,,,,,,,,,,,,,,,,,,,,,,,,,,,,,,,,,,,,,,,,,,,,,,,,,,,,,,,,,,,,
1720525871,68,0,4315.256348,4302.05127,4311.410156,4316.538574,4279.230957,4251.794922,4267.436035,4276.794922,4240.897461,4182.692383,4466.922852,4469.615234,4372.94873,4422.94873,,,,,,,,,,,,,,,,,,,,,,,,,,,,,,,,,,,,,,,,,,,,,,,,,,,,,,,,,,,,,,,,,,,,,,
1720525871,69,0,4305.641113,4298.974121,4302.436035,4311.153809,4280.897461,4250.897461,4262.820313,4267.307617,4235.769043,4179.102539,4465.128418,4457.307617,4370.384766,4413.589844,,,,,,,,,,,,,,,,,,,,,,,,,,,,,,,,,,,,,,,,,,,,,,,,,,,,,,,,,,,,,,,,,,,,,,
1720525871,70,0,4289.358887,4294.615234,4299.230957,4312.563965,4278.846191,4250.512695,4260.128418,4268.333496,4230.512695,4186.282227,4460.256348,4453.846191,4360.769043,4403.974121,,,,,,,,,,,,,,,,,,,,,,,,,,,,,,,,,,,,,,,,,,,,,,,,,,,,,,,,,,,,,,,,,,,,,,
1720525871,71,0,4279.487305,4290.897461,4289.615234,4308.589844,4277.307617,4252.307617,4259.871582,4265.512695,4230.641113,4179.487305,4449.487305,4446.025879,4348.974121,4394.743652,,,,,,,,,,,,,,,,,,,,,,,,,,,,,,,,,,,,,,,,,,,,,,,,,,,,,,,,,,,,,,,,,,,,,,
1720525871,72,0,4280.256348,4283.333496,4284.230957,4298.461426,4278.333496,4251.282227,4260.256348,4263.333496,4234.102539,4173.205078,4448.974121,4446.153809,4352.179688,4393.974121,,,,,,,,,,,,,,,,,,,,,,,,,,,,,,,,,,,,,,,,,,,,,,,,,,,,,,,,,,,,,,,,,,,,,,
1720525871,73,0,4283.205078,4277.436035,4288.461426,4296.153809,4273.461426,4247.563965,4258.589844,4275.384766,4232.179688,4187.05127,4465,4457.94873,4360.769043,4400.384766,,,,,,,,,,,,,,,,,,,,,,,,,,,,,,,,,,,,,,,,,,,,,,,,,,,,,,,,,,,,,,,,,,,,,,
1720525871,74,0,4285.128418,4283.333496,4284.743652,4302.307617,4270.256348,4244.102539,4257.05127,4271.922852,4236.025879,4183.974121,4468.461426,4451.025879,4360.897461,4398.717773,2.148154,3.184823,0.969865,1.352578,0.206278,1.45409,1.588562,0.365105,0.435154,0.26875,1.070467,2.287019,0.629176,1.438277,0.18612,1.126002,1.659027,0.587235,0.813844,0.282958,0.408557,0.619628,0.197321,0.279895,0.118942,0.154,1.12855,0.45643,0.161307,0.159063,0.715663,3.311023,1.510731,0.444686,0.132738,0.289414,0.97402,0.397911,0.181339,0.310502,0.541913,2.362021,1.295797,0.513217,0.22234,0.291233,0.105552,0.091435,0.042906,0.297399,0.309743,1.224,0.487016,0.401842,0.172759,1.155869,2.542232,1.229704,1.186416,0.456698,1.981766,3.437712,1.002569,0.38202,0.209961,3.621932,2.937116,1.58638,1.367641,0.242237
1720525871,75,0,4293.333496,4296.538574,4288.717773,4307.692383,4275.128418,4247.307617,4266.666504,4270.769043,4245.769043,4181.922852,4464.102539,4454.358887,4370.769043,4408.846191,,,,,,,,,,,,,,,,,,,,,,,,,,,,,,,,,,,,,,,,,,,,,,,,,,,,,,,,,,,,,,,,,,,,,,
1720525871,76,0,4302.94873,4302.820313,4306.025879,4309.615234,4279.871582,4253.461426,4277.307617,4283.077148,4251.410156,4191.153809,4468.974121,4475.512695,4383.717773,4423.589844,,,,,,,,,,,,,,,,,,,,,,,,,,,,,,,,,,,,,,,,,,,,,,,,,,,,,,,,,,,,,,,,,,,,,,
1720525871,77,0,4305.769043,4299.358887,4310.769043,4312.05127,4280.641113,4254.102539,4272.436035,4278.333496,4247.307617,4183.846191,4465.512695,4470.641113,4376.666504,4412.94873,,,,,,,,,,,,,,,,,,,,,,,,,,,,,,,,,,,,,,,,,,,,,,,,,,,,,,,,,,,,,,,,,,,,,,
1720525871,78,0,4301.282227,4294.615234,4304.102539,4312.820313,4279.743652,4252.05127,4263.846191,4270.128418,4235.897461,4178.461426,4453.717773,4451.666504,4357.94873,4395.769043,,,,,,,,,,,,,,,,,,,,,,,,,,,,,,,,,,,,,,,,,,,,,,,,,,,,,,,,,,,,,,,,,,,,,,
1720525871,79,0,4293.974121,4291.794922,4301.794922,4309.743652,4283.333496,4256.410156,4261.282227,4271.025879,4228.974121,4179.615234,4447.436035,4443.974121,4346.922852,4390,,,,,,,,,,,,,,,,,,,,,,,,,,,,,,,,,,,,,,,,,,,,,,,,,,,,,,,,,,,,,,,,,,,,,,
1720525871,80,0,4292.307617,4290.897461,4305.897461,4310.256348,4291.282227,4263.846191,4264.230957,4274.743652,4234.102539,4178.205078,4457.307617,4450.256348,4347.692383,4393.846191,,,,,,,,,,,,,,,,,,,,,,,,,,,,,,,,,,,,,,,,,,,,,,,,,,,,,,,,,,,,,,,,,,,,,,
1720525871,81,0,4297.179688,4298.589844,4307.179688,4317.436035,4295.256348,4265.512695,4266.794922,4275.769043,4242.563965,4179.871582,4465.641113,4461.794922,4353.717773,4403.205078,,,,,,,,,,,,,,,,,,,,,,,,,,,,,,,,,,,,,,,,,,,,,,,,,,,,,,,,,,,,,,,,,,,,,,
1720525871,82,0,4302.179688,4305.128418,4306.282227,4321.922852,4295.769043,4262.94873,4266.538574,4274.102539,4241.025879,4183.333496,4458.077148,4466.538574,4362.307617,4411.538574,,,,,,,,,,,,,,,,,,,,,,,,,,,,,,,,,,,,,,,,,,,,,,,,,,,,,,,,,,,,,,,,,,,,,,
1720525871,83,0,4298.846191,4295.512695,4302.820313,4314.230957,4295.128418,4257.692383,4264.487305,4271.666504,4234.487305,4179.871582,4453.717773,4463.333496,4365.512695,4412.179688,,,,,,,,,,,,,,,,,,,,,,,,,,,,,,,,,,,,,,,,,,,,,,,,,,,,,,,,,,,,,,,,,,,,,,
1720525871,84,0,4291.410156,4287.692383,4298.589844,4306.153809,4292.820313,4249.743652,4259.487305,4267.820313,4228.205078,4176.025879,4454.487305,4454.615234,4361.666504,4405.512695,,,,,,,,,,,,,,,,,,,,,,,,,,,,,,,,,,,,,,,,,,,,,,,,,,,,,,,,,,,,,,,,,,,,,,
1720525871,85,0,4294.358887,4295.384766,4303.589844,4310.256348,4291.794922,4248.846191,4258.077148,4267.820313,4229.615234,4177.820313,4456.666504,4454.743652,4363.846191,4403.974121,,,,,,,,,,,,,,,,,,,,,,,,,,,,,,,,,,,,,,,,,,,,,,,,,,,,,,,,,,,,,,,,,,,,,,
1720525871,86,0,4299.358887,4296.666504,4304.358887,4314.871582,4295.256348,4256.410156,4262.692383,4272.692383,4238.589844,4180.641113,4457.692383,4461.922852,4365.128418,4410.256348,,,,,,,,,,,,,,,,,,,,,,,,,,,,,,,,,,,,,,,,,,,,,,,,,,,,,,,,,,,,,,,,,,,,,,
1720525871,87,0,4291.282227,4284.743652,4293.589844,4305.641113,4296.153809,4263.461426,4266.794922,4273.589844,4243.333496,4178.333496,4454.615234,4455.641113,4356.025879,4405.512695,,,,,,,,,,,,,,,,,,,,,,,,,,,,,,,,,,,,,,,,,,,,,,,,,,,,,,,,,,,,,,,,,,,,,,
1720525871,88,0,4283.205078,4279.358887,4290.128418,4297.179688,4293.589844,4260.641113,4266.282227,4270.256348,4244.230957,4173.717773,4454.871582,4445.384766,4350.897461,4392.307617,,,,,,,,,,,,,,,,,,,,,,,,,,,,,,,,,,,,,,,,,,,,,,,,,,,,,,,,,,,,,,,,,,,,,,
1720525871,89,0,4288.589844,4277.563965,4296.538574,4300,4292.692383,4252.563965,4265.897461,4275.641113,4240.897461,4178.717773,4462.436035,4453.205078,4357.436035,4398.589844,,,,,,,,,,,,,,,,,,,,,,,,,,,,,,,,,,,,,,,,,,,,,,,,,,,,,,,,,,,,,,,,,,,,,,
1720525871,90,0,4288.333496,4273.717773,4290.512695,4302.820313,4294.102539,4255.128418,4262.563965,4272.563965,4238.717773,4177.563965,4457.692383,4450.384766,4359.487305,4405.769043,1.969125,3.003419,0.823269,1.289982,0.215783,1.410909,1.47422,0.377841,0.444042,0.245407,0.909283,1.808869,0.625519,1.403972,0.211166,1.079893,1.313107,0.541768,0.763626,0.285703,0.358633,0.608525,0.194008,0.289076,0.124134,0.151884,1.090729,0.399676,0.18105,0.181988,0.584194,3.03235,1.682156,0.396008,0.149278,0.238453,0.870718,0.447811,0.167466,0.301122,0.324269,2.402854,1.424536,0.545098,0.241769,0.312144,0.129929,0.096639,0.049144,0.289637,0.252587,1.385607,0.455652,0.325882,0.164408,0.941498,2.60134,1.069918,1.084348,0.46272,1.911417,3.509631,0.793714,0.347391,0.220299,3.010566,3.061239,1.175941,1.147195,0.250853
1720525871,91,0,4279.743652,4282.307617,4282.820313,4305.897461,4297.436035,4264.871582,4261.794922,4262.692383,4238.205078,4171.666504,4445.897461,4436.922852,4356.153809,4395.641113,,,,,,,,,,,,,,,,,,,,,,,,,,,,,,,,,,,,,,,,,,,,,,,,,,,,,,,,,,,,,,,,,,,,,,
1720525871,92,0,4287.307617,4293.333496,4296.025879,4310.897461,4297.563965,4266.538574,4272.179688,4277.179688,4236.282227,4187.05127,4456.282227,4454.615234,4354.102539,4393.205078,,,,,,,,,,,,,,,,,,,,,,,,,,,,,,,,,,,,,,,,,,,,,,,,,,,,,,,,,,,,,,,,,,,,,,
1720525871,93,0,4295.384766,4286.538574,4302.820313,4306.410156,4295.384766,4264.230957,4276.922852,4280.128418,4237.692383,4185.897461,4460.641113,4462.307617,4351.153809,4396.538574,,,,,,,,,,,,,,,,,,,,,,,,,,,,,,,,,,,,,,,,,,,,,,,,,,,,,,,,,,,,,,,,,,,,,,
1720525871,94,0,4284.230957,4275.897461,4298.461426,4296.538574,4293.205078,4268.461426,4268.846191,4268.974121,4241.153809,4174.487305,4452.436035,4451.922852,4352.692383,4397.94873,,,,,,,,,,,,,,,,,,,,,,,,,,,,,,,,,,,,,,,,,,,,,,,,,,,,,,,,,,,,,,,,,,,,,,
1720525871,95,0,4279.487305,4276.410156,4299.102539,4295.512695,4291.153809,4265.256348,4262.436035,4276.153809,4237.692383,4185.512695,4455.128418,4458.589844,4350.384766,4403.589844,,,,,,,,,,,,,,,,,,,,,,,,,,,,,,,,,,,,,,,,,,,,,,,,,,,,,,,,,,,,,,,,,,,,,,
1720525871,96,0,4283.589844,4276.922852,4291.922852,4296.153809,4289.487305,4252.307617,4260.256348,4272.179688,4231.794922,4183.077148,4455.769043,4455.512695,4341.153809,4398.077148,,,,,,,,,,,,,,,,,,,,,,,,,,,,,,,,,,,,,,,,,,,,,,,,,,,,,,,,,,,,,,,,,,,,,,
1720525871,97,0,4277.05127,4273.846191,4283.077148,4292.563965,4283.974121,4254.102539,4259.358887,4262.94873,4233.717773,4173.717773,4458.974121,4450.128418,4343.461426,4388.717773,,,,,,,,,,,,,,,,,,,,,,,,,,,,,,,,,,,,,,,,,,,,,,,,,,,,,,,,,,,,,,,,,,,,,,
1720525871,98,0,4279.615234,4280,4287.692383,4297.179688,4285.897461,4263.205078,4262.692383,4275.128418,4238.846191,4183.589844,4465.641113,4460.384766,4358.974121,4397.05127,,,,,,,,,,,,,,,,,,,,,,,,,,,,,,,,,,,,,,,,,,,,,,,,,,,,,,,,,,,,,,,,,,,,,,
1720525871,99,0,4295,4290.128418,4294.615234,4307.563965,4293.461426,4257.05127,4263.717773,4274.743652,4235,4180.641113,4457.820313,4456.666504,4369.615234,4407.436035,,,,,,,,,,,,,,,,,,,,,,,,,,,,,,,,,,,,,,,,,,,,,,,,,,,,,,,,,,,,,,,,,,,,,,
1720525871,100,0,4297.94873,4293.205078,4296.410156,4311.922852,4289.230957,4245.769043,4259.102539,4262.179688,4222.307617,4167.94873,4450.512695,4446.794922,4368.205078,4406.153809,,,,,,,,,,,,,,,,,,,,,,,,,,,,,,,,,,,,,,,,,,,,,,,,,,,,,,,,,,,,,,,,,,,,,,
1720525871,101,0,4294.230957,4290.128418,4300,4308.974121,4281.922852,4251.410156,4260.897461,4271.025879,4216.922852,4182.179688,4460.512695,4460.512695,4362.436035,4406.410156,,,,,,,,,,,,,,,,,,,,,,,,,,,,,,,,,,,,,,,,,,,,,,,,,,,,,,,,,,,,,,,,,,,,,,
1720525871,102,0,4297.820313,4287.820313,4301.282227,4309.487305,4291.153809,4263.333496,4266.666504,4274.871582,4227.820313,4186.538574,4458.974121,4461.922852,4356.025879,4407.563965,,,,,,,,,,,,,,,,,,,,,,,,,,,,,,,,,,,,,,,,,,,,,,,,,,,,,,,,,,,,,,,,,,,,,,
1720525871,103,0,4298.589844,4283.589844,4297.307617,4313.077148,4299.487305,4265.897461,4266.538574,4268.846191,4235.641113,4177.563965,4448.717773,4449.230957,4351.025879,4404.102539,,,,,,,,,,,,,,,,,,,,,,,,,,,,,,,,,,,,,,,,,,,,,,,,,,,,,,,,,,,,,,,,,,,,,,
1720525871,104,0,4295.384766,4276.922852,4290.897461,4305.128418,4292.94873,4262.94873,4264.743652,4274.230957,4237.307617,4183.333496,4454.615234,4448.589844,4347.820313,4400.256348,,,,,,,,,,,,,,,,,,,,,,,,,,,,,,,,,,,,,,,,,,,,,,,,,,,,,,,,,,,,,,,,,,,,,,
1720525871,105,0,4291.410156,4279.230957,4284.743652,4296.153809,4293.717773,4265.384766,4266.794922,4272.820313,4248.077148,4183.461426,4453.461426,4440.897461,4345.256348,4393.846191,,,,,,,,,,,,,,,,,,,,,,,,,,,,,,,,,,,,,,,,,,,,,,,,,,,,,,,,,,,,,,,,,,,,,,
1720525871,106,0,4281.282227,4279.230957,4282.820313,4297.179688,4296.025879,4265.384766,4267.179688,4271.922852,4252.692383,4185.384766,4444.358887,4437.436035,4337.692383,4383.589844,1.726008,3.074921,0.727225,1.232867,0.228907,1.291419,1.410128,0.41009,0.472489,0.232979,0.775692,1.63812,0.620203,1.328211,0.231237,1.026604,1.102029,0.488107,0.698897,0.281486,0.306654,0.563138,0.181264,0.293554,0.124479,0.160931,0.984518,0.331733,0.207824,0.207773,0.469733,2.880846,1.727203,0.341803,0.162731,0.187394,0.75432,0.478799,0.146222,0.289958,0.194386,2.420838,1.472117,0.544017,0.255511,0.290334,0.150882,0.099807,0.055502,0.272904,0.198363,1.573621,0.396694,0.259943,0.156204,0.783252,3.08474,0.907161,0.935558,0.463733,1.759418,3.694884,0.640674,0.348793,0.236226,2.477175,3.501929,0.847498,0.957218,0.265513
1720525871,107,0,4273.077148,4270.512695,4278.333496,4293.974121,4284.615234,4254.615234,4262.179688,4272.820313,4243.077148,4186.922852,4445.256348,4443.077148,4332.94873,4376.282227,,,,,,,,,,,,,,,,,,,,,,,,,,,,,,,,,,,,,,,,,,,,,,,,,,,,,,,,,,,,,,,,,,,,,,
1720525871,108,0,4281.282227,4275.769043,4276.922852,4295.128418,4281.282227,4252.94873,4260.512695,4272.307617,4242.820313,4183.974121,4452.179688,4451.538574,4350.512695,4390,,,,,,,,,,,,,,,,,,,,,,,,,,,,,,,,,,,,,,,,,,,,,,,,,,,,,,,,,,,,,,,,,,,,,,
1720525871,109,0,4299.743652,4292.94873,4289.358887,4309.358887,4293.077148,4266.794922,4267.05127,4274.743652,4251.025879,4187.820313,4457.05127,4463.077148,4373.846191,4412.94873,,,,,,,,,,,,,,,,,,,,,,,,,,,,,,,,,,,,,,,,,,,,,,,,,,,,,,,,,,,,,,,,,,,,,,
1720525871,110,0,4298.461426,4291.153809,4290,4307.820313,4290.384766,4263.461426,4262.94873,4266.794922,4239.615234,4185.897461,4449.487305,4452.94873,4358.205078,4398.205078,,,,,,,,,,,,,,,,,,,,,,,,,,,,,,,,,,,,,,,,,,,,,,,,,,,,,,,,,,,,,,,,,,,,,,
1720525871,111,0,4277.820313,4272.307617,4271.025879,4289.102539,4277.820313,4244.487305,4246.666504,4259.615234,4217.94873,4176.922852,4435.512695,4425.641113,4322.436035,4366.922852,,,,,,,,,,,,,,,,,,,,,,,,,,,,,,,,,,,,,,,,,,,,,,,,,,,,,,,,,,,,,,,,,,,,,,
1720525871,112,0,4277.820313,4273.333496,4271.153809,4291.666504,4284.743652,4249.230957,4250.256348,4266.025879,4224.871582,4182.436035,4438.717773,4426.282227,4326.282227,4378.846191,,,,,,,,,,,,,,,,,,,,,,,,,,,,,,,,,,,,,,,,,,,,,,,,,,,,,,,,,,,,,,,,,,,,,,
1720525871,113,0,4300.384766,4292.563965,4295.512695,4312.307617,4298.333496,4268.205078,4273.846191,4271.794922,4247.563965,4197.179688,4455.769043,4456.153809,4357.820313,4410.512695,,,,,,,,,,,,,,,,,,,,,,,,,,,,,,,,,,,,,,,,,,,,,,,,,,,,,,,,,,,,,,,,,,,,,,
1720525871,114,0,4310.512695,4299.487305,4306.410156,4316.025879,4297.307617,4267.692383,4276.794922,4270.897461,4250.769043,4196.922852,4460.128418,4470.128418,4367.692383,4417.05127,,,,,,,,,,,,,,,,,,,,,,,,,,,,,,,,,,,,,,,,,,,,,,,,,,,,,,,,,,,,,,,,,,,,,,
1720525871,115,0,4306.410156,4292.692383,4300,4308.461426,4295.897461,4259.358887,4266.666504,4271.025879,4244.487305,4190.256348,4455,4463.333496,4363.205078,4415.384766,,,,,,,,,,,,,,,,,,,,,,,,,,,,,,,,,,,,,,,,,,,,,,,,,,,,,,,,,,,,,,,,,,,,,,
1720525871,116,0,4304.487305,4293.461426,4297.94873,4309.102539,4303.205078,4262.820313,4269.487305,4269.615234,4245.512695,4187.436035,4455.641113,4459.230957,4366.410156,4420,,,,,,,,,,,,,,,,,,,,,,,,,,,,,,,,,,,,,,,,,,,,,,,,,,,,,,,,,,,,,,,,,,,,,,
1720525871,117,0,4300.897461,4294.487305,4299.102539,4310.512695,4303.333496,4267.436035,4274.487305,4268.461426,4245.128418,4192.94873,4455.641113,4457.563965,4361.666504,4415,,,,,,,,,,,,,,,,,,,,,,,,,,,,,,,,,,,,,,,,,,,,,,,,,,,,,,,,,,,,,,,,,,,,,,
1720525871,118,0,4295,4284.230957,4295.128418,4306.538574,4298.333496,4265,4273.589844,4266.922852,4244.487305,4195,4448.205078,4445,4347.692383,4401.410156,,,,,,,,,,,,,,,,,,,,,,,,,,,,,,,,,,,,,,,,,,,,,,,,,,,,,,,,,,,,,,,,,,,,,,
1720525871,119,0,4292.563965,4276.410156,4293.333496,4302.94873,4299.743652,4266.153809,4271.025879,4262.436035,4250,4186.794922,4442.692383,4439.358887,4346.538574,4392.820313,,,,,,,,,,,,,,,,,,,,,,,,,,,,,,,,,,,,,,,,,,,,,,,,,,,,,,,,,,,,,,,,,,,,,,
1720525871,120,0,4291.153809,4274.615234,4296.538574,4297.94873,4297.94873,4261.538574,4265.256348,4275.897461,4243.846191,4197.307617,4450.512695,4462.692383,4348.205078,4395.384766,,,,,,,,,,,,,,,,,,,,,,,,,,,,,,,,,,,,,,,,,,,,,,,,,,,,,,,,,,,,,,,,,,,,,,
1720525871,121,0,4289.230957,4273.333496,4289.615234,4292.436035,4295.256348,4248.205078,4260.897461,4274.102539,4233.589844,4198.461426,4446.282227,4462.179688,4341.666504,4393.846191,,,,,,,,,,,,,,,,,,,,,,,,,,,,,,,,,,,,,,,,,,,,,,,,,,,,,,,,,,,,,,,,,,,,,,
1720525871,122,0,4293.461426,4277.563965,4283.846191,4296.666504,4303.846191,4250.897461,4263.717773,4255.512695,4239.102539,4183.717773,4434.871582,4441.282227,4343.846191,4389.358887,1.453061,3.251876,0.734079,1.182441,0.243232,1.121901,1.370986,0.476416,0.505886,0.230095,0.67392,1.639463,0.622921,1.219676,0.239931,0.961563,1.009009,0.44639,0.620762,0.267634,0.274675,0.503177,0.163571,0.291934,0.119117,0.186091,0.836875,0.270247,0.238778,0.226134,0.378569,2.862299,1.622674,0.295325,0.168458,0.146062,0.654789,0.484563,0.122869,0.279928,0.126061,2.406614,1.430724,0.512305,0.260256,0.285675,0.165196,0.101854,0.062742,0.24874,0.15109,1.69794,0.341043,0.218816,0.15421,0.653935,3.714166,0.809244,0.778645,0.453567,1.526375,3.836489,0.653788,0.39654,0.254178,2.036932,4.052528,0.71801,0.813317,0.280288
1720525871,123,0,4299.743652,4282.563965,4291.922852,4298.974121,4310.512695,4264.487305,4265.641113,4266.282227,4242.94873,4192.692383,4445,4456.794922,4352.94873,4397.563965,,,,,,,,,,,,,,,,,,,,,,,,,,,,,,,,,,,,,,,,,,,,,,,,,,,,,,,,,,,,,,,,,,,,,,
1720525872,124,0,4297.05127,4282.05127,4290,4295.512695,4305.897461,4258.333496,4258.846191,4269.102539,4233.333496,4195.128418,4449.230957,4461.794922,4352.05127,4399.615234,,,,,,,,,,,,,,,,,,,,,,,,,,,,,,,,,,,,,,,,,,,,,,,,,,,,,,,,,,,,,,,,,,,,,,
1720525872,125,0,4295.769043,4280.641113,4286.282227,4298.717773,4304.743652,4251.666504,4257.692383,4258.846191,4228.589844,4184.358887,4442.05127,4442.94873,4347.692383,4397.05127,,,,,,,,,,,,,,,,,,,,,,,,,,,,,,,,,,,,,,,,,,,,,,,,,,,,,,,,,,,,,,,,,,,,,,
1720525872,126,0,4302.179688,4283.461426,4301.794922,4305.512695,4308.846191,4262.436035,4266.153809,4269.615234,4235.512695,4193.461426,4441.153809,4443.974121,4347.436035,4400.256348,,,,,,,,,,,,,,,,,,,,,,,,,,,,,,,,,,,,,,,,,,,,,,,,,,,,,,,,,,,,,,,,,,,,,,
1720525872,127,0,4302.692383,4287.94873,4307.692383,4309.487305,4311.153809,4268.461426,4270.384766,4273.333496,4238.461426,4199.871582,4434.871582,4443.461426,4345.897461,4392.820313,,,,,,,,,,,,,,,,,,,,,,,,,,,,,,,,,,,,,,,,,,,,,,,,,,,,,,,,,,,,,,,,,,,,,,
1720525872,0,0,4293.205078,4286.538574,4288.717773,4306.282227,4307.05127,4262.820313,4263.717773,4258.717773,4235.128418,4190.769043,4427.307617,4428.461426,4340.897461,4382.692383,,,,,,,,,,,,,,,,,,,,,,,,,,,,,,,,,,,,,,,,,,,,,,,,,,,,,,,,,,,,,,,,,,,,,,
1720525872,1,0,4282.307617,4274.102539,4278.717773,4296.538574,4295.897461,4256.025879,4260.128418,4265.128418,4231.922852,4196.666504,4438.461426,4436.410156,4336.538574,4386.538574,,,,,,,,,,,,,,,,,,,,,,,,,,,,,,,,,,,,,,,,,,,,,,,,,,,,,,,,,,,,,,,,,,,,,,
1720525872,2,0,4277.05127,4265.641113,4284.102539,4291.025879,4296.025879,4255.512695,4261.794922,4273.589844,4235,4199.743652,4444.871582,4450.128418,4341.538574,4392.692383,,,,,,,,,,,,,,,,,,,,,,,,,,,,,,,,,,,,,,,,,,,,,,,,,,,,,,,,,,,,,,,,,,,,,,
1720525872,3,0,4278.589844,4265.897461,4287.436035,4294.230957,4307.307617,4263.717773,4265,4265.769043,4238.461426,4191.922852,4441.666504,4446.282227,4347.692383,4390.897461,,,,,,,,,,,,,,,,,,,,,,,,,,,,,,,,,,,,,,,,,,,,,,,,,,,,,,,,,,,,,,,,,,,,,,
1720525872,4,0,4278.717773,4263.461426,4285.384766,4294.102539,4306.282227,4267.563965,4266.922852,4269.487305,4234.615234,4197.563965,4447.692383,4447.179688,4336.538574,4388.205078,,,,,,,,,,,,,,,,,,,,,,,,,,,,,,,,,,,,,,,,,,,,,,,,,,,,,,,,,,,,,,,,,,,,,,
1720525872,5,0,4274.615234,4259.358887,4282.94873,4292.05127,4297.179688,4262.436035,4267.307617,4272.692383,4237.05127,4197.820313,4448.205078,4448.205078,4326.666504,4383.077148,,,,,,,,,,,,,,,,,,,,,,,,,,,,,,,,,,,,,,,,,,,,,,,,,,,,,,,,,,,,,,,,,,,,,,
1720525872,6,0,4272.692383,4261.794922,4288.461426,4291.922852,4295.641113,4263.333496,4272.94873,4273.333496,4246.025879,4197.692383,4448.717773,4452.692383,4334.615234,4383.205078,,,,,,,,,,,,,,,,,,,,,,,,,,,,,,,,,,,,,,,,,,,,,,,,,,,,,,,,,,,,,,,,,,,,,,
1720525872,7,0,4280.769043,4274.102539,4297.436035,4294.358887,4301.282227,4265,4280.128418,4274.871582,4249.358887,4199.102539,4453.717773,4464.615234,4342.436035,4393.717773,,,,,,,,,,,,,,,,,,,,,,,,,,,,,,,,,,,,,,,,,,,,,,,,,,,,,,,,,,,,,,,,,,,,,,
1720525872,8,0,4288.974121,4287.692383,4297.436035,4304.230957,4308.205078,4265,4276.282227,4271.410156,4243.846191,4197.563965,4451.282227,4464.871582,4346.410156,4400.769043,,,,,,,,,,,,,,,,,,,,,,,,,,,,,,,,,,,,,,,,,,,,,,,,,,,,,,,,,,,,,,,,,,,,,,
1720525872,9,0,4288.974121,4293.077148,4290.769043,4312.307617,4310.128418,4267.436035,4268.205078,4272.307617,4236.282227,4203.077148,4447.05127,4457.307617,4352.05127,4400.769043,,,,,,,,,,,,,,,,,,,,,,,,,,,,,,,,,,,,,,,,,,,,,,,,,,,,,,,,,,,,,,,,,,,,,,
1720525872,10,0,4287.94873,4291.538574,4285.512695,4308.205078,4304.871582,4263.589844,4261.410156,4264.871582,4231.922852,4203.333496,4445.384766,4448.333496,4350.128418,4395.128418,1.194804,3.397122,0.857054,1.13413,0.255637,0.922199,1.320354,0.580598,0.533786,0.232651,0.619029,1.707193,0.638865,1.091443,0.235461,0.886909,0.993122,0.428067,0.535307,0.245263,0.281602,0.454684,0.145773,0.281619,0.109862,0.206494,0.693647,0.223107,0.271301,0.230627,0.307289,2.901727,1.390134,0.267059,0.164534,0.116683,0.584492,0.463203,0.103652,0.271234,0.09642,2.332432,1.312555,0.463817,0.254264,0.260942,0.171566,0.103211,0.071499,0.220957,0.125127,1.704529,0.311146,0.209063,0.162084,0.558475,4.212178,0.797536,0.660482,0.429196,1.26965,3.846004,0.875839,0.499422,0.270585,1.697457,4.528937,0.80994,0.722426,0.290702
1720525872,11,0,4287.179688,4284.871582,4286.153809,4297.179688,4297.436035,4260.769043,4255.769043,4261.025879,4230.512695,4199.230957,4445.897461,4437.05127,4341.410156,4392.179688,,,,,,,,,,,,,,,,,,,,,,,,,,,,,,,,,,,,,,,,,,,,,,,,,,,,,,,,,,,,,,,,,,,,,,
1720525872,12,0,4282.94873,4280.769043,4289.743652,4292.820313,4296.282227,4265.384766,4256.922852,4266.282227,4233.205078,4202.820313,4443.717773,4423.077148,4338.974121,4390.384766,,,,,,,,,,,,,,,,,,,,,,,,,,,,,,,,,,,,,,,,,,,,,,,,,,,,,,,,,,,,,,,,,,,,,,
1720525872,13,0,4274.230957,4281.410156,4287.179688,4295.897461,4297.692383,4266.922852,4260.128418,4262.179688,4234.358887,4208.974121,4438.846191,4415.128418,4340.897461,4385.256348,,,,,,,,,,,,,,,,,,,,,,,,,,,,,,,,,,,,,,,,,,,,,,,,,,,,,,,,,,,,,,,,,,,,,,
1720525872,14,0,4268.846191,4278.589844,4281.538574,4294.871582,4296.282227,4264.487305,4259.871582,4259.871582,4230.897461,4207.563965,4440.512695,4424.487305,4339.743652,4387.563965,,,,,,,,,,,,,,,,,,,,,,,,,,,,,,,,,,,,,,,,,,,,,,,,,,,,,,,,,,,,,,,,,,,,,,
1720525872,15,0,4271.538574,4274.102539,4279.230957,4290.512695,4293.846191,4267.05127,4262.436035,4273.077148,4231.025879,4205.128418,4450.512695,4442.05127,4338.205078,4394.871582,,,,,,,,,,,,,,,,,,,,,,,,,,,,,,,,,,,,,,,,,,,,,,,,,,,,,,,,,,,,,,,,,,,,,,
1720525872,16,0,4272.692383,4274.743652,4280,4290.897461,4295.256348,4269.743652,4265.641113,4280.769043,4236.153809,4204.230957,4450.641113,4449.358887,4338.333496,4396.410156,,,,,,,,,,,,,,,,,,,,,,,,,,,,,,,,,,,,,,,,,,,,,,,,,,,,,,,,,,,,,,,,,,,,,,
1720525872,17,0,4273.333496,4273.333496,4286.410156,4294.615234,4298.846191,4267.436035,4263.205078,4272.820313,4230.897461,4207.05127,4443.974121,4450.256348,4338.846191,4397.94873,,,,,,,,,,,,,,,,,,,,,,,,,,,,,,,,,,,,,,,,,,,,,,,,,,,,,,,,,,,,,,,,,,,,,,
1720525872,18,0,4278.846191,4271.153809,4294.743652,4294.615234,4299.358887,4265.769043,4260.384766,4269.743652,4226.153809,4208.205078,4448.205078,4457.05127,4347.563965,4407.307617,,,,,,,,,,,,,,,,,,,,,,,,,,,,,,,,,,,,,,,,,,,,,,,,,,,,,,,,,,,,,,,,,,,,,,
1720525872,19,0,4286.666504,4277.563965,4295.897461,4293.846191,4299.230957,4267.692383,4263.333496,4274.102539,4240.641113,4205.384766,4454.230957,4464.871582,4363.846191,4417.563965,,,,,,,,,,,,,,,,,,,,,,,,,,,,,,,,,,,,,,,,,,,,,,,,,,,,,,,,,,,,,,,,,,,,,,
1720525872,20,0,4281.922852,4279.230957,4294.871582,4293.846191,4295.769043,4266.538574,4264.615234,4281.538574,4250.128418,4219.743652,4456.794922,4471.410156,4365.256348,4424.743652,,,,,,,,,,,,,,,,,,,,,,,,,,,,,,,,,,,,,,,,,,,,,,,,,,,,,,,,,,,,,,,,,,,,,,
1720525872,21,0,4273.846191,4277.436035,4291.538574,4298.461426,4295.512695,4261.666504,4261.922852,4276.282227,4245.512695,4219.871582,4457.05127,4464.358887,4354.871582,4418.589844,,,,,,,,,,,,,,,,,,,,,,,,,,,,,,,,,,,,,,,,,,,,,,,,,,,,,,,,,,,,,,,,,,,,,,
1720525872,22,0,4286.153809,4290.512695,4292.820313,4307.692383,4307.05127,4263.333496,4262.05127,4261.922852,4247.692383,4204.102539,4456.666504,4453.589844,4364.358887,4411.025879,,,,,,,,,,,,,,,,,,,,,,,,,,,,,,,,,,,,,,,,,,,,,,,,,,,,,,,,,,,,,,,,,,,,,,
1720525872,23,0,4302.692383,4298.205078,4305.128418,4312.307617,4309.487305,4267.820313,4264.615234,4273.717773,4251.538574,4219.871582,4459.487305,4465.512695,4378.717773,4423.846191,,,,,,,,,,,,,,,,,,,,,,,,,,,,,,,,,,,,,,,,,,,,,,,,,,,,,,,,,,,,,,,,,,,,,,
1720525872,24,0,4293.333496,4285.897461,4299.358887,4306.666504,4300.384766,4263.205078,4262.820313,4278.974121,4247.307617,4225.512695,4447.179688,4457.563965,4366.410156,4419.871582,,,,,,,,,,,,,,,,,,,,,,,,,,,,,,,,,,,,,,,,,,,,,,,,,,,,,,,,,,,,,,,,,,,,,,
1720525872,25,0,4280,4277.692383,4284.230957,4297.436035,4296.153809,4261.794922,4259.102539,4267.820313,4240.128418,4208.717773,4432.179688,4432.820313,4352.820313,4399.102539,,,,,,,,,,,,,,,,,,,,,,,,,,,,,,,,,,,,,,,,,,,,,,,,,,,,,,,,,,,,,,,,,,,,,,
1720525872,26,0,4284.358887,4281.025879,4289.487305,4298.461426,4299.487305,4268.974121,4262.563965,4273.461426,4233.974121,4216.410156,4443.333496,4441.538574,4357.436035,4402.820313,0.983551,3.410511,1.057798,1.077572,0.264863,0.734944,1.246649,0.706011,0.548902,0.237764,0.620985,1.772678,0.669435,0.955444,0.222874,0.815526,1.016152,0.436348,0.449408,0.220086,0.337896,0.436739,0.132313,0.259543,0.101476,0.223557,0.599764,0.189107,0.302183,0.223777,0.246024,2.881258,1.088439,0.258605,0.154031,0.096529,0.535019,0.419442,0.093724,0.262047,0.094979,2.172154,1.160496,0.419644,0.240379,0.267339,0.169827,0.103856,0.082317,0.195077,0.129933,1.576269,0.320407,0.226843,0.178899,0.505577,4.357654,0.863,0.623567,0.395791,1.03894,3.686635,1.255822,0.660687,0.286662,1.43288,4.75863,1.056144,0.692208,0.298777
1720525872,27,0,4278.077148,4280,4291.666504,4304.615234,4298.717773,4267.436035,4263.589844,4273.846191,4232.05127,4223.205078,4450,4447.820313,4354.743652,4406.538574,,,,,,,,,,,,,,,,,,,,,,,,,,,,,,,,,,,,,,,,,,,,,,,,,,,,,,,,,,,,,,,,,,,,,,
1720525872,28,0,4262.179688,4276.153809,4277.05127,4301.666504,4295,4262.05127,4257.436035,4256.922852,4227.692383,4209.871582,4436.153809,4429.487305,4344.230957,4390.897461,,,,,,,,,,,,,,,,,,,,,,,,,,,,,,,,,,,,,,,,,,,,,,,,,,,,,,,,,,,,,,,,,,,,,,
1720525872,29,0,4263.974121,4277.05127,4272.692383,4295,4296.794922,4264.487305,4257.05127,4254.358887,4221.153809,4216.538574,4436.025879,4431.282227,4345.256348,4388.077148,,,,,,,,,,,,,,,,,,,,,,,,,,,,,,,,,,,,,,,,,,,,,,,,,,,,,,,,,,,,,,,,,,,,,,
1720525872,30,0,4271.153809,4278.589844,4279.615234,4294.230957,4302.692383,4265.384766,4260.512695,4257.436035,4228.461426,4228.717773,4448.589844,4445,4353.974121,4398.589844,,,,,,,,,,,,,,,,,,,,,,,,,,,,,,,,,,,,,,,,,,,,,,,,,,,,,,,,,,,,,,,,,,,,,,
1720525872,31,0,4274.615234,4279.230957,4286.282227,4296.538574,4303.589844,4266.922852,4264.615234,4250.897461,4245.128418,4220.256348,4451.794922,4447.179688,4361.410156,4404.615234,,,,,,,,,,,,,,,,,,,,,,,,,,,,,,,,,,,,,,,,,,,,,,,,,,,,,,,,,,,,,,,,,,,,,,
1720525872,32,0,4280.128418,4275.256348,4297.436035,4296.666504,4294.615234,4267.436035,4271.153809,4258.461426,4249.615234,4221.538574,4452.692383,4460,4366.538574,4411.538574,,,,,,,,,,,,,,,,,,,,,,,,,,,,,,,,,,,,,,,,,,,,,,,,,,,,,,,,,,,,,,,,,,,,,,
1720525872,33,0,4281.922852,4273.974121,4303.461426,4300.256348,4296.153809,4267.94873,4279.102539,4268.077148,4249.871582,4225.897461,4455,4469.871582,4371.794922,4414.230957,,,,,,,,,,,,,,,,,,,,,,,,,,,,,,,,,,,,,,,,,,,,,,,,,,,,,,,,,,,,,,,,,,,,,,
1720525872,34,0,4278.717773,4279.487305,4299.615234,4305.769043,4307.820313,4274.358887,4282.94873,4268.974121,4253.589844,4223.333496,4454.102539,4465,4373.589844,4410.256348,,,,,,,,,,,,,,,,,,,,,,,,,,,,,,,,,,,,,,,,,,,,,,,,,,,,,,,,,,,,,,,,,,,,,,
1720525872,35,0,4279.358887,4281.538574,4292.94873,4310,4311.794922,4275.128418,4283.077148,4270.128418,4251.922852,4225.512695,4454.615234,4459.230957,4367.436035,4406.794922,,,,,,,,,,,,,,,,,,,,,,,,,,,,,,,,,,,,,,,,,,,,,,,,,,,,,,,,,,,,,,,,,,,,,,
1720525872,36,0,4277.820313,4279.615234,4287.94873,4308.846191,4310,4266.025879,4281.025879,4268.461426,4250.512695,4224.871582,4449.230957,4448.077148,4360.256348,4400.512695,,,,,,,,,,,,,,,,,,,,,,,,,,,,,,,,,,,,,,,,,,,,,,,,,,,,,,,,,,,,,,,,,,,,,,
1720525872,37,0,4268.461426,4277.179688,4287.436035,4301.153809,4302.820313,4263.333496,4271.922852,4270.256348,4248.205078,4225,4445.128418,4443.846191,4352.307617,4396.794922,,,,,,,,,,,,,,,,,,,,,,,,,,,,,,,,,,,,,,,,,,,,,,,,,,,,,,,,,,,,,,,,,,,,,,
1720525872,38,0,4263.846191,4273.077148,4284.487305,4295,4295,4265,4263.205078,4266.666504,4244.230957,4225.256348,4449.102539,4446.794922,4342.692383,4394.487305,,,,,,,,,,,,,,,,,,,,,,,,,,,,,,,,,,,,,,,,,,,,,,,,,,,,,,,,,,,,,,,,,,,,,,
1720525872,39,0,4266.794922,4267.94873,4279.871582,4293.846191,4293.589844,4263.205078,4262.563965,4261.922852,4246.538574,4227.307617,4446.794922,4443.846191,4336.666504,4384.230957,,,,,,,,,,,,,,,,,,,,,,,,,,,,,,,,,,,,,,,,,,,,,,,,,,,,,,,,,,,,,,,,,,,,,,
1720525872,40,0,4267.820313,4269.102539,4279.487305,4294.615234,4295.769043,4263.589844,4263.077148,4261.538574,4245.641113,4230.512695,4437.05127,4436.794922,4334.743652,4372.563965,,,,,,,,,,,,,,,,,,,,,,,,,,,,,,,,,,,,,,,,,,,,,,,,,,,,,,,,,,,,,,,,,,,,,,
1720525872,41,0,4268.717773,4277.563965,4282.179688,4292.307617,4293.589844,4262.563965,4260.256348,4258.077148,4234.871582,4228.333496,4434.871582,4434.487305,4336.410156,4371.666504,,,,,,,,,,,,,,,,,,,,,,,,,,,,,,,,,,,,,,,,,,,,,,,,,,,,,,,,,,,,,,,,,,,,,,
1720525872,42,0,4278.717773,4285,4286.922852,4296.538574,4297.307617,4261.922852,4260,4260,4236.025879,4225.384766,4448.333496,4443.846191,4348.717773,4385.128418,0.848715,3.243839,1.259045,1.0065,0.270913,0.604053,1.176562,0.817436,0.54932,0.243754,0.693106,1.780895,0.713122,0.823064,0.211231,0.772139,1.048588,0.459309,0.370345,0.199745,0.42389,0.45459,0.126813,0.225534,0.099694,0.229353,0.576069,0.170871,0.32654,0.215247,0.198774,2.693691,0.801732,0.264022,0.143701,0.081658,0.484388,0.364242,0.094885,0.251457,0.117891,1.917355,1.024079,0.397443,0.225468,0.263476,0.16247,0.103264,0.094821,0.176814,0.170161,1.332604,0.359005,0.261237,0.200233,0.524709,4.067146,0.960118,0.686557,0.366344,0.860556,3.354383,1.66411,0.869773,0.307167,1.262141,4.622241,1.337514,0.729787,0.310975
1720525872,43,0,4289.615234,4289.230957,4291.794922,4305.769043,4305.256348,4266.153809,4265.128418,4264.615234,4246.538574,4226.410156,4457.94873,4457.692383,4361.538574,4399.102539,,,,,,,,,,,,,,,,,,,,,,,,,,,,,,,,,,,,,,,,,,,,,,,,,,,,,,,,,,,,,,,,,,,,,,
1720525872,44,0,4291.538574,4293.333496,4295.256348,4308.333496,4306.922852,4266.922852,4272.179688,4264.102539,4243.717773,4231.794922,4453.077148,4465.256348,4368.589844,4406.794922,,,,,,,,,,,,,,,,,,,,,,,,,,,,,,,,,,,,,,,,,,,,,,,,,,,,,,,,,,,,,,,,,,,,,,
1720525872,45,0,4295.512695,4291.922852,4302.94873,4310.769043,4308.461426,4267.179688,4279.230957,4267.179688,4240.512695,4235.384766,4455.512695,4470.769043,4379.358887,4421.282227,,,,,,,,,,,,,,,,,,,,,,,,,,,,,,,,,,,,,,,,,,,,,,,,,,,,,,,,,,,,,,,,,,,,,,
1720525872,46,0,4297.94873,4283.077148,4306.794922,4306.153809,4305.512695,4267.307617,4280.512695,4270.256348,4245.384766,4234.230957,4464.358887,4474.615234,4379.230957,4427.436035,,,,,,,,,,,,,,,,,,,,,,,,,,,,,,,,,,,,,,,,,,,,,,,,,,,,,,,,,,,,,,,,,,,,,,
1720525872,47,0,4292.307617,4275.641113,4296.282227,4297.307617,4297.307617,4267.05127,4277.692383,4267.179688,4246.922852,4235,4455.641113,4461.666504,4361.922852,4404.871582,,,,,,,,,,,,,,,,,,,,,,,,,,,,,,,,,,,,,,,,,,,,,,,,,,,,,,,,,,,,,,,,,,,,,,
1720525872,48,0,4279.230957,4269.102539,4283.846191,4292.692383,4293.846191,4268.589844,4273.077148,4268.846191,4247.94873,4239.102539,4440.512695,4443.461426,4343.205078,4381.666504,,,,,,,,,,,,,,,,,,,,,,,,,,,,,,,,,,,,,,,,,,,,,,,,,,,,,,,,,,,,,,,,,,,,,,
1720525872,49,0,4263.974121,4261.282227,4273.461426,4285.128418,4294.358887,4265.769043,4264.487305,4264.230957,4251.025879,4232.94873,4435.384766,4428.461426,4328.205078,4370.128418,,,,,,,,,,,,,,,,,,,,,,,,,,,,,,,,,,,,,,,,,,,,,,,,,,,,,,,,,,,,,,,,,,,,,,
1720525872,50,0,4260.384766,4265.512695,4265.384766,4282.563965,4294.102539,4261.410156,4261.025879,4253.974121,4249.871582,4224.487305,4432.820313,4421.794922,4325.641113,4363.205078,,,,,,,,,,,,,,,,,,,,,,,,,,,,,,,,,,,,,,,,,,,,,,,,,,,,,,,,,,,,,,,,,,,,,,
1720525872,51,0,4266.410156,4272.179688,4274.871582,4292.94873,4294.615234,4264.102539,4264.358887,4270.384766,4245,4239.487305,4442.820313,4446.922852,4337.563965,4373.461426,,,,,,,,,,,,,,,,,,,,,,,,,,,,,,,,,,,,,,,,,,,,,,,,,,,,,,,,,,,,,,,,,,,,,,
1720525872,52,0,4266.282227,4271.666504,4282.307617,4299.230957,4295.641113,4264.102539,4262.307617,4274.358887,4245,4240,4454.102539,4456.922852,4350.384766,4384.102539,,,,,,,,,,,,,,,,,,,,,,,,,,,,,,,,,,,,,,,,,,,,,,,,,,,,,,,,,,,,,,,,,,,,,,
1720525872,53,0,4265.897461,4270.128418,4275.769043,4294.871582,4293.974121,4260.769043,4259.358887,4256.025879,4247.05127,4226.410156,4452.179688,4442.94873,4357.179688,4382.820313,,,,,,,,,,,,,,,,,,,,,,,,,,,,,,,,,,,,,,,,,,,,,,,,,,,,,,,,,,,,,,,,,,,,,,
1720525872,54,0,4275,4267.94873,4279.743652,4291.794922,4292.820313,4265.897461,4262.692383,4269.615234,4242.692383,4239.230957,4452.563965,4455.256348,4357.05127,4384.102539,,,,,,,,,,,,,,,,,,,,,,,,,,,,,,,,,,,,,,,,,,,,,,,,,,,,,,,,,,,,,,,,,,,,,,
1720525872,55,0,4281.410156,4277.307617,4287.179688,4296.025879,4301.282227,4269.743652,4263.974121,4282.436035,4240,4244.743652,4456.025879,4463.846191,4358.077148,4388.589844,,,,,,,,,,,,,,,,,,,,,,,,,,,,,,,,,,,,,,,,,,,,,,,,,,,,,,,,,,,,,,,,,,,,,,
1720525872,56,0,4280.897461,4289.487305,4285.897461,4305,4311.666504,4272.05127,4263.589844,4268.974121,4246.025879,4234.358887,4453.077148,4452.820313,4361.666504,4396.282227,,,,,,,,,,,,,,,,,,,,,,,,,,,,,,,,,,,,,,,,,,,,,,,,,,,,,,,,,,,,,,,,,,,,,,
1720525872,57,0,4282.436035,4285.128418,4290.128418,4308.589844,4305.384766,4277.563965,4272.05127,4276.282227,4249.487305,4241.282227,4452.05127,4460.128418,4360.384766,4405.897461,,,,,,,,,,,,,,,,,,,,,,,,,,,,,,,,,,,,,,,,,,,,,,,,,,,,,,,,,,,,,,,,,,,,,,
1720525872,58,0,4288.846191,4282.563965,4301.538574,4305.256348,4292.692383,4272.94873,4282.692383,4291.922852,4249.743652,4248.077148,4457.307617,4471.410156,4360.641113,4409.487305,0.779264,2.932307,1.375399,0.918432,0.275418,0.544824,1.164437,0.881926,0.538544,0.249346,0.813457,1.718252,0.753818,0.703212,0.209316,0.749816,1.078451,0.478648,0.305087,0.189969,0.519476,0.495478,0.128446,0.18534,0.108379,0.22536,0.609345,0.169381,0.337273,0.214742,0.173013,2.317065,0.596391,0.272894,0.139502,0.07565,0.422804,0.313471,0.104791,0.240775,0.160241,1.632472,0.938049,0.399543,0.216903,0.266883,0.151932,0.100192,0.107192,0.170441,0.236992,1.044012,0.40075,0.298742,0.220708,0.631727,3.511813,1.031792,0.832195,0.354088,0.744162,2.916084,1.971088,1.096334,0.336239,1.201816,4.165618,1.540393,0.820689,0.332797
1720525872,59,0,4294.102539,4290.384766,4302.692383,4311.410156,4293.333496,4268.974121,4278.205078,4280,4248.461426,4236.922852,4452.436035,4456.922852,4366.282227,4406.410156,,,,,,,,,,,,,,,,,,,,,,,,,,,,,,,,,,,,,,,,,,,,,,,,,,,,,,,,,,,,,,,,,,,,,,
1720525872,60,0,4291.025879,4284.615234,4296.794922,4312.692383,4299.358887,4276.666504,4267.94873,4271.794922,4242.94873,4238.461426,4445,4447.94873,4363.333496,4398.974121,,,,,,,,,,,,,,,,,,,,,,,,,,,,,,,,,,,,,,,,,,,,,,,,,,,,,,,,,,,,,,,,,,,,,,
1720525872,61,0,4282.179688,4269.615234,4289.615234,4296.410156,4296.666504,4274.487305,4262.94873,4273.846191,4239.743652,4243.974121,4444.743652,4443.205078,4346.794922,4384.102539,,,,,,,,,,,,,,,,,,,,,,,,,,,,,,,,,,,,,,,,,,,,,,,,,,,,,,,,,,,,,,,,,,,,,,
1720525872,62,0,4271.922852,4267.563965,4279.743652,4286.410156,4297.94873,4266.666504,4260.512695,4271.538574,4245.256348,4240.256348,4443.846191,4431.282227,4336.922852,4376.282227,,,,,,,,,,,,,,,,,,,,,,,,,,,,,,,,,,,,,,,,,,,,,,,,,,,,,,,,,,,,,,,,,,,,,,
1720525872,63,0,4266.794922,4266.410156,4274.871582,4291.794922,4303.461426,4274.102539,4261.794922,4275,4250.897461,4247.436035,4444.358887,4439.230957,4347.179688,4383.205078,,,,,,,,,,,,,,,,,,,,,,,,,,,,,,,,,,,,,,,,,,,,,,,,,,,,,,,,,,,,,,,,,,,,,,
1720525872,64,0,4269.615234,4262.307617,4277.05127,4295.641113,4300.641113,4282.94873,4266.025879,4276.153809,4252.436035,4251.794922,4448.333496,4449.487305,4361.666504,4386.538574,,,,,,,,,,,,,,,,,,,,,,,,,,,,,,,,,,,,,,,,,,,,,,,,,,,,,,,,,,,,,,,,,,,,,,
1720525872,65,0,4271.666504,4263.589844,4280.897461,4293.205078,4294.358887,4276.922852,4264.871582,4272.692383,4251.025879,4249.230957,4450.897461,4445.641113,4361.025879,4383.461426,,,,,,,,,,,,,,,,,,,,,,,,,,,,,,,,,,,,,,,,,,,,,,,,,,,,,,,,,,,,,,,,,,,,,,
1720525872,66,0,4273.077148,4266.410156,4282.179688,4294.230957,4292.94873,4268.077148,4263.077148,4270.256348,4247.179688,4249.487305,4447.05127,4446.025879,4356.922852,4388.461426,,,,,,,,,,,,,,,,,,,,,,,,,,,,,,,,,,,,,,,,,,,,,,,,,,,,,,,,,,,,,,,,,,,,,,
1720525872,67,0,4279.230957,4265.897461,4286.025879,4296.282227,4294.230957,4272.436035,4270.384766,4274.487305,4249.487305,4253.717773,4452.820313,4457.563965,4365,4399.230957,,,,,,,,,,,,,,,,,,,,,,,,,,,,,,,,,,,,,,,,,,,,,,,,,,,,,,,,,,,,,,,,,,,,,,
1720525872,68,0,4286.794922,4267.692383,4292.563965,4295.128418,4298.205078,4283.717773,4279.871582,4283.205078,4257.563965,4255.641113,4466.666504,4468.333496,4370.641113,4402.436035,,,,,,,,,,,,,,,,,,,,,,,,,,,,,,,,,,,,,,,,,,,,,,,,,,,,,,,,,,,,,,,,,,,,,,
1720525872,69,0,4288.717773,4276.153809,4291.153809,4298.333496,4302.179688,4284.615234,4278.846191,4282.563965,4258.205078,4252.94873,4457.820313,4463.333496,4363.077148,4396.538574,,,,,,,,,,,,,,,,,,,,,,,,,,,,,,,,,,,,,,,,,,,,,,,,,,,,,,,,,,,,,,,,,,,,,,
1720525872,70,0,4280.897461,4278.589844,4287.179688,4299.615234,4299.871582,4275.128418,4273.077148,4276.153809,4247.563965,4251.025879,4436.282227,4444.743652,4349.230957,4388.205078,,,,,,,,,,,,,,,,,,,,,,,,,,,,,,,,,,,,,,,,,,,,,,,,,,,,,,,,,,,,,,,,,,,,,,
1720525872,71,0,4276.025879,4275.512695,4287.94873,4298.974121,4297.820313,4273.974121,4274.230957,4277.820313,4244.102539,4252.563965,4437.692383,4435.769043,4345,4385.641113,,,,,,,,,,,,,,,,,,,,,,,,,,,,,,,,,,,,,,,,,,,,,,,,,,,,,,,,,,,,,,,,,,,,,,
1720525872,72,0,4282.820313,4278.333496,4289.743652,4302.563965,4299.871582,4276.794922,4279.743652,4283.974121,4250.897461,4254.743652,4449.615234,4441.538574,4352.563965,4388.205078,,,,,,,,,,,,,,,,,,,,,,,,,,,,,,,,,,,,,,,,,,,,,,,,,,,,,,,,,,,,,,,,,,,,,,
1720525872,73,0,4285.384766,4281.410156,4286.794922,4307.179688,4295.769043,4271.153809,4278.974121,4285,4250.769043,4254.358887,4443.461426,4445,4357.820313,4388.717773,,,,,,,,,,,,,,,,,,,,,,,,,,,,,,,,,,,,,,,,,,,,,,,,,,,,,,,,,,,,,,,,,,,,,,
1720525872,74,0,4278.717773,4275.897461,4285.641113,4305.256348,4291.922852,4268.974121,4274.615234,4282.307617,4253.461426,4258.333496,4443.717773,4449.615234,4362.436035,4394.487305,0.77011,2.597641,1.358339,0.818224,0.279768,0.538473,1.269691,0.8827,0.522839,0.252512,0.931347,1.631079,0.770737,0.606736,0.220677,0.716765,1.115138,0.487761,0.261237,0.191003,0.573413,0.539235,0.13388,0.15072,0.126899,0.209259,0.660779,0.17787,0.328463,0.225277,0.176087,1.854252,0.496532,0.275441,0.1431,0.088213,0.36551,0.285411,0.118324,0.232188,0.216292,1.439328,0.909258,0.412422,0.218153,0.244626,0.141156,0.093121,0.116507,0.176744,0.315463,0.808302,0.427911,0.326869,0.236818,0.813918,3.044825,1.051416,1.012655,0.364506,0.666258,2.548126,2.121804,1.287369,0.371697,1.255835,3.616325,1.606116,0.925178,0.362475
1720525872,75,0,4281.025879,4273.974121,4288.717773,4298.846191,4294.230957,4275.384766,4272.307617,4277.94873,4261.153809,4261.922852,4453.077148,4456.922852,4371.794922,4402.692383,,,,,,,,,,,,,,,,,,,,,,,,,,,,,,,,,,,,,,,,,,,,,,,,,,,,,,,,,,,,,,,,,,,,,,
1720525872,76,0,4285.641113,4278.205078,4289.102539,4294.358887,4295.384766,4277.692383,4268.461426,4274.102539,4255.128418,4263.717773,4448.846191,4456.922852,4372.563965,4400.128418,,,,,,,,,,,,,,,,,,,,,,,,,,,,,,,,,,,,,,,,,,,,,,,,,,,,,,,,,,,,,,,,,,,,,,
1720525872,77,0,4275.512695,4274.871582,4280.769043,4290.769043,4293.846191,4273.333496,4260.897461,4262.307617,4244.230957,4261.282227,4442.307617,4445.897461,4360.512695,4390,,,,,,,,,,,,,,,,,,,,,,,,,,,,,,,,,,,,,,,,,,,,,,,,,,,,,,,,,,,,,,,,,,,,,,
1720525872,78,0,4262.94873,4268.974121,4271.410156,4292.563965,4293.077148,4274.230957,4257.692383,4246.666504,4247.179688,4253.333496,4439.358887,4434.487305,4352.692383,4382.307617,,,,,,,,,,,,,,,,,,,,,,,,,,,,,,,,,,,,,,,,,,,,,,,,,,,,,,,,,,,,,,,,,,,,,,
1720525872,79,0,4270.641113,4273.333496,4285,4301.666504,4294.358887,4281.153809,4270.128418,4265,4252.05127,4264.871582,4439.615234,4454.358887,4354.358887,4387.563965,,,,,,,,,,,,,,,,,,,,,,,,,,,,,,,,,,,,,,,,,,,,,,,,,,,,,,,,,,,,,,,,,,,,,,
1720525872,80,0,4282.820313,4279.743652,4297.179688,4307.820313,4294.487305,4281.538574,4278.846191,4276.410156,4250.128418,4266.282227,4432.820313,4463.077148,4351.282227,4387.05127,,,,,,,,,,,,,,,,,,,,,,,,,,,,,,,,,,,,,,,,,,,,,,,,,,,,,,,,,,,,,,,,,,,,,,
1720525872,81,0,4281.282227,4281.794922,4287.94873,4309.230957,4290.769043,4277.307617,4271.153809,4253.205078,4252.692383,4247.692383,4425.512695,4439.102539,4346.025879,4377.307617,,,,,,,,,,,,,,,,,,,,,,,,,,,,,,,,,,,,,,,,,,,,,,,,,,,,,,,,,,,,,,,,,,,,,,
1720525872,82,0,4284.230957,4280.897461,4290,4311.538574,4292.820313,4279.743652,4272.179688,4258.589844,4257.94873,4258.717773,4434.743652,4445.256348,4350.897461,4381.794922,,,,,,,,,,,,,,,,,,,,,,,,,,,,,,,,,,,,,,,,,,,,,,,,,,,,,,,,,,,,,,,,,,,,,,
1720525872,83,0,4280.256348,4273.461426,4285.256348,4303.846191,4296.410156,4280.512695,4272.820313,4268.461426,4254.615234,4266.153809,4432.307617,4447.05127,4344.871582,4374.871582,,,,,,,,,,,,,,,,,,,,,,,,,,,,,,,,,,,,,,,,,,,,,,,,,,,,,,,,,,,,,,,,,,,,,,
1720525872,84,0,4253.717773,4260,4262.179688,4283.589844,4285.897461,4268.205078,4253.974121,4250,4241.410156,4250,4419.487305,4415.256348,4321.922852,4350.641113,,,,,,,,,,,,,,,,,,,,,,,,,,,,,,,,,,,,,,,,,,,,,,,,,,,,,,,,,,,,,,,,,,,,,,
1720525872,85,0,4248.205078,4256.538574,4264.615234,4281.025879,4276.538574,4262.563965,4249.743652,4252.436035,4236.153809,4260.641113,4425.641113,4417.307617,4320.641113,4355.897461,,,,,,,,,,,,,,,,,,,,,,,,,,,,,,,,,,,,,,,,,,,,,,,,,,,,,,,,,,,,,,,,,,,,,,
1720525872,86,0,4279.230957,4273.974121,4289.230957,4299.358887,4285.897461,4270.641113,4271.153809,4271.794922,4249.102539,4280,4441.153809,4451.666504,4348.717773,4389.743652,,,,,,,,,,,,,,,,,,,,,,,,,,,,,,,,,,,,,,,,,,,,,,,,,,,,,,,,,,,,,,,,,,,,,,
1720525872,87,0,4299.102539,4296.410156,4298.077148,4314.743652,4296.410156,4277.05127,4281.794922,4267.436035,4264.230957,4269.102539,4444.487305,4459.871582,4368.846191,4404.615234,,,,,,,,,,,,,,,,,,,,,,,,,,,,,,,,,,,,,,,,,,,,,,,,,,,,,,,,,,,,,,,,,,,,,,
1720525872,88,0,4288.589844,4291.794922,4294.487305,4313.846191,4294.871582,4279.102539,4277.307617,4266.666504,4261.025879,4266.410156,4440.641113,4454.871582,4362.307617,4395,,,,,,,,,,,,,,,,,,,,,,,,,,,,,,,,,,,,,,,,,,,,,,,,,,,,,,,,,,,,,,,,,,,,,,
1720525872,89,0,4276.282227,4266.922852,4288.846191,4301.666504,4291.025879,4276.922852,4271.153809,4272.05127,4248.077148,4275.512695,4437.05127,4451.538574,4344.358887,4383.589844,,,,,,,,,,,,,,,,,,,,,,,,,,,,,,,,,,,,,,,,,,,,,,,,,,,,,,,,,,,,,,,,,,,,,,
1720525872,90,0,4273.589844,4259.487305,4282.820313,4292.692383,4291.794922,4273.974121,4267.94873,4263.077148,4250.128418,4269.102539,4432.563965,4444.102539,4337.820313,4378.974121,0.816028,2.416885,1.211528,0.715289,0.282602,0.572087,1.530519,0.823518,0.503465,0.250544,1.003963,1.611988,0.749412,0.538033,0.240427,0.667662,1.179919,0.492746,0.243682,0.19729,0.5741,0.574747,0.146264,0.133167,0.149857,0.184495,0.684733,0.186986,0.297492,0.240933,0.20175,1.468745,0.486117,0.265396,0.150193,0.129896,0.333153,0.293742,0.129735,0.228447,0.274533,1.422108,0.90736,0.415404,0.225843,0.20929,0.131976,0.082364,0.119764,0.192626,0.390973,0.711804,0.441264,0.341601,0.247655,1.035995,3.017598,1.028836,1.173024,0.391117,0.630977,2.469239,2.129464,1.39527,0.403276,1.382332,3.291136,1.540253,1.008505,0.389241
1720525872,91,0,4271.538574,4269.871582,4284.743652,4294.615234,4293.461426,4279.358887,4275.512695,4268.461426,4264.102539,4269.487305,4440.641113,4457.307617,4352.179688,4386.282227,,,,,,,,,,,,,,,,,,,,,,,,,,,,,,,,,,,,,,,,,,,,,,,,,,,,,,,,,,,,,,,,,,,,,,
1720525872,92,0,4270.128418,4274.615234,4284.102539,4300.384766,4294.358887,4284.230957,4282.563965,4273.077148,4269.487305,4273.205078,4447.692383,4466.025879,4364.871582,4390,,,,,,,,,,,,,,,,,,,,,,,,,,,,,,,,,,,,,,,,,,,,,,,,,,,,,,,,,,,,,,,,,,,,,,
1720525872,93,0,4271.153809,4274.102539,4280.769043,4301.282227,4294.358887,4280,4278.589844,4265.384766,4259.358887,4269.230957,4441.922852,4451.410156,4358.077148,4384.358887,,,,,,,,,,,,,,,,,,,,,,,,,,,,,,,,,,,,,,,,,,,,,,,,,,,,,,,,,,,,,,,,,,,,,,
1720525872,94,0,4277.179688,4279.102539,4287.94873,4302.563965,4294.358887,4277.820313,4276.410156,4264.743652,4256.538574,4270.128418,4442.307617,4447.179688,4354.743652,4384.615234,,,,,,,,,,,,,,,,,,,,,,,,,,,,,,,,,,,,,,,,,,,,,,,,,,,,,,,,,,,,,,,,,,,,,,
1720525872,95,0,4281.538574,4286.410156,4292.307617,4309.743652,4294.230957,4281.538574,4277.05127,4264.102539,4263.333496,4275.128418,4447.179688,4455.512695,4363.077148,4389.615234,,,,,,,,,,,,,,,,,,,,,,,,,,,,,,,,,,,,,,,,,,,,,,,,,,,,,,,,,,,,,,,,,,,,,,
1720525872,96,0,4282.05127,4285,4288.846191,4313.974121,4292.94873,4281.666504,4269.102539,4258.589844,4257.820313,4276.282227,4447.94873,4455.641113,4364.487305,4391.666504,,,,,,,,,,,,,,,,,,,,,,,,,,,,,,,,,,,,,,,,,,,,,,,,,,,,,,,,,,,,,,,,,,,,,,
1720525872,97,0,4290,4281.538574,4291.666504,4311.538574,4294.358887,4278.077148,4262.179688,4255.512695,4245.512695,4276.025879,4447.436035,4451.282227,4360.641113,4394.230957,,,,,,,,,,,,,,,,,,,,,,,,,,,,,,,,,,,,,,,,,,,,,,,,,,,,,,,,,,,,,,,,,,,,,,
1720525872,98,0,4296.794922,4283.333496,4297.307617,4311.538574,4295.128418,4276.025879,4263.846191,4260.128418,4244.358887,4279.615234,4448.717773,4456.538574,4360,4397.179688,,,,,,,,,,,,,,,,,,,,,,,,,,,,,,,,,,,,,,,,,,,,,,,,,,,,,,,,,,,,,,,,,,,,,,
1720525872,99,0,4290.769043,4283.461426,4293.974121,4312.94873,4292.563965,4274.230957,4266.666504,4262.692383,4247.692383,4280.256348,4443.589844,4457.820313,4351.282227,4389.615234,,,,,,,,,,,,,,,,,,,,,,,,,,,,,,,,,,,,,,,,,,,,,,,,,,,,,,,,,,,,,,,,,,,,,,
1720525872,100,0,4282.179688,4279.102539,4289.615234,4309.230957,4291.666504,4277.692383,4267.692383,4259.743652,4243.205078,4274.358887,4432.436035,4446.410156,4334.358887,4377.692383,,,,,,,,,,,,,,,,,,,,,,,,,,,,,,,,,,,,,,,,,,,,,,,,,,,,,,,,,,,,,,,,,,,,,,
1720525872,101,0,4288.974121,4278.717773,4294.358887,4310.128418,4294.615234,4289.358887,4274.358887,4263.205078,4243.205078,4273.846191,4428.974121,4443.846191,4335.769043,4379.871582,,,,,,,,,,,,,,,,,,,,,,,,,,,,,,,,,,,,,,,,,,,,,,,,,,,,,,,,,,,,,,,,,,,,,,
1720525872,102,0,4295.512695,4279.871582,4297.436035,4309.358887,4296.025879,4290.897461,4278.333496,4264.230957,4248.077148,4282.05127,4432.307617,4451.794922,4347.436035,4391.666504,,,,,,,,,,,,,,,,,,,,,,,,,,,,,,,,,,,,,,,,,,,,,,,,,,,,,,,,,,,,,,,,,,,,,,
1720525872,103,0,4286.538574,4275.897461,4291.922852,4302.436035,4293.846191,4283.333496,4273.974121,4261.153809,4251.794922,4282.94873,4437.05127,4450.641113,4347.05127,4393.589844,,,,,,,,,,,,,,,,,,,,,,,,,,,,,,,,,,,,,,,,,,,,,,,,,,,,,,,,,,,,,,,,,,,,,,
1720525872,104,0,4282.94873,4273.333496,4289.358887,4304.487305,4293.589844,4283.974121,4273.974121,4263.589844,4259.102539,4281.794922,4440,4449.230957,4346.922852,4387.94873,,,,,,,,,,,,,,,,,,,,,,,,,,,,,,,,,,,,,,,,,,,,,,,,,,,,,,,,,,,,,,,,,,,,,,
1720525872,105,0,4288.589844,4275.512695,4292.692383,4307.692383,4296.153809,4292.307617,4278.846191,4264.615234,4265.641113,4284.615234,4444.358887,4456.282227,4353.589844,4391.922852,,,,,,,,,,,,,,,,,,,,,,,,,,,,,,,,,,,,,,,,,,,,,,,,,,,,,,,,,,,,,,,,,,,,,,
1720525872,106,0,4286.922852,4279.102539,4292.692383,4298.077148,4296.666504,4295,4280.128418,4261.282227,4265.384766,4282.05127,4452.179688,4458.205078,4356.025879,4399.743652,0.889092,2.507544,0.982587,0.615168,0.281809,0.637339,1.918954,0.715121,0.475821,0.24156,0.998204,1.738142,0.687561,0.491899,0.259031,0.606868,1.278085,0.49064,0.248875,0.20145,0.503578,0.594829,0.168974,0.13786,0.169606,0.158004,0.655231,0.18943,0.248575,0.251779,0.245465,1.285111,0.523638,0.24636,0.154701,0.210281,0.341271,0.335967,0.137538,0.232497,0.328404,1.561178,0.885076,0.395942,0.232522,0.159003,0.125465,0.072222,0.115742,0.212557,0.449629,0.789206,0.454184,0.344173,0.25483,1.22993,3.565055,0.99107,1.270637,0.422061,0.612091,2.803406,2.063781,1.396006,0.418119,1.481513,3.421281,1.409167,1.047121,0.399909
1720525872,107,0,4280.384766,4276.922852,4288.461426,4294.743652,4289.871582,4287.563965,4278.974121,4265.256348,4260.256348,4284.743652,4455.769043,4455.512695,4355.897461,4399.615234,,,,,,,,,,,,,,,,,,,,,,,,,,,,,,,,,,,,,,,,,,,,,,,,,,,,,,,,,,,,,,,,,,,,,,
1720525872,108,0,4285.769043,4274.230957,4288.846191,4305.897461,4285.384766,4278.717773,4279.487305,4264.871582,4257.563965,4288.077148,4451.922852,4451.922852,4362.563965,4403.205078,,,,,,,,,,,,,,,,,,,,,,,,,,,,,,,,,,,,,,,,,,,,,,,,,,,,,,,,,,,,,,,,,,,,,,
1720525872,109,0,4300.641113,4282.820313,4301.410156,4311.794922,4285.897461,4278.461426,4281.153809,4262.179688,4261.153809,4285.128418,4451.922852,4461.153809,4372.179688,4421.538574,,,,,,,,,,,,,,,,,,,,,,,,,,,,,,,,,,,,,,,,,,,,,,,,,,,,,,,,,,,,,,,,,,,,,,
1720525872,110,0,4310.641113,4292.692383,4316.410156,4311.538574,4279.743652,4280.897461,4280,4275.512695,4263.333496,4292.820313,4463.717773,4488.077148,4374.102539,4439.358887,,,,,,,,,,,,,,,,,,,,,,,,,,,,,,,,,,,,,,,,,,,,,,,,,,,,,,,,,,,,,,,,,,,,,,
1720525872,111,0,4308.974121,4294.615234,4312.05127,4313.717773,4276.410156,4274.615234,4277.179688,4270.512695,4261.153809,4290.384766,4460.384766,4483.717773,4371.922852,4434.102539,,,,,,,,,,,,,,,,,,,,,,,,,,,,,,,,,,,,,,,,,,,,,,,,,,,,,,,,,,,,,,,,,,,,,,
1720525872,112,0,4300.641113,4289.871582,4301.025879,4314.871582,4284.230957,4278.589844,4278.333496,4253.077148,4263.333496,4279.230957,4448.333496,4460,4368.974121,4420.128418,,,,,,,,,,,,,,,,,,,,,,,,,,,,,,,,,,,,,,,,,,,,,,,,,,,,,,,,,,,,,,,,,,,,,,
1720525872,113,0,4291.153809,4279.743652,4299.358887,4311.538574,4286.025879,4292.307617,4284.615234,4268.333496,4270.256348,4292.692383,4452.692383,4466.153809,4361.025879,4415.256348,,,,,,,,,,,,,,,,,,,,,,,,,,,,,,,,,,,,,,,,,,,,,,,,,,,,,,,,,,,,,,,,,,,,,,
1720525872,114,0,4275.897461,4265.897461,4288.461426,4298.974121,4277.05127,4289.871582,4282.05127,4277.692383,4264.102539,4302.05127,4446.410156,4459.358887,4344.487305,4399.871582,,,,,,,,,,,,,,,,,,,,,,,,,,,,,,,,,,,,,,,,,,,,,,,,,,,,,,,,,,,,,,,,,,,,,,
1720525872,115,0,4263.846191,4256.538574,4275,4286.666504,4273.333496,4277.820313,4270.128418,4256.153809,4247.692383,4283.333496,4426.666504,4424.615234,4330.128418,4378.974121,,,,,,,,,,,,,,,,,,,,,,,,,,,,,,,,,,,,,,,,,,,,,,,,,,,,,,,,,,,,,,,,,,,,,,
1720525872,116,0,4271.410156,4261.922852,4282.436035,4294.358887,4276.282227,4276.410156,4266.666504,4253.333496,4242.820313,4277.820313,4426.794922,4422.307617,4331.538574,4385.512695,,,,,,,,,,,,,,,,,,,,,,,,,,,,,,,,,,,,,,,,,,,,,,,,,,,,,,,,,,,,,,,,,,,,,,
1720525872,117,0,4289.871582,4279.487305,4293.717773,4310.256348,4277.307617,4280.256348,4270.384766,4268.461426,4247.307617,4290.384766,4439.743652,4445.256348,4342.820313,4409.230957,,,,,,,,,,,,,,,,,,,,,,,,,,,,,,,,,,,,,,,,,,,,,,,,,,,,,,,,,,,,,,,,,,,,,,
1720525872,118,0,4298.846191,4291.794922,4294.487305,4311.538574,4277.307617,4279.230957,4272.692383,4265.512695,4250.384766,4291.282227,4441.410156,4449.743652,4348.589844,4411.666504,,,,,,,,,,,,,,,,,,,,,,,,,,,,,,,,,,,,,,,,,,,,,,,,,,,,,,,,,,,,,,,,,,,,,,
1720525872,119,0,4301.282227,4289.102539,4300.128418,4311.410156,4278.846191,4283.077148,4275.769043,4262.436035,4257.307617,4292.05127,4445.769043,4454.615234,4349.743652,4406.025879,,,,,,,,,,,,,,,,,,,,,,,,,,,,,,,,,,,,,,,,,,,,,,,,,,,,,,,,,,,,,,,,,,,,,,
1720525872,120,0,4307.692383,4290.769043,4308.974121,4319.230957,4280.256348,4291.153809,4279.615234,4268.461426,4264.743652,4297.436035,4453.205078,4468.846191,4360.256348,4420.897461,,,,,,,,,,,,,,,,,,,,,,,,,,,,,,,,,,,,,,,,,,,,,,,,,,,,,,,,,,,,,,,,,,,,,,
1720525872,121,0,4313.077148,4296.922852,4311.922852,4320.128418,4283.461426,4293.717773,4283.846191,4269.615234,4263.077148,4296.025879,4450.641113,4475.128418,4374.743652,4437.05127,,,,,,,,,,,,,,,,,,,,,,,,,,,,,,,,,,,,,,,,,,,,,,,,,,,,,,,,,,,,,,,,,,,,,,
1720525872,122,0,4316.153809,4296.025879,4313.077148,4323.077148,4289.230957,4291.538574,4291.794922,4269.230957,4265.769043,4296.282227,4456.794922,4481.922852,4385.128418,4444.615234,0.961768,2.85301,0.744714,0.53669,0.276446,0.725455,2.338807,0.581794,0.446795,0.226145,0.914635,2.016481,0.602627,0.469377,0.26736,0.544938,1.393646,0.475486,0.278334,0.198504,0.403392,0.60294,0.20246,0.16136,0.179712,0.135579,0.583136,0.181575,0.192324,0.249351,0.303717,1.330046,0.564111,0.231437,0.15308,0.337332,0.395051,0.39593,0.145271,0.246686,0.37197,1.754346,0.811163,0.358992,0.232432,0.110151,0.12325,0.070125,0.105819,0.231707,0.483577,0.999478,0.485604,0.339305,0.26151,1.337575,4.519886,0.964679,1.295802,0.447941,0.604222,3.494603,2.018243,1.30604,0.410288,1.48183,4.014977,1.307379,1.046714,0.388251
1720525872,123,0,4330.128418,4304.615234,4321.666504,4339.871582,4289.615234,4292.05127,4300.128418,4271.922852,4277.692383,4301.922852,4475.897461,4494.743652,4401.025879,4461.794922,,,,,,,,,,,,,,,,,,,,,,,,,,,,,,,,,,,,,,,,,,,,,,,,,,,,,,,,,,,,,,,,,,,,,,
1720525873,124,0,4338.205078,4314.230957,4329.230957,4346.666504,4283.717773,4291.282227,4293.205078,4275.641113,4277.94873,4303.333496,4481.025879,4495.769043,4405,4467.692383,,,,,,,,,,,,,,,,,,,,,,,,,,,,,,,,,,,,,,,,,,,,,,,,,,,,,,,,,,,,,,,,,,,,,,
1720525873,125,0,4316.922852,4302.94873,4318.333496,4331.025879,4281.282227,4284.615234,4280.384766,4270,4262.179688,4297.692383,4460.641113,4474.743652,4377.307617,4441.153809,,,,,,,,,,,,,,,,,,,,,,,,,,,,,,,,,,,,,,,,,,,,,,,,,,,,,,,,,,,,,,,,,,,,,,
1720525873,126,0,4298.461426,4284.871582,4303.461426,4318.077148,4281.025879,4279.230957,4274.102539,4261.153809,4250.641113,4295.769043,4442.307617,4457.563965,4346.922852,4418.205078,,,,,,,,,,,,,,,,,,,,,,,,,,,,,,,,,,,,,,,,,,,,,,,,,,,,,,,,,,,,,,,,,,,,,,
1720525873,127,0,4299.487305,4277.692383,4300.256348,4309.615234,4277.307617,4279.230957,4269.743652,4261.666504,4254.743652,4299.487305,4441.538574,4458.333496,4343.461426,4419.487305,,,,,,,,,,,,,,,,,,,,,,,,,,,,,,,,,,,,,,,,,,,,,,,,,,,,,,,,,,,,,,,,,,,,,,
1720525873,0,0,4294.358887,4271.538574,4298.846191,4299.102539,4276.025879,4286.025879,4268.589844,4269.743652,4263.846191,4298.974121,4446.410156,4461.410156,4351.922852,4422.692383,,,,,,,,,,,,,,,,,,,,,,,,,,,,,,,,,,,,,,,,,,,,,,,,,,,,,,,,,,,,,,,,,,,,,,
1720525873,1,0,4285.769043,4267.94873,4294.615234,4300.128418,4278.077148,4292.307617,4274.230957,4270.641113,4263.846191,4295.897461,4446.153809,4457.436035,4356.153809,4421.794922,,,,,,,,,,,,,,,,,,,,,,,,,,,,,,,,,,,,,,,,,,,,,,,,,,,,,,,,,,,,,,,,,,,,,,
1720525873,2,0,4295.641113,4280.769043,4299.230957,4312.563965,4280.384766,4293.333496,4280.769043,4267.179688,4260.384766,4298.077148,4449.871582,4458.461426,4368.333496,4432.179688,,,,,,,,,,,,,,,,,,,,,,,,,,,,,,,,,,,,,,,,,,,,,,,,,,,,,,,,,,,,,,,,,,,,,,
1720525873,3,0,4309.615234,4297.820313,4309.102539,4324.871582,4283.205078,4295.128418,4282.05127,4269.487305,4263.205078,4305,4459.487305,4465,4378.461426,4440.641113,,,,,,,,,,,,,,,,,,,,,,,,,,,,,,,,,,,,,,,,,,,,,,,,,,,,,,,,,,,,,,,,,,,,,,
1720525873,4,0,4303.461426,4297.179688,4306.922852,4327.05127,4280.512695,4293.589844,4280,4271.794922,4264.615234,4306.025879,4455.769043,4457.692383,4372.820313,4428.974121,,,,,,,,,,,,,,,,,,,,,,,,,,,,,,,,,,,,,,,,,,,,,,,,,,,,,,,,,,,,,,,,,,,,,,
1720525873,5,0,4292.692383,4288.974121,4298.974121,4322.05127,4275.512695,4284.358887,4279.615234,4272.94873,4260.512695,4302.05127,4446.538574,4451.282227,4369.487305,4420,,,,,,,,,,,,,,,,,,,,,,,,,,,,,,,,,,,,,,,,,,,,,,,,,,,,,,,,,,,,,,,,,,,,,,
1720525873,6,0,4295,4293.461426,4299.230957,4322.820313,4277.307617,4281.025879,4280.128418,4272.307617,4259.871582,4303.461426,4450,4461.538574,4375.256348,4425.384766,,,,,,,,,,,,,,,,,,,,,,,,,,,,,,,,,,,,,,,,,,,,,,,,,,,,,,,,,,,,,,,,,,,,,,
1720525873,7,0,4302.94873,4297.179688,4306.794922,4325.769043,4280.384766,4282.436035,4272.307617,4269.358887,4261.025879,4306.666504,4460.256348,4471.410156,4376.282227,4431.282227,,,,,,,,,,,,,,,,,,,,,,,,,,,,,,,,,,,,,,,,,,,,,,,,,,,,,,,,,,,,,,,,,,,,,,
1720525873,8,0,4304.358887,4288.974121,4308.717773,4323.205078,4277.05127,4278.717773,4263.589844,4266.794922,4261.666504,4302.692383,4460.256348,4471.282227,4377.692383,4433.974121,,,,,,,,,,,,,,,,,,,,,,,,,,,,,,,,,,,,,,,,,,,,,,,,,,,,,,,,,,,,,,,,,,,,,,
1720525873,9,0,4295.897461,4283.205078,4301.666504,4321.538574,4274.743652,4277.563965,4270.769043,4263.717773,4263.717773,4300.769043,4457.692383,4473.077148,4385.641113,4436.153809,,,,,,,,,,,,,,,,,,,,,,,,,,,,,,,,,,,,,,,,,,,,,,,,,,,,,,,,,,,,,,,,,,,,,,
1720525873,10,0,4289.358887,4279.871582,4302.563965,4317.179688,4277.563965,4283.077148,4279.743652,4272.692383,4264.358887,4315.128418,4464.615234,4484.743652,4383.974121,4437.436035,1.017813,3.315651,0.569662,0.512624,0.268422,0.822576,2.668615,0.454026,0.437334,0.208637,0.785475,2.371162,0.522695,0.478314,0.261345,0.495187,1.49343,0.451403,0.339854,0.188526,0.297023,0.59923,0.241435,0.192711,0.177748,0.122333,0.503272,0.166552,0.142507,0.232491,0.370053,1.525498,0.58479,0.23739,0.146579,0.50434,0.479101,0.451608,0.157811,0.270246,0.401909,1.869943,0.687718,0.322023,0.225663,0.078067,0.127505,0.08066,0.093193,0.247487,0.503398,1.25244,0.538981,0.33417,0.269524,1.328973,5.500791,0.959594,1.27039,0.467678,0.63998,4.348337,2.040676,1.181587,0.385188,1.420166,4.861974,1.302094,1.037918,0.359255
1720525873,11,0,4286.025879,4274.871582,4301.153809,4308.461426,4278.589844,4287.820313,4277.05127,4273.461426,4261.025879,4311.666504,4453.333496,4470.897461,4368.974121,4423.077148,,,,,,,,,,,,,,,,,,,,,,,,,,,,,,,,,,,,,,,,,,,,,,,,,,,,,,,,,,,,,,,,,,,,,,
1720525873,12,0,4287.820313,4276.153809,4292.563965,4315.256348,4278.717773,4292.692383,4276.153809,4263.461426,4267.94873,4293.589844,4437.820313,4449.743652,4364.102539,4408.461426,,,,,,,,,,,,,,,,,,,,,,,,,,,,,,,,,,,,,,,,,,,,,,,,,,,,,,,,,,,,,,,,,,,,,,
1720525873,13,0,4296.282227,4282.563965,4300.256348,4324.743652,4279.615234,4299.615234,4282.563965,4272.94873,4280.897461,4307.563965,4453.461426,4468.077148,4377.179688,4419.743652,,,,,,,,,,,,,,,,,,,,,,,,,,,,,,,,,,,,,,,,,,,,,,,,,,,,,,,,,,,,,,,,,,,,,,
1720525873,14,0,4302.307617,4283.846191,4309.487305,4320.128418,4278.974121,4297.436035,4279.743652,4281.282227,4281.025879,4322.563965,4467.179688,4482.94873,4387.307617,4431.922852,,,,,,,,,,,,,,,,,,,,,,,,,,,,,,,,,,,,,,,,,,,,,,,,,,,,,,,,,,,,,,,,,,,,,,
1720525873,15,0,4304.871582,4280.384766,4304.487305,4318.717773,4278.974121,4288.077148,4265.641113,4264.871582,4268.717773,4306.538574,4458.717773,4466.794922,4383.846191,4425.769043,,,,,,,,,,,,,,,,,,,,,,,,,,,,,,,,,,,,,,,,,,,,,,,,,,,,,,,,,,,,,,,,,,,,,,
1720525873,16,0,4305.641113,4277.307617,4303.846191,4320.769043,4279.615234,4285.256348,4260.256348,4258.974121,4255.128418,4300,4456.282227,4462.307617,4378.717773,4424.615234,,,,,,,,,,,,,,,,,,,,,,,,,,,,,,,,,,,,,,,,,,,,,,,,,,,,,,,,,,,,,,,,,,,,,,
