Timestamp,EEG.Counter,EEG.Interpolated,EEG.AF3,EEG.F7,EEG.F3,EEG.FC5,EEG.T7,EEG.P7,EEG.O1,EEG.O2,EEG.P8,EEG.T8,EEG.FC6,EEG.F4,EEG.F8,EEG.AF4,POW.AF3.Theta,POW.AF3.Alpha,POW.AF3.BetaL,POW.AF3.BetaH,POW.AF3.Gamma,POW.F7.Theta,POW.F7.Alpha,POW.F7.BetaL,POW.F7.BetaH,POW.F7.Gamma,POW.F3.Theta,POW.F3.Alpha,POW.F3.BetaL,POW.F3.BetaH,POW.F3.Gamma,POW.FC5.Theta,POW.FC5.Alpha,POW.FC5.BetaL,POW.FC5.BetaH,POW.FC5.Gamma,POW.T7.Theta,POW.T7.Alpha,POW.T7.BetaL,POW.T7.BetaH,POW.T7.Gamma,POW.P7.Theta,POW.P7.Alpha,POW.P7.BetaL,POW.P7.BetaH,POW.P7.Gamma,POW.O1.Theta,POW.O1.Alpha,POW.O1.BetaL,POW.O1.BetaH,POW.O1.Gamma,POW.O2.Theta,POW.O2.Alpha,POW.O2.BetaL,POW.O2.BetaH,POW.O2.Gamma,POW.P8.Theta,POW.P8.Alpha,POW.P8.BetaL,POW.P8.BetaH,POW.P8.Gamma,POW.T8.Theta,POW.T8.Alpha,POW.T8.BetaL,POW.T8.BetaH,POW.T8.Gamma,POW.FC6.Theta,POW.FC6.Alpha,POW.FC6.BetaL,POW.FC6.BetaH,POW.FC6.Gamma,POW.F4.Theta,POW.F4.Alpha,POW.F4.BetaL,POW.F4.BetaH,POW.F4.Gamma,POW.F8.Theta,POW.F8.Alpha,POW.F8.BetaL,POW.F8.BetaH,POW.F8.Gamma,POW.AF4.Theta,POW.AF4.Alpha,POW.AF4.BetaL,POW.AF4.BetaH,POW.AF4.Gamma
1720524539,122,0,4310.128418,4269.487305,4302.179688,4332.179688,4249.230957,4249.230957,4232.820313,4273.205078,4201.922852,4235.128418,4444.102539,4422.05127,4340.384766,4473.589844,,,,,,,,,,,,,,,,,,,,,,,,,,,,,,,,,,,,,,,,,,,,,,,,,,,,,,,,,,,,,,,,,,,,,,
1720524539,123,0,4316.025879,4277.563965,4300.384766,4336.025879,4255.769043,4252.692383,4231.410156,4259.871582,4200.384766,4241.538574,4444.871582,4417.820313,4337.692383,4478.589844,3.372838,10.482179,1.926236,1.057954,0.299724,1.673809,6.766498,1.11537,0.719763,0.343836,2.093577,11.378159,0.882456,0.671113,0.183546,1.61846,7.095769,1.047732,0.6236,0.245879,0.35985,1.31317,0.543831,0.350788,0.231838,0.789862,5.412755,0.491763,0.472479,0.137053,1.058176,8.984237,0.545043,1.026123,0.156733,0.974801,10.083515,0.350459,0.461051,0.226649,3.506387,27.49473,0.837676,1.067108,0.242802,2.935922,14.107364,1.112458,0.867536,0.634266,6.378262,20.637754,0.879207,1.359051,0.302291,3.528104,22.998047,1.08743,1.442418,0.351035,5.18453,16.376026,0.944576,1.304059,0.367003,6.242197,14.441737,1.325039,1.3536,0.334413
1720524539,124,0,4303.974121,4259.615234,4290,4315.512695,4248.846191,4246.794922,4215,4249.871582,4176.410156,4214.743652,4430.128418,4406.410156,4321.666504,4467.307617,,,,,,,,,,,,,,,,,,,,,,,,,,,,,,,,,,,,,,,,,,,,,,,,,,,,,,,,,,,,,,,,,,,,,,
1720524539,125,0,4301.794922,4252.94873,4294.871582,4310,4246.922852,4248.846191,4214.230957,4250.512695,4161.794922,4202.94873,4426.410156,4403.205078,4321.153809,4460.897461,,,,,,,,,,,,,,,,,,,,,,,,,,,,,,,,,,,,,,,,,,,,,,,,,,,,,,,,,,,,,,,,,,,,,,
1720524539,126,0,4313.717773,4265,4300.512695,4323.461426,4252.436035,4259.871582,4227.563965,4253.077148,4173.077148,4219.615234,4433.461426,4406.282227,4330.256348,4471.794922,,,,,,,,,,,,,,,,,,,,,,,,,,,,,,,,,,,,,,,,,,,,,,,,,,,,,,,,,,,,,,,,,,,,,,
1720524539,127,0,4322.307617,4265.897461,4303.205078,4326.025879,4254.102539,4266.538574,4236.538574,4261.410156,4182.563965,4227.436035,4440.256348,4416.025879,4334.743652,4484.743652,,,,,,,,,,,,,,,,,,,,,,,,,,,,,,,,,,,,,,,,,,,,,,,,,,,,,,,,,,,,,,,,,,,,,,
1720524539,0,0,4326.025879,4264.615234,4304.358887,4327.307617,4255.512695,4264.102539,4240.384766,4265.128418,4185.384766,4226.153809,4443.333496,4422.179688,4338.846191,4489.358887,,,,,,,,,,,,,,,,,,,,,,,,,,,,,,,,,,,,,,,,,,,,,,,,,,,,,,,,,,,,,,,,,,,,,,
1720524539,1,0,4327.307617,4263.333496,4294.358887,4326.410156,4250,4254.743652,4235,4261.922852,4186.410156,4223.205078,4435.512695,4411.538574,4335.128418,4486.025879,,,,,,,,,,,,,,,,,,,,,,,,,,,,,,,,,,,,,,,,,,,,,,,,,,,,,,,,,,,,,,,,,,,,,,
1720524539,2,0,4325.897461,4253.717773,4289.487305,4314.487305,4240.384766,4246.666504,4222.94873,4262.94873,4184.615234,4216.282227,4426.922852,4403.846191,4327.436035,4485,,,,,,,,,,,,,,,,,,,,,,,,,,,,,,,,,,,,,,,,,,,,,,,,,,,,,,,,,,,,,,,,,,,,,,
1720524539,3,0,4325.512695,4254.871582,4298.205078,4314.358887,4243.077148,4245.384766,4216.794922,4262.563965,4189.487305,4221.538574,4425.897461,4409.743652,4322.436035,4484.230957,,,,,,,,,,,,,,,,,,,,,,,,,,,,,,,,,,,,,,,,,,,,,,,,,,,,,,,,,,,,,,,,,,,,,,
1720524539,4,0,4331.282227,4265.384766,4302.179688,4326.410156,4248.974121,4245.641113,4217.94873,4257.563965,4198.077148,4235.641113,4428.846191,4415.641113,4323.717773,4487.820313,,,,,,,,,,,,,,,,,,,,,,,,,,,,,,,,,,,,,,,,,,,,,,,,,,,,,,,,,,,,,,,,,,,,,,
1720524539,5,0,4340.384766,4271.025879,4305.256348,4332.307617,4253.589844,4247.563965,4224.102539,4262.307617,4203.461426,4235.256348,4436.410156,4424.871582,4340.897461,4501.922852,,,,,,,,,,,,,,,,,,,,,,,,,,,,,,,,,,,,,,,,,,,,,,,,,,,,,,,,,,,,,,,,,,,,,,
1720524539,6,0,4344.230957,4275.512695,4314.743652,4336.666504,4263.974121,4251.666504,4231.538574,4263.846191,4201.153809,4230.384766,4444.102539,4433.333496,4352.94873,4509.871582,,,,,,,,,,,,,,,,,,,,,,,,,,,,,,,,,,,,,,,,,,,,,,,,,,,,,,,,,,,,,,,,,,,,,,
1720524539,7,0,4344.487305,4279.230957,4318.846191,4343.717773,4266.410156,4253.846191,4234.871582,4260.512695,4194.102539,4232.436035,4446.153809,4433.717773,4347.563965,4508.846191,,,,,,,,,,,,,,,,,,,,,,,,,,,,,,,,,,,,,,,,,,,,,,,,,,,,,,,,,,,,,,,,,,,,,,
1720524539,8,0,4345.128418,4278.333496,4315.512695,4343.846191,4257.692383,4257.05127,4234.871582,4260.384766,4192.179688,4233.205078,4445,4430.769043,4347.179688,4508.974121,,,,,,,,,,,,,,,,,,,,,,,,,,,,,,,,,,,,,,,,,,,,,,,,,,,,,,,,,,,,,,,,,,,,,,
1720524539,9,0,4345.641113,4280.256348,4311.538574,4343.589844,4260,4263.077148,4236.538574,4258.333496,4194.102539,4237.94873,4447.307617,4428.846191,4355.769043,4509.358887,,,,,,,,,,,,,,,,,,,,,,,,,,,,,,,,,,,,,,,,,,,,,,,,,,,,,,,,,,,,,,,,,,,,,,
1720524539,10,0,4345.256348,4283.205078,4306.794922,4346.153809,4263.974121,4260,4235.641113,4255.256348,4186.794922,4235,4444.743652,4425.128418,4349.230957,4498.333496,,,,,,,,,,,,,,,,,,,,,,,,,,,,,,,,,,,,,,,,,,,,,,,,,,,,,,,,,,,,,,,,,,,,,,
1720524539,11,0,4334.871582,4273.974121,4298.974121,4337.94873,4253.077148,4252.05127,4228.846191,4248.589844,4175.641113,4218.077148,4428.333496,4414.615234,4332.05127,4479.230957,4.175982,6.666549,1.868005,1.092082,0.270774,1.960142,4.4754,1.225658,0.724358,0.335516,2.78077,7.924338,0.940341,0.673185,0.175142,2.084976,4.753003,1.148968,0.626104,0.242087,0.387572,1.268039,0.55539,0.321454,0.227937,0.752597,5.778099,0.410366,0.528635,0.14922,1.186657,8.553885,0.5002,1.032484,0.174173,1.124666,10.081205,0.369288,0.53248,0.211518,4.020829,26.044224,0.795568,1.079173,0.227941,3.368029,11.793121,1.055823,0.785231,0.637834,7.603321,16.002609,1.178805,1.295099,0.334817,4.642629,17.643051,1.257515,1.484606,0.368303,6.486897,11.857463,1.231144,1.242548,0.389071,8.268156,10.169448,1.427383,1.323694,0.354098
1720524539,12,0,4304.358887,4247.692383,4278.205078,4316.282227,4236.538574,4247.179688,4215.128418,4240.384766,4167.436035,4199.102539,4395.769043,4390.128418,4305.641113,4447.94873,,,,,,,,,,,,,,,,,,,,,,,,,,,,,,,,,,,,,,,,,,,,,,,,,,,,,,,,,,,,,,,,,,,,,,
1720524539,13,0,4280.128418,4223.589844,4253.717773,4299.102539,4227.563965,4240.897461,4204.871582,4236.410156,4160.128418,4193.077148,4373.333496,4365.256348,4283.589844,4420.128418,,,,,,,,,,,,,,,,,,,,,,,,,,,,,,,,,,,,,,,,,,,,,,,,,,,,,,,,,,,,,,,,,,,,,,
1720524539,14,0,4288.974121,4230.641113,4259.871582,4307.307617,4231.922852,4241.538574,4216.153809,4247.820313,4175.128418,4209.102539,4395.128418,4376.153809,4300.769043,4433.717773,,,,,,,,,,,,,,,,,,,,,,,,,,,,,,,,,,,,,,,,,,,,,,,,,,,,,,,,,,,,,,,,,,,,,,
1720524539,15,0,4310.128418,4254.743652,4286.153809,4325.769043,4242.436035,4250.256348,4233.077148,4266.922852,4208.205078,4231.922852,4431.025879,4410.512695,4335.256348,4463.077148,,,,,,,,,,,,,,,,,,,,,,,,,,,,,,,,,,,,,,,,,,,,,,,,,,,,,,,,,,,,,,,,,,,,,,
1720524539,16,0,4317.05127,4263.846191,4295.897461,4330.128418,4247.436035,4247.692383,4235.384766,4272.179688,4221.794922,4242.692383,4444.358887,4426.666504,4347.692383,4469.871582,,,,,,,,,,,,,,,,,,,,,,,,,,,,,,,,,,,,,,,,,,,,,,,,,,,,,,,,,,,,,,,,,,,,,,
1720524539,17,0,4318.461426,4263.333496,4296.922852,4332.179688,4248.205078,4240.128418,4228.077148,4264.615234,4218.205078,4246.410156,4444.871582,4424.358887,4345.512695,4467.436035,,,,,,,,,,,,,,,,,,,,,,,,,,,,,,,,,,,,,,,,,,,,,,,,,,,,,,,,,,,,,,,,,,,,,,
1720524539,18,0,4326.666504,4271.794922,4309.102539,4344.487305,4254.615234,4243.846191,4222.94873,4262.307617,4218.974121,4251.282227,4447.692383,4429.487305,4350.641113,4475.256348,,,,,,,,,,,,,,,,,,,,,,,,,,,,,,,,,,,,,,,,,,,,,,,,,,,,,,,,,,,,,,,,,,,,,,
1720524539,19,0,4332.820313,4282.179688,4317.05127,4353.205078,4263.077148,4252.307617,4225.128418,4263.077148,4217.05127,4250.512695,4448.974121,4436.282227,4355.384766,4478.846191,,,,,,,,,,,,,,,,,,,,,,,,,,,,,,,,,,,,,,,,,,,,,,,,,,,,,,,,,,,,,,,,,,,,,,
1720524539,20,0,4331.153809,4282.05127,4309.743652,4353.205078,4263.077148,4258.974121,4229.871582,4245.769043,4205.897461,4246.025879,4444.487305,4424.743652,4348.077148,4469.871582,,,,,,,,,,,,,,,,,,,,,,,,,,,,,,,,,,,,,,,,,,,,,,,,,,,,,,,,,,,,,,,,,,,,,,
1720524539,21,0,4328.717773,4283.461426,4311.153809,4355.128418,4264.615234,4263.589844,4235.384766,4243.717773,4202.436035,4246.025879,4443.077148,4422.179688,4346.153809,4464.615234,,,,,,,,,,,,,,,,,,,,,,,,,,,,,,,,,,,,,,,,,,,,,,,,,,,,,,,,,,,,,,,,,,,,,,
1720524539,22,0,4323.205078,4284.743652,4311.922852,4353.205078,4265,4260.256348,4233.589844,4254.487305,4202.94873,4243.589844,4441.410156,4428.846191,4347.820313,4459.743652,,,,,,,,,,,,,,,,,,,,,,,,,,,,,,,,,,,,,,,,,,,,,,,,,,,,,,,,,,,,,,,,,,,,,,
1720524539,23,0,4310.256348,4271.666504,4293.077148,4338.717773,4253.589844,4245.769043,4219.230957,4242.05127,4195.128418,4228.974121,4430.128418,4414.871582,4334.743652,4446.922852,,,,,,,,,,,,,,,,,,,,,,,,,,,,,,,,,,,,,,,,,,,,,,,,,,,,,,,,,,,,,,,,,,,,,,
1720524539,24,0,4301.282227,4258.589844,4280.769043,4326.282227,4241.922852,4231.794922,4208.717773,4241.282227,4193.333496,4218.846191,4417.307617,4401.922852,4320.256348,4434.358887,,,,,,,,,,,,,,,,,,,,,,,,,,,,,,,,,,,,,,,,,,,,,,,,,,,,,,,,,,,,,,,,,,,,,,
1720524539,25,0,4301.282227,4263.333496,4285.256348,4328.974121,4245,4236.666504,4214.358887,4258.974121,4211.282227,4231.666504,4415.769043,4404.615234,4325.769043,4430.128418,,,,,,,,,,,,,,,,,,,,,,,,,,,,,,,,,,,,,,,,,,,,,,,,,,,,,,,,,,,,,,,,,,,,,,
1720524539,26,0,4299.230957,4264.615234,4283.333496,4334.743652,4248.333496,4246.153809,4220,4260.897461,4221.794922,4239.230957,4418.461426,4401.922852,4329.487305,4426.410156,,,,,,,,,,,,,,,,,,,,,,,,,,,,,,,,,,,,,,,,,,,,,,,,,,,,,,,,,,,,,,,,,,,,,,
1720524539,27,0,4289.871582,4248.846191,4267.307617,4326.538574,4237.94873,4238.717773,4216.025879,4253.717773,4208.846191,4220.769043,4410.384766,4390.512695,4314.487305,4418.333496,4.767237,4.343,1.795089,1.12489,0.247732,2.179008,3.086864,1.328678,0.741563,0.339447,3.458742,5.441444,1.028677,0.701255,0.174726,2.458102,3.139406,1.258022,0.624949,0.244468,0.457539,1.281243,0.55728,0.285279,0.226542,0.731765,6.340345,0.359252,0.574657,0.160692,1.403841,7.656085,0.460315,1.019336,0.206178,1.211135,9.284882,0.405248,0.594161,0.198681,4.324818,23.261135,0.826252,1.088608,0.224602,3.709281,9.623525,1.088765,0.774549,0.628395,8.358508,11.961078,1.550611,1.283495,0.377689,5.789032,12.968557,1.468603,1.523632,0.38268,7.274226,8.433521,1.581968,1.223742,0.402498,9.718435,7.37873,1.557134,1.303058,0.375915
1720524539,28,0,4284.615234,4243.974121,4257.307617,4316.794922,4234.871582,4235.769043,4217.307617,4252.94873,4203.974121,4212.179688,4403.974121,4385.769043,4308.974121,4415,,,,,,,,,,,,,,,,,,,,,,,,,,,,,,,,,,,,,,,,,,,,,,,,,,,,,,,,,,,,,,,,,,,,,,
1720524539,29,0,4290,4257.05127,4265.384766,4323.717773,4245,4248.589844,4222.94873,4255,4213.205078,4228.589844,4416.538574,4392.179688,4323.589844,4420.897461,,,,,,,,,,,,,,,,,,,,,,,,,,,,,,,,,,,,,,,,,,,,,,,,,,,,,,,,,,,,,,,,,,,,,,
1720524539,30,0,4301.794922,4265.128418,4277.820313,4330.897461,4248.205078,4250,4221.410156,4258.589844,4216.410156,4234.102539,4426.282227,4403.205078,4332.692383,4427.692383,,,,,,,,,,,,,,,,,,,,,,,,,,,,,,,,,,,,,,,,,,,,,,,,,,,,,,,,,,,,,,,,,,,,,,
1720524539,31,0,4308.846191,4258.333496,4281.410156,4324.102539,4242.94873,4237.94873,4215.384766,4253.974121,4211.410156,4230.512695,4419.230957,4409.743652,4327.436035,4427.179688,,,,,,,,,,,,,,,,,,,,,,,,,,,,,,,,,,,,,,,,,,,,,,,,,,,,,,,,,,,,,,,,,,,,,,
1720524539,32,0,4309.230957,4252.05127,4286.410156,4322.692383,4242.563965,4237.436035,4214.358887,4243.333496,4206.025879,4239.230957,4417.05127,4410.641113,4326.922852,4427.05127,,,,,,,,,,,,,,,,,,,,,,,,,,,,,,,,,,,,,,,,,,,,,,,,,,,,,,,,,,,,,,,,,,,,,,
1720524539,33,0,4313.205078,4259.743652,4295.641113,4334.487305,4249.102539,4247.05127,4219.743652,4246.153809,4203.589844,4240.128418,4427.436035,4415,4336.538574,4436.410156,,,,,,,,,,,,,,,,,,,,,,,,,,,,,,,,,,,,,,,,,,,,,,,,,,,,,,,,,,,,,,,,,,,,,,
1720524539,34,0,4312.436035,4262.820313,4284.102539,4330.769043,4248.461426,4248.717773,4220.641113,4243.461426,4197.307617,4218.205078,4422.94873,4408.846191,4338.461426,4435.512695,,,,,,,,,,,,,,,,,,,,,,,,,,,,,,,,,,,,,,,,,,,,,,,,,,,,,,,,,,,,,,,,,,,,,,
1720524539,35,0,4299.230957,4250.641113,4263.333496,4311.794922,4238.717773,4241.410156,4217.94873,4236.794922,4183.717773,4198.333496,4406.794922,4393.846191,4328.974121,4420.256348,,,,,,,,,,,,,,,,,,,,,,,,,,,,,,,,,,,,,,,,,,,,,,,,,,,,,,,,,,,,,,,,,,,,,,
1720524539,36,0,4292.05127,4242.94873,4262.820313,4311.410156,4235,4240.128418,4216.794922,4240.897461,4183.589844,4202.94873,4403.846191,4386.538574,4322.05127,4414.615234,,,,,,,,,,,,,,,,,,,,,,,,,,,,,,,,,,,,,,,,,,,,,,,,,,,,,,,,,,,,,,,,,,,,,,
1720524539,37,0,4301.922852,4251.922852,4271.666504,4322.820313,4244.487305,4246.666504,4217.94873,4246.025879,4199.615234,4214.102539,4410.256348,4388.589844,4327.94873,4421.538574,,,,,,,,,,,,,,,,,,,,,,,,,,,,,,,,,,,,,,,,,,,,,,,,,,,,,,,,,,,,,,,,,,,,,,
1720524539,38,0,4312.436035,4259.358887,4276.794922,4324.230957,4248.717773,4247.179688,4223.846191,4252.563965,4202.179688,4217.179688,4415.512695,4397.94873,4337.820313,4426.410156,,,,,,,,,,,,,,,,,,,,,,,,,,,,,,,,,,,,,,,,,,,,,,,,,,,,,,,,,,,,,,,,,,,,,,
1720524540,39,0,4319.358887,4261.794922,4281.922852,4327.179688,4246.538574,4245.769043,4230.769043,4258.333496,4202.179688,4226.282227,4422.436035,4412.436035,4340.897461,4436.922852,,,,,,,,,,,,,,,,,,,,,,,,,,,,,,,,,,,,,,,,,,,,,,,,,,,,,,,,,,,,,,,,,,,,,,
1720524540,40,0,4327.692383,4266.922852,4284.487305,4335.128418,4249.615234,4249.487305,4234.871582,4261.666504,4217.05127,4232.94873,4428.077148,4421.410156,4343.717773,4453.205078,,,,,,,,,,,,,,,,,,,,,,,,,,,,,,,,,,,,,,,,,,,,,,,,,,,,,,,,,,,,,,,,,,,,,,
1720524540,41,0,4327.692383,4260.512695,4274.487305,4324.743652,4249.743652,4249.358887,4232.692383,4257.94873,4218.589844,4219.230957,4420.769043,4407.436035,4343.846191,4450.641113,,,,,,,,,,,,,,,,,,,,,,,,,,,,,,,,,,,,,,,,,,,,,,,,,,,,,,,,,,,,,,,,,,,,,,
1720524540,42,0,4324.743652,4245.769043,4263.717773,4308.846191,4244.487305,4246.282227,4229.230957,4252.692383,4208.717773,4210.641113,4414.871582,4392.692383,4339.743652,4444.615234,,,,,,,,,,,,,,,,,,,,,,,,,,,,,,,,,,,,,,,,,,,,,,,,,,,,,,,,,,,,,,,,,,,,,,
1720524540,43,0,4336.922852,4248.333496,4272.692383,4319.230957,4246.282227,4249.743652,4232.436035,4258.205078,4214.102539,4225.384766,4426.025879,4407.436035,4347.179688,4465.641113,5.057884,3.338351,1.760037,1.131194,0.232528,2.244392,2.53232,1.429266,0.753827,0.353016,3.970376,4.006373,1.156798,0.732812,0.180128,2.5982,2.264746,1.364468,0.617643,0.251216,0.561777,1.316636,0.563,0.251499,0.226918,0.718218,6.814245,0.338845,0.593466,0.166796,1.578827,6.368524,0.450468,0.995329,0.247343,1.206281,7.924317,0.44744,0.6249,0.189403,4.2606,19.926222,0.906504,1.073301,0.231946,3.853559,7.965529,1.172605,0.819412,0.606256,8.487343,9.02941,1.906957,1.285841,0.417801,6.716985,9.534645,1.69892,1.515585,0.389174,7.366549,6.31095,1.913977,1.220441,0.399337,10.481286,6.004957,1.725276,1.265685,0.392753
1720524540,44,0,4358.717773,4267.307617,4291.410156,4338.846191,4252.820313,4254.358887,4235,4259.230957,4221.410156,4229.615234,4437.436035,4424.102539,4362.563965,4492.563965,,,,,,,,,,,,,,,,,,,,,,,,,,,,,,,,,,,,,,,,,,,,,,,,,,,,,,,,,,,,,,,,,,,,,,
1720524540,45,0,4367.179688,4270.256348,4296.794922,4335.512695,4248.974121,4250.128418,4230.256348,4248.205078,4215,4223.974121,4438.205078,4421.282227,4370,4499.615234,,,,,,,,,,,,,,,,,,,,,,,,,,,,,,,,,,,,,,,,,,,,,,,,,,,,,,,,,,,,,,,,,,,,,,
1720524540,46,0,4364.230957,4260.897461,4291.410156,4324.871582,4242.820313,4245.128418,4228.589844,4245.384766,4208.589844,4229.230957,4438.846191,4417.692383,4371.153809,4497.563965,,,,,,,,,,,,,,,,,,,,,,,,,,,,,,,,,,,,,,,,,,,,,,,,,,,,,,,,,,,,,,,,,,,,,,
1720524540,47,0,4363.846191,4266.794922,4288.589844,4331.153809,4251.282227,4249.615234,4231.922852,4249.615234,4204.358887,4226.282227,4437.436035,4419.615234,4368.461426,4496.025879,,,,,,,,,,,,,,,,,,,,,,,,,,,,,,,,,,,,,,,,,,,,,,,,,,,,,,,,,,,,,,,,,,,,,,
1720524540,48,0,4361.538574,4275.641113,4286.282227,4340,4261.538574,4257.436035,4231.282227,4236.153809,4199.487305,4212.94873,4425.384766,4412.307617,4356.794922,4486.538574,,,,,,,,,,,,,,,,,,,,,,,,,,,,,,,,,,,,,,,,,,,,,,,,,,,,,,,,,,,,,,,,,,,,,,
1720524540,49,0,4358.589844,4277.307617,4287.563965,4340.256348,4261.025879,4259.615234,4231.282227,4238.717773,4206.410156,4211.922852,4421.025879,4410.769043,4349.615234,4482.179688,,,,,,,,,,,,,,,,,,,,,,,,,,,,,,,,,,,,,,,,,,,,,,,,,,,,,,,,,,,,,,,,,,,,,,
1720524540,50,0,4358.205078,4278.846191,4291.153809,4341.538574,4256.922852,4259.102539,4232.692383,4259.743652,4216.666504,4222.820313,4428.333496,4413.333496,4351.922852,4486.025879,,,,,,,,,,,,,,,,,,,,,,,,,,,,,,,,,,,,,,,,,,,,,,,,,,,,,,,,,,,,,,,,,,,,,,
1720524540,51,0,4356.025879,4281.025879,4287.436035,4343.461426,4262.05127,4257.563965,4232.05127,4254.615234,4219.230957,4231.922852,4429.487305,4403.846191,4353.461426,4483.461426,,,,,,,,,,,,,,,,,,,,,,,,,,,,,,,,,,,,,,,,,,,,,,,,,,,,,,,,,,,,,,,,,,,,,,
1720524540,52,0,4353.846191,4280.897461,4289.871582,4343.333496,4263.077148,4252.692383,4235.512695,4251.666504,4218.717773,4232.05127,4431.794922,4410.897461,4358.846191,4485.641113,,,,,,,,,,,,,,,,,,,,,,,,,,,,,,,,,,,,,,,,,,,,,,,,,,,,,,,,,,,,,,,,,,,,,,
1720524540,53,0,4355.384766,4280.256348,4296.666504,4343.205078,4254.487305,4248.974121,4236.922852,4260.256348,4218.589844,4228.333496,4440.128418,4428.846191,4364.102539,4492.820313,,,,,,,,,,,,,,,,,,,,,,,,,,,,,,,,,,,,,,,,,,,,,,,,,,,,,,,,,,,,,,,,,,,,,,
1720524540,54,0,4350.769043,4277.436035,4293.333496,4341.153809,4252.820313,4252.436035,4233.333496,4256.794922,4220.897461,4227.436035,4442.563965,4427.563965,4361.538574,4490.256348,,,,,,,,,,,,,,,,,,,,,,,,,,,,,,,,,,,,,,,,,,,,,,,,,,,,,,,,,,,,,,,,,,,,,,
1720524540,55,0,4345.128418,4277.179688,4294.230957,4342.692383,4261.666504,4261.025879,4242.05127,4260.769043,4231.922852,4233.974121,4438.589844,4424.358887,4356.538574,4483.461426,,,,,,,,,,,,,,,,,,,,,,,,,,,,,,,,,,,,,,,,,,,,,,,,,,,,,,,,,,,,,,,,,,,,,,
1720524540,56,0,4343.461426,4280.641113,4296.794922,4346.153809,4269.743652,4266.282227,4251.025879,4267.05127,4238.077148,4237.05127,4432.820313,4421.282227,4352.05127,4475.512695,,,,,,,,,,,,,,,,,,,,,,,,,,,,,,,,,,,,,,,,,,,,,,,,,,,,,,,,,,,,,,,,,,,,,,
1720524540,57,0,4330.128418,4271.025879,4282.820313,4334.871582,4261.922852,4261.153809,4240.384766,4256.666504,4225.256348,4223.333496,4419.615234,4404.487305,4341.153809,4458.717773,,,,,,,,,,,,,,,,,,,,,,,,,,,,,,,,,,,,,,,,,,,,,,,,,,,,,,,,,,,,,,,,,,,,,,
1720524540,58,0,4314.743652,4261.153809,4268.846191,4321.538574,4250,4250.512695,4230.769043,4249.743652,4215.384766,4217.179688,4407.05127,4392.94873,4329.230957,4448.333496,,,,,,,,,,,,,,,,,,,,,,,,,,,,,,,,,,,,,,,,,,,,,,,,,,,,,,,,,,,,,,,,,,,,,,
1720524540,59,0,4321.794922,4271.153809,4270.641113,4329.871582,4254.743652,4247.820313,4235.128418,4249.358887,4215.128418,4237.692383,4410.769043,4397.692383,4333.846191,4452.05127,5.193342,3.21749,1.752688,1.097045,0.225606,2.180041,2.60789,1.515157,0.748049,0.37098,4.204417,3.479275,1.291086,0.749633,0.189717,2.557787,1.987356,1.440223,0.607471,0.260615,0.699791,1.374276,0.571977,0.227042,0.228335,0.725423,6.934412,0.330182,0.579775,0.165951,1.671574,4.891885,0.488037,0.974596,0.28841,1.105468,6.328699,0.496092,0.616033,0.184492,3.893619,16.737419,1.012962,1.024074,0.246035,3.737138,6.96248,1.279207,0.895856,0.576905,8.028989,7.317583,2.200564,1.270804,0.444785,7.159882,7.455086,1.907474,1.443071,0.385742,6.795985,5.372889,2.18822,1.205656,0.38144,10.541843,5.700506,1.926445,1.194146,0.3996
1720524540,60,0,4336.538574,4283.205078,4274.615234,4338.077148,4265.512695,4251.282227,4237.436035,4240.384766,4208.077148,4243.333496,4423.205078,4402.05127,4347.563965,4457.820313,,,,,,,,,,,,,,,,,,,,,,,,,,,,,,,,,,,,,,,,,,,,,,,,,,,,,,,,,,,,,,,,,,,,,,
1720524540,61,0,4335.256348,4279.102539,4273.589844,4328.974121,4258.974121,4248.974121,4227.179688,4237.307617,4196.538574,4216.410156,4424.487305,4405.512695,4350.128418,4462.307617,,,,,,,,,,,,,,,,,,,,,,,,,,,,,,,,,,,,,,,,,,,,,,,,,,,,,,,,,,,,,,,,,,,,,,
1720524540,62,0,4335,4272.05127,4274.871582,4325.384766,4246.153809,4245.769043,4217.820313,4234.102539,4190.384766,4210,4416.410156,4405.512695,4344.487305,4462.179688,,,,,,,,,,,,,,,,,,,,,,,,,,,,,,,,,,,,,,,,,,,,,,,,,,,,,,,,,,,,,,,,,,,,,,
1720524540,63,0,4342.436035,4277.436035,4280.897461,4330.897461,4251.153809,4249.743652,4216.153809,4231.794922,4192.307617,4228.589844,4418.589844,4404.358887,4347.436035,4459.871582,,,,,,,,,,,,,,,,,,,,,,,,,,,,,,,,,,,,,,,,,,,,,,,,,,,,,,,,,,,,,,,,,,,,,,
1720524540,64,0,4335.512695,4280.256348,4283.974121,4328.974121,4259.358887,4251.666504,4217.179688,4240.641113,4198.846191,4228.846191,4425,4409.230957,4350.769043,4461.794922,,,,,,,,,,,,,,,,,,,,,,,,,,,,,,,,,,,,,,,,,,,,,,,,,,,,,,,,,,,,,,,,,,,,,,
1720524540,65,0,4323.846191,4269.871582,4281.794922,4321.794922,4251.794922,4244.871582,4222.436035,4242.820313,4201.538574,4219.615234,4416.538574,4407.820313,4342.692383,4456.410156,,,,,,,,,,,,,,,,,,,,,,,,,,,,,,,,,,,,,,,,,,,,,,,,,,,,,,,,,,,,,,,,,,,,,,
1720524540,66,0,4325.641113,4262.563965,4281.153809,4320.897461,4245.512695,4241.922852,4230.128418,4244.230957,4200.256348,4225.384766,4410.256348,4405.897461,4336.153809,4446.282227,,,,,,,,,,,,,,,,,,,,,,,,,,,,,,,,,,,,,,,,,,,,,,,,,,,,,,,,,,,,,,,,,,,,,,
1720524540,67,0,4336.282227,4272.05127,4290.641113,4330,4254.487305,4248.846191,4236.922852,4254.102539,4209.358887,4237.820313,4424.615234,4418.717773,4345.384766,4453.589844,,,,,,,,,,,,,,,,,,,,,,,,,,,,,,,,,,,,,,,,,,,,,,,,,,,,,,,,,,,,,,,,,,,,,,
1720524540,68,0,4347.436035,4283.589844,4303.974121,4338.461426,4261.025879,4251.794922,4241.025879,4260.512695,4220.128418,4241.922852,4440.641113,4437.563965,4360.128418,4471.538574,,,,,,,,,,,,,,,,,,,,,,,,,,,,,,,,,,,,,,,,,,,,,,,,,,,,,,,,,,,,,,,,,,,,,,
1720524540,69,0,4354.487305,4278.846191,4309.102539,4334.358887,4255.641113,4244.102539,4237.05127,4255.384766,4216.410156,4233.974121,4440.897461,4446.025879,4360.769043,4475.769043,,,,,,,,,,,,,,,,,,,,,,,,,,,,,,,,,,,,,,,,,,,,,,,,,,,,,,,,,,,,,,,,,,,,,,
1720524540,70,0,4358.717773,4273.461426,4310.641113,4335.641113,4255.512695,4246.153809,4233.717773,4248.974121,4212.94873,4229.358887,4437.563965,4446.153809,4358.846191,4476.025879,,,,,,,,,,,,,,,,,,,,,,,,,,,,,,,,,,,,,,,,,,,,,,,,,,,,,,,,,,,,,,,,,,,,,,
1720524540,71,0,4373.589844,4288.461426,4319.743652,4353.333496,4267.692383,4260.897461,4242.307617,4254.743652,4215.512695,4241.153809,4446.410156,4454.871582,4372.820313,4490.128418,,,,,,,,,,,,,,,,,,,,,,,,,,,,,,,,,,,,,,,,,,,,,,,,,,,,,,,,,,,,,,,,,,,,,,
1720524540,72,0,4387.94873,4299.871582,4321.538574,4354.487305,4271.410156,4259.871582,4241.922852,4252.307617,4207.307617,4243.461426,4451.153809,4457.179688,4378.589844,4501.410156,,,,,,,,,,,,,,,,,,,,,,,,,,,,,,,,,,,,,,,,,,,,,,,,,,,,,,,,,,,,,,,,,,,,,,
1720524540,73,0,4381.666504,4288.717773,4310.256348,4341.282227,4264.102539,4250.384766,4227.94873,4238.333496,4195.128418,4233.077148,4444.358887,4446.153809,4371.025879,4496.922852,,,,,,,,,,,,,,,,,,,,,,,,,,,,,,,,,,,,,,,,,,,,,,,,,,,,,,,,,,,,,,,,,,,,,,
1720524540,74,0,4373.461426,4287.05127,4304.487305,4345.512695,4263.846191,4253.717773,4231.153809,4239.871582,4202.436035,4242.05127,4446.153809,4443.974121,4378.717773,4495.897461,,,,,,,,,,,,,,,,,,,,,,,,,,,,,,,,,,,,,,,,,,,,,,,,,,,,,,,,,,,,,,,,,,,,,,
1720524540,75,0,4374.102539,4295.641113,4300.256348,4351.153809,4262.179688,4252.692383,4231.794922,4252.692383,4212.307617,4249.871582,4449.487305,4442.692383,4381.922852,4497.563965,5.229056,3.58971,1.686318,1.031284,0.226002,2.047015,3.076214,1.54746,0.725479,0.389286,4.193904,3.63542,1.351301,0.757105,0.203228,2.349541,2.127824,1.435714,0.604697,0.272764,0.837868,1.480806,0.578445,0.215053,0.230379,0.717725,6.57187,0.327676,0.540841,0.160504,1.591671,3.475114,0.554308,0.968736,0.318702,0.917258,4.823501,0.550539,0.573046,0.1842,3.276971,14.122818,1.123373,0.950926,0.26286,3.34733,6.485987,1.376174,0.986865,0.54813,7.090554,6.58258,2.375765,1.235462,0.453911,7.030504,6.483654,1.999019,1.336184,0.375031,5.796614,5.254245,2.341429,1.17287,0.358823,10.054223,6.047152,2.064662,1.09754,0.395392
1720524540,76,0,4374.615234,4286.794922,4291.282227,4343.333496,4254.358887,4242.179688,4216.282227,4247.179688,4210.512695,4238.589844,4441.538574,4427.05127,4372.820313,4495,,,,,,,,,,,,,,,,,,,,,,,,,,,,,,,,,,,,,,,,,,,,,,,,,,,,,,,,,,,,,,,,,,,,,,
1720524540,77,0,4378.461426,4274.230957,4295.897461,4339.743652,4250.256348,4240.128418,4217.436035,4243.077148,4213.461426,4242.94873,4441.153809,4422.94873,4378.846191,4495.769043,,,,,,,,,,,,,,,,,,,,,,,,,,,,,,,,,,,,,,,,,,,,,,,,,,,,,,,,,,,,,,,,,,,,,,
1720524540,78,0,4382.307617,4280.512695,4308.077148,4340.128418,4253.974121,4244.102539,4229.615234,4258.846191,4219.487305,4255.512695,4447.179688,4438.461426,4378.077148,4494.615234,,,,,,,,,,,,,,,,,,,,,,,,,,,,,,,,,,,,,,,,,,,,,,,,,,,,,,,,,,,,,,,,,,,,,,
1720524540,79,0,4377.179688,4289.102539,4305.128418,4337.179688,4257.692383,4247.94873,4234.102539,4256.282227,4216.153809,4238.461426,4437.94873,4437.94873,4363.077148,4489.871582,,,,,,,,,,,,,,,,,,,,,,,,,,,,,,,,,,,,,,,,,,,,,,,,,,,,,,,,,,,,,,,,,,,,,,
1720524540,80,0,4370.384766,4285.384766,4299.743652,4339.487305,4262.307617,4256.538574,4244.358887,4252.692383,4215.897461,4224.487305,4439.102539,4437.436035,4371.666504,4497.563965,,,,,,,,,,,,,,,,,,,,,,,,,,,,,,,,,,,,,,,,,,,,,,,,,,,,,,,,,,,,,,,,,,,,,,
1720524540,81,0,4372.820313,4282.436035,4306.153809,4344.487305,4268.333496,4263.846191,4255.769043,4265.128418,4220,4236.153809,4453.461426,4449.230957,4386.282227,4507.692383,,,,,,,,,,,,,,,,,,,,,,,,,,,,,,,,,,,,,,,,,,,,,,,,,,,,,,,,,,,,,,,,,,,,,,
1720524540,82,0,4372.179688,4278.846191,4305.128418,4341.282227,4261.538574,4259.871582,4244.487305,4257.563965,4212.820313,4235.128418,4445.384766,4440.897461,4376.153809,4501.666504,,,,,,,,,,,,,,,,,,,,,,,,,,,,,,,,,,,,,,,,,,,,,,,,,,,,,,,,,,,,,,,,,,,,,,
1720524540,83,0,4363.333496,4270.256348,4297.692383,4335,4250.512695,4249.871582,4233.461426,4249.487305,4207.820313,4228.205078,4438.461426,4433.974121,4372.436035,4498.846191,,,,,,,,,,,,,,,,,,,,,,,,,,,,,,,,,,,,,,,,,,,,,,,,,,,,,,,,,,,,,,,,,,,,,,
1720524540,84,0,4364.102539,4270.384766,4300.897461,4337.307617,4255.769043,4250.384766,4240.897461,4257.94873,4216.025879,4236.922852,4451.538574,4447.692383,4383.205078,4507.436035,,,,,,,,,,,,,,,,,,,,,,,,,,,,,,,,,,,,,,,,,,,,,,,,,,,,,,,,,,,,,,,,,,,,,,
1720524540,85,0,4377.307617,4282.179688,4310.128418,4341.282227,4261.410156,4257.820313,4242.307617,4257.179688,4222.563965,4250.769043,4458.974121,4455.128418,4390.897461,4510.512695,,,,,,,,,,,,,,,,,,,,,,,,,,,,,,,,,,,,,,,,,,,,,,,,,,,,,,,,,,,,,,,,,,,,,,
1720524540,86,0,4379.487305,4281.666504,4312.692383,4334.743652,4254.615234,4253.077148,4233.589844,4248.333496,4214.615234,4249.230957,4452.436035,4449.743652,4391.025879,4505.128418,,,,,,,,,,,,,,,,,,,,,,,,,,,,,,,,,,,,,,,,,,,,,,,,,,,,,,,,,,,,,,,,,,,,,,
1720524540,87,0,4368.461426,4270.512695,4304.358887,4324.102539,4251.794922,4245.641113,4229.487305,4242.94873,4202.307617,4237.436035,4442.179688,4442.05127,4377.436035,4492.820313,,,,,,,,,,,,,,,,,,,,,,,,,,,,,,,,,,,,,,,,,,,,,,,,,,,,,,,,,,,,,,,,,,,,,,
1720524540,88,0,4372.692383,4275.256348,4297.820313,4323.589844,4253.717773,4249.487305,4230.384766,4239.487305,4205.384766,4236.025879,4442.05127,4437.436035,4374.871582,4491.794922,,,,,,,,,,,,,,,,,,,,,,,,,,,,,,,,,,,,,,,,,,,,,,,,,,,,,,,,,,,,,,,,,,,,,,
1720524540,89,0,4383.974121,4281.666504,4301.666504,4332.307617,4248.205078,4250.128418,4229.871582,4250.128418,4219.615234,4244.358887,4455.256348,4442.563965,4393.205078,4506.410156,,,,,,,,,,,,,,,,,,,,,,,,,,,,,,,,,,,,,,,,,,,,,,,,,,,,,,,,,,,,,,,,,,,,,,
1720524540,90,0,4381.282227,4277.94873,4301.282227,4337.05127,4253.205078,4246.922852,4233.589844,4262.179688,4229.871582,4256.153809,4466.025879,4447.94873,4400.897461,4513.717773,,,,,,,,,,,,,,,,,,,,,,,,,,,,,,,,,,,,,,,,,,,,,,,,,,,,,,,,,,,,,,,,,,,,,,
1720524540,91,0,4376.666504,4274.871582,4294.230957,4330.769043,4260.128418,4248.077148,4235,4260.128418,4232.820313,4264.358887,4466.666504,4444.615234,4396.282227,4511.153809,5.446946,4.191148,1.543283,0.966502,0.232516,1.952755,3.712891,1.512467,0.70104,0.407323,4.046956,4.216358,1.305518,0.781252,0.221018,2.130891,2.530305,1.348972,0.618292,0.289612,0.969631,1.653663,0.586162,0.214873,0.233839,0.685644,5.751985,0.348392,0.49347,0.155013,1.380801,2.320818,0.623836,0.975595,0.330174,0.704224,3.648017,0.600084,0.512039,0.18853,2.641071,12.176867,1.201187,0.874457,0.280205,2.805656,6.264212,1.41382,1.086065,0.528619,5.931032,6.402867,2.404632,1.206831,0.447511,6.43679,6.221338,1.93037,1.258747,0.363665,4.712926,5.500139,2.351695,1.142468,0.343879,9.405076,6.674583,2.098829,1.017198,0.383956
1720524540,92,0,4380,4276.153809,4297.436035,4325.128418,4254.743652,4246.666504,4228.717773,4262.820313,4234.487305,4259.230957,4467.05127,4446.538574,4399.230957,4511.410156,,,,,,,,,,,,,,,,,,,,,,,,,,,,,,,,,,,,,,,,,,,,,,,,,,,,,,,,,,,,,,,,,,,,,,
1720524540,93,0,4385.641113,4279.102539,4309.358887,4332.179688,4255.128418,4247.05127,4229.230957,4264.871582,4234.487305,4251.922852,4462.563965,4453.077148,4398.077148,4511.025879,,,,,,,,,,,,,,,,,,,,,,,,,,,,,,,,,,,,,,,,,,,,,,,,,,,,,,,,,,,,,,,,,,,,,,
1720524540,94,0,4383.205078,4279.871582,4315.128418,4340.512695,4261.410156,4255.128418,4244.230957,4266.538574,4234.230957,4257.307617,4459.743652,4457.94873,4390,4502.94873,,,,,,,,,,,,,,,,,,,,,,,,,,,,,,,,,,,,,,,,,,,,,,,,,,,,,,,,,,,,,,,,,,,,,,
1720524540,95,0,4372.05127,4276.025879,4310.897461,4339.743652,4262.05127,4264.102539,4260,4270.128418,4239.487305,4267.692383,4461.153809,4457.692383,4387.820313,4491.922852,,,,,,,,,,,,,,,,,,,,,,,,,,,,,,,,,,,,,,,,,,,,,,,,,,,,,,,,,,,,,,,,,,,,,,
1720524540,96,0,4369.102539,4275.641113,4306.025879,4341.025879,4261.410156,4266.282227,4264.102539,4269.102539,4244.615234,4267.563965,4457.307617,4451.282227,4386.410156,4487.563965,,,,,,,,,,,,,,,,,,,,,,,,,,,,,,,,,,,,,,,,,,,,,,,,,,,,,,,,,,,,,,,,,,,,,,
1720524540,97,0,4378.461426,4283.846191,4307.307617,4344.871582,4260,4264.743652,4262.692383,4267.05127,4245.384766,4264.358887,4457.05127,4451.282227,4385.384766,4491.025879,,,,,,,,,,,,,,,,,,,,,,,,,,,,,,,,,,,,,,,,,,,,,,,,,,,,,,,,,,,,,,,,,,,,,,
1720524540,98,0,4386.282227,4287.94873,4312.179688,4342.05127,4260.641113,4261.410156,4260.256348,4260.384766,4242.692383,4265.256348,4466.538574,4463.205078,4394.615234,4498.974121,,,,,,,,,,,,,,,,,,,,,,,,,,,,,,,,,,,,,,,,,,,,,,,,,,,,,,,,,,,,,,,,,,,,,,
1720524540,99,0,4390.769043,4293.077148,4319.358887,4346.922852,4272.05127,4263.077148,4257.94873,4257.436035,4240,4269.487305,4479.487305,4481.922852,4409.487305,4507.563965,,,,,,,,,,,,,,,,,,,,,,,,,,,,,,,,,,,,,,,,,,,,,,,,,,,,,,,,,,,,,,,,,,,,,,
1720524540,100,0,4401.538574,4306.282227,4326.410156,4362.563965,4278.589844,4266.282227,4255.897461,4256.282227,4234.102539,4268.589844,4487.563965,4490.128418,4416.153809,4516.025879,,,,,,,,,,,,,,,,,,,,,,,,,,,,,,,,,,,,,,,,,,,,,,,,,,,,,,,,,,,,,,,,,,,,,,
1720524540,101,0,4404.230957,4306.282227,4322.563965,4360.512695,4268.077148,4257.94873,4246.922852,4247.436035,4216.922852,4252.179688,4475.641113,4474.102539,4402.05127,4510.384766,,,,,,,,,,,,,,,,,,,,,,,,,,,,,,,,,,,,,,,,,,,,,,,,,,,,,,,,,,,,,,,,,,,,,,
1720524540,102,0,4379.102539,4281.538574,4302.820313,4330.641113,4253.589844,4248.077148,4228.205078,4239.871582,4199.358887,4233.205078,4441.153809,4444.871582,4367.94873,4480.128418,,,,,,,,,,,,,,,,,,,,,,,,,,,,,,,,,,,,,,,,,,,,,,,,,,,,,,,,,,,,,,,,,,,,,,
1720524540,103,0,4350.512695,4257.307617,4282.05127,4305.897461,4243.333496,4240.769043,4215,4243.077148,4201.153809,4225.897461,4420.512695,4427.820313,4345.769043,4455.128418,,,,,,,,,,,,,,,,,,,,,,,,,,,,,,,,,,,,,,,,,,,,,,,,,,,,,,,,,,,,,,,,,,,,,,
1720524540,104,0,4357.692383,4259.871582,4282.307617,4311.794922,4240,4234.487305,4220.641113,4251.538574,4223.589844,4239.102539,4440.128418,4438.333496,4362.307617,4467.307617,,,,,,,,,,,,,,,,,,,,,,,,,,,,,,,,,,,,,,,,,,,,,,,,,,,,,,,,,,,,,,,,,,,,,,
1720524540,105,0,4385.512695,4273.077148,4300.512695,4327.307617,4242.436035,4235.641113,4231.538574,4262.436035,4245,4263.077148,4472.563965,4462.563965,4396.025879,4499.102539,,,,,,,,,,,,,,,,,,,,,,,,,,,,,,,,,,,,,,,,,,,,,,,,,,,,,,,,,,,,,,,,,,,,,,
1720524540,106,0,4393.461426,4277.820313,4311.794922,4334.102539,4248.205078,4241.282227,4231.794922,4273.589844,4250.384766,4272.563965,4486.153809,4477.820313,4410.897461,4513.461426,,,,,,,,,,,,,,,,,,,,,,,,,,,,,,,,,,,,,,,,,,,,,,,,,,,,,,,,,,,,,,,,,,,,,,
1720524540,107,0,4397.307617,4285.769043,4314.871582,4341.794922,4255.512695,4247.179688,4232.563965,4267.307617,4249.871582,4275.128418,4483.461426,4479.230957,4409.487305,4512.307617,5.97152,4.796901,1.377111,0.936091,0.242654,1.957099,4.288402,1.438767,0.687753,0.42614,3.967288,4.946699,1.196712,0.844816,0.241689,2.039021,3.00955,1.227624,0.646957,0.312859,1.069656,1.86419,0.609557,0.222306,0.240236,0.629004,4.642043,0.401434,0.453677,0.154048,1.109676,1.550336,0.689469,0.977604,0.321209,0.522033,2.923001,0.636169,0.447457,0.197441,2.151637,10.757117,1.229679,0.804448,0.296476,2.261045,6.040305,1.361434,1.179213,0.524742,4.908093,6.391758,2.322402,1.207929,0.432368,5.748099,6.285648,1.770472,1.261066,0.357247,3.893167,5.745343,2.255596,1.133289,0.344,8.961237,7.28005,2.066456,0.989327,0.370747
1720524540,108,0,4413.077148,4295.384766,4323.205078,4349.358887,4261.538574,4256.410156,4243.974121,4266.282227,4252.94873,4279.615234,4489.487305,4484.615234,4414.230957,4518.205078,,,,,,,,,,,,,,,,,,,,,,,,,,,,,,,,,,,,,,,,,,,,,,,,,,,,,,,,,,,,,,,,,,,,,,
1720524540,109,0,4413.205078,4290.769043,4323.205078,4345.512695,4263.846191,4264.615234,4254.871582,4276.666504,4255,4273.717773,4497.179688,4488.333496,4415.897461,4521.538574,,,,,,,,,,,,,,,,,,,,,,,,,,,,,,,,,,,,,,,,,,,,,,,,,,,,,,,,,,,,,,,,,,,,,,
1720524540,110,0,4398.461426,4284.487305,4307.179688,4339.743652,4263.461426,4266.282227,4256.282227,4267.563965,4252.307617,4263.846191,4488.717773,4478.205078,4408.589844,4513.205078,,,,,,,,,,,,,,,,,,,,,,,,,,,,,,,,,,,,,,,,,,,,,,,,,,,,,,,,,,,,,,,,,,,,,,
1720524540,111,0,4394.743652,4287.436035,4303.717773,4342.94873,4264.230957,4261.538574,4253.589844,4260.128418,4248.846191,4262.05127,4480.512695,4476.025879,4405.769043,4506.282227,,,,,,,,,,,,,,,,,,,,,,,,,,,,,,,,,,,,,,,,,,,,,,,,,,,,,,,,,,,,,,,,,,,,,,
1720524540,112,0,4398.846191,4290.512695,4316.538574,4346.794922,4268.333496,4253.333496,4249.358887,4263.461426,4250,4268.205078,4483.717773,4481.538574,4411.153809,4509.743652,,,,,,,,,,,,,,,,,,,,,,,,,,,,,,,,,,,,,,,,,,,,,,,,,,,,,,,,,,,,,,,,,,,,,,
1720524540,113,0,4395.897461,4287.692383,4317.692383,4342.820313,4270.384766,4250.641113,4247.05127,4256.794922,4247.94873,4278.589844,4485.128418,4477.94873,4414.871582,4510.128418,,,,,,,,,,,,,,,,,,,,,,,,,,,,,,,,,,,,,,,,,,,,,,,,,,,,,,,,,,,,,,,,,,,,,,
1720524540,114,0,4390.897461,4282.436035,4310.897461,4334.230957,4264.230957,4252.820313,4247.179688,4251.538574,4238.205078,4280,4479.615234,4470.897461,4410.769043,4502.820313,,,,,,,,,,,,,,,,,,,,,,,,,,,,,,,,,,,,,,,,,,,,,,,,,,,,,,,,,,,,,,,,,,,,,,
1720524540,115,0,4388.077148,4279.487305,4304.743652,4327.692383,4257.563965,4248.974121,4240.384766,4257.820313,4234.871582,4262.94873,4471.282227,4462.436035,4394.102539,4493.077148,,,,,,,,,,,,,,,,,,,,,,,,,,,,,,,,,,,,,,,,,,,,,,,,,,,,,,,,,,,,,,,,,,,,,,
1720524540,116,0,4382.820313,4280.641113,4294.743652,4325.641113,4260.897461,4245.897461,4234.487305,4263.589844,4241.153809,4247.563965,4457.692383,4452.820313,4375.641113,4484.487305,,,,,,,,,,,,,,,,,,,,,,,,,,,,,,,,,,,,,,,,,,,,,,,,,,,,,,,,,,,,,,,,,,,,,,
1720524540,117,0,4383.461426,4281.538574,4292.820313,4328.077148,4262.307617,4250,4241.922852,4269.230957,4246.282227,4246.025879,4455.641113,4452.820313,4373.333496,4485.384766,,,,,,,,,,,,,,,,,,,,,,,,,,,,,,,,,,,,,,,,,,,,,,,,,,,,,,,,,,,,,,,,,,,,,,
1720524540,118,0,4394.102539,4282.563965,4300.897461,4335.641113,4257.563965,4255.512695,4250.256348,4272.94873,4252.692383,4255.897461,4468.589844,4458.333496,4383.461426,4490.256348,,,,,,,,,,,,,,,,,,,,,,,,,,,,,,,,,,,,,,,,,,,,,,,,,,,,,,,,,,,,,,,,,,,,,,
1720524540,119,0,4395.512695,4280.128418,4302.94873,4332.436035,4258.333496,4259.487305,4251.410156,4269.487305,4264.743652,4270.512695,4475.512695,4462.820313,4393.333496,4493.974121,,,,,,,,,,,,,,,,,,,,,,,,,,,,,,,,,,,,,,,,,,,,,,,,,,,,,,,,,,,,,,,,,,,,,,
1720524540,120,0,4384.615234,4273.205078,4302.820313,4322.05127,4260.897461,4260.769043,4254.871582,4272.94873,4266.666504,4270.897461,4476.922852,4471.794922,4393.974121,4495.897461,,,,,,,,,,,,,,,,,,,,,,,,,,,,,,,,,,,,,,,,,,,,,,,,,,,,,,,,,,,,,,,,,,,,,,
1720524540,121,0,4388.077148,4279.871582,4310.769043,4330.128418,4262.05127,4262.436035,4256.153809,4272.05127,4260.128418,4261.666504,4475,4476.410156,4385.769043,4489.871582,,,,,,,,,,,,,,,,,,,,,,,,,,,,,,,,,,,,,,,,,,,,,,,,,,,,,,,,,,,,,,,,,,,,,,
1720524540,122,0,4402.05127,4294.358887,4319.102539,4343.077148,4267.307617,4266.410156,4249.615234,4264.871582,4258.846191,4263.589844,4474.487305,4475.128418,4388.461426,4486.794922,,,,,,,,,,,,,,,,,,,,,,,,,,,,,,,,,,,,,,,,,,,,,,,,,,,,,,,,,,,,,,,,,,,,,,
1720524540,123,0,4404.743652,4295.769043,4326.282227,4344.743652,4276.025879,4267.94873,4250,4265.897461,4255.256348,4271.282227,4476.922852,4479.871582,4398.333496,4494.487305,6.861062,5.170615,1.243805,0.945737,0.252549,2.047155,4.578308,1.348946,0.681894,0.444615,4.0424,5.527029,1.063505,0.941437,0.2605,2.119463,3.350167,1.107463,0.674171,0.340502,1.124291,2.028461,0.642643,0.2293,0.249897,0.561088,3.494017,0.467236,0.427714,0.159444,0.853403,1.202885,0.735861,0.948193,0.297412,0.407841,2.633486,0.648724,0.386902,0.209981,1.859217,9.625162,1.218296,0.740546,0.309571,1.803843,5.637479,1.235275,1.243161,0.536928,4.166675,6.232556,2.163158,1.23092,0.415307,5.215474,6.329069,1.585363,1.336082,0.356413,3.476942,5.723273,2.096942,1.138387,0.357825,8.912955,7.555562,2.015121,1.009622,0.358761
1720524540,124,0,4404.743652,4294.743652,4333.589844,4353.077148,4276.025879,4268.846191,4253.205078,4264.743652,4249.487305,4263.077148,4479.230957,4487.179688,4396.410156,4497.436035,,,,,,,,,,,,,,,,,,,,,,,,,,,,,,,,,,,,,,,,,,,,,,,,,,,,,,,,,,,,,,,,,,,,,,
1720524540,125,0,4413.974121,4303.974121,4341.153809,4362.307617,4273.717773,4266.794922,4248.589844,4265.512695,4248.589844,4250.897461,4486.794922,4495.897461,4400.256348,4496.666504,,,,,,,,,,,,,,,,,,,,,,,,,,,,,,,,,,,,,,,,,,,,,,,,,,,,,,,,,,,,,,,,,,,,,,
1720524540,126,0,4423.205078,4314.615234,4351.538574,4364.871582,4279.743652,4258.333496,4250.384766,4269.230957,4251.666504,4258.717773,4497.436035,4508.333496,4418.205078,4507.692383,,,,,,,,,,,,,,,,,,,,,,,,,,,,,,,,,,,,,,,,,,,,,,,,,,,,,,,,,,,,,,,,,,,,,,
1720524540,127,0,4419.743652,4313.205078,4335.384766,4360,4275.641113,4246.538574,4250.384766,4267.05127,4251.538574,4267.820313,4495.769043,4510.641113,4417.563965,4509.487305,,,,,,,,,,,,,,,,,,,,,,,,,,,,,,,,,,,,,,,,,,,,,,,,,,,,,,,,,,,,,,,,,,,,,,
1720524540,0,0,4410.641113,4304.230957,4291.538574,4348.846191,4261.025879,4240.384766,4237.05127,4262.307617,4247.436035,4260.384766,4482.563965,4496.153809,4400.897461,4493.974121,,,,,,,,,,,,,,,,,,,,,,,,,,,,,,,,,,,,,,,,,,,,,,,,,,,,,,,,,,,,,,,,,,,,,,
1720524540,1,0,4408.205078,4300.256348,4267.820313,4346.538574,4258.846191,4243.846191,4230.897461,4265.641113,4248.461426,4256.153809,4481.794922,4483.589844,4401.410156,4486.794922,,,,,,,,,,,,,,,,,,,,,,,,,,,,,,,,,,,,,,,,,,,,,,,,,,,,,,,,,,,,,,,,,,,,,,
1720524540,2,0,4393.461426,4290.384766,4262.820313,4342.563965,4265.256348,4248.333496,4234.615234,4270.512695,4250.512695,4258.205078,4480.769043,4476.153809,4403.717773,4483.333496,,,,,,,,,,,,,,,,,,,,,,,,,,,,,,,,,,,,,,,,,,,,,,,,,,,,,,,,,,,,,,,,,,,,,,
1720524540,3,0,4362.94873,4273.077148,4241.410156,4322.692383,4258.333496,4253.333496,4235,4265.641113,4243.974121,4242.307617,4459.230957,4459.487305,4380.641113,4461.666504,,,,,,,,,,,,,,,,,,,,,,,,,,,,,,,,,,,,,,,,,,,,,,,,,,,,,,,,,,,,,,,,,,,,,,
1720524540,4,0,4355.897461,4272.820313,4229.871582,4321.410156,4251.282227,4260.384766,4237.307617,4262.179688,4238.974121,4228.077148,4447.179688,4450.512695,4365.641113,4444.871582,,,,,,,,,,,,,,,,,,,,,,,,,,,,,,,,,,,,,,,,,,,,,,,,,,,,,,,,,,,,,,,,,,,,,,
1720524540,5,0,4370.256348,4283.077148,4245.897461,4337.307617,4256.666504,4263.333496,4248.846191,4267.692383,4247.307617,4236.794922,4457.563965,4457.692383,4377.563965,4453.205078,,,,,,,,,,,,,,,,,,,,,,,,,,,,,,,,,,,,,,,,,,,,,,,,,,,,,,,,,,,,,,,,,,,,,,
1720524540,6,0,4365.384766,4277.05127,4255.128418,4328.974121,4261.538574,4261.794922,4256.666504,4275.769043,4253.846191,4246.025879,4461.282227,4459.743652,4384.743652,4456.025879,,,,,,,,,,,,,,,,,,,,,,,,,,,,,,,,,,,,,,,,,,,,,,,,,,,,,,,,,,,,,,,,,,,,,,
1720524540,7,0,4361.025879,4274.615234,4259.230957,4325.769043,4269.358887,4263.461426,4260.128418,4271.666504,4260.128418,4255.384766,4460.512695,4461.410156,4387.179688,4453.205078,,,,,,,,,,,,,,,,,,,,,,,,,,,,,,,,,,,,,,,,,,,,,,,,,,,,,,,,,,,,,,,,,,,,,,
1720524540,8,0,4382.692383,4291.922852,4275.128418,4348.974121,4279.871582,4266.282227,4266.282227,4270.128418,4274.871582,4272.179688,4484.358887,4480.641113,4408.077148,4472.307617,,,,,,,,,,,,,,,,,,,,,,,,,,,,,,,,,,,,,,,,,,,,,,,,,,,,,,,,,,,,,,,,,,,,,,
1720524540,9,0,4396.153809,4297.179688,4288.333496,4354.230957,4279.102539,4263.846191,4261.410156,4278.717773,4275.769043,4280.897461,4505.512695,4497.94873,4428.589844,4493.333496,,,,,,,,,,,,,,,,,,,,,,,,,,,,,,,,,,,,,,,,,,,,,,,,,,,,,,,,,,,,,,,,,,,,,,
1720524540,10,0,4399.743652,4295.897461,4295.769043,4354.230957,4276.410156,4260.384766,4251.538574,4272.179688,4267.563965,4279.871582,4502.820313,4502.436035,4433.205078,4497.436035,,,,,,,,,,,,,,,,,,,,,,,,,,,,,,,,,,,,,,,,,,,,,,,,,,,,,,,,,,,,,,,,,,,,,,
1720524540,11,0,4408.846191,4307.179688,4303.333496,4366.794922,4276.282227,4253.974121,4253.077148,4268.717773,4270,4279.358887,4500.897461,4509.230957,4430.256348,4497.692383,7.998435,5.147812,1.16772,0.979135,0.260603,2.158978,4.458893,1.253582,0.671911,0.458794,4.217587,5.725704,0.931573,1.045816,0.271566,2.357516,3.414925,0.999976,0.683413,0.366777,1.122602,2.070552,0.675233,0.231252,0.26092,0.491458,2.527796,0.514779,0.411351,0.169002,0.6795,1.276784,0.744478,0.869611,0.269025,0.372966,2.656764,0.622601,0.331945,0.223572,1.808847,8.554309,1.171492,0.684436,0.317059,1.531419,4.992194,1.071158,1.267001,0.559624,3.760748,5.748738,1.959035,1.264003,0.402237,4.954674,6.146513,1.418273,1.445566,0.358085,3.440042,5.322169,1.91629,1.158711,0.378454,9.264577,7.293988,1.978349,1.059555,0.348952
1720524540,12,0,4404.230957,4303.461426,4299.230957,4356.794922,4270.512695,4253.205078,4262.307617,4279.743652,4276.282227,4283.077148,4500.897461,4506.282227,4424.743652,4493.846191,,,,,,,,,,,,,,,,,,,,,,,,,,,,,,,,,,,,,,,,,,,,,,,,,,,,,,,,,,,,,,,,,,,,,,
1720524540,13,0,4390.512695,4283.846191,4287.692383,4339.487305,4266.538574,4268.717773,4275.897461,4289.487305,4283.461426,4289.743652,4497.179688,4495,4422.179688,4484.615234,,,,,,,,,,,,,,,,,,,,,,,,,,,,,,,,,,,,,,,,,,,,,,,,,,,,,,,,,,,,,,,,,,,,,,
1720524540,14,0,4382.94873,4277.179688,4284.871582,4342.179688,4270,4278.461426,4285.256348,4296.922852,4292.179688,4281.922852,4490.256348,4493.974121,4411.410156,4473.974121,,,,,,,,,,,,,,,,,,,,,,,,,,,,,,,,,,,,,,,,,,,,,,,,,,,,,,,,,,,,,,,,,,,,,,
1720524540,15,0,4371.153809,4271.025879,4273.333496,4331.282227,4264.230957,4264.615234,4267.563965,4290.128418,4284.871582,4251.794922,4470,4478.974121,4390.256348,4454.743652,,,,,,,,,,,,,,,,,,,,,,,,,,,,,,,,,,,,,,,,,,,,,,,,,,,,,,,,,,,,,,,,,,,,,,
1720524540,16,0,4361.538574,4259.487305,4258.205078,4314.102539,4256.922852,4255.384766,4245.128418,4271.153809,4267.94873,4238.333496,4460.897461,4456.410156,4390.769043,4447.820313,,,,,,,,,,,,,,,,,,,,,,,,,,,,,,,,,,,,,,,,,,,,,,,,,,,,,,,,,,,,,,,,,,,,,,
1720524540,17,0,4366.025879,4266.025879,4265,4326.153809,4261.922852,4265.769043,4253.333496,4275.384766,4267.94873,4258.461426,4473.846191,4464.743652,4403.717773,4458.717773,,,,,,,,,,,,,,,,,,,,,,,,,,,,,,,,,,,,,,,,,,,,,,,,,,,,,,,,,,,,,,,,,,,,,,
1720524540,18,0,4371.153809,4280.769043,4274.487305,4338.846191,4264.871582,4270.384766,4259.615234,4286.153809,4267.179688,4267.179688,4471.538574,4474.102539,4392.692383,4453.717773,,,,,,,,,,,,,,,,,,,,,,,,,,,,,,,,,,,,,,,,,,,,,,,,,,,,,,,,,,,,,,,,,,,,,,
1720524540,19,0,4369.487305,4279.230957,4265.512695,4329.230957,4261.153809,4262.820313,4244.358887,4268.846191,4253.717773,4252.436035,4459.487305,4459.743652,4384.102539,4444.102539,,,,,,,,,,,,,,,,,,,,,,,,,,,,,,,,,,,,,,,,,,,,,,,,,,,,,,,,,,,,,,,,,,,,,,
1720524540,20,0,4362.05127,4270.897461,4261.282227,4322.436035,4259.743652,4260.256348,4241.538574,4263.333496,4246.025879,4244.487305,4467.179688,4459.487305,4394.615234,4448.333496,,,,,,,,,,,,,,,,,,,,,,,,,,,,,,,,,,,,,,,,,,,,,,,,,,,,,,,,,,,,,,,,,,,,,,
1720524540,21,0,4360.384766,4276.794922,4274.487305,4332.692383,4263.205078,4260.769043,4249.871582,4274.102539,4248.589844,4245.897461,4472.563965,4472.436035,4398.717773,4450.384766,,,,,,,,,,,,,,,,,,,,,,,,,,,,,,,,,,,,,,,,,,,,,,,,,,,,,,,,,,,,,,,,,,,,,,
1720524540,22,0,4376.666504,4293.846191,4290,4348.461426,4264.615234,4252.05127,4247.436035,4269.615234,4250.384766,4251.153809,4472.94873,4479.230957,4402.820313,4455.384766,,,,,,,,,,,,,,,,,,,,,,,,,,,,,,,,,,,,,,,,,,,,,,,,,,,,,,,,,,,,,,,,,,,,,,
1720524540,23,0,4383.717773,4297.563965,4296.538574,4351.922852,4260,4240.256348,4242.94873,4262.692383,4246.282227,4260,4479.743652,4486.922852,4407.94873,4464.358887,,,,,,,,,,,,,,,,,,,,,,,,,,,,,,,,,,,,,,,,,,,,,,,,,,,,,,,,,,,,,,,,,,,,,,
1720524540,24,0,4364.230957,4280.769043,4293.589844,4338.205078,4259.358887,4241.794922,4251.025879,4264.871582,4246.025879,4259.871582,4481.410156,4490.641113,4403.461426,4458.461426,,,,,,,,,,,,,,,,,,,,,,,,,,,,,,,,,,,,,,,,,,,,,,,,,,,,,,,,,,,,,,,,,,,,,,
1720524540,25,0,4346.410156,4267.307617,4286.410156,4327.436035,4262.820313,4258.077148,4265.384766,4275.256348,4251.538574,4251.282227,4476.410156,4487.179688,4395.897461,4446.410156,,,,,,,,,,,,,,,,,,,,,,,,,,,,,,,,,,,,,,,,,,,,,,,,,,,,,,,,,,,,,,,,,,,,,,
1720524540,26,0,4339.358887,4264.487305,4273.589844,4324.358887,4260.897461,4274.487305,4275.256348,4278.589844,4248.077148,4243.333496,4460.641113,4473.846191,4383.846191,4435.128418,,,,,,,,,,,,,,,,,,,,,,,,,,,,,,,,,,,,,,,,,,,,,,,,,,,,,,,,,,,,,,,,,,,,,,
1720524540,27,0,4324.487305,4256.538574,4260.384766,4317.05127,4252.94873,4281.153809,4275.769043,4275.256348,4235.769043,4235,4441.538574,4454.871582,4362.820313,4417.563965,8.88908,4.737443,1.209401,1.018123,0.269272,2.19163,3.978654,1.178943,0.653685,0.462417,4.341811,5.52573,0.845985,1.132053,0.272202,2.596885,3.227817,0.922427,0.674662,0.385134,1.069938,1.981858,0.701941,0.228769,0.268953,0.439153,1.889819,0.531632,0.394176,0.177603,0.630714,1.740267,0.717611,0.744559,0.246285,0.404112,2.828041,0.557959,0.281945,0.234887,1.916032,7.428787,1.106958,0.64411,0.316517,1.47245,4.169766,0.913826,1.259967,0.583081,3.633545,4.97405,1.767685,1.304212,0.397416,4.890625,5.746913,1.309701,1.546681,0.357974,3.654861,4.633829,1.762682,1.212548,0.399387,9.627874,6.507385,2.01176,1.123996,0.341549
1720524540,28,0,4310.769043,4246.666504,4254.102539,4310.384766,4250.769043,4280.384766,4272.179688,4276.794922,4233.846191,4230.897461,4440.641113,4447.94873,4353.846191,4406.538574,,,,,,,,,,,,,,,,,,,,,,,,,,,,,,,,,,,,,,,,,,,,,,,,,,,,,,,,,,,,,,,,,,,,,,
1720524540,29,0,4302.307617,4241.794922,4248.461426,4301.410156,4249.743652,4275.256348,4264.487305,4277.05127,4242.179688,4231.666504,4443.974121,4448.333496,4360.769043,4406.410156,,,,,,,,,,,,,,,,,,,,,,,,,,,,,,,,,,,,,,,,,,,,,,,,,,,,,,,,,,,,,,,,,,,,,,
1720524540,30,0,4293.717773,4241.922852,4245.897461,4294.102539,4246.538574,4267.179688,4257.05127,4273.974121,4245.897461,4228.717773,4439.743652,4449.102539,4359.102539,4403.717773,,,,,,,,,,,,,,,,,,,,,,,,,,,,,,,,,,,,,,,,,,,,,,,,,,,,,,,,,,,,,,,,,,,,,,
1720524540,31,0,4300.512695,4252.179688,4255.512695,4303.589844,4253.461426,4261.282227,4254.102539,4271.794922,4245.256348,4230.256348,4440.384766,4454.615234,4353.717773,4402.307617,,,,,,,,,,,,,,,,,,,,,,,,,,,,,,,,,,,,,,,,,,,,,,,,,,,,,,,,,,,,,,,,,,,,,,
1720524540,32,0,4323.846191,4267.05127,4276.025879,4326.410156,4264.487305,4261.153809,4253.333496,4271.025879,4244.487305,4240.128418,4447.05127,4467.820313,4361.538574,4413.846191,,,,,,,,,,,,,,,,,,,,,,,,,,,,,,,,,,,,,,,,,,,,,,,,,,,,,,,,,,,,,,,,,,,,,,
1720524540,33,0,4340.128418,4281.410156,4298.077148,4343.461426,4266.282227,4257.820313,4248.205078,4273.077148,4246.538574,4253.333496,4459.487305,4486.794922,4377.179688,4431.666504,,,,,,,,,,,,,,,,,,,,,,,,,,,,,,,,,,,,,,,,,,,,,,,,,,,,,,,,,,,,,,,,,,,,,,
1720524540,34,0,4343.205078,4291.282227,4307.94873,4345.128418,4261.922852,4246.153809,4238.205078,4278.589844,4253.461426,4270.897461,4476.153809,4502.692383,4389.358887,4442.05127,,,,,,,,,,,,,,,,,,,,,,,,,,,,,,,,,,,,,,,,,,,,,,,,,,,,,,,,,,,,,,,,,,,,,,
1720524540,35,0,4346.025879,4293.846191,4303.589844,4339.743652,4261.666504,4233.333496,4227.05127,4264.230957,4249.358887,4271.410156,4480.128418,4497.94873,4396.025879,4441.410156,,,,,,,,,,,,,,,,,,,,,,,,,,,,,,,,,,,,,,,,,,,,,,,,,,,,,,,,,,,,,,,,,,,,,,
1720524540,36,0,4344.743652,4290.641113,4302.179688,4339.487305,4263.589844,4228.205078,4226.538574,4249.743652,4233.461426,4253.333496,4477.436035,4489.487305,4396.666504,4437.692383,,,,,,,,,,,,,,,,,,,,,,,,,,,,,,,,,,,,,,,,,,,,,,,,,,,,,,,,,,,,,,,,,,,,,,
1720524540,37,0,4335.128418,4288.205078,4306.794922,4345.641113,4265.256348,4239.871582,4247.05127,4267.307617,4229.871582,4250.384766,4478.717773,4498.333496,4387.563965,4431.922852,,,,,,,,,,,,,,,,,,,,,,,,,,,,,,,,,,,,,,,,,,,,,,,,,,,,,,,,,,,,,,,,,,,,,,
1720524540,38,0,4317.436035,4281.794922,4296.538574,4342.05127,4269.871582,4265.128418,4273.717773,4274.487305,4236.153809,4251.538574,4462.179688,4485,4369.230957,4411.282227,,,,,,,,,,,,,,,,,,,,,,,,,,,,,,,,,,,,,,,,,,,,,,,,,,,,,,,,,,,,,,,,,,,,,,
1720524541,39,0,4287.94873,4258.974121,4268.205078,4320.897461,4265.897461,4281.282227,4278.974121,4266.538574,4234.871582,4233.717773,4428.589844,4445.384766,4340.769043,4375.512695,,,,,,,,,,,,,,,,,,,,,,,,,,,,,,,,,,,,,,,,,,,,,,,,,,,,,,,,,,,,,,,,,,,,,,
1720524541,40,0,4263.846191,4234.615234,4242.436035,4297.307617,4253.974121,4283.461426,4268.461426,4270.897461,4226.922852,4214.487305,4402.563965,4419.358887,4313.589844,4348.589844,,,,,,,,,,,,,,,,,,,,,,,,,,,,,,,,,,,,,,,,,,,,,,,,,,,,,,,,,,,,,,,,,,,,,,
1720524541,41,0,4257.820313,4226.666504,4232.307617,4289.230957,4249.487305,4287.05127,4262.820313,4271.794922,4226.794922,4214.102539,4397.563965,4411.025879,4304.743652,4340.897461,,,,,,,,,,,,,,,,,,,,,,,,,,,,,,,,,,,,,,,,,,,,,,,,,,,,,,,,,,,,,,,,,,,,,,
1720524541,42,0,4256.922852,4223.077148,4233.077148,4291.922852,4246.794922,4288.333496,4258.077148,4268.077148,4231.410156,4215.256348,4400.384766,4409.615234,4305,4335.897461,,,,,,,,,,,,,,,,,,,,,,,,,,,,,,,,,,,,,,,,,,,,,,,,,,,,,,,,,,,,,,,,,,,,,,
1720524541,43,0,4253.974121,4220.641113,4234.487305,4292.563965,4239.615234,4277.179688,4248.077148,4269.743652,4230.384766,4206.538574,4396.794922,4411.153809,4303.077148,4331.153809,9.46872,4.149607,1.374416,1.047565,0.282639,2.108876,3.34727,1.136837,0.631989,0.450775,4.429477,5.290412,0.811461,1.185286,0.265346,2.737698,2.972372,0.873324,0.662139,0.392542,0.982777,1.830665,0.710957,0.226772,0.269343,0.424066,1.635161,0.522955,0.369873,0.180426,0.718176,2.502593,0.673908,0.599455,0.23568,0.473463,3.018173,0.473005,0.236361,0.240831,2.131106,6.356184,1.047175,0.62731,0.306675,1.606288,3.384718,0.799799,1.249263,0.596735,3.633276,4.159731,1.633806,1.352155,0.402194,4.877024,5.35366,1.264162,1.609702,0.351978,4.002287,3.950824,1.65617,1.31598,0.418323,9.873818,5.46632,2.11666,1.191029,0.336553
1720524541,44,0,4262.94873,4231.666504,4244.102539,4296.410156,4243.333496,4267.436035,4245.256348,4267.179688,4232.436035,4211.282227,4404.102539,4419.358887,4311.153809,4342.820313,,,,,,,,,,,,,,,,,,,,,,,,,,,,,,,,,,,,,,,,,,,,,,,,,,,,,,,,,,,,,,,,,,,,,,
1720524541,45,0,4284.487305,4247.692383,4261.538574,4306.025879,4252.692383,4262.820313,4246.666504,4268.589844,4243.461426,4234.615234,4427.436035,4441.410156,4334.615234,4368.461426,,,,,,,,,,,,,,,,,,,,,,,,,,,,,,,,,,,,,,,,,,,,,,,,,,,,,,,,,,,,,,,,,,,,,,
1720524541,46,0,4306.153809,4256.153809,4275.256348,4316.922852,4250.641113,4250.256348,4241.666504,4274.871582,4251.282227,4252.692383,4453.717773,4469.102539,4364.743652,4395.512695,,,,,,,,,,,,,,,,,,,,,,,,,,,,,,,,,,,,,,,,,,,,,,,,,,,,,,,,,,,,,,,,,,,,,,
1720524541,47,0,4327.692383,4270.897461,4287.692383,4330.897461,4251.538574,4234.487305,4232.05127,4264.102539,4252.307617,4264.615234,4475.512695,4484.871582,4388.077148,4420.128418,,,,,,,,,,,,,,,,,,,,,,,,,,,,,,,,,,,,,,,,,,,,,,,,,,,,,,,,,,,,,,,,,,,,,,
1720524541,48,0,4349.743652,4292.179688,4307.563965,4344.102539,4262.692383,4226.666504,4221.410156,4257.179688,4251.153809,4283.589844,4495.512695,4498.589844,4408.589844,4445,,,,,,,,,,,,,,,,,,,,,,,,,,,,,,,,,,,,,,,,,,,,,,,,,,,,,,,,,,,,,,,,,,,,,,
1720524541,49,0,4363.461426,4299.487305,4318.974121,4349.615234,4263.589844,4219.615234,4213.846191,4257.307617,4240.641113,4283.205078,4503.333496,4504.615234,4421.153809,4461.025879,,,,,,,,,,,,,,,,,,,,,,,,,,,,,,,,,,,,,,,,,,,,,,,,,,,,,,,,,,,,,,,,,,,,,,
1720524541,50,0,4358.717773,4287.820313,4310.769043,4346.153809,4254.743652,4214.615234,4220.641113,4250.384766,4228.461426,4258.717773,4490.384766,4488.077148,4411.922852,4455.512695,,,,,,,,,,,,,,,,,,,,,,,,,,,,,,,,,,,,,,,,,,,,,,,,,,,,,,,,,,,,,,,,,,,,,,
1720524541,51,0,4341.922852,4270.512695,4296.410156,4331.666504,4251.025879,4227.436035,4237.179688,4258.589844,4231.410156,4247.179688,4477.436035,4473.846191,4397.436035,4441.153809,,,,,,,,,,,,,,,,,,,,,,,,,,,,,,,,,,,,,,,,,,,,,,,,,,,,,,,,,,,,,,,,,,,,,,
1720524541,52,0,4324.743652,4257.94873,4280.769043,4312.179688,4250.641113,4250.897461,4245.641113,4266.153809,4236.025879,4251.153809,4465.897461,4465.641113,4388.333496,4428.077148,,,,,,,,,,,,,,,,,,,,,,,,,,,,,,,,,,,,,,,,,,,,,,,,,,,,,,,,,,,,,,,,,,,,,,
1720524541,53,0,4311.922852,4248.846191,4271.922852,4301.922852,4250.641113,4269.487305,4251.666504,4260.512695,4233.974121,4249.871582,4452.436035,4457.179688,4374.358887,4414.230957,,,,,,,,,,,,,,,,,,,,,,,,,,,,,,,,,,,,,,,,,,,,,,,,,,,,,,,,,,,,,,,,,,,,,,
1720524541,54,0,4300.384766,4238.333496,4270.128418,4295.769043,4254.102539,4282.692383,4265.128418,4258.846191,4230.128418,4234.358887,4441.410156,4446.410156,4359.102539,4399.743652,,,,,,,,,,,,,,,,,,,,,,,,,,,,,,,,,,,,,,,,,,,,,,,,,,,,,,,,,,,,,,,,,,,,,,
1720524541,55,0,4280.897461,4225.384766,4259.102539,4285.128418,4250,4286.282227,4265.128418,4259.102539,4222.94873,4218.717773,4430.256348,4427.05127,4347.307617,4384.230957,,,,,,,,,,,,,,,,,,,,,,,,,,,,,,,,,,,,,,,,,,,,,,,,,,,,,,,,,,,,,,,,,,,,,,
1720524541,56,0,4259.615234,4209.358887,4243.589844,4272.820313,4236.794922,4280.384766,4250.641113,4257.94873,4219.487305,4220,4419.615234,4413.846191,4334.102539,4369.102539,,,,,,,,,,,,,,,,,,,,,,,,,,,,,,,,,,,,,,,,,,,,,,,,,,,,,,,,,,,,,,,,,,,,,,
1720524541,57,0,4257.563965,4208.974121,4244.871582,4273.974121,4239.230957,4276.153809,4252.307617,4263.077148,4227.94873,4227.05127,4423.461426,4426.153809,4340.641113,4370.512695,,,,,,,,,,,,,,,,,,,,,,,,,,,,,,,,,,,,,,,,,,,,,,,,,,,,,,,,,,,,,,,,,,,,,,
1720524541,58,0,4274.743652,4231.282227,4264.743652,4289.102539,4253.461426,4272.307617,4264.102539,4272.820313,4243.333496,4235,4449.743652,4453.205078,4372.436035,4397.05127,,,,,,,,,,,,,,,,,,,,,,,,,,,,,,,,,,,,,,,,,,,,,,,,,,,,,,,,,,,,,,,,,,,,,,
1720524541,59,0,4284.615234,4240.769043,4278.974121,4295.897461,4251.153809,4261.153809,4260,4280.128418,4259.358887,4249.230957,4472.563965,4472.05127,4391.538574,4413.846191,9.310129,3.807373,1.617057,1.06041,0.303353,1.94396,2.912682,1.122486,0.617594,0.424373,4.646865,5.655083,0.823249,1.202582,0.258691,2.709309,2.952915,0.847992,0.662023,0.391682,0.884987,1.728721,0.692982,0.230013,0.259265,0.443891,1.762706,0.503486,0.345024,0.176438,0.904379,3.421638,0.646178,0.478507,0.238749,0.566365,3.142573,0.39546,0.199175,0.241066,2.446769,5.508169,1.008498,0.639387,0.288669,1.902211,2.896999,0.751585,1.26597,0.59497,3.630381,3.715254,1.587494,1.405872,0.415328,4.752188,5.378954,1.276346,1.627495,0.339707,4.216302,3.703821,1.605822,1.465369,0.43657,9.555256,4.679091,2.253087,1.254081,0.333892
1720524541,60,0,4291.282227,4240.897461,4287.307617,4298.205078,4247.820313,4247.94873,4251.025879,4283.461426,4269.102539,4266.666504,4484.102539,4489.743652,4399.871582,4420.769043,,,,,,,,,,,,,,,,,,,,,,,,,,,,,,,,,,,,,,,,,,,,,,,,,,,,,,,,,,,,,,,,,,,,,,
1720524541,61,0,4310,4257.563965,4301.153809,4314.102539,4257.307617,4231.153809,4245.384766,4277.05127,4266.794922,4283.461426,4494.615234,4509.102539,4414.487305,4439.487305,,,,,,,,,,,,,,,,,,,,,,,,,,,,,,,,,,,,,,,,,,,,,,,,,,,,,,,,,,,,,,,,,,,,,,
1720524541,62,0,4326.922852,4271.538574,4314.615234,4326.538574,4255.256348,4214.487305,4233.333496,4266.922852,4261.282227,4290.384766,4501.153809,4516.922852,4421.538574,4454.615234,,,,,,,,,,,,,,,,,,,,,,,,,,,,,,,,,,,,,,,,,,,,,,,,,,,,,,,,,,,,,,,,,,,,,,
1720524541,63,0,4330,4270.384766,4316.025879,4321.282227,4246.922852,4214.358887,4224.743652,4259.871582,4261.410156,4284.230957,4501.794922,4510.641113,4423.205078,4455.897461,,,,,,,,,,,,,,,,,,,,,,,,,,,,,,,,,,,,,,,,,,,,,,,,,,,,,,,,,,,,,,,,,,,,,,
1720524541,64,0,4316.025879,4264.358887,4306.922852,4310.769043,4253.461426,4226.410156,4227.563965,4257.94873,4258.846191,4274.230957,4494.230957,4497.179688,4419.871582,4447.820313,,,,,,,,,,,,,,,,,,,,,,,,,,,,,,,,,,,,,,,,,,,,,,,,,,,,,,,,,,,,,,,,,,,,,,
1720524541,65,0,4294.871582,4253.461426,4297.179688,4299.487305,4254.615234,4231.410156,4233.846191,4268.846191,4251.025879,4262.179688,4475.512695,4485.641113,4397.436035,4427.179688,,,,,,,,,,,,,,,,,,,,,,,,,,,,,,,,,,,,,,,,,,,,,,,,,,,,,,,,,,,,,,,,,,,,,,
1720524541,66,0,4275.897461,4236.794922,4273.461426,4281.153809,4239.743652,4232.307617,4230.256348,4260.769043,4234.102539,4236.922852,4439.615234,4457.05127,4359.487305,4388.461426,,,,,,,,,,,,,,,,,,,,,,,,,,,,,,,,,,,,,,,,,,,,,,,,,,,,,,,,,,,,,,,,,,,,,,
1720524541,67,0,4249.871582,4215.641113,4236.153809,4257.820313,4228.205078,4237.94873,4217.692383,4236.666504,4208.589844,4209.743652,4403.333496,4416.538574,4328.846191,4353.846191,,,,,,,,,,,,,,,,,,,,,,,,,,,,,,,,,,,,,,,,,,,,,,,,,,,,,,,,,,,,,,,,,,,,,,
1720524541,68,0,4222.563965,4191.282227,4215.512695,4236.025879,4227.94873,4246.666504,4217.179688,4240.384766,4200.769043,4201.666504,4394.102539,4402.94873,4317.692383,4342.94873,,,,,,,,,,,,,,,,,,,,,,,,,,,,,,,,,,,,,,,,,,,,,,,,,,,,,,,,,,,,,,,,,,,,,,
1720524541,69,0,4236.282227,4199.230957,4233.589844,4250.384766,4234.871582,4260.512695,4235.769043,4256.794922,4220.641113,4216.410156,4414.358887,4422.307617,4333.333496,4358.589844,,,,,,,,,,,,,,,,,,,,,,,,,,,,,,,,,,,,,,,,,,,,,,,,,,,,,,,,,,,,,,,,,,,,,,
1720524541,70,0,4284.230957,4240.769043,4267.05127,4294.230957,4243.589844,4272.179688,4250.769043,4259.102539,4235.897461,4238.589844,4441.025879,4448.077148,4357.94873,4387.563965,,,,,,,,,,,,,,,,,,,,,,,,,,,,,,,,,,,,,,,,,,,,,,,,,,,,,,,,,,,,,,,,,,,,,,
1720524541,71,0,4309.487305,4265.512695,4280.641113,4309.358887,4255.384766,4270.256348,4247.179688,4255.641113,4236.666504,4246.538574,4452.307617,4458.846191,4364.871582,4404.230957,,,,,,,,,,,,,,,,,,,,,,,,,,,,,,,,,,,,,,,,,,,,,,,,,,,,,,,,,,,,,,,,,,,,,,
1720524541,72,0,4318.333496,4267.436035,4284.871582,4299.487305,4262.94873,4259.743652,4237.692383,4253.846191,4244.615234,4250.512695,4462.307617,4465.641113,4375.769043,4421.025879,,,,,,,,,,,,,,,,,,,,,,,,,,,,,,,,,,,,,,,,,,,,,,,,,,,,,,,,,,,,,,,,,,,,,,
1720524541,73,0,4336.282227,4268.205078,4301.666504,4303.333496,4257.94873,4249.487305,4233.205078,4257.692383,4250,4262.692383,4481.538574,4484.102539,4404.358887,4449.102539,,,,,,,,,,,,,,,,,,,,,,,,,,,,,,,,,,,,,,,,,,,,,,,,,,,,,,,,,,,,,,,,,,,,,,
1720524541,74,0,4354.230957,4275.512695,4323.974121,4317.563965,4255,4239.102539,4238.974121,4266.025879,4245.512695,4268.974121,4494.102539,4507.820313,4418.333496,4466.410156,,,,,,,,,,,,,,,,,,,,,,,,,,,,,,,,,,,,,,,,,,,,,,,,,,,,,,,,,,,,,,,,,,,,,,
1720524541,75,0,4366.282227,4291.025879,4337.820313,4330.769043,4264.230957,4230.384766,4248.589844,4264.230957,4253.333496,4267.94873,4500.384766,4521.153809,4417.307617,4472.307617,8.78965,4.330513,1.884213,1.050982,0.330429,1.808274,3.160054,1.145314,0.615582,0.389745,5.238097,7.212457,0.899691,1.18885,0.260029,2.553393,3.521936,0.855073,0.679962,0.389243,0.798032,1.768413,0.64833,0.239122,0.238931,0.500449,2.32966,0.471197,0.338596,0.16838,1.159672,4.357583,0.641448,0.428654,0.252067,0.663055,3.140744,0.337887,0.17919,0.238449,2.883547,4.919444,0.975762,0.67468,0.2661,2.342764,2.93266,0.759794,1.319282,0.578791,3.638333,4.118047,1.634439,1.453171,0.432565,4.632226,6.313671,1.335216,1.603026,0.325257,4.403785,4.409583,1.615926,1.625657,0.453887,8.894331,4.838593,2.381343,1.300483,0.332714
1720524541,76,0,4363.717773,4301.153809,4339.487305,4337.436035,4269.871582,4230.897461,4251.794922,4268.077148,4267.94873,4267.05127,4505.256348,4524.743652,4420.512695,4475.769043,,,,,,,,,,,,,,,,,,,,,,,,,,,,,,,,,,,,,,,,,,,,,,,,,,,,,,,,,,,,,,,,,,,,,,
1720524541,77,0,4349.230957,4291.794922,4326.922852,4328.589844,4261.666504,4239.358887,4251.666504,4281.794922,4270.128418,4262.692383,4493.333496,4515,4412.436035,4462.563965,,,,,,,,,,,,,,,,,,,,,,,,,,,,,,,,,,,,,,,,,,,,,,,,,,,,,,,,,,,,,,,,,,,,,,
1720524541,78,0,4337.94873,4280.512695,4307.436035,4314.102539,4253.717773,4248.717773,4251.153809,4276.794922,4265.128418,4250.256348,4465.256348,4488.589844,4382.307617,4434.230957,,,,,,,,,,,,,,,,,,,,,,,,,,,,,,,,,,,,,,,,,,,,,,,,,,,,,,,,,,,,,,,,,,,,,,
1720524541,79,0,4331.282227,4281.666504,4299.743652,4311.282227,4256.794922,4261.153809,4254.230957,4268.974121,4264.102539,4237.436035,4446.538574,4473.461426,4357.179688,4416.666504,,,,,,,,,,,,,,,,,,,,,,,,,,,,,,,,,,,,,,,,,,,,,,,,,,,,,,,,,,,,,,,,,,,,,,
1720524541,80,0,4319.102539,4275,4293.461426,4308.461426,4263.846191,4275.256348,4259.102539,4271.410156,4262.820313,4230.769043,4439.487305,4467.563965,4349.230957,4409.230957,,,,,,,,,,,,,,,,,,,,,,,,,,,,,,,,,,,,,,,,,,,,,,,,,,,,,,,,,,,,,,,,,,,,,,
1720524541,81,0,4313.717773,4261.153809,4283.846191,4301.922852,4263.717773,4279.871582,4262.05127,4269.871582,4255,4231.794922,4435.128418,4459.615234,4347.820313,4404.487305,,,,,,,,,,,,,,,,,,,,,,,,,,,,,,,,,,,,,,,,,,,,,,,,,,,,,,,,,,,,,,,,,,,,,,
1720524541,82,0,4321.282227,4261.282227,4284.230957,4304.487305,4261.153809,4277.94873,4261.282227,4265.128418,4247.563965,4236.538574,4437.563965,4460.256348,4353.205078,4408.717773,,,,,,,,,,,,,,,,,,,,,,,,,,,,,,,,,,,,,,,,,,,,,,,,,,,,,,,,,,,,,,,,,,,,,,
1720524541,83,0,4318.974121,4262.307617,4288.461426,4309.487305,4259.102539,4274.230957,4256.025879,4261.282227,4246.538574,4232.94873,4441.282227,4463.717773,4360.641113,4413.846191,,,,,,,,,,,,,,,,,,,,,,,,,,,,,,,,,,,,,,,,,,,,,,,,,,,,,,,,,,,,,,,,,,,,,,
1720524541,84,0,4314.230957,4254.871582,4290.128418,4306.794922,4253.333496,4264.615234,4248.205078,4258.461426,4246.922852,4224.358887,4441.666504,4465.256348,4361.538574,4416.538574,,,,,,,,,,,,,,,,,,,,,,,,,,,,,,,,,,,,,,,,,,,,,,,,,,,,,,,,,,,,,,,,,,,,,,
1720524541,85,0,4337.05127,4270.128418,4301.666504,4314.743652,4256.153809,4258.589844,4244.102539,4254.615234,4244.615234,4232.05127,4448.333496,4477.94873,4367.563965,4431.025879,,,,,,,,,,,,,,,,,,,,,,,,,,,,,,,,,,,,,,,,,,,,,,,,,,,,,,,,,,,,,,,,,,,,,,
1720524541,86,0,4370.256348,4302.563965,4328.461426,4338.717773,4265.641113,4258.974121,4246.410156,4254.743652,4245.384766,4250,4466.538574,4501.794922,4386.153809,4456.025879,,,,,,,,,,,,,,,,,,,,,,,,,,,,,,,,,,,,,,,,,,,,,,,,,,,,,,,,,,,,,,,,,,,,,,
1720524541,87,0,4376.025879,4312.307617,4338.846191,4347.692383,4264.487305,4251.922852,4244.487305,4254.871582,4246.538574,4252.436035,4472.692383,4505.128418,4391.794922,4462.94873,,,,,,,,,,,,,,,,,,,,,,,,,,,,,,,,,,,,,,,,,,,,,,,,,,,,,,,,,,,,,,,,,,,,,,
1720524541,88,0,4367.05127,4310.256348,4325.128418,4340,4264.487305,4241.282227,4241.282227,4251.025879,4243.461426,4242.179688,4459.102539,4492.563965,4377.94873,4449.230957,,,,,,,,,,,,,,,,,,,,,,,,,,,,,,,,,,,,,,,,,,,,,,,,,,,,,,,,,,,,,,,,,,,,,,
1720524541,89,0,4364.871582,4311.410156,4322.692383,4336.538574,4270.512695,4246.153809,4250.897461,4258.333496,4246.922852,4242.436035,4457.820313,4493.461426,4373.205078,4445.256348,,,,,,,,,,,,,,,,,,,,,,,,,,,,,,,,,,,,,,,,,,,,,,,,,,,,,,,,,,,,,,,,,,,,,,
1720524541,90,0,4352.05127,4299.230957,4322.563965,4331.282227,4269.102539,4258.974121,4262.94873,4272.820313,4253.461426,4248.333496,4464.230957,4494.615234,4373.589844,4444.487305,,,,,,,,,,,,,,,,,,,,,,,,,,,,,,,,,,,,,,,,,,,,,,,,,,,,,,,,,,,,,,,,,,,,,,
1720524541,91,0,4337.436035,4283.461426,4305.769043,4319.615234,4261.282227,4265.384766,4265,4271.282227,4252.692383,4239.230957,4455.897461,4479.358887,4367.94873,4430.897461,8.303042,6.589808,2.123561,1.014383,0.35833,1.792313,4.656727,1.19272,0.623068,0.356189,6.282829,10.415877,1.036642,1.150761,0.272133,2.351366,5.033317,0.889037,0.711114,0.390823,0.728406,1.969384,0.585426,0.252584,0.212001,0.652206,3.576787,0.429401,0.37302,0.160565,1.485664,5.252064,0.648156,0.481147,0.269066,0.775063,2.993903,0.303654,0.186482,0.237814,3.439198,4.561673,0.937254,0.72393,0.243634,2.905493,3.818248,0.806042,1.396929,0.553212,3.806208,6.11653,1.732704,1.472223,0.446627,4.646757,8.889456,1.415952,1.538473,0.315248,4.631275,6.884594,1.662248,1.739168,0.465642,8.400012,7.020944,2.456977,1.309242,0.331165
1720524541,92,0,4326.282227,4276.410156,4292.307617,4310.897461,4257.692383,4270.512695,4262.307617,4260.512695,4250,4222.307617,4443.077148,4463.974121,4363.717773,4418.333496,,,,,,,,,,,,,,,,,,,,,,,,,,,,,,,,,,,,,,,,,,,,,,,,,,,,,,,,,,,,,,,,,,,,,,
1720524541,93,0,4310.128418,4269.487305,4292.563965,4305.769043,4258.205078,4272.820313,4255.512695,4266.666504,4246.153809,4210.641113,4434.487305,4460.512695,4351.282227,4411.025879,,,,,,,,,,,,,,,,,,,,,,,,,,,,,,,,,,,,,,,,,,,,,,,,,,,,,,,,,,,,,,,,,,,,,,
1720524541,94,0,4308.846191,4271.153809,4288.333496,4305.512695,4260.641113,4270,4247.436035,4269.871582,4240.769043,4201.282227,4420.384766,4451.153809,4332.05127,4401.410156,,,,,,,,,,,,,,,,,,,,,,,,,,,,,,,,,,,,,,,,,,,,,,,,,,,,,,,,,,,,,,,,,,,,,,
1720524541,95,0,4317.307617,4274.230957,4286.538574,4307.563965,4265.128418,4271.282227,4255.641113,4263.589844,4244.871582,4207.307617,4416.794922,4445,4331.025879,4398.846191,,,,,,,,,,,,,,,,,,,,,,,,,,,,,,,,,,,,,,,,,,,,,,,,,,,,,,,,,,,,,,,,,,,,,,
1720524541,96,0,4316.666504,4267.563965,4297.05127,4309.102539,4263.717773,4274.615234,4266.153809,4269.743652,4254.102539,4223.077148,4428.846191,4455,4342.179688,4405.641113,,,,,,,,,,,,,,,,,,,,,,,,,,,,,,,,,,,,,,,,,,,,,,,,,,,,,,,,,,,,,,,,,,,,,,
1720524541,97,0,4317.563965,4270.641113,4297.563965,4314.358887,4257.94873,4265.769043,4256.025879,4265.897461,4247.692383,4212.05127,4428.077148,4458.717773,4342.179688,4407.179688,,,,,,,,,,,,,,,,,,,,,,,,,,,,,,,,,,,,,,,,,,,,,,,,,,,,,,,,,,,,,,,,,,,,,,
1720524541,98,0,4327.820313,4285.384766,4293.333496,4317.94873,4258.589844,4250.769043,4240.128418,4255.897461,4234.743652,4194.743652,4424.358887,4455.641113,4339.871582,4410.769043,,,,,,,,,,,,,,,,,,,,,,,,,,,,,,,,,,,,,,,,,,,,,,,,,,,,,,,,,,,,,,,,,,,,,,
1720524541,99,0,4337.179688,4296.410156,4303.717773,4323.589844,4267.307617,4246.025879,4234.102539,4258.974121,4232.692383,4208.974121,4433.205078,4463.461426,4345.897461,4419.230957,,,,,,,,,,,,,,,,,,,,,,,,,,,,,,,,,,,,,,,,,,,,,,,,,,,,,,,,,,,,,,,,,,,,,,
1720524541,100,0,4344.487305,4302.94873,4318.077148,4331.666504,4271.538574,4241.153809,4230.641113,4252.563965,4230.128418,4228.846191,4441.410156,4472.05127,4353.846191,4419.743652,,,,,,,,,,,,,,,,,,,,,,,,,,,,,,,,,,,,,,,,,,,,,,,,,,,,,,,,,,,,,,,,,,,,,,
1720524541,101,0,4347.692383,4306.153809,4322.436035,4335.256348,4267.436035,4235,4231.025879,4243.589844,4229.102539,4230.897461,4445.384766,4472.820313,4362.692383,4422.94873,,,,,,,,,,,,,,,,,,,,,,,,,,,,,,,,,,,,,,,,,,,,,,,,,,,,,,,,,,,,,,,,,,,,,,
1720524541,102,0,4337.692383,4298.077148,4314.358887,4328.461426,4265,4235.641113,4237.307617,4254.102539,4237.94873,4231.410156,4447.436035,4471.794922,4365.769043,4429.615234,,,,,,,,,,,,,,,,,,,,,,,,,,,,,,,,,,,,,,,,,,,,,,,,,,,,,,,,,,,,,,,,,,,,,,
1720524541,103,0,4324.871582,4286.922852,4298.461426,4316.153809,4263.077148,4245,4247.05127,4262.563965,4248.333496,4231.410156,4443.717773,4461.153809,4360.512695,4421.282227,,,,,,,,,,,,,,,,,,,,,,,,,,,,,,,,,,,,,,,,,,,,,,,,,,,,,,,,,,,,,,,,,,,,,,
1720524541,104,0,4310.384766,4278.077148,4286.025879,4311.282227,4259.871582,4258.077148,4258.589844,4264.487305,4251.794922,4222.692383,4437.307617,4448.717773,4357.307617,4407.05127,,,,,,,,,,,,,,,,,,,,,,,,,,,,,,,,,,,,,,,,,,,,,,,,,,,,,,,,,,,,,,,,,,,,,,
1720524541,105,0,4294.102539,4268.333496,4278.974121,4307.307617,4259.230957,4266.153809,4266.153809,4272.820313,4250.641113,4215.128418,4431.282227,4443.974121,4352.05127,4401.282227,,,,,,,,,,,,,,,,,,,,,,,,,,,,,,,,,,,,,,,,,,,,,,,,,,,,,,,,,,,,,,,,,,,,,,
1720524541,106,0,4289.102539,4257.94873,4271.282227,4298.077148,4262.05127,4268.205078,4262.94873,4267.563965,4249.487305,4215,4423.974121,4434.743652,4342.820313,4396.025879,,,,,,,,,,,,,,,,,,,,,,,,,,,,,,,,,,,,,,,,,,,,,,,,,,,,,,,,,,,,,,,,,,,,,,
1720524541,107,0,4290.641113,4246.666504,4269.743652,4287.820313,4258.589844,4264.871582,4252.692383,4261.025879,4249.102539,4216.282227,4423.205078,4431.538574,4338.077148,4391.538574,8.291471,11.42538,2.26626,0.95353,0.380334,1.901847,7.834936,1.204289,0.636757,0.331362,7.543861,15.469113,1.180135,1.098939,0.29135,2.148841,7.71305,0.903383,0.75072,0.39777,0.680463,2.261496,0.509999,0.2682,0.184683,0.969146,5.752543,0.39974,0.455948,0.155239,1.952599,6.050262,0.652158,0.630848,0.282655,0.939752,2.740934,0.285695,0.222768,0.242966,4.126329,4.483065,0.893184,0.772929,0.224436,3.504963,5.93049,0.865637,1.46093,0.52291,4.179266,10.572156,1.790065,1.440162,0.447434,4.93841,13.936183,1.460982,1.43315,0.313657,5.070699,12.019539,1.676926,1.749261,0.463952,8.332444,12.38134,2.419034,1.260285,0.325693
1720524541,108,0,4293.717773,4249.487305,4279.615234,4289.743652,4255.512695,4266.282227,4249.102539,4266.153809,4252.563965,4217.94873,4427.820313,4443.461426,4342.307617,4395.897461,,,,,,,,,,,,,,,,,,,,,,,,,,,,,,,,,,,,,,,,,,,,,,,,,,,,,,,,,,,,,,,,,,,,,,
1720524541,109,0,4298.461426,4265.256348,4285.256348,4302.692383,4260.641113,4270.128418,4251.666504,4263.461426,4251.922852,4218.205078,4427.307617,4446.538574,4346.922852,4398.717773,,,,,,,,,,,,,,,,,,,,,,,,,,,,,,,,,,,,,,,,,,,,,,,,,,,,,,,,,,,,,,,,,,,,,,
1720524541,110,0,4297.436035,4265.512695,4278.077148,4307.436035,4259.743652,4262.307617,4244.102539,4257.179688,4245.256348,4216.025879,4421.922852,4436.153809,4343.333496,4392.436035,,,,,,,,,,,,,,,,,,,,,,,,,,,,,,,,,,,,,,,,,,,,,,,,,,,,,,,,,,,,,,,,,,,,,,
1720524541,111,0,4298.461426,4261.666504,4275.512695,4307.05127,4257.436035,4255.256348,4242.05127,4257.692383,4246.153809,4223.846191,4427.692383,4441.410156,4347.307617,4393.333496,,,,,,,,,,,,,,,,,,,,,,,,,,,,,,,,,,,,,,,,,,,,,,,,,,,,,,,,,,,,,,,,,,,,,,
1720524541,112,0,4312.820313,4277.94873,4289.487305,4312.307617,4262.436035,4260.897461,4254.615234,4262.05127,4247.563965,4232.307617,4443.461426,4460.897461,4362.820313,4405.512695,,,,,,,,,,,,,,,,,,,,,,,,,,,,,,,,,,,,,,,,,,,,,,,,,,,,,,,,,,,,,,,,,,,,,,
1720524541,113,0,4324.358887,4293.077148,4302.307617,4325.897461,4266.922852,4259.615234,4257.307617,4260.769043,4236.410156,4217.692383,4440.512695,4463.205078,4363.717773,4407.436035,,,,,,,,,,,,,,,,,,,,,,,,,,,,,,,,,,,,,,,,,,,,,,,,,,,,,,,,,,,,,,,,,,,,,,
1720524541,114,0,4321.922852,4287.692383,4305.256348,4326.666504,4263.846191,4249.871582,4246.025879,4257.05127,4227.94873,4210.769043,4425,4454.743652,4349.358887,4395.897461,,,,,,,,,,,,,,,,,,,,,,,,,,,,,,,,,,,,,,,,,,,,,,,,,,,,,,,,,,,,,,,,,,,,,,
1720524541,115,0,4313.205078,4280,4303.077148,4313.461426,4261.025879,4254.743652,4248.461426,4261.410156,4237.307617,4227.94873,4422.563965,4455.512695,4347.05127,4386.538574,,,,,,,,,,,,,,,,,,,,,,,,,,,,,,,,,,,,,,,,,,,,,,,,,,,,,,,,,,,,,,,,,,,,,,
1720524541,116,0,4302.820313,4280.769043,4295.897461,4311.410156,4262.94873,4265.256348,4261.538574,4267.820313,4247.179688,4229.230957,4426.922852,4456.025879,4352.820313,4380.769043,,,,,,,,,,,,,,,,,,,,,,,,,,,,,,,,,,,,,,,,,,,,,,,,,,,,,,,,,,,,,,,,,,,,,,
1720524541,117,0,4291.025879,4277.820313,4285.641113,4310.897461,4264.358887,4269.871582,4267.563965,4269.871582,4249.358887,4217.692383,4425.256348,4449.358887,4347.692383,4373.461426,,,,,,,,,,,,,,,,,,,,,,,,,,,,,,,,,,,,,,,,,,,,,,,,,,,,,,,,,,,,,,,,,,,,,,
1720524541,118,0,4279.615234,4265.769043,4274.871582,4298.974121,4264.743652,4272.436035,4262.436035,4266.025879,4248.077148,4219.358887,4420.128418,4437.563965,4338.461426,4362.563965,,,,,,,,,,,,,,,,,,,,,,,,,,,,,,,,,,,,,,,,,,,,,,,,,,,,,,,,,,,,,,,,,,,,,,
1720524541,119,0,4272.436035,4254.358887,4266.410156,4289.230957,4261.922852,4270,4251.922852,4258.461426,4239.358887,4217.307617,4415.641113,4425.641113,4332.94873,4352.563965,,,,,,,,,,,,,,,,,,,,,,,,,,,,,,,,,,,,,,,,,,,,,,,,,,,,,,,,,,,,,,,,,,,,,,
1720524541,120,0,4273.205078,4252.820313,4264.358887,4288.461426,4253.589844,4264.358887,4244.615234,4254.102539,4234.102539,4213.717773,4414.102539,4423.974121,4333.717773,4353.077148,,,,,,,,,,,,,,,,,,,,,,,,,,,,,,,,,,,,,,,,,,,,,,,,,,,,,,,,,,,,,,,,,,,,,,
1720524541,121,0,4274.615234,4252.94873,4266.410156,4283.205078,4243.589844,4262.692383,4240.897461,4260.512695,4233.846191,4218.077148,4413.461426,4428.077148,4334.230957,4354.487305,,,,,,,,,,,,,,,,,,,,,,,,,,,,,,,,,,,,,,,,,,,,,,,,,,,,,,,,,,,,,,,,,,,,,,
1720524541,122,0,4283.846191,4260.128418,4275,4291.282227,4250.897461,4265,4242.05127,4261.282227,4236.025879,4220.384766,4418.589844,4430.512695,4338.717773,4361.538574,,,,,,,,,,,,,,,,,,,,,,,,,,,,,,,,,,,,,,,,,,,,,,,,,,,,,,,,,,,,,,,,,,,,,,
1720524541,123,0,4300.769043,4277.179688,4285.512695,4309.615234,4265.384766,4263.077148,4244.615234,4252.820313,4242.94873,4222.820313,4430.384766,4439.102539,4353.461426,4380.256348,8.935155,18.956039,2.269712,0.883126,0.39239,2.120754,12.622771,1.151246,0.663472,0.319247,8.615979,21.964373,1.275324,1.048639,0.310648,2.007277,11.422602,0.866102,0.799088,0.407387,0.659461,2.525887,0.436044,0.285145,0.163589,1.480526,8.848166,0.395613,0.57107,0.151784,2.602789,6.66713,0.639306,0.836503,0.288437,1.201905,2.448586,0.268665,0.278725,0.254225,4.835677,4.707256,0.840103,0.810059,0.209127,3.966438,9.31203,0.901739,1.468489,0.491874,4.721488,17.69417,1.71641,1.351724,0.426888,5.412063,21.605209,1.413346,1.295097,0.31923,5.644202,19.971214,1.592261,1.634873,0.442476,9.042063,21.228271,2.239196,1.152844,0.312162
1720524541,124,0,4303.846191,4277.179688,4289.871582,4302.436035,4258.461426,4251.666504,4241.410156,4256.153809,4243.717773,4234.487305,4435.384766,4448.205078,4360.256348,4386.410156,,,,,,,,,,,,,,,,,,,,,,,,,,,,,,,,,,,,,,,,,,,,,,,,,,,,,,,,,,,,,,,,,,,,,,
1720524541,125,0,4296.794922,4264.487305,4288.461426,4289.358887,4246.922852,4243.205078,4241.282227,4257.307617,4234.743652,4238.333496,4433.717773,4445.769043,4355.512695,4380.641113,,,,,,,,,,,,,,,,,,,,,,,,,,,,,,,,,,,,,,,,,,,,,,,,,,,,,,,,,,,,,,,,,,,,,,
1720524541,126,0,4296.538574,4264.102539,4286.282227,4295.256348,4253.974121,4250.769043,4250.384766,4253.077148,4230.512695,4227.820313,4433.589844,4445.641113,4355.769043,4383.333496,,,,,,,,,,,,,,,,,,,,,,,,,,,,,,,,,,,,,,,,,,,,,,,,,,,,,,,,,,,,,,,,,,,,,,
1720524541,127,0,4298.205078,4271.666504,4286.410156,4301.922852,4265.384766,4261.025879,4254.230957,4256.282227,4232.820313,4225.641113,4431.666504,4449.487305,4359.102539,4386.538574,,,,,,,,,,,,,,,,,,,,,,,,,,,,,,,,,,,,,,,,,,,,,,,,,,,,,,,,,,,,,,,,,,,,,,
1720524541,0,0,4288.974121,4266.410156,4285,4298.461426,4265.512695,4266.153809,4248.205078,4256.410156,4227.05127,4231.666504,4428.974121,4445.128418,4355.512695,4379.102539,,,,,,,,,,,,,,,,,,,,,,,,,,,,,,,,,,,,,,,,,,,,,,,,,,,,,,,,,,,,,,,,,,,,,,
1720524541,1,0,4269.743652,4249.487305,4271.025879,4288.077148,4257.307617,4269.871582,4246.282227,4251.025879,4218.846191,4220.128418,4422.179688,4432.05127,4342.94873,4363.974121,,,,,,,,,,,,,,,,,,,,,,,,,,,,,,,,,,,,,,,,,,,,,,,,,,,,,,,,,,,,,,,,,,,,,,
1720524541,2,0,4255.256348,4245.384766,4255.256348,4277.307617,4252.436035,4266.794922,4246.282227,4247.05127,4213.589844,4199.743652,4403.333496,4411.794922,4324.743652,4343.461426,,,,,,,,,,,,,,,,,,,,,,,,,,,,,,,,,,,,,,,,,,,,,,,,,,,,,,,,,,,,,,,,,,,,,,
1720524541,3,0,4261.666504,4260.512695,4260.512695,4282.692383,4258.461426,4262.179688,4243.846191,4247.179688,4213.205078,4202.820313,4398.461426,4409.102539,4319.358887,4343.077148,,,,,,,,,,,,,,,,,,,,,,,,,,,,,,,,,,,,,,,,,,,,,,,,,,,,,,,,,,,,,,,,,,,,,,
1720524541,4,0,4274.871582,4270.512695,4276.410156,4299.487305,4263.461426,4262.307617,4248.077148,4256.794922,4221.410156,4220.897461,4414.358887,4432.179688,4330.512695,4362.820313,,,,,,,,,,,,,,,,,,,,,,,,,,,,,,,,,,,,,,,,,,,,,,,,,,,,,,,,,,,,,,,,,,,,,,
1720524541,5,0,4277.307617,4267.436035,4283.333496,4306.025879,4259.743652,4262.94873,4258.205078,4269.230957,4228.205078,4225.769043,4422.94873,4447.692383,4338.461426,4368.846191,,,,,,,,,,,,,,,,,,,,,,,,,,,,,,,,,,,,,,,,,,,,,,,,,,,,,,,,,,,,,,,,,,,,,,
1720524541,6,0,4277.179688,4273.974121,4283.846191,4308.461426,4260.128418,4264.102539,4258.077148,4262.94873,4230.384766,4219.871582,4421.794922,4439.871582,4340.256348,4365.769043,,,,,,,,,,,,,,,,,,,,,,,,,,,,,,,,,,,,,,,,,,,,,,,,,,,,,,,,,,,,,,,,,,,,,,
1720524541,7,0,4276.794922,4281.153809,4282.563965,4304.358887,4263.077148,4260.897461,4246.922852,4252.563965,4230.384766,4216.410156,4419.871582,4435.256348,4337.94873,4366.666504,,,,,,,,,,,,,,,,,,,,,,,,,,,,,,,,,,,,,,,,,,,,,,,,,,,,,,,,,,,,,,,,,,,,,,
1720524541,8,0,4281.282227,4278.717773,4286.153809,4301.025879,4263.333496,4258.077148,4243.846191,4254.358887,4229.743652,4223.333496,4423.589844,4442.563965,4338.589844,4373.974121,,,,,,,,,,,,,,,,,,,,,,,,,,,,,,,,,,,,,,,,,,,,,,,,,,,,,,,,,,,,,,,,,,,,,,
1720524541,9,0,4282.436035,4273.461426,4288.846191,4304.871582,4264.615234,4262.179688,4247.94873,4251.282227,4222.307617,4223.461426,4425.384766,4441.538574,4343.461426,4378.333496,,,,,,,,,,,,,,,,,,,,,,,,,,,,,,,,,,,,,,,,,,,,,,,,,,,,,,,,,,,,,,,,,,,,,,
1720524541,10,0,4269.871582,4265,4280.384766,4300.384766,4262.820313,4263.846191,4245.512695,4248.589844,4216.282227,4213.589844,4417.179688,4431.025879,4338.205078,4371.410156,,,,,,,,,,,,,,,,,,,,,,,,,,,,,,,,,,,,,,,,,,,,,,,,,,,,,,,,,,,,,,,,,,,,,,
1720524541,11,0,4267.94873,4266.794922,4275.128418,4296.666504,4262.179688,4263.846191,4248.333496,4253.717773,4224.230957,4221.282227,4411.922852,4426.153809,4329.358887,4367.692383,10.006537,28.212765,2.163969,0.826228,0.393727,2.368705,18.307335,1.059708,0.716824,0.318911,9.040697,28.808418,1.305829,1.015915,0.32269,1.925321,15.584289,0.790195,0.85827,0.413401,0.654463,2.657815,0.378754,0.303988,0.151887,2.141194,12.476278,0.414478,0.683529,0.147374,3.400779,7.018031,0.607951,1.042663,0.28419,1.556634,2.17785,0.24027,0.340013,0.268221,5.446447,5.185129,0.775428,0.832288,0.195988,4.118673,13.479955,0.912811,1.401138,0.46441,5.220919,26.529274,1.511941,1.227504,0.384337,5.884038,30.855448,1.271049,1.146399,0.326195,6.177825,29.660204,1.422654,1.424915,0.401801,10.044732,32.415977,1.973597,1.011858,0.288633
1720524541,12,0,4277.05127,4276.922852,4278.205078,4304.358887,4264.743652,4267.692383,4259.230957,4262.179688,4233.974121,4231.282227,4419.743652,4434.230957,4333.974121,4377.563965,,,,,,,,,,,,,,,,,,,,,,,,,,,,,,,,,,,,,,,,,,,,,,,,,,,,,,,,,,,,,,,,,,,,,,
1720524541,13,0,4270.641113,4278.461426,4276.153809,4306.410156,4264.615234,4267.05127,4258.077148,4262.05127,4231.153809,4215.384766,4421.025879,4434.615234,4336.153809,4381.153809,,,,,,,,,,,,,,,,,,,,,,,,,,,,,,,,,,,,,,,,,,,,,,,,,,,,,,,,,,,,,,,,,,,,,,
1720524541,14,0,4259.230957,4275.128418,4271.025879,4303.205078,4262.820313,4262.820313,4242.179688,4252.05127,4220.769043,4210.256348,4409.230957,4422.307617,4327.05127,4372.820313,,,,,,,,,,,,,,,,,,,,,,,,,,,,,,,,,,,,,,,,,,,,,,,,,,,,,,,,,,,,,,,,,,,,,,
1720524541,15,0,4256.922852,4275.512695,4272.179688,4304.230957,4263.589844,4262.436035,4231.538574,4249.487305,4218.461426,4228.717773,4406.538574,4419.358887,4323.974121,4369.743652,,,,,,,,,,,,,,,,,,,,,,,,,,,,,,,,,,,,,,,,,,,,,,,,,,,,,,,,,,,,,,,,,,,,,,
1720524541,16,0,4249.615234,4275.512695,4271.025879,4299.102539,4264.487305,4259.871582,4231.025879,4247.692383,4222.94873,4231.538574,4405.512695,4418.077148,4323.974121,4368.846191,,,,,,,,,,,,,,,,,,,,,,,,,,,,,,,,,,,,,,,,,,,,,,,,,,,,,,,,,,,,,,,,,,,,,,
1720524541,17,0,4243.077148,4275.769043,4269.615234,4294.230957,4261.538574,4255.641113,4232.436035,4245,4227.307617,4228.077148,4403.077148,4415.256348,4322.436035,4370,,,,,,,,,,,,,,,,,,,,,,,,,,,,,,,,,,,,,,,,,,,,,,,,,,,,,,,,,,,,,,,,,,,,,,
1720524541,18,0,4250.769043,4276.666504,4277.692383,4301.153809,4261.153809,4258.461426,4239.743652,4254.871582,4232.179688,4240.641113,4415.897461,4426.794922,4329.358887,4381.410156,,,,,,,,,,,,,,,,,,,,,,,,,,,,,,,,,,,,,,,,,,,,,,,,,,,,,,,,,,,,,,,,,,,,,,
1720524541,19,0,4257.94873,4276.410156,4284.102539,4304.102539,4265.256348,4263.077148,4248.589844,4260.512695,4235.512695,4245.256348,4426.794922,4442.94873,4337.94873,4392.820313,,,,,,,,,,,,,,,,,,,,,,,,,,,,,,,,,,,,,,,,,,,,,,,,,,,,,,,,,,,,,,,,,,,,,,
1720524541,20,0,4264.743652,4286.153809,4291.153809,4308.461426,4268.846191,4265,4251.794922,4250.384766,4235,4235.384766,4427.820313,4451.153809,4342.692383,4402.436035,,,,,,,,,,,,,,,,,,,,,,,,,,,,,,,,,,,,,,,,,,,,,,,,,,,,,,,,,,,,,,,,,,,,,,
1720524541,21,0,4269.102539,4288.461426,4297.94873,4310.641113,4263.461426,4261.153809,4245.512695,4246.538574,4223.589844,4221.922852,4426.538574,4453.589844,4344.102539,4406.666504,,,,,,,,,,,,,,,,,,,,,,,,,,,,,,,,,,,,,,,,,,,,,,,,,,,,,,,,,,,,,,,,,,,,,,
1720524541,22,0,4262.563965,4271.410156,4288.333496,4300.641113,4252.94873,4249.487305,4228.077148,4241.794922,4204.871582,4210.512695,4414.102539,4438.333496,4336.025879,4396.666504,,,,,,,,,,,,,,,,,,,,,,,,,,,,,,,,,,,,,,,,,,,,,,,,,,,,,,,,,,,,,,,,,,,,,,
1720524541,23,0,4257.692383,4266.666504,4277.307617,4293.205078,4247.05127,4245.512695,4215,4227.307617,4201.922852,4217.05127,4400.769043,4421.410156,4327.563965,4388.717773,,,,,,,,,,,,,,,,,,,,,,,,,,,,,,,,,,,,,,,,,,,,,,,,,,,,,,,,,,,,,,,,,,,,,,
1720524541,24,0,4261.666504,4277.820313,4282.307617,4294.102539,4247.307617,4246.794922,4214.230957,4237.05127,4212.05127,4229.102539,4411.794922,4434.358887,4330.769043,4396.153809,,,,,,,,,,,,,,,,,,,,,,,,,,,,,,,,,,,,,,,,,,,,,,,,,,,,,,,,,,,,,,,,,,,,,,
1720524541,25,0,4271.025879,4286.666504,4291.666504,4303.205078,4254.230957,4247.436035,4222.436035,4252.563965,4220.641113,4223.589844,4427.436035,4450.128418,4340.769043,4406.922852,,,,,,,,,,,,,,,,,,,,,,,,,,,,,,,,,,,,,,,,,,,,,,,,,,,,,,,,,,,,,,,,,,,,,,
1720524541,26,0,4282.692383,4295.256348,4300.128418,4319.230957,4262.436035,4251.666504,4237.436035,4253.461426,4231.666504,4225.256348,4431.025879,4453.717773,4350.512695,4413.205078,,,,,,,,,,,,,,,,,,,,,,,,,,,,,,,,,,,,,,,,,,,,,,,,,,,,,,,,,,,,,,,,,,,,,,
1720524541,27,0,4281.025879,4302.179688,4307.820313,4323.077148,4264.871582,4256.282227,4251.794922,4262.563965,4241.153809,4241.282227,4436.666504,4461.666504,4352.05127,4411.922852,11.052905,37.305733,2.012478,0.803672,0.386484,2.541528,23.706818,0.970542,0.804732,0.326796,8.581098,34.551659,1.281785,1.012165,0.323566,1.899098,19.326368,0.708901,0.926224,0.410404,0.650668,2.616623,0.345393,0.324878,0.149253,2.801052,15.871896,0.449114,0.755669,0.139537,4.18412,7.031456,0.573418,1.200237,0.270912,1.941509,1.975425,0.208287,0.39256,0.278584,5.783775,5.809381,0.714711,0.846192,0.182828,3.900362,17.512077,0.923632,1.27235,0.443626,5.456919,35.102295,1.261693,1.108363,0.329082,6.064416,39.652073,1.084926,1.019582,0.329329,6.413322,38.931786,1.251462,1.186206,0.351594,11.008139,43.502399,1.723725,0.8786,0.258762
1720524541,28,0,4268.846191,4296.153809,4301.025879,4312.05127,4264.230957,4257.563965,4252.436035,4264.230957,4237.436035,4239.230957,4434.358887,4457.436035,4342.179688,4403.077148,,,,,,,,,,,,,,,,,,,,,,,,,,,,,,,,,,,,,,,,,,,,,,,,,,,,,,,,,,,,,,,,,,,,,,
1720524541,29,0,4262.05127,4282.820313,4289.487305,4305.769043,4261.794922,4259.615234,4247.692383,4256.410156,4230.897461,4230.128418,4422.436035,4444.615234,4335,4399.230957,,,,,,,,,,,,,,,,,,,,,,,,,,,,,,,,,,,,,,,,,,,,,,,,,,,,,,,,,,,,,,,,,,,,,,
1720524541,30,0,4257.94873,4280.256348,4289.615234,4308.717773,4260.256348,4265.512695,4251.922852,4257.05127,4232.307617,4235.512695,4423.333496,4443.333496,4333.846191,4401.025879,,,,,,,,,,,,,,,,,,,,,,,,,,,,,,,,,,,,,,,,,,,,,,,,,,,,,,,,,,,,,,,,,,,,,,
1720524541,31,0,4253.077148,4285.769043,4286.666504,4306.153809,4263.077148,4263.205078,4247.692383,4254.102539,4232.563965,4233.461426,4426.922852,4441.153809,4329.615234,4396.794922,,,,,,,,,,,,,,,,,,,,,,,,,,,,,,,,,,,,,,,,,,,,,,,,,,,,,,,,,,,,,,,,,,,,,,
1720524541,32,0,4260.897461,4288.461426,4284.743652,4301.025879,4265.897461,4249.615234,4235.256348,4250,4231.794922,4234.487305,4427.94873,4443.077148,4335.256348,4403.333496,,,,,,,,,,,,,,,,,,,,,,,,,,,,,,,,,,,,,,,,,,,,,,,,,,,,,,,,,,,,,,,,,,,,,,
1720524541,33,0,4266.922852,4282.820313,4290.128418,4298.717773,4254.102539,4235.256348,4231.025879,4253.589844,4227.820313,4241.666504,4428.846191,4451.666504,4340,4412.820313,,,,,,,,,,,,,,,,,,,,,,,,,,,,,,,,,,,,,,,,,,,,,,,,,,,,,,,,,,,,,,,,,,,,,,
1720524541,34,0,4250.512695,4269.615234,4280.256348,4295,4234.615234,4227.179688,4225.128418,4241.153809,4209.358887,4218.333496,4410.384766,4434.102539,4317.179688,4394.230957,,,,,,,,,,,,,,,,,,,,,,,,,,,,,,,,,,,,,,,,,,,,,,,,,,,,,,,,,,,,,,,,,,,,,,
1720524541,35,0,4237.820313,4261.922852,4269.230957,4290.256348,4231.922852,4229.615234,4222.692383,4230.897461,4198.589844,4194.871582,4396.666504,4420,4304.871582,4379.487305,,,,,,,,,,,,,,,,,,,,,,,,,,,,,,,,,,,,,,,,,,,,,,,,,,,,,,,,,,,,,,,,,,,,,,
1720524541,36,0,4248.974121,4267.563965,4286.666504,4293.846191,4245.512695,4243.717773,4238.717773,4248.077148,4215.384766,4218.077148,4421.410156,4447.94873,4330.641113,4398.461426,,,,,,,,,,,,,,,,,,,,,,,,,,,,,,,,,,,,,,,,,,,,,,,,,,,,,,,,,,,,,,,,,,,,,,
1720524541,37,0,4264.358887,4280.897461,4307.05127,4307.179688,4253.205078,4262.692383,4252.820313,4256.666504,4235,4248.846191,4443.589844,4470.128418,4346.794922,4414.743652,,,,,,,,,,,,,,,,,,,,,,,,,,,,,,,,,,,,,,,,,,,,,,,,,,,,,,,,,,,,,,,,,,,,,,
1720524541,38,0,4263.461426,4280.769043,4299.743652,4308.205078,4249.743652,4266.025879,4246.025879,4252.820313,4233.077148,4247.94873,4432.820313,4460.769043,4334.230957,4405,,,,,,,,,,,,,,,,,,,,,,,,,,,,,,,,,,,,,,,,,,,,,,,,,,,,,,,,,,,,,,,,,,,,,,
1720524542,39,0,4257.692383,4275.512695,4288.333496,4300.641113,4248.846191,4261.282227,4243.589844,4255.641113,4238.717773,4247.94873,4430.384766,4454.615234,4335.769043,4402.692383,,,,,,,,,,,,,,,,,,,,,,,,,,,,,,,,,,,,,,,,,,,,,,,,,,,,,,,,,,,,,,,,,,,,,,
1720524542,40,0,4261.666504,4284.487305,4293.077148,4305.769043,4253.077148,4260,4250.128418,4260.897461,4252.436035,4253.077148,4445.641113,4460.256348,4348.205078,4414.615234,,,,,,,,,,,,,,,,,,,,,,,,,,,,,,,,,,,,,,,,,,,,,,,,,,,,,,,,,,,,,,,,,,,,,,
1720524542,41,0,4263.077148,4294.230957,4299.102539,4312.436035,4257.436035,4253.974121,4246.410156,4262.179688,4242.94873,4239.230957,4441.538574,4458.974121,4340.256348,4411.794922,,,,,,,,,,,,,,,,,,,,,,,,,,,,,,,,,,,,,,,,,,,,,,,,,,,,,,,,,,,,,,,,,,,,,,
1720524542,42,0,4262.563965,4297.692383,4297.820313,4312.436035,4262.820313,4246.922852,4243.846191,4257.307617,4229.615234,4230,4428.461426,4452.94873,4330.384766,4401.410156,,,,,,,,,,,,,,,,,,,,,,,,,,,,,,,,,,,,,,,,,,,,,,,,,,,,,,,,,,,,,,,,,,,,,,
1720524542,43,0,4261.538574,4298.205078,4295.256348,4316.410156,4265.897461,4252.179688,4245.897461,4253.846191,4231.666504,4231.282227,4424.615234,4450.897461,4325.384766,4396.538574,11.332875,43.952309,1.861827,0.816605,0.374151,2.571021,27.498775,0.924774,0.910129,0.338906,7.311136,37.815758,1.22122,1.033362,0.314606,1.875295,21.72422,0.656101,0.987193,0.397315,0.644376,2.424846,0.335799,0.343225,0.153145,3.281857,18.114653,0.49459,0.763909,0.12853,4.753109,6.66924,0.559259,1.277081,0.252341,2.252372,1.85346,0.193223,0.427607,0.279547,5.779209,6.374242,0.682322,0.859048,0.168933,3.378144,20.293774,0.959402,1.119268,0.431795,5.268677,41.037273,1.059813,1.026965,0.275893,5.760733,45.600536,0.923447,0.94126,0.327471,6.170425,45.220497,1.154852,0.984885,0.305582,11.237066,51.476879,1.553641,0.784096,0.231033
1720524542,44,0,4253.205078,4298.205078,4289.615234,4320.769043,4266.282227,4257.563965,4245.897461,4251.666504,4229.487305,4227.820313,4419.487305,4445.769043,4313.974121,4386.025879,,,,,,,,,,,,,,,,,,,,,,,,,,,,,,,,,,,,,,,,,,,,,,,,,,,,,,,,,,,,,,,,,,,,,,
1720524542,45,0,4245.512695,4295.641113,4284.102539,4313.974121,4263.077148,4253.974121,4244.743652,4248.077148,4222.820313,4225.256348,4415.769043,4439.102539,4310.897461,4375.128418,,,,,,,,,,,,,,,,,,,,,,,,,,,,,,,,,,,,,,,,,,,,,,,,,,,,,,,,,,,,,,,,,,,,,,
1720524542,46,0,4248.846191,4293.974121,4290.641113,4312.692383,4259.102539,4256.410156,4246.282227,4254.487305,4228.077148,4231.282227,4428.717773,4446.410156,4327.820313,4386.282227,,,,,,,,,,,,,,,,,,,,,,,,,,,,,,,,,,,,,,,,,,,,,,,,,,,,,,,,,,,,,,,,,,,,,,
1720524542,47,0,4253.589844,4295.256348,4299.102539,4318.974121,4256.922852,4258.974121,4249.102539,4264.743652,4237.307617,4236.153809,4441.282227,4461.666504,4339.487305,4400.641113,,,,,,,,,,,,,,,,,,,,,,,,,,,,,,,,,,,,,,,,,,,,,,,,,,,,,,,,,,,,,,,,,,,,,,
1720524542,48,0,4248.461426,4294.358887,4290.769043,4314.487305,4253.974121,4253.717773,4249.230957,4254.743652,4237.05127,4233.333496,4431.666504,4455.769043,4332.179688,4392.692383,,,,,,,,,,,,,,,,,,,,,,,,,,,,,,,,,,,,,,,,,,,,,,,,,,,,,,,,,,,,,,,,,,,,,,
1720524542,49,0,4243.717773,4288.974121,4280,4307.307617,4249.358887,4246.025879,4243.333496,4247.179688,4233.846191,4230.641113,4421.922852,4443.205078,4324.871582,4382.436035,,,,,,,,,,,,,,,,,,,,,,,,,,,,,,,,,,,,,,,,,,,,,,,,,,,,,,,,,,,,,,,,,,,,,,
1720524542,50,0,4244.743652,4282.692383,4285,4308.717773,4247.05127,4237.692383,4234.615234,4258.974121,4233.974121,4233.461426,4427.307617,4453.077148,4326.025879,4385,,,,,,,,,,,,,,,,,,,,,,,,,,,,,,,,,,,,,,,,,,,,,,,,,,,,,,,,,,,,,,,,,,,,,,
1720524542,51,0,4246.922852,4287.05127,4292.307617,4315.128418,4249.615234,4238.077148,4234.230957,4255.384766,4235,4235.897461,4433.974121,4463.333496,4328.974121,4390,,,,,,,,,,,,,,,,,,,,,,,,,,,,,,,,,,,,,,,,,,,,,,,,,,,,,,,,,,,,,,,,,,,,,,
1720524542,52,0,4246.922852,4289.871582,4292.820313,4316.666504,4249.102539,4246.538574,4235.256348,4245.897461,4232.692383,4225.256348,4430.897461,4456.538574,4326.666504,4388.589844,,,,,,,,,,,,,,,,,,,,,,,,,,,,,,,,,,,,,,,,,,,,,,,,,,,,,,,,,,,,,,,,,,,,,,
1720524542,53,0,4242.179688,4280.641113,4288.974121,4310.769043,4247.436035,4247.307617,4231.282227,4247.307617,4227.05127,4209.358887,4422.692383,4448.461426,4319.487305,4378.846191,,,,,,,,,,,,,,,,,,,,,,,,,,,,,,,,,,,,,,,,,,,,,,,,,,,,,,,,,,,,,,,,,,,,,,
1720524542,54,0,4237.179688,4277.820313,4286.538574,4307.820313,4255.769043,4249.871582,4237.05127,4250.512695,4230.897461,4213.974121,4425.128418,4448.589844,4320.256348,4371.922852,,,,,,,,,,,,,,,,,,,,,,,,,,,,,,,,,,,,,,,,,,,,,,,,,,,,,,,,,,,,,,,,,,,,,,
1720524542,55,0,4233.077148,4284.487305,4291.538574,4312.563965,4262.820313,4263.077148,4252.179688,4259.358887,4247.05127,4227.179688,4434.871582,4452.05127,4325.769043,4374.358887,,,,,,,,,,,,,,,,,,,,,,,,,,,,,,,,,,,,,,,,,,,,,,,,,,,,,,,,,,,,,,,,,,,,,,
1720524542,56,0,4230.256348,4280.641113,4292.05127,4310.256348,4254.615234,4260.641113,4255.384766,4260.641113,4250.512695,4224.871582,4432.820313,4446.538574,4322.307617,4368.717773,,,,,,,,,,,,,,,,,,,,,,,,,,,,,,,,,,,,,,,,,,,,,,,,,,,,,,,,,,,,,,,,,,,,,,
1720524542,57,0,4226.794922,4269.358887,4282.179688,4301.666504,4245.641113,4244.358887,4245.384766,4250.512695,4232.692383,4213.205078,4420.256348,4433.974121,4313.077148,4353.333496,,,,,,,,,,,,,,,,,,,,,,,,,,,,,,,,,,,,,,,,,,,,,,,,,,,,,,,,,,,,,,,,,,,,,,
1720524542,58,0,4227.692383,4271.153809,4282.436035,4303.077148,4250.769043,4245.769043,4248.205078,4253.589844,4228.205078,4211.025879,4420.897461,4436.666504,4317.94873,4356.025879,,,,,,,,,,,,,,,,,,,,,,,,,,,,,,,,,,,,,,,,,,,,,,,,,,,,,,,,,,,,,,,,,,,,,,
1720524542,59,0,4240,4279.871582,4296.153809,4310.512695,4262.820313,4257.05127,4259.871582,4265.384766,4242.05127,4217.563965,4433.589844,4453.589844,4333.717773,4377.307617,10.511737,46.297009,1.722093,0.847075,0.357808,2.424273,28.654058,0.93494,0.994837,0.349974,5.558966,37.688538,1.151687,1.059186,0.297897,1.842472,22.096979,0.646317,1.018123,0.375792,0.623518,2.132636,0.341562,0.352749,0.159484,3.441628,18.520447,0.555245,0.709899,0.115927,4.913461,5.956573,0.616574,1.272416,0.231028,2.381428,1.780955,0.211915,0.44487,0.267769,5.376749,6.599327,0.700683,0.874784,0.154254,2.689684,20.931978,1.030462,0.979304,0.430459,4.624906,42.457691,0.962113,0.988186,0.235299,4.922919,46.823208,0.839872,0.922595,0.32135,5.419154,46.558578,1.165002,0.853868,0.272066,10.39707,53.909744,1.470245,0.73706,0.212601
1720524542,60,0,4250.641113,4283.589844,4297.563965,4313.205078,4265.384766,4254.871582,4256.153809,4260.128418,4239.871582,4216.538574,4434.743652,4454.102539,4336.922852,4383.589844,,,,,,,,,,,,,,,,,,,,,,,,,,,,,,,,,,,,,,,,,,,,,,,,,,,,,,,,,,,,,,,,,,,,,,
1720524542,61,0,4259.615234,4281.794922,4292.94873,4311.538574,4254.615234,4245.769043,4245.256348,4251.794922,4227.563965,4209.230957,4427.563965,4445.641113,4332.820313,4380.512695,,,,,,,,,,,,,,,,,,,,,,,,,,,,,,,,,,,,,,,,,,,,,,,,,,,,,,,,,,,,,,,,,,,,,,
1720524542,62,0,4270.384766,4278.846191,4299.871582,4309.358887,4246.538574,4246.410156,4245.512695,4250.769043,4231.153809,4211.538574,4436.153809,4451.025879,4344.743652,4396.794922,,,,,,,,,,,,,,,,,,,,,,,,,,,,,,,,,,,,,,,,,,,,,,,,,,,,,,,,,,,,,,,,,,,,,,
1720524542,63,0,4280.641113,4281.025879,4308.205078,4311.794922,4249.743652,4251.282227,4252.179688,4254.358887,4235.897461,4213.717773,4452.692383,4461.666504,4359.230957,4420.512695,,,,,,,,,,,,,,,,,,,,,,,,,,,,,,,,,,,,,,,,,,,,,,,,,,,,,,,,,,,,,,,,,,,,,,
1720524542,64,0,4298.461426,4292.179688,4315,4321.666504,4249.102539,4248.205078,4250,4262.179688,4231.538574,4210.512695,4453.461426,4466.410156,4353.974121,4425.256348,,,,,,,,,,,,,,,,,,,,,,,,,,,,,,,,,,,,,,,,,,,,,,,,,,,,,,,,,,,,,,,,,,,,,,
1720524542,65,0,4308.589844,4295.256348,4320,4326.282227,4244.102539,4243.589844,4245.641113,4261.025879,4235.128418,4219.615234,4457.307617,4471.282227,4356.922852,4422.179688,,,,,,,,,,,,,,,,,,,,,,,,,,,,,,,,,,,,,,,,,,,,,,,,,,,,,,,,,,,,,,,,,,,,,,
1720524542,66,0,4302.692383,4290.641113,4325.256348,4324.230957,4252.692383,4251.538574,4254.230957,4262.692383,4250,4235.256348,4478.717773,4486.410156,4380.641113,4434.743652,,,,,,,,,,,,,,,,,,,,,,,,,,,,,,,,,,,,,,,,,,,,,,,,,,,,,,,,,,,,,,,,,,,,,,
1720524542,67,0,4300.769043,4295.769043,4328.461426,4328.333496,4263.846191,4262.05127,4265.384766,4266.794922,4253.077148,4225.641113,4477.820313,4487.436035,4376.025879,4436.282227,,,,,,,,,,,,,,,,,,,,,,,,,,,,,,,,,,,,,,,,,,,,,,,,,,,,,,,,,,,,,,,,,,,,,,
1720524542,68,0,4307.820313,4300,4325.128418,4335.384766,4263.205078,4264.487305,4266.025879,4260,4238.846191,4200.256348,4453.205078,4473.077148,4351.666504,4421.410156,,,,,,,,,,,,,,,,,,,,,,,,,,,,,,,,,,,,,,,,,,,,,,,,,,,,,,,,,,,,,,,,,,,,,,
1720524542,69,0,4310.641113,4298.461426,4327.820313,4338.077148,4261.410156,4269.743652,4268.205078,4261.666504,4236.538574,4205.512695,4453.717773,4485.897461,4358.717773,4423.717773,,,,,,,,,,,,,,,,,,,,,,,,,,,,,,,,,,,,,,,,,,,,,,,,,,,,,,,,,,,,,,,,,,,,,,
1720524542,70,0,4309.358887,4302.692383,4338.333496,4343.846191,4266.282227,4276.153809,4279.358887,4270,4251.025879,4232.563965,4474.230957,4504.743652,4371.922852,4430.897461,,,,,,,,,,,,,,,,,,,,,,,,,,,,,,,,,,,,,,,,,,,,,,,,,,,,,,,,,,,,,,,,,,,,,,
1720524542,71,0,4303.205078,4302.307617,4335.256348,4343.333496,4267.05127,4270,4279.743652,4271.666504,4252.692383,4233.717773,4475.512695,4492.563965,4358.333496,4415.128418,,,,,,,,,,,,,,,,,,,,,,,,,,,,,,,,,,,,,,,,,,,,,,,,,,,,,,,,,,,,,,,,,,,,,,
1720524542,72,0,4291.922852,4291.282227,4318.846191,4330.512695,4260.769043,4259.487305,4268.974121,4270.256348,4244.487305,4221.153809,4466.666504,4477.692383,4352.94873,4402.94873,,,,,,,,,,,,,,,,,,,,,,,,,,,,,,,,,,,,,,,,,,,,,,,,,,,,,,,,,,,,,,,,,,,,,,
1720524542,73,0,4288.077148,4285.769043,4316.025879,4323.589844,4253.717773,4257.179688,4263.589844,4271.282227,4246.794922,4223.974121,4465.512695,4482.820313,4361.282227,4408.077148,,,,,,,,,,,,,,,,,,,,,,,,,,,,,,,,,,,,,,,,,,,,,,,,,,,,,,,,,,,,,,,,,,,,,,
1720524542,74,0,4290.512695,4289.615234,4323.461426,4324.615234,4248.077148,4257.307617,4260.641113,4267.820313,4246.666504,4223.205078,4462.436035,4483.717773,4349.358887,4399.230957,,,,,,,,,,,,,,,,,,,,,,,,,,,,,,,,,,,,,,,,,,,,,,,,,,,,,,,,,,,,,,,,,,,,,,
1720524542,75,0,4295.769043,4293.461426,4326.025879,4326.538574,4253.205078,4260.897461,4263.461426,4263.846191,4237.94873,4212.307617,4461.025879,4486.282227,4341.666504,4392.05127,8.536318,43.715214,1.584118,0.870444,0.336896,2.176444,26.867222,0.975331,1.024624,0.355442,3.787615,34.122799,1.108249,1.062884,0.277538,1.763827,20.303772,0.666194,1.002583,0.349063,0.588445,1.810684,0.34609,0.352489,0.165575,3.227831,16.938763,0.646313,0.62044,0.104197,4.581362,4.99911,0.79492,1.212051,0.210194,2.280878,1.72244,0.274579,0.452693,0.246018,4.660415,6.332035,0.789872,0.892829,0.141457,2.011698,19.203661,1.150039,0.876015,0.442241,3.660671,38.871937,0.985257,0.977057,0.215245,3.751637,42.860893,0.874056,0.954578,0.317306,4.295381,42.490555,1.273814,0.789191,0.254828,8.53582,50.061489,1.453416,0.727939,0.208945
1720524542,76,0,4304.871582,4295,4329.871582,4335.512695,4263.205078,4271.410156,4273.077148,4268.333496,4244.871582,4222.436035,4472.94873,4502.563965,4359.743652,4410.641113,,,,,,,,,,,,,,,,,,,,,,,,,,,,,,,,,,,,,,,,,,,,,,,,,,,,,,,,,,,,,,,,,,,,,,
1720524542,77,0,4314.358887,4299.487305,4340.897461,4345.512695,4264.871582,4279.358887,4281.794922,4279.615234,4261.794922,4245.769043,4488.461426,4518.589844,4374.871582,4430,,,,,,,,,,,,,,,,,,,,,,,,,,,,,,,,,,,,,,,,,,,,,,,,,,,,,,,,,,,,,,,,,,,,,,
1720524542,78,0,4319.102539,4303.589844,4350.384766,4341.794922,4263.333496,4276.794922,4287.692383,4288.333496,4264.102539,4248.846191,4491.153809,4528.846191,4370,4432.692383,,,,,,,,,,,,,,,,,,,,,,,,,,,,,,,,,,,,,,,,,,,,,,,,,,,,,,,,,,,,,,,,,,,,,,
1720524542,79,0,4316.538574,4298.974121,4349.102539,4336.153809,4264.230957,4272.563965,4289.358887,4281.666504,4259.487305,4236.025879,4485.256348,4526.794922,4363.589844,4427.820313,,,,,,,,,,,,,,,,,,,,,,,,,,,,,,,,,,,,,,,,,,,,,,,,,,,,,,,,,,,,,,,,,,,,,,
1720524542,80,0,4311.794922,4295,4345,4338.846191,4262.692383,4272.692383,4288.077148,4282.436035,4261.153809,4231.666504,4485.897461,4522.563965,4367.05127,4424.743652,,,,,,,,,,,,,,,,,,,,,,,,,,,,,,,,,,,,,,,,,,,,,,,,,,,,,,,,,,,,,,,,,,,,,,
1720524542,81,0,4302.820313,4296.153809,4342.436035,4334.615234,4259.230957,4270,4281.282227,4291.794922,4256.794922,4233.589844,4485.897461,4520.384766,4363.589844,4417.436035,,,,,,,,,,,,,,,,,,,,,,,,,,,,,,,,,,,,,,,,,,,,,,,,,,,,,,,,,,,,,,,,,,,,,,
1720524542,82,0,4297.94873,4292.94873,4342.820313,4332.436035,4261.538574,4267.94873,4280.641113,4285.128418,4251.153809,4228.974121,4479.102539,4517.436035,4354.615234,4408.846191,,,,,,,,,,,,,,,,,,,,,,,,,,,,,,,,,,,,,,,,,,,,,,,,,,,,,,,,,,,,,,,,,,,,,,
1720524542,83,0,4306.282227,4291.410156,4353.589844,4340.256348,4265.641113,4276.538574,4290.128418,4282.820313,4256.282227,4235.897461,4484.230957,4527.692383,4360,4414.358887,,,,,,,,,,,,,,,,,,,,,,,,,,,,,,,,,,,,,,,,,,,,,,,,,,,,,,,,,,,,,,,,,,,,,,
1720524542,84,0,4306.282227,4292.692383,4355.128418,4335.512695,4264.615234,4280.897461,4288.974121,4281.282227,4257.436035,4249.743652,4493.205078,4534.358887,4368.205078,4422.307617,,,,,,,,,,,,,,,,,,,,,,,,,,,,,,,,,,,,,,,,,,,,,,,,,,,,,,,,,,,,,,,,,,,,,,
1720524542,85,0,4298.461426,4291.025879,4342.307617,4322.94873,4259.358887,4270.384766,4278.846191,4271.538574,4242.692383,4241.282227,4485.256348,4524.230957,4363.077148,4416.153809,,,,,,,,,,,,,,,,,,,,,,,,,,,,,,,,,,,,,,,,,,,,,,,,,,,,,,,,,,,,,,,,,,,,,,
1720524542,86,0,4300.384766,4292.307617,4340.897461,4327.820313,4258.974121,4263.974121,4279.615234,4274.358887,4233.333496,4227.05127,4476.410156,4517.179688,4355.384766,4406.922852,,,,,,,,,,,,,,,,,,,,,,,,,,,,,,,,,,,,,,,,,,,,,,,,,,,,,,,,,,,,,,,,,,,,,,
1720524542,87,0,4302.436035,4296.282227,4345.384766,4339.230957,4262.820313,4270.769043,4290.641113,4285,4240.897461,4230.641113,4472.179688,4514.487305,4349.230957,4401.794922,,,,,,,,,,,,,,,,,,,,,,,,,,,,,,,,,,,,,,,,,,,,,,,,,,,,,,,,,,,,,,,,,,,,,,
1720524542,88,0,4300.128418,4299.487305,4339.230957,4340.641113,4265.512695,4277.563965,4293.974121,4282.692383,4246.922852,4234.230957,4464.102539,4503.717773,4343.589844,4397.563965,,,,,,,,,,,,,,,,,,,,,,,,,,,,,,,,,,,,,,,,,,,,,,,,,,,,,,,,,,,,,,,,,,,,,,
1720524542,89,0,4296.410156,4296.794922,4331.538574,4336.282227,4265.256348,4277.94873,4287.692383,4284.743652,4244.487305,4229.487305,4461.153809,4497.05127,4340.897461,4395.384766,,,,,,,,,,,,,,,,,,,,,,,,,,,,,,,,,,,,,,,,,,,,,,,,,,,,,,,,,,,,,,,,,,,,,,
1720524542,90,0,4281.538574,4282.05127,4319.230957,4320.512695,4261.538574,4276.153809,4279.743652,4285.897461,4240.128418,4224.358887,4455.512695,4487.692383,4331.666504,4385.128418,,,,,,,,,,,,,,,,,,,,,,,,,,,,,,,,,,,,,,,,,,,,,,,,,,,,,,,,,,,,,,,,,,,,,,
1720524542,91,0,4271.922852,4274.230957,4311.025879,4314.615234,4260.897461,4278.077148,4284.615234,4280.256348,4243.974121,4227.820313,4450.641113,4480.641113,4326.666504,4377.307617,6.107984,37.052589,1.420585,0.866707,0.311577,1.942017,22.675753,0.99957,0.984354,0.352656,2.390341,27.977573,1.104564,1.024782,0.2602,1.675113,16.807886,0.68759,0.937644,0.320446,0.548693,1.531895,0.33979,0.347099,0.170124,2.701142,13.827053,0.793855,0.532914,0.096286,3.825236,3.959019,1.116672,1.127753,0.192869,1.979707,1.647671,0.377947,0.459611,0.222028,3.752213,5.602004,0.953755,0.907125,0.136124,1.495243,15.639594,1.314611,0.814845,0.468936,2.625616,31.389561,1.082227,0.970772,0.221627,2.579374,34.894352,1.020016,1.013691,0.324956,3.096672,34.273468,1.408996,0.761553,0.255933,6.256855,41.202686,1.43586,0.736156,0.223605
1720524542,92,0,4279.230957,4279.871582,4321.666504,4323.846191,4264.487305,4281.922852,4298.333496,4289.487305,4249.358887,4232.820313,4460.256348,4493.077148,4333.589844,4384.487305,,,,,,,,,,,,,,,,,,,,,,,,,,,,,,,,,,,,,,,,,,,,,,,,,,,,,,,,,,,,,,,,,,,,,,
1720524542,93,0,4280.128418,4277.436035,4327.436035,4319.871582,4262.94873,4279.487305,4296.153809,4287.05127,4247.436035,4223.846191,4463.974121,4501.410156,4334.871582,4387.820313,,,,,,,,,,,,,,,,,,,,,,,,,,,,,,,,,,,,,,,,,,,,,,,,,,,,,,,,,,,,,,,,,,,,,,
1720524542,94,0,4278.077148,4272.692383,4327.94873,4313.589844,4260.769043,4270.384766,4288.717773,4278.333496,4245,4220.128418,4460,4503.461426,4335.384766,4387.05127,,,,,,,,,,,,,,,,,,,,,,,,,,,,,,,,,,,,,,,,,,,,,,,,,,,,,,,,,,,,,,,,,,,,,,
1720524542,95,0,4286.410156,4282.94873,4343.589844,4321.538574,4269.487305,4266.410156,4291.153809,4288.461426,4245.769043,4239.615234,4469.230957,4516.282227,4343.333496,4395.512695,,,,,,,,,,,,,,,,,,,,,,,,,,,,,,,,,,,,,,,,,,,,,,,,,,,,,,,,,,,,,,,,,,,,,,
1720524542,96,0,4299.358887,4297.563965,4363.846191,4335.641113,4282.692383,4274.743652,4297.179688,4291.538574,4251.025879,4257.05127,4487.179688,4531.282227,4354.358887,4407.94873,,,,,,,,,,,,,,,,,,,,,,,,,,,,,,,,,,,,,,,,,,,,,,,,,,,,,,,,,,,,,,,,,,,,,,
1720524542,97,0,4298.589844,4294.743652,4361.666504,4338.589844,4280.897461,4282.307617,4298.205078,4281.410156,4250.256348,4248.974121,4489.358887,4533.077148,4359.743652,4407.436035,,,,,,,,,,,,,,,,,,,,,,,,,,,,,,,,,,,,,,,,,,,,,,,,,,,,,,,,,,,,,,,,,,,,,,
1720524542,98,0,4281.410156,4277.307617,4339.487305,4322.179688,4266.538574,4280.128418,4292.436035,4274.230957,4241.922852,4233.205078,4471.666504,4517.179688,4351.153809,4392.563965,,,,,,,,,,,,,,,,,,,,,,,,,,,,,,,,,,,,,,,,,,,,,,,,,,,,,,,,,,,,,,,,,,,,,,
1720524542,99,0,4274.615234,4268.077148,4327.563965,4309.871582,4262.05127,4278.077148,4290.897461,4279.358887,4242.05127,4230,4457.820313,4504.743652,4338.461426,4384.230957,,,,,,,,,,,,,,,,,,,,,,,,,,,,,,,,,,,,,,,,,,,,,,,,,,,,,,,,,,,,,,,,,,,,,,
1720524542,100,0,4276.282227,4268.717773,4328.461426,4308.589844,4267.179688,4281.794922,4294.487305,4286.922852,4246.794922,4234.102539,4453.717773,4503.205078,4332.05127,4382.307617,,,,,,,,,,,,,,,,,,,,,,,,,,,,,,,,,,,,,,,,,,,,,,,,,,,,,,,,,,,,,,,,,,,,,,
1720524542,101,0,4266.282227,4260.512695,4322.05127,4300.769043,4266.794922,4284.871582,4295.512695,4285.256348,4243.077148,4229.230957,4451.025879,4492.307617,4327.179688,4372.820313,,,,,,,,,,,,,,,,,,,,,,,,,,,,,,,,,,,,,,,,,,,,,,,,,,,,,,,,,,,,,,,,,,,,,,
1720524542,102,0,4256.666504,4248.589844,4317.563965,4294.358887,4262.436035,4283.461426,4295,4280.256348,4238.974121,4216.538574,4447.436035,4483.077148,4321.666504,4365.128418,,,,,,,,,,,,,,,,,,,,,,,,,,,,,,,,,,,,,,,,,,,,,,,,,,,,,,,,,,,,,,,,,,,,,,
1720524542,103,0,4260,4246.666504,4325.128418,4300,4260,4280.256348,4295.128418,4280.769043,4241.410156,4211.282227,4445.384766,4486.922852,4319.358887,4366.538574,,,,,,,,,,,,,,,,,,,,,,,,,,,,,,,,,,,,,,,,,,,,,,,,,,,,,,,,,,,,,,,,,,,,,,
1720524542,104,0,4268.077148,4251.922852,4328.717773,4296.538574,4260.897461,4277.692383,4293.333496,4282.436035,4245.384766,4212.94873,4447.179688,4491.025879,4323.205078,4371.025879,,,,,,,,,,,,,,,,,,,,,,,,,,,,,,,,,,,,,,,,,,,,,,,,,,,,,,,,,,,,,,,,,,,,,,
1720524542,105,0,4283.077148,4264.230957,4338.333496,4298.461426,4268.974121,4283.974121,4301.153809,4291.153809,4258.077148,4224.615234,4468.589844,4510.256348,4343.974121,4393.846191,,,,,,,,,,,,,,,,,,,,,,,,,,,,,,,,,,,,,,,,,,,,,,,,,,,,,,,,,,,,,,,,,,,,,,
1720524542,106,0,4298.974121,4275,4354.230957,4315.256348,4274.102539,4292.94873,4318.461426,4307.94873,4276.282227,4242.05127,4496.153809,4541.025879,4367.436035,4418.333496,,,,,,,,,,,,,,,,,,,,,,,,,,,,,,,,,,,,,,,,,,,,,,,,,,,,,,,,,,,,,,,,,,,,,,
1720524542,107,0,4308.717773,4283.589844,4361.153809,4328.077148,4276.025879,4292.436035,4328.333496,4305.897461,4287.307617,4258.333496,4507.436035,4557.05127,4378.077148,4428.205078,4.008896,28.2157,1.209008,0.832814,0.282729,1.847809,17.207693,0.96843,0.886804,0.33992,1.527476,20.677616,1.123825,0.94424,0.250531,1.604168,12.485515,0.692034,0.839423,0.290881,0.519434,1.34611,0.329704,0.346578,0.172483,2.033897,10.070131,1.009584,0.48132,0.093854,2.877746,3.009449,1.548076,1.0394,0.180773,1.567084,1.530591,0.500942,0.468089,0.203966,2.836922,4.587858,1.169699,0.910769,0.144361,1.177967,11.279927,1.497986,0.794311,0.507457,1.748736,22.216724,1.184837,0.957345,0.255641,1.66799,25.185453,1.222536,1.075381,0.349939,2.098731,24.306219,1.49095,0.74393,0.276956,4.268272,30.030064,1.358022,0.747459,0.256324
1720524542,108,0,4318.846191,4293.333496,4371.410156,4336.153809,4283.077148,4288.974121,4330.897461,4297.563965,4290.769043,4272.820313,4512.563965,4565.769043,4387.436035,4440.641113,,,,,,,,,,,,,,,,,,,,,,,,,,,,,,,,,,,,,,,,,,,,,,,,,,,,,,,,,,,,,,,,,,,,,,
1720524542,109,0,4318.717773,4289.102539,4377.692383,4331.922852,4282.307617,4288.717773,4328.205078,4299.615234,4281.922852,4273.974121,4511.153809,4566.282227,4388.589844,4442.692383,,,,,,,,,,,,,,,,,,,,,,,,,,,,,,,,,,,,,,,,,,,,,,,,,,,,,,,,,,,,,,,,,,,,,,
1720524542,110,0,4304.358887,4272.94873,4366.794922,4317.179688,4280.384766,4293.589844,4322.692383,4294.487305,4273.077148,4262.436035,4505.897461,4551.025879,4382.436035,4429.102539,,,,,,,,,,,,,,,,,,,,,,,,,,,,,,,,,,,,,,,,,,,,,,,,,,,,,,,,,,,,,,,,,,,,,,
1720524542,111,0,4296.794922,4272.563965,4363.205078,4318.333496,4288.589844,4305.641113,4328.717773,4294.615234,4284.743652,4262.307617,4512.436035,4550,4389.102539,4427.692383,,,,,,,,,,,,,,,,,,,,,,,,,,,,,,,,,,,,,,,,,,,,,,,,,,,,,,,,,,,,,,,,,,,,,,
1720524542,112,0,4299.102539,4277.820313,4369.615234,4328.333496,4287.179688,4315.897461,4335.769043,4306.666504,4302.563965,4277.563965,4518.717773,4557.179688,4393.589844,4431.282227,,,,,,,,,,,,,,,,,,,,,,,,,,,,,,,,,,,,,,,,,,,,,,,,,,,,,,,,,,,,,,,,,,,,,,
1720524542,113,0,4293.974121,4269.615234,4360,4321.025879,4277.179688,4310.256348,4330.897461,4304.358887,4306.922852,4282.307617,4508.846191,4541.410156,4382.307617,4420.641113,,,,,,,,,,,,,,,,,,,,,,,,,,,,,,,,,,,,,,,,,,,,,,,,,,,,,,,,,,,,,,,,,,,,,,
1720524542,114,0,4278.589844,4260.769043,4343.974121,4303.846191,4282.05127,4298.333496,4324.615234,4297.179688,4297.05127,4268.974121,4494.743652,4523.846191,4369.102539,4408.589844,,,,,,,,,,,,,,,,,,,,,,,,,,,,,,,,,,,,,,,,,,,,,,,,,,,,,,,,,,,,,,,,,,,,,,
1720524542,115,0,4260.384766,4252.820313,4335.897461,4289.871582,4281.025879,4291.922852,4317.436035,4299.358887,4283.717773,4249.102539,4485,4520.128418,4358.205078,4400.384766,,,,,,,,,,,,,,,,,,,,,,,,,,,,,,,,,,,,,,,,,,,,,,,,,,,,,,,,,,,,,,,,,,,,,,
1720524542,116,0,4251.538574,4244.358887,4332.179688,4285.641113,4266.282227,4289.358887,4311.153809,4292.179688,4281.794922,4240.128418,4482.820313,4522.179688,4357.563965,4397.820313,,,,,,,,,,,,,,,,,,,,,,,,,,,,,,,,,,,,,,,,,,,,,,,,,,,,,,,,,,,,,,,,,,,,,,
1720524542,117,0,4258.077148,4245.128418,4340.897461,4290.384766,4264.871582,4288.974121,4314.487305,4295.897461,4290.897461,4253.461426,4496.922852,4537.179688,4374.615234,4411.666504,,,,,,,,,,,,,,,,,,,,,,,,,,,,,,,,,,,,,,,,,,,,,,,,,,,,,,,,,,,,,,,,,,,,,,
1720524542,118,0,4264.358887,4253.461426,4356.025879,4296.922852,4267.94873,4286.410156,4319.487305,4307.820313,4298.589844,4269.615234,4509.615234,4552.179688,4383.974121,4419.102539,,,,,,,,,,,,,,,,,,,,,,,,,,,,,,,,,,,,,,,,,,,,,,,,,,,,,,,,,,,,,,,,,,,,,,
1720524542,119,0,4258.974121,4257.692383,4362.179688,4304.102539,4260.641113,4285.384766,4320.256348,4297.94873,4303.205078,4268.333496,4509.615234,4551.666504,4380.641113,4411.410156,,,,,,,,,,,,,,,,,,,,,,,,,,,,,,,,,,,,,,,,,,,,,,,,,,,,,,,,,,,,,,,,,,,,,,
1720524542,120,0,4255.897461,4260.128418,4372.05127,4310.641113,4263.077148,4288.333496,4331.922852,4307.692383,4311.282227,4269.615234,4517.307617,4565,4391.153809,4418.589844,,,,,,,,,,,,,,,,,,,,,,,,,,,,,,,,,,,,,,,,,,,,,,,,,,,,,,,,,,,,,,,,,,,,,,
1720524542,121,0,4266.410156,4272.179688,4387.05127,4319.230957,4278.974121,4295,4350.641113,4321.282227,4321.025879,4284.230957,4530.769043,4582.179688,4405.256348,4436.153809,,,,,,,,,,,,,,,,,,,,,,,,,,,,,,,,,,,,,,,,,,,,,,,,,,,,,,,,,,,,,,,,,,,,,,
1720524542,122,0,4268.974121,4277.307617,4388.717773,4321.025879,4281.922852,4299.871582,4352.94873,4309.615234,4315.512695,4277.307617,4529.871582,4579.102539,4402.563965,4433.333496,,,,,,,,,,,,,,,,,,,,,,,,,,,,,,,,,,,,,,,,,,,,,,,,,,,,,,,,,,,,,,,,,,,,,,
1720524542,123,0,4249.487305,4266.282227,4377.692383,4313.589844,4271.666504,4302.563965,4344.487305,4307.436035,4296.666504,4250.641113,4515.897461,4567.692383,4390.769043,4413.077148,2.881472,19.411383,0.977384,0.780721,0.253733,1.936567,11.731978,0.875158,0.764131,0.317655,1.13054,13.747275,1.139395,0.837117,0.251605,1.588975,8.303465,0.683631,0.7362,0.26234,0.514054,1.27564,0.336074,0.358368,0.17295,1.411636,6.601969,1.278115,0.481855,0.09785,1.996952,2.289027,2.013981,0.950401,0.176322,1.144335,1.375111,0.61768,0.473597,0.19671,2.042856,3.565771,1.393196,0.899961,0.169874,1.034161,7.238461,1.654483,0.81623,0.55068,1.166421,13.755418,1.244921,0.942584,0.314066,1.154973,16.177507,1.408294,1.120276,0.39107,1.473546,15.144475,1.476657,0.730603,0.318407,3.075985,19.559011,1.214505,0.761631,0.303185
1720524542,124,0,4230.769043,4257.05127,4363.846191,4308.205078,4273.717773,4309.358887,4341.538574,4295.641113,4289.102539,4242.94873,4497.307617,4545.384766,4377.692383,4393.333496,,,,,,,,,,,,,,,,,,,,,,,,,,,,,,,,,,,,,,,,,,,,,,,,,,,,,,,,,,,,,,,,,,,,,,
1720524542,125,0,4223.461426,4251.282227,4357.94873,4301.666504,4283.077148,4312.179688,4342.692383,4287.436035,4294.102539,4250.256348,4487.94873,4532.820313,4368.077148,4379.615234,,,,,,,,,,,,,,,,,,,,,,,,,,,,,,,,,,,,,,,,,,,,,,,,,,,,,,,,,,,,,,,,,,,,,,
1720524542,126,0,4208.077148,4236.025879,4351.153809,4284.230957,4274.230957,4310.256348,4340.384766,4304.230957,4298.461426,4249.230957,4486.666504,4532.692383,4360.641113,4365,,,,,,,,,,,,,,,,,,,,,,,,,,,,,,,,,,,,,,,,,,,,,,,,,,,,,,,,,,,,,,,,,,,,,,
1720524542,127,0,4197.563965,4230.256348,4345.512695,4276.666504,4262.820313,4314.615234,4344.230957,4314.358887,4316.153809,4255.512695,4490.769043,4526.410156,4360.769043,4362.563965,,,,,,,,,,,,,,,,,,,,,,,,,,,,,,,,,,,,,,,,,,,,,,,,,,,,,,,,,,,,,,,,,,,,,,
1720524542,0,0,4204.871582,4240.128418,4352.179688,4286.666504,4273.717773,4318.846191,4355.641113,4317.692383,4341.538574,4276.666504,4505.384766,4534.487305,4375.256348,4379.102539,,,,,,,,,,,,,,,,,,,,,,,,,,,,,,,,,,,,,,,,,,,,,,,,,,,,,,,,,,,,,,,,,,,,,,
1720524542,1,0,4205.256348,4239.230957,4355.769043,4285,4280.512695,4314.102539,4359.358887,4316.282227,4348.974121,4283.589844,4514.487305,4548.461426,4385.897461,4386.922852,,,,,,,,,,,,,,,,,,,,,,,,,,,,,,,,,,,,,,,,,,,,,,,,,,,,,,,,,,,,,,,,,,,,,,
1720524542,2,0,4187.05127,4226.153809,4346.410156,4270.384766,4266.922852,4304.230957,4351.538574,4310.641113,4341.282227,4269.615234,4504.358887,4543.974121,4374.743652,4372.563965,,,,,,,,,,,,,,,,,,,,,,,,,,,,,,,,,,,,,,,,,,,,,,,,,,,,,,,,,,,,,,,,,,,,,,
1720524542,3,0,4169.615234,4213.589844,4341.794922,4258.974121,4257.05127,4294.871582,4341.282227,4311.794922,4335,4257.820313,4492.692383,4535.512695,4358.846191,4357.05127,,,,,,,,,,,,,,,,,,,,,,,,,,,,,,,,,,,,,,,,,,,,,,,,,,,,,,,,,,,,,,,,,,,,,,
1720524542,4,0,4169.230957,4210.256348,4352.436035,4257.179688,4259.871582,4289.615234,4343.077148,4314.487305,4338.846191,4265.641113,4502.436035,4543.846191,4366.410156,4359.358887,,,,,,,,,,,,,,,,,,,,,,,,,,,,,,,,,,,,,,,,,,,,,,,,,,,,,,,,,,,,,,,,,,,,,,
1720524542,5,0,4187.692383,4227.05127,4376.410156,4274.487305,4269.102539,4295.256348,4360.769043,4321.538574,4351.794922,4283.589844,4529.743652,4574.230957,4396.282227,4385.128418,,,,,,,,,,,,,,,,,,,,,,,,,,,,,,,,,,,,,,,,,,,,,,,,,,,,,,,,,,,,,,,,,,,,,,
1720524542,6,0,4208.333496,4251.794922,4399.871582,4295.897461,4284.230957,4305.128418,4379.230957,4334.358887,4358.589844,4289.615234,4548.077148,4606.025879,4418.205078,4413.461426,,,,,,,,,,,,,,,,,,,,,,,,,,,,,,,,,,,,,,,,,,,,,,,,,,,,,,,,,,,,,,,,,,,,,,
1720524542,7,0,4203.846191,4252.820313,4397.05127,4290,4292.05127,4306.153809,4382.563965,4325,4344.102539,4279.358887,4538.589844,4600.384766,4411.922852,4410.641113,,,,,,,,,,,,,,,,,,,,,,,,,,,,,,,,,,,,,,,,,,,,,,,,,,,,,,,,,,,,,,,,,,,,,,
1720524542,8,0,4188.333496,4235.769043,4380.897461,4276.666504,4284.615234,4306.282227,4378.974121,4307.692383,4328.461426,4263.205078,4525.384766,4576.153809,4399.487305,4395.769043,,,,,,,,,,,,,,,,,,,,,,,,,,,,,,,,,,,,,,,,,,,,,,,,,,,,,,,,,,,,,,,,,,,,,,
1720524542,9,0,4179.871582,4228.589844,4371.282227,4278.461426,4278.846191,4313.717773,4382.563965,4313.461426,4329.615234,4249.871582,4519.743652,4568.461426,4391.922852,4389.615234,,,,,,,,,,,,,,,,,,,,,,,,,,,,,,,,,,,,,,,,,,,,,,,,,,,,,,,,,,,,,,,,,,,,,,
1720524542,10,0,4167.05127,4232.692383,4361.666504,4271.410156,4280.128418,4323.589844,4385.641113,4316.666504,4335,4247.179688,4508.974121,4561.538574,4380.769043,4379.487305,,,,,,,,,,,,,,,,,,,,,,,,,,,,,,,,,,,,,,,,,,,,,,,,,,,,,,,,,,,,,,,,,,,,,,
1720524542,11,0,4157.05127,4231.538574,4359.871582,4260,4279.102539,4325.897461,4380.641113,4315.897461,4339.487305,4256.666504,4506.538574,4552.692383,4381.025879,4371.282227,2.799407,12.378884,0.796727,0.718647,0.229116,2.137715,7.257653,0.768402,0.645257,0.288841,0.997487,8.394218,1.140627,0.721653,0.263436,1.60054,5.010645,0.688175,0.6486,0.238325,0.539797,1.305396,0.367137,0.378123,0.172076,0.960177,4.017834,1.537878,0.524339,0.108062,1.356564,1.822083,2.38789,0.851991,0.180666,0.803513,1.209254,0.702722,0.467959,0.199709,1.45637,2.774078,1.557288,0.874256,0.209477,0.976947,4.296103,1.736059,0.883989,0.588907,0.878852,7.708807,1.240909,0.932347,0.385769,1.010029,9.672368,1.53257,1.129464,0.437475,1.247471,8.55724,1.368459,0.721521,0.374594,2.80172,11.960411,1.046567,0.775006,0.354983
1720524542,12,0,4159.871582,4228.077148,4369.358887,4266.922852,4276.153809,4321.282227,4375.641113,4323.846191,4346.666504,4265.897461,4518.461426,4561.153809,4395.769043,4380.128418,,,,,,,,,,,,,,,,,,,,,,,,,,,,,,,,,,,,,,,,,,,,,,,,,,,,,,,,,,,,,,,,,,,,,,
1720524542,13,0,4170.641113,4239.230957,4384.358887,4282.692383,4278.461426,4321.410156,4380.769043,4329.230957,4360,4273.717773,4533.717773,4580,4408.589844,4396.282227,,,,,,,,,,,,,,,,,,,,,,,,,,,,,,,,,,,,,,,,,,,,,,,,,,,,,,,,,,,,,,,,,,,,,,
1720524542,14,0,4181.410156,4253.205078,4400.769043,4292.820313,4281.282227,4322.692383,4386.666504,4331.666504,4370.769043,4278.205078,4544.487305,4596.282227,4417.820313,4408.846191,,,,,,,,,,,,,,,,,,,,,,,,,,,,,,,,,,,,,,,,,,,,,,,,,,,,,,,,,,,,,,,,,,,,,,
1720524542,15,0,4186.025879,4250,4411.025879,4292.563965,4279.871582,4314.743652,4380.128418,4329.487305,4372.563965,4275.769043,4552.307617,4606.282227,4430.769043,4420.769043,,,,,,,,,,,,,,,,,,,,,,,,,,,,,,,,,,,,,,,,,,,,,,,,,,,,,,,,,,,,,,,,,,,,,,
1720524542,16,0,4184.615234,4248.846191,4419.743652,4290.641113,4286.794922,4305.769043,4378.589844,4330.512695,4378.974121,4284.358887,4562.820313,4615.897461,4442.05127,4432.05127,,,,,,,,,,,,,,,,,,,,,,,,,,,,,,,,,,,,,,,,,,,,,,,,,,,,,,,,,,,,,,,,,,,,,,
1720524542,17,0,4190.128418,4266.025879,4437.05127,4305.769043,4303.717773,4315.128418,4398.077148,4343.589844,4394.102539,4297.05127,4575.512695,4636.282227,4451.153809,4444.615234,,,,,,,,,,,,,,,,,,,,,,,,,,,,,,,,,,,,,,,,,,,,,,,,,,,,,,,,,,,,,,,,,,,,,,
1720524542,18,0,4190.128418,4269.743652,4443.974121,4318.589844,4308.589844,4325.512695,4417.05127,4346.666504,4396.666504,4284.871582,4579.230957,4650.256348,4456.025879,4449.743652,,,,,,,,,,,,,,,,,,,,,,,,,,,,,,,,,,,,,,,,,,,,,,,,,,,,,,,,,,,,,,,,,,,,,,
1720524542,19,0,4161.282227,4245.128418,4425.384766,4298.333496,4298.589844,4318.077148,4414.102539,4328.974121,4381.794922,4270.384766,4568.589844,4632.436035,4447.307617,4435.512695,,,,,,,,,,,,,,,,,,,,,,,,,,,,,,,,,,,,,,,,,,,,,,,,,,,,,,,,,,,,,,,,,,,,,,
1720524542,20,0,4130.897461,4229.743652,4409.102539,4279.102539,4290.769043,4312.692383,4403.589844,4326.153809,4374.230957,4279.487305,4557.820313,4610.641113,4438.205078,4413.333496,,,,,,,,,,,,,,,,,,,,,,,,,,,,,,,,,,,,,,,,,,,,,,,,,,,,,,,,,,,,,,,,,,,,,,
1720524542,21,0,4125,4235.641113,4404.487305,4280,4289.743652,4321.666504,4403.461426,4330.512695,4370.769043,4272.436035,4545.128418,4603.461426,4428.077148,4390.256348,,,,,,,,,,,,,,,,,,,,,,,,,,,,,,,,,,,,,,,,,,,,,,,,,,,,,,,,,,,,,,,,,,,,,,
1720524542,22,0,4119.487305,4231.666504,4398.461426,4272.94873,4290.256348,4332.307617,4409.487305,4321.794922,4364.615234,4246.922852,4531.410156,4596.666504,4411.025879,4367.692383,,,,,,,,,,,,,,,,,,,,,,,,,,,,,,,,,,,,,,,,,,,,,,,,,,,,,,,,,,,,,,,,,,,,,,
1720524542,23,0,4103.077148,4218.205078,4395.512695,4260.769043,4291.666504,4341.922852,4418.205078,4325,4368.717773,4249.743652,4532.820313,4597.179688,4411.410156,4364.615234,,,,,,,,,,,,,,,,,,,,,,,,,,,,,,,,,,,,,,,,,,,,,,,,,,,,,,,,,,,,,,,,,,,,,,
1720524542,24,0,4088.205078,4213.077148,4392.436035,4255.512695,4291.922852,4351.922852,4424.230957,4333.717773,4377.307617,4264.743652,4544.230957,4605,4428.589844,4374.743652,,,,,,,,,,,,,,,,,,,,,,,,,,,,,,,,,,,,,,,,,,,,,,,,,,,,,,,,,,,,,,,,,,,,,,
1720524542,25,0,4081.666748,4214.358887,4390.256348,4255.641113,4292.179688,4351.538574,4428.077148,4338.205078,4384.230957,4260.256348,4549.102539,4611.282227,4431.410156,4374.230957,,,,,,,,,,,,,,,,,,,,,,,,,,,,,,,,,,,,,,,,,,,,,,,,,,,,,,,,,,,,,,,,,,,,,,
