Timestamp,EEG.Counter,EEG.Interpolated,EEG.AF3,EEG.F7,EEG.F3,EEG.FC5,EEG.T7,EEG.P7,EEG.O1,EEG.O2,EEG.P8,EEG.T8,EEG.FC6,EEG.F4,EEG.F8,EEG.AF4,POW.AF3.Theta,POW.AF3.Alpha,POW.AF3.BetaL,POW.AF3.BetaH,POW.AF3.Gamma,POW.F7.Theta,POW.F7.Alpha,POW.F7.BetaL,POW.F7.BetaH,POW.F7.Gamma,POW.F3.Theta,POW.F3.Alpha,POW.F3.BetaL,POW.F3.BetaH,POW.F3.Gamma,POW.FC5.Theta,POW.FC5.Alpha,POW.FC5.BetaL,POW.FC5.BetaH,POW.FC5.Gamma,POW.T7.Theta,POW.T7.Alpha,POW.T7.BetaL,POW.T7.BetaH,POW.T7.Gamma,POW.P7.Theta,POW.P7.Alpha,POW.P7.BetaL,POW.P7.BetaH,POW.P7.Gamma,POW.O1.Theta,POW.O1.Alpha,POW.O1.BetaL,POW.O1.BetaH,POW.O1.Gamma,POW.O2.Theta,POW.O2.Alpha,POW.O2.BetaL,POW.O2.BetaH,POW.O2.Gamma,POW.P8.Theta,POW.P8.Alpha,POW.P8.BetaL,POW.P8.BetaH,POW.P8.Gamma,POW.T8.Theta,POW.T8.Alpha,POW.T8.BetaL,POW.T8.BetaH,POW.T8.Gamma,POW.FC6.Theta,POW.FC6.Alpha,POW.FC6.BetaL,POW.FC6.BetaH,POW.FC6.Gamma,POW.F4.Theta,POW.F4.Alpha,POW.F4.BetaL,POW.F4.BetaH,POW.F4.Gamma,POW.F8.Theta,POW.F8.Alpha,POW.F8.BetaL,POW.F8.BetaH,POW.F8.Gamma,POW.AF4.Theta,POW.AF4.Alpha,POW.AF4.BetaL,POW.AF4.BetaH,POW.AF4.Gamma
1720514474,98,0,4311.538574,4295.256348,4301.025879,4308.205078,4279.102539,4254.230957,4235.641113,4317.436035,4309.102539,4221.153809,4451.282227,4372.436035,4341.282227,4372.307617,,,,,,,,,,,,,,,,,,,,,,,,,,,,,,,,,,,,,,,,,,,,,,,,,,,,,,,,,,,,,,,,,,,,,,
1720514474,99,0,4308.717773,4292.820313,4296.410156,4305.384766,4277.179688,4259.615234,4233.205078,4314.615234,4309.487305,4213.461426,4441.025879,4364.230957,4329.358887,4359.487305,,,,,,,,,,,,,,,,,,,,,,,,,,,,,,,,,,,,,,,,,,,,,,,,,,,,,,,,,,,,,,,,,,,,,,
1720514474,100,0,4300.256348,4292.692383,4293.461426,4308.077148,4272.179688,4263.846191,4235.128418,4317.179688,4301.025879,4207.820313,4433.846191,4362.436035,4321.922852,4359.487305,,,,,,,,,,,,,,,,,,,,,,,,,,,,,,,,,,,,,,,,,,,,,,,,,,,,,,,,,,,,,,,,,,,,,,
1720514474,101,0,4293.717773,4287.692383,4297.436035,4307.436035,4273.461426,4264.871582,4237.05127,4320.512695,4301.794922,4214.615234,4440.256348,4365.897461,4330.769043,4365.128418,,,,,,,,,,,,,,,,,,,,,,,,,,,,,,,,,,,,,,,,,,,,,,,,,,,,,,,,,,,,,,,,,,,,,,
1720514474,102,0,4290.769043,4283.333496,4296.794922,4297.179688,4277.820313,4261.282227,4233.077148,4319.487305,4304.102539,4218.846191,4448.333496,4369.743652,4335.128418,4369.743652,,,,,,,,,,,,,,,,,,,,,,,,,,,,,,,,,,,,,,,,,,,,,,,,,,,,,,,,,,,,,,,,,,,,,,
1720514474,103,0,4294.871582,4285.512695,4294.487305,4295.384766,4277.820313,4259.487305,4231.666504,4315.256348,4294.871582,4213.077148,4441.538574,4370.897461,4326.025879,4383.974121,,,,,,,,,,,,,,,,,,,,,,,,,,,,,,,,,,,,,,,,,,,,,,,,,,,,,,,,,,,,,,,,,,,,,,
1720514474,104,0,4307.820313,4286.794922,4299.230957,4304.102539,4275.128418,4256.794922,4234.358887,4316.538574,4291.922852,4215.641113,4441.282227,4372.563965,4328.717773,4409.358887,,,,,,,,,,,,,,,,,,,,,,,,,,,,,,,,,,,,,,,,,,,,,,,,,,,,,,,,,,,,,,,,,,,,,,
1720514474,105,0,4309.615234,4281.153809,4302.05127,4303.461426,4274.871582,4250.512695,4233.974121,4326.794922,4294.871582,4220.641113,4448.717773,4375.641113,4332.436035,4437.179688,,,,,,,,,,,,,,,,,,,,,,,,,,,,,,,,,,,,,,,,,,,,,,,,,,,,,,,,,,,,,,,,,,,,,,
1720514474,106,0,4298.846191,4279.487305,4298.589844,4301.410156,4279.358887,4246.794922,4231.538574,4331.153809,4286.025879,4212.179688,4439.615234,4376.794922,4316.282227,4464.615234,,,,,,,,,,,,,,,,,,,,,,,,,,,,,,,,,,,,,,,,,,,,,,,,,,,,,,,,,,,,,,,,,,,,,,
1720514474,107,0,4293.717773,4282.05127,4301.666504,4306.922852,4277.94873,4248.077148,4234.230957,4327.307617,4276.794922,4207.820313,4435.512695,4375.769043,4311.282227,4491.794922,,,,,,,,,,,,,,,,,,,,,,,,,,,,,,,,,,,,,,,,,,,,,,,,,,,,,,,,,,,,,,,,,,,,,,
1720514474,108,0,4288.589844,4278.461426,4302.820313,4302.94873,4269.487305,4247.05127,4236.153809,4333.461426,4277.94873,4213.589844,4447.820313,4376.666504,4324.871582,4513.077148,4.821966,0.65673,0.815662,0.401774,0.225237,1.454251,0.66673,0.175946,0.183245,0.103518,2.666762,0.525401,0.845647,0.314269,0.13231,1.027242,0.454417,0.184162,0.148816,0.156282,0.992568,0.309093,0.075061,0.088353,0.125152,0.583999,0.14371,0.334379,0.150047,0.11734,1.256388,0.384148,0.309406,0.176769,0.078465,0.704601,0.353863,0.213288,0.255611,0.201038,2.934694,1.425904,0.433222,0.39317,0.229986,3.611377,1.87203,1.336448,0.54209,0.149899,4.879354,2.896988,0.622029,1.022199,0.208186,5.282479,1.274763,0.927888,0.529608,0.228343,6.731814,2.912904,0.448752,0.670175,0.164794,34.579967,10.280927,1.758527,1.013166,0.483007
1720514474,109,0,4278.717773,4276.153809,4293.333496,4293.333496,4268.717773,4246.153809,4233.717773,4338.974121,4280.641113,4216.410156,4449.230957,4376.666504,4328.077148,4523.589844,,,,,,,,,,,,,,,,,,,,,,,,,,,,,,,,,,,,,,,,,,,,,,,,,,,,,,,,,,,,,,,,,,,,,,
1720514474,110,0,4279.230957,4279.615234,4289.871582,4291.922852,4278.846191,4248.461426,4233.461426,4331.153809,4280.512695,4217.436035,4440.256348,4371.666504,4323.461426,4535.897461,,,,,,,,,,,,,,,,,,,,,,,,,,,,,,,,,,,,,,,,,,,,,,,,,,,,,,,,,,,,,,,,,,,,,,
1720514474,111,0,4287.05127,4278.461426,4293.974121,4297.692383,4280.769043,4248.205078,4234.615234,4339.230957,4280.256348,4220.384766,4444.743652,4380.641113,4326.410156,4560.512695,,,,,,,,,,,,,,,,,,,,,,,,,,,,,,,,,,,,,,,,,,,,,,,,,,,,,,,,,,,,,,,,,,,,,,
1720514474,112,0,4286.410156,4278.461426,4294.230957,4305.128418,4271.794922,4245.256348,4231.153809,4345.897461,4275,4219.102539,4446.794922,4385.897461,4329.230957,4574.230957,,,,,,,,,,,,,,,,,,,,,,,,,,,,,,,,,,,,,,,,,,,,,,,,,,,,,,,,,,,,,,,,,,,,,,
1720514474,113,0,4281.666504,4281.025879,4293.974121,4303.205078,4268.589844,4245.641113,4229.743652,4331.922852,4265,4212.820313,4430.256348,4372.05127,4326.153809,4570,,,,,,,,,,,,,,,,,,,,,,,,,,,,,,,,,,,,,,,,,,,,,,,,,,,,,,,,,,,,,,,,,,,,,,
1720514474,114,0,4280.128418,4278.461426,4295.512695,4295.897461,4271.794922,4248.333496,4232.436035,4340,4266.282227,4212.307617,4426.282227,4375.256348,4322.94873,4578.333496,,,,,,,,,,,,,,,,,,,,,,,,,,,,,,,,,,,,,,,,,,,,,,,,,,,,,,,,,,,,,,,,,,,,,,
1720514474,115,0,4280.769043,4280.897461,4294.230957,4295.641113,4274.358887,4249.358887,4232.307617,4352.307617,4271.025879,4215.641113,4438.589844,4388.846191,4322.94873,4593.974121,,,,,,,,,,,,,,,,,,,,,,,,,,,,,,,,,,,,,,,,,,,,,,,,,,,,,,,,,,,,,,,,,,,,,,
1720514474,116,0,4285.128418,4287.94873,4294.358887,4298.333496,4270.897461,4248.461426,4232.563965,4348.333496,4265,4217.692383,4445.769043,4390.256348,4330.256348,4603.077148,,,,,,,,,,,,,,,,,,,,,,,,,,,,,,,,,,,,,,,,,,,,,,,,,,,,,,,,,,,,,,,,,,,,,,
1720514474,117,0,4290,4285,4291.282227,4295.512695,4265.641113,4245.769043,4232.05127,4352.307617,4258.333496,4220,4445.641113,4393.974121,4333.461426,4613.974121,,,,,,,,,,,,,,,,,,,,,,,,,,,,,,,,,,,,,,,,,,,,,,,,,,,,,,,,,,,,,,,,,,,,,,
1720514474,118,0,4290.256348,4277.692383,4287.692383,4292.307617,4263.589844,4244.230957,4230.128418,4356.410156,4260.256348,4219.487305,4449.743652,4400.256348,4331.153809,4622.94873,,,,,,,,,,,,,,,,,,,,,,,,,,,,,,,,,,,,,,,,,,,,,,,,,,,,,,,,,,,,,,,,,,,,,,
1720514474,119,0,4289.743652,4277.05127,4294.230957,4293.077148,4261.410156,4248.205078,4232.820313,4357.307617,4264.615234,4221.410156,4452.820313,4401.538574,4335.256348,4626.794922,,,,,,,,,,,,,,,,,,,,,,,,,,,,,,,,,,,,,,,,,,,,,,,,,,,,,,,,,,,,,,,,,,,,,,
1720514474,120,0,4295.128418,4286.282227,4298.974121,4304.871582,4267.179688,4250.641113,4233.077148,4366.794922,4262.820313,4225.769043,4447.563965,4405.256348,4341.153809,4636.410156,,,,,,,,,,,,,,,,,,,,,,,,,,,,,,,,,,,,,,,,,,,,,,,,,,,,,,,,,,,,,,,,,,,,,,
1720514474,121,0,4297.05127,4290.769043,4296.282227,4313.461426,4274.487305,4245.641113,4232.692383,4363.717773,4260.512695,4222.820313,4447.820313,4406.538574,4341.153809,4645.512695,,,,,,,,,,,,,,,,,,,,,,,,,,,,,,,,,,,,,,,,,,,,,,,,,,,,,,,,,,,,,,,,,,,,,,
1720514474,122,0,4290.512695,4280.256348,4302.820313,4301.410156,4270.897461,4248.717773,4243.846191,4355.641113,4268.846191,4220.256348,4457.307617,4411.666504,4340,4652.563965,,,,,,,,,,,,,,,,,,,,,,,,,,,,,,,,,,,,,,,,,,,,,,,,,,,,,,,,,,,,,,,,,,,,,,
1720514474,123,0,4289.743652,4278.717773,4311.153809,4295.769043,4270.128418,4259.487305,4250.897461,4370.769043,4280.384766,4228.589844,4463.846191,4426.666504,4343.333496,4664.230957,,,,,,,,,,,,,,,,,,,,,,,,,,,,,,,,,,,,,,,,,,,,,,,,,,,,,,,,,,,,,,,,,,,,,,
1720514474,124,0,4299.102539,4296.922852,4309.102539,4310.128418,4280.384766,4258.333496,4243.333496,4374.102539,4281.538574,4236.282227,4460.769043,4424.230957,4343.077148,4670.384766,5.921168,0.755811,1.070633,0.44085,0.244778,1.429571,0.624117,0.206762,0.176361,0.111003,3.027189,0.619261,0.799647,0.300789,0.131891,1.059988,0.383509,0.183899,0.1531,0.151051,1.072544,0.311596,0.118806,0.094212,0.12337,0.651556,0.212486,0.330688,0.166939,0.122491,1.364222,0.364701,0.293739,0.173553,0.07193,1.059941,0.474484,0.225618,0.272312,0.197657,3.887067,1.3831,0.363682,0.400944,0.213057,3.655354,1.647172,1.084327,0.580877,0.164968,4.715059,2.57457,0.588271,1.071531,0.200448,5.533964,1.462119,1.002701,0.523949,0.219552,6.967289,2.826362,0.424417,0.694505,0.160105,35.847198,9.490655,1.531354,0.875864,0.420286
1720514474,125,0,4308.333496,4301.538574,4307.179688,4310.769043,4274.615234,4250.128418,4242.94873,4367.820313,4284.871582,4232.820313,4458.077148,4413.589844,4335.641113,4671.794922,,,,,,,,,,,,,,,,,,,,,,,,,,,,,,,,,,,,,,,,,,,,,,,,,,,,,,,,,,,,,,,,,,,,,,
1720514474,126,0,4308.717773,4290.897461,4302.307617,4298.077148,4262.563965,4248.333496,4243.589844,4372.05127,4295.384766,4231.282227,4458.333496,4415.384766,4334.358887,4675.512695,,,,,,,,,,,,,,,,,,,,,,,,,,,,,,,,,,,,,,,,,,,,,,,,,,,,,,,,,,,,,,,,,,,,,,
1720514474,127,0,4302.94873,4294.102539,4293.846191,4301.538574,4272.436035,4251.666504,4233.589844,4371.794922,4296.922852,4236.666504,4458.461426,4415.384766,4342.692383,4674.487305,,,,,,,,,,,,,,,,,,,,,,,,,,,,,,,,,,,,,,,,,,,,,,,,,,,,,,,,,,,,,,,,,,,,,,
1720514474,0,0,4302.692383,4301.025879,4295.256348,4309.102539,4276.282227,4250.897461,4237.179688,4375.128418,4294.871582,4230.897461,4458.205078,4416.282227,4339.487305,4669.358887,,,,,,,,,,,,,,,,,,,,,,,,,,,,,,,,,,,,,,,,,,,,,,,,,,,,,,,,,,,,,,,,,,,,,,
1720514474,1,0,4307.820313,4298.077148,4297.436035,4304.871582,4265.256348,4249.871582,4244.871582,4375.769043,4291.794922,4219.615234,4448.589844,4416.794922,4325.256348,4666.410156,,,,,,,,,,,,,,,,,,,,,,,,,,,,,,,,,,,,,,,,,,,,,,,,,,,,,,,,,,,,,,,,,,,,,,
1720514474,2,0,4308.333496,4295.128418,4298.846191,4305.256348,4266.153809,4257.307617,4237.692383,4372.820313,4291.153809,4222.94873,4440.641113,4415.769043,4325.769043,4664.871582,,,,,,,,,,,,,,,,,,,,,,,,,,,,,,,,,,,,,,,,,,,,,,,,,,,,,,,,,,,,,,,,,,,,,,
1720514474,3,0,4308.461426,4300.384766,4308.077148,4316.153809,4271.282227,4261.794922,4237.307617,4377.05127,4303.717773,4232.692383,4447.692383,4421.282227,4336.538574,4659.358887,,,,,,,,,,,,,,,,,,,,,,,,,,,,,,,,,,,,,,,,,,,,,,,,,,,,,,,,,,,,,,,,,,,,,,
1720514474,4,0,4309.102539,4305.128418,4312.307617,4319.615234,4266.922852,4256.666504,4246.922852,4376.666504,4311.153809,4230.769043,4456.282227,4424.358887,4337.307617,4653.974121,,,,,,,,,,,,,,,,,,,,,,,,,,,,,,,,,,,,,,,,,,,,,,,,,,,,,,,,,,,,,,,,,,,,,,
1720514474,5,0,4307.820313,4299.102539,4310.384766,4311.922852,4263.333496,4256.538574,4252.563965,4373.333496,4304.487305,4226.666504,4459.102539,4427.307617,4332.94873,4652.179688,,,,,,,,,,,,,,,,,,,,,,,,,,,,,,,,,,,,,,,,,,,,,,,,,,,,,,,,,,,,,,,,,,,,,,
1720514474,6,0,4308.589844,4295.128418,4312.179688,4309.230957,4263.333496,4263.974121,4256.666504,4380.128418,4305.512695,4232.436035,4461.666504,4432.94873,4336.153809,4647.820313,,,,,,,,,,,,,,,,,,,,,,,,,,,,,,,,,,,,,,,,,,,,,,,,,,,,,,,,,,,,,,,,,,,,,,
1720514474,7,0,4310.384766,4297.692383,4311.410156,4310.769043,4262.307617,4261.538574,4256.153809,4383.589844,4312.179688,4232.05127,4457.563965,4428.333496,4338.717773,4633.974121,,,,,,,,,,,,,,,,,,,,,,,,,,,,,,,,,,,,,,,,,,,,,,,,,,,,,,,,,,,,,,,,,,,,,,
1720514474,8,0,4311.794922,4297.563965,4310.384766,4308.077148,4262.692383,4256.538574,4249.615234,4380.384766,4308.461426,4219.615234,4450,4425,4330.769043,4626.410156,,,,,,,,,,,,,,,,,,,,,,,,,,,,,,,,,,,,,,,,,,,,,,,,,,,,,,,,,,,,,,,,,,,,,,
1720514474,9,0,4309.871582,4290.769043,4312.563965,4302.307617,4262.692383,4259.871582,4248.846191,4384.358887,4304.871582,4212.563965,4446.538574,4434.230957,4323.846191,4627.436035,,,,,,,,,,,,,,,,,,,,,,,,,,,,,,,,,,,,,,,,,,,,,,,,,,,,,,,,,,,,,,,,,,,,,,
1720514474,10,0,4301.282227,4283.461426,4309.102539,4299.102539,4262.94873,4261.922852,4249.743652,4377.179688,4308.205078,4216.153809,4442.179688,4431.153809,4323.974121,4613.333496,,,,,,,,,,,,,,,,,,,,,,,,,,,,,,,,,,,,,,,,,,,,,,,,,,,,,,,,,,,,,,,,,,,,,,
1720514474,11,0,4291.922852,4276.282227,4304.230957,4297.820313,4262.820313,4262.692383,4247.179688,4377.563965,4317.692383,4221.794922,4441.666504,4425.769043,4321.282227,4598.461426,,,,,,,,,,,,,,,,,,,,,,,,,,,,,,,,,,,,,,,,,,,,,,,,,,,,,,,,,,,,,,,,,,,,,,
1720514474,12,0,4293.589844,4274.615234,4307.563965,4294.871582,4261.666504,4262.820313,4249.102539,4392.94873,4324.487305,4227.94873,4447.179688,4437.307617,4322.820313,4605.769043,6.612786,0.953108,1.401716,0.490862,0.26015,1.32054,0.669067,0.260567,0.180787,0.124281,3.155829,0.743297,0.761427,0.319259,0.129352,1.009677,0.390201,0.209297,0.175827,0.150036,1.059316,0.311529,0.169998,0.105499,0.121803,0.709996,0.30048,0.312904,0.175798,0.11934,1.366839,0.336898,0.261867,0.163336,0.068453,1.664842,0.636618,0.240799,0.28016,0.201502,4.689869,1.23408,0.298357,0.391903,0.194539,3.359574,1.421402,0.838861,0.588699,0.180631,4.256935,2.187315,0.654027,1.085449,0.198217,5.46644,1.833742,1.159309,0.511555,0.212327,6.689532,2.698372,0.489851,0.704148,0.166388,34.431168,7.827283,1.364276,0.709531,0.354411
1720514474,13,0,4299.487305,4283.205078,4310.384766,4294.487305,4262.94873,4260.641113,4247.563965,4381.538574,4317.05127,4232.05127,4447.307617,4433.717773,4333.461426,4607.692383,,,,,,,,,,,,,,,,,,,,,,,,,,,,,,,,,,,,,,,,,,,,,,,,,,,,,,,,,,,,,,,,,,,,,,
1720514474,14,0,4299.615234,4291.666504,4309.615234,4300.128418,4264.358887,4258.717773,4239.102539,4368.461426,4308.589844,4224.230957,4448.461426,4425.256348,4334.871582,4593.333496,,,,,,,,,,,,,,,,,,,,,,,,,,,,,,,,,,,,,,,,,,,,,,,,,,,,,,,,,,,,,,,,,,,,,,
1720514474,15,0,4307.692383,4296.410156,4308.333496,4309.743652,4265.256348,4256.025879,4232.563965,4373.974121,4304.871582,4214.615234,4456.922852,4430.512695,4330.641113,4585.256348,,,,,,,,,,,,,,,,,,,,,,,,,,,,,,,,,,,,,,,,,,,,,,,,,,,,,,,,,,,,,,,,,,,,,,
1720514474,16,0,4321.922852,4296.538574,4310.641113,4309.358887,4264.871582,4256.153809,4231.922852,4373.461426,4305.384766,4216.922852,4457.307617,4427.436035,4334.743652,4586.153809,,,,,,,,,,,,,,,,,,,,,,,,,,,,,,,,,,,,,,,,,,,,,,,,,,,,,,,,,,,,,,,,,,,,,,
1720514474,17,0,4332.563965,4297.436035,4322.94873,4303.205078,4263.846191,4261.025879,4239.102539,4377.563965,4314.615234,4223.461426,4454.871582,4431.025879,4343.461426,4596.025879,,,,,,,,,,,,,,,,,,,,,,,,,,,,,,,,,,,,,,,,,,,,,,,,,,,,,,,,,,,,,,,,,,,,,,
1720514474,18,0,4354.871582,4308.846191,4335.384766,4314.487305,4267.05127,4263.461426,4248.974121,4392.436035,4322.307617,4231.666504,4465,4455.641113,4353.717773,4615,,,,,,,,,,,,,,,,,,,,,,,,,,,,,,,,,,,,,,,,,,,,,,,,,,,,,,,,,,,,,,,,,,,,,,
1720514474,19,0,4389.487305,4321.282227,4339.871582,4328.205078,4272.563965,4259.230957,4251.153809,4390.384766,4321.282227,4241.538574,4479.871582,4469.230957,4366.025879,4632.05127,,,,,,,,,,,,,,,,,,,,,,,,,,,,,,,,,,,,,,,,,,,,,,,,,,,,,,,,,,,,,,,,,,,,,,
1720514474,20,0,4424.871582,4326.922852,4348.205078,4324.230957,4276.025879,4259.487305,4247.692383,4385.769043,4325.256348,4246.025879,4489.743652,4476.153809,4383.846191,4651.538574,,,,,,,,,,,,,,,,,,,,,,,,,,,,,,,,,,,,,,,,,,,,,,,,,,,,,,,,,,,,,,,,,,,,,,
1720514474,21,0,4461.922852,4334.615234,4362.563965,4323.461426,4278.974121,4263.974121,4248.205078,4398.333496,4330.256348,4245.512695,4497.179688,4495.512695,4395.384766,4675.512695,,,,,,,,,,,,,,,,,,,,,,,,,,,,,,,,,,,,,,,,,,,,,,,,,,,,,,,,,,,,,,,,,,,,,,
1720514474,22,0,4491.794922,4343.077148,4367.436035,4332.94873,4280,4261.153809,4248.974121,4401.794922,4326.025879,4247.692383,4499.743652,4504.871582,4391.025879,4688.333496,,,,,,,,,,,,,,,,,,,,,,,,,,,,,,,,,,,,,,,,,,,,,,,,,,,,,,,,,,,,,,,,,,,,,,
1720514474,23,0,4505.384766,4341.922852,4364.358887,4336.794922,4278.077148,4257.692383,4245.384766,4399.743652,4324.743652,4251.025879,4502.436035,4506.922852,4392.563965,4692.179688,,,,,,,,,,,,,,,,,,,,,,,,,,,,,,,,,,,,,,,,,,,,,,,,,,,,,,,,,,,,,,,,,,,,,,
1720514474,24,0,4518.846191,4347.436035,4371.794922,4341.538574,4278.846191,4261.282227,4246.410156,4403.461426,4327.692383,4253.077148,4516.282227,4517.563965,4413.333496,4699.102539,,,,,,,,,,,,,,,,,,,,,,,,,,,,,,,,,,,,,,,,,,,,,,,,,,,,,,,,,,,,,,,,,,,,,,
1720514474,25,0,4530.384766,4357.820313,4383.205078,4347.436035,4281.025879,4265.641113,4250.769043,4404.871582,4324.487305,4251.922852,4524.871582,4520.897461,4419.487305,4700,,,,,,,,,,,,,,,,,,,,,,,,,,,,,,,,,,,,,,,,,,,,,,,,,,,,,,,,,,,,,,,,,,,,,,
1720514474,26,0,4525,4353.205078,4379.743652,4343.717773,4284.230957,4263.717773,4251.025879,4404.230957,4322.563965,4251.025879,4514.615234,4513.846191,4406.025879,4687.307617,,,,,,,,,,,,,,,,,,,,,,,,,,,,,,,,,,,,,,,,,,,,,,,,,,,,,,,,,,,,,,,,,,,,,,
1720514474,27,0,4521.538574,4348.846191,4372.94873,4342.820313,4288.461426,4263.846191,4248.461426,4402.820313,4323.974121,4251.794922,4508.077148,4509.487305,4407.94873,4679.487305,,,,,,,,,,,,,,,,,,,,,,,,,,,,,,,,,,,,,,,,,,,,,,,,,,,,,,,,,,,,,,,,,,,,,,
1720514474,28,0,4526.538574,4352.307617,4377.692383,4346.282227,4286.025879,4272.179688,4248.205078,4403.974121,4317.179688,4250.512695,4514.615234,4513.717773,4413.589844,4682.307617,6.679566,1.225388,1.762853,0.561535,0.269023,1.153921,0.795726,0.326823,0.2008,0.14008,3.016659,0.902535,0.757638,0.360988,0.126368,0.886584,0.453816,0.264288,0.22173,0.154679,0.951008,0.311839,0.217232,0.118636,0.12238,0.744588,0.396205,0.287788,0.179303,0.110227,1.245732,0.305122,0.222609,0.152478,0.067483,2.572003,0.836237,0.277212,0.279264,0.211998,5.145934,1.026386,0.25111,0.371582,0.17856,2.802462,1.235996,0.655411,0.578673,0.194072,3.540786,1.854731,0.754771,1.065012,0.206661,5.245471,2.474755,1.400842,0.500408,0.211281,5.953807,2.580612,0.599185,0.707856,0.185544,30.03614,5.860946,1.322854,0.559418,0.311186
1720514474,29,0,4523.846191,4350.769043,4378.205078,4342.692383,4280.384766,4277.820313,4250,4399.102539,4311.794922,4248.461426,4511.538574,4513.846191,4401.922852,4675.512695,,,,,,,,,,,,,,,,,,,,,,,,,,,,,,,,,,,,,,,,,,,,,,,,,,,,,,,,,,,,,,,,,,,,,,
1720514474,30,0,4514.487305,4350.512695,4368.333496,4338.589844,4280.512695,4277.179688,4250.128418,4393.846191,4316.666504,4247.179688,4502.179688,4509.230957,4391.666504,4661.282227,,,,,,,,,,,,,,,,,,,,,,,,,,,,,,,,,,,,,,,,,,,,,,,,,,,,,,,,,,,,,,,,,,,,,,
1720514474,31,0,4507.436035,4349.358887,4366.922852,4339.487305,4280.128418,4275.769043,4248.077148,4399.230957,4314.358887,4245.897461,4504.102539,4509.871582,4395.128418,4652.179688,,,,,,,,,,,,,,,,,,,,,,,,,,,,,,,,,,,,,,,,,,,,,,,,,,,,,,,,,,,,,,,,,,,,,,
1720514474,32,0,4506.538574,4343.333496,4370,4340.128418,4279.615234,4274.743652,4246.794922,4402.94873,4306.025879,4246.794922,4510.897461,4506.025879,4402.94873,4645.256348,,,,,,,,,,,,,,,,,,,,,,,,,,,,,,,,,,,,,,,,,,,,,,,,,,,,,,,,,,,,,,,,,,,,,,
1720514474,33,0,4502.94873,4348.846191,4368.846191,4343.205078,4285.641113,4272.94873,4246.282227,4401.794922,4306.922852,4250.641113,4510.128418,4505.641113,4399.358887,4639.487305,,,,,,,,,,,,,,,,,,,,,,,,,,,,,,,,,,,,,,,,,,,,,,,,,,,,,,,,,,,,,,,,,,,,,,
1720514474,34,0,4493.461426,4355.512695,4365.897461,4344.358887,4288.077148,4275.256348,4245.769043,4400.769043,4309.230957,4250,4501.410156,4510.512695,4389.487305,4630.897461,,,,,,,,,,,,,,,,,,,,,,,,,,,,,,,,,,,,,,,,,,,,,,,,,,,,,,,,,,,,,,,,,,,,,,
1720514474,35,0,4488.461426,4345,4364.487305,4340.128418,4279.615234,4277.179688,4246.666504,4398.205078,4306.025879,4240.641113,4498.461426,4505.641113,4390.897461,4618.333496,,,,,,,,,,,,,,,,,,,,,,,,,,,,,,,,,,,,,,,,,,,,,,,,,,,,,,,,,,,,,,,,,,,,,,
1720514474,36,0,4494.102539,4342.820313,4367.05127,4339.102539,4278.717773,4274.487305,4247.94873,4400.256348,4310.897461,4238.717773,4507.179688,4503.333496,4398.589844,4612.94873,,,,,,,,,,,,,,,,,,,,,,,,,,,,,,,,,,,,,,,,,,,,,,,,,,,,,,,,,,,,,,,,,,,,,,
1720514474,37,0,4494.871582,4356.410156,4368.846191,4343.077148,4290.256348,4275.897461,4247.436035,4406.666504,4312.820313,4244.615234,4506.794922,4510.384766,4390.384766,4608.205078,,,,,,,,,,,,,,,,,,,,,,,,,,,,,,,,,,,,,,,,,,,,,,,,,,,,,,,,,,,,,,,,,,,,,,
1720514474,38,0,4479.743652,4357.94873,4364.871582,4340.897461,4290.128418,4274.743652,4246.538574,4397.436035,4303.974121,4239.102539,4492.436035,4503.589844,4374.358887,4589.487305,,,,,,,,,,,,,,,,,,,,,,,,,,,,,,,,,,,,,,,,,,,,,,,,,,,,,,,,,,,,,,,,,,,,,,
1720514474,39,0,4470.512695,4347.563965,4361.410156,4336.538574,4280.128418,4268.333496,4246.794922,4393.205078,4304.871582,4227.563965,4489.230957,4493.589844,4371.410156,4574.230957,,,,,,,,,,,,,,,,,,,,,,,,,,,,,,,,,,,,,,,,,,,,,,,,,,,,,,,,,,,,,,,,,,,,,,
1720514474,40,0,4471.666504,4343.333496,4356.282227,4337.94873,4278.974121,4263.461426,4245.128418,4405.897461,4307.179688,4228.205078,4493.461426,4498.589844,4371.922852,4571.794922,,,,,,,,,,,,,,,,,,,,,,,,,,,,,,,,,,,,,,,,,,,,,,,,,,,,,,,,,,,,,,,,,,,,,,
1720514474,41,0,4465.897461,4346.282227,4348.717773,4338.077148,4280,4263.589844,4244.102539,4396.922852,4297.94873,4233.717773,4484.871582,4494.615234,4367.307617,4557.692383,,,,,,,,,,,,,,,,,,,,,,,,,,,,,,,,,,,,,,,,,,,,,,,,,,,,,,,,,,,,,,,,,,,,,,
1720514474,42,0,4460.256348,4349.358887,4354.487305,4341.922852,4282.179688,4270.256348,4246.153809,4391.410156,4294.230957,4232.820313,4485.256348,4495.512695,4366.410156,4538.717773,,,,,,,,,,,,,,,,,,,,,,,,,,,,,,,,,,,,,,,,,,,,,,,,,,,,,,,,,,,,,,,,,,,,,,
1720514474,43,0,4457.563965,4342.563965,4357.820313,4343.205078,4285.512695,4272.94873,4245.641113,4404.102539,4293.461426,4230.641113,4489.743652,4501.794922,4363.974121,4530.128418,,,,,,,,,,,,,,,,,,,,,,,,,,,,,,,,,,,,,,,,,,,,,,,,,,,,,,,,,,,,,,,,,,,,,,
1720514474,44,0,4446.410156,4332.436035,4341.794922,4331.282227,4283.974121,4269.743652,4243.205078,4396.666504,4286.282227,4229.487305,4479.871582,4488.205078,4357.307617,4517.05127,6.520677,1.57052,2.090966,0.649699,0.270797,1.064591,0.954926,0.39038,0.232677,0.155975,2.690609,1.081683,0.803831,0.406609,0.124107,0.74882,0.537257,0.343409,0.284927,0.165677,0.782788,0.30905,0.248364,0.127882,0.125959,0.733624,0.480766,0.259503,0.180399,0.099179,1.037568,0.289298,0.187491,0.147327,0.067926,3.567418,1.055592,0.343343,0.271072,0.226025,5.072425,0.822017,0.230881,0.352083,0.167538,2.15424,1.114446,0.555835,0.569484,0.202425,2.75983,1.656463,0.837428,1.02249,0.225882,5.085528,3.366205,1.700092,0.497414,0.21795,4.921386,2.473724,0.705375,0.712935,0.215769,25.217192,4.280077,1.420866,0.45222,0.301934
1720514474,45,0,4438.077148,4325.769043,4337.94873,4326.538574,4280,4269.743652,4240.769043,4392.94873,4288.589844,4229.487305,4479.871582,4487.05127,4360.769043,4505.769043,,,,,,,,,,,,,,,,,,,,,,,,,,,,,,,,,,,,,,,,,,,,,,,,,,,,,,,,,,,,,,,,,,,,,,
1720514474,46,0,4442.436035,4312.820313,4347.94873,4335,4280.256348,4270.256348,4235.641113,4403.461426,4296.153809,4230,4488.077148,4497.307617,4366.282227,4502.692383,,,,,,,,,,,,,,,,,,,,,,,,,,,,,,,,,,,,,,,,,,,,,,,,,,,,,,,,,,,,,,,,,,,,,,
1720514474,47,0,4444.743652,4296.282227,4348.461426,4336.025879,4278.846191,4264.230957,4232.563965,4396.538574,4291.410156,4231.153809,4486.025879,4491.025879,4360.128418,4496.666504,,,,,,,,,,,,,,,,,,,,,,,,,,,,,,,,,,,,,,,,,,,,,,,,,,,,,,,,,,,,,,,,,,,,,,
1720514474,48,0,4439.487305,4295.897461,4347.94873,4330.897461,4277.05127,4262.94873,4235.256348,4391.922852,4289.358887,4231.666504,4483.077148,4491.538574,4357.436035,4494.358887,,,,,,,,,,,,,,,,,,,,,,,,,,,,,,,,,,,,,,,,,,,,,,,,,,,,,,,,,,,,,,,,,,,,,,
1720514474,49,0,4433.589844,4305.641113,4347.307617,4331.282227,4277.436035,4265.769043,4236.410156,4402.563965,4289.743652,4222.820313,4481.794922,4501.153809,4362.179688,4491.282227,,,,,,,,,,,,,,,,,,,,,,,,,,,,,,,,,,,,,,,,,,,,,,,,,,,,,,,,,,,,,,,,,,,,,,
1720514474,50,0,4426.410156,4309.102539,4340,4334.871582,4276.282227,4261.410156,4233.974121,4396.025879,4280.769043,4217.563965,4480.769043,4489.615234,4359.487305,4474.487305,,,,,,,,,,,,,,,,,,,,,,,,,,,,,,,,,,,,,,,,,,,,,,,,,,,,,,,,,,,,,,,,,,,,,,
1720514474,51,0,4413.461426,4309.487305,4335.769043,4338.589844,4278.205078,4261.153809,4234.487305,4394.230957,4277.94873,4227.307617,4486.794922,4479.615234,4352.563965,4463.974121,,,,,,,,,,,,,,,,,,,,,,,,,,,,,,,,,,,,,,,,,,,,,,,,,,,,,,,,,,,,,,,,,,,,,,
1720514474,52,0,4411.922852,4310.897461,4335,4336.794922,4279.871582,4264.871582,4233.333496,4403.461426,4280.897461,4234.743652,4490.384766,4488.717773,4357.94873,4472.563965,,,,,,,,,,,,,,,,,,,,,,,,,,,,,,,,,,,,,,,,,,,,,,,,,,,,,,,,,,,,,,,,,,,,,,
1720514474,53,0,4424.102539,4311.282227,4336.410156,4333.205078,4277.94873,4262.692383,4233.717773,4399.487305,4280,4233.461426,4492.820313,4497.179688,4376.153809,4480.641113,,,,,,,,,,,,,,,,,,,,,,,,,,,,,,,,,,,,,,,,,,,,,,,,,,,,,,,,,,,,,,,,,,,,,,
1720514474,54,0,4423.589844,4311.282227,4343.205078,4338.589844,4278.333496,4262.820313,4238.974121,4399.358887,4281.410156,4234.102539,4498.077148,4500,4382.436035,4476.410156,,,,,,,,,,,,,,,,,,,,,,,,,,,,,,,,,,,,,,,,,,,,,,,,,,,,,,,,,,,,,,,,,,,,,,
1720514474,55,0,4411.410156,4311.666504,4345.769043,4342.436035,4281.025879,4269.102539,4246.794922,4403.077148,4280.256348,4233.461426,4491.410156,4500.128418,4365.769043,4467.692383,,,,,,,,,,,,,,,,,,,,,,,,,,,,,,,,,,,,,,,,,,,,,,,,,,,,,,,,,,,,,,,,,,,,,,
1720514474,56,0,4406.666504,4308.589844,4341.282227,4340.384766,4281.153809,4270.641113,4249.358887,4408.974121,4277.94873,4232.563965,4495.384766,4504.358887,4362.179688,4466.153809,,,,,,,,,,,,,,,,,,,,,,,,,,,,,,,,,,,,,,,,,,,,,,,,,,,,,,,,,,,,,,,,,,,,,,
1720514474,57,0,4405.512695,4306.794922,4337.563965,4338.974121,4278.333496,4264.358887,4240.384766,4412.05127,4282.563965,4237.820313,4510.897461,4503.974121,4380,4470,,,,,,,,,,,,,,,,,,,,,,,,,,,,,,,,,,,,,,,,,,,,,,,,,,,,,,,,,,,,,,,,,,,,,,
1720514474,58,0,4399.230957,4310,4336.410156,4338.974121,4282.05127,4263.846191,4231.410156,4400.769043,4275.769043,4234.615234,4490.256348,4489.871582,4372.692383,4457.179688,,,,,,,,,,,,,,,,,,,,,,,,,,,,,,,,,,,,,,,,,,,,,,,,,,,,,,,,,,,,,,,,,,,,,,
1720514475,59,0,4380.128418,4298.333496,4330.512695,4328.717773,4278.974121,4265,4226.025879,4390.128418,4250.128418,4213.846191,4455.769043,4477.179688,4338.846191,4426.794922,,,,,,,,,,,,,,,,,,,,,,,,,,,,,,,,,,,,,,,,,,,,,,,,,,,,,,,,,,,,,,,,,,,,,,
1720514475,60,0,4356.153809,4277.692383,4315.384766,4310.769043,4267.692383,4258.461426,4218.461426,4385.769043,4235.641113,4196.025879,4450.769043,4462.94873,4326.410156,4404.615234,7.577044,1.980627,2.297361,0.737431,0.265096,1.251501,1.075329,0.434536,0.265744,0.170094,2.365562,1.243898,0.878625,0.433894,0.122439,0.708616,0.605474,0.429074,0.34941,0.181964,0.603854,0.295748,0.256547,0.128812,0.131472,0.672353,0.532956,0.232952,0.180287,0.090065,0.797982,0.307653,0.162129,0.151314,0.068659,4.451593,1.242847,0.425944,0.256784,0.238527,4.595031,0.668548,0.233831,0.342727,0.161889,1.59549,1.029647,0.52292,0.572634,0.203367,2.229178,1.575177,0.87448,0.967506,0.24998,5.149974,4.306124,1.979755,0.500027,0.228372,3.950154,2.326146,0.766091,0.716913,0.251041,21.279652,3.435629,1.626572,0.388152,0.318659
1720514475,61,0,4355,4281.282227,4306.153809,4310.512695,4270.769043,4257.820313,4217.436035,4386.153809,4242.692383,4201.538574,4457.820313,4452.05127,4335,4400.256348,,,,,,,,,,,,,,,,,,,,,,,,,,,,,,,,,,,,,,,,,,,,,,,,,,,,,,,,,,,,,,,,,,,,,,
1720514475,62,0,4367.307617,4297.94873,4310.641113,4325.512695,4282.179688,4265.128418,4227.307617,4392.563965,4248.717773,4219.230957,4464.102539,4462.307617,4339.871582,4407.179688,,,,,,,,,,,,,,,,,,,,,,,,,,,,,,,,,,,,,,,,,,,,,,,,,,,,,,,,,,,,,,,,,,,,,,
1720514475,63,0,4368.461426,4298.205078,4315.384766,4328.589844,4280.512695,4264.615234,4231.794922,4395.897461,4247.05127,4230.769043,4479.230957,4479.102539,4351.794922,4416.922852,,,,,,,,,,,,,,,,,,,,,,,,,,,,,,,,,,,,,,,,,,,,,,,,,,,,,,,,,,,,,,,,,,,,,,
1720514475,64,0,4368.461426,4297.05127,4318.461426,4322.94873,4274.615234,4258.846191,4227.94873,4391.666504,4243.974121,4232.820313,4488.589844,4485.256348,4365.256348,4420.769043,,,,,,,,,,,,,,,,,,,,,,,,,,,,,,,,,,,,,,,,,,,,,,,,,,,,,,,,,,,,,,,,,,,,,,
1720514475,65,0,4370.897461,4306.025879,4327.179688,4331.666504,4278.077148,4261.025879,4231.025879,4402.05127,4248.333496,4232.05127,4494.358887,4497.179688,4368.205078,4427.179688,,,,,,,,,,,,,,,,,,,,,,,,,,,,,,,,,,,,,,,,,,,,,,,,,,,,,,,,,,,,,,,,,,,,,,
1720514475,66,0,4373.589844,4305.641113,4334.102539,4340,4280.641113,4264.743652,4234.871582,4411.025879,4250.128418,4235.256348,4503.077148,4509.102539,4374.230957,4437.94873,,,,,,,,,,,,,,,,,,,,,,,,,,,,,,,,,,,,,,,,,,,,,,,,,,,,,,,,,,,,,,,,,,,,,,
1720514475,67,0,4368.589844,4299.487305,4330.256348,4331.410156,4277.05127,4262.05127,4233.974121,4395.769043,4235.256348,4237.436035,4498.205078,4500.256348,4375.256348,4431.794922,,,,,,,,,,,,,,,,,,,,,,,,,,,,,,,,,,,,,,,,,,,,,,,,,,,,,,,,,,,,,,,,,,,,,,
1720514475,68,0,4347.94873,4295,4322.820313,4323.589844,4274.871582,4261.666504,4240.256348,4398.333496,4222.179688,4231.282227,4487.820313,4495.256348,4360.512695,4415.897461,,,,,,,,,,,,,,,,,,,,,,,,,,,,,,,,,,,,,,,,,,,,,,,,,,,,,,,,,,,,,,,,,,,,,,
1720514475,69,0,4331.282227,4283.589844,4317.692383,4318.461426,4275.256348,4265,4249.615234,4408.205078,4221.922852,4226.410156,4485.769043,4495.256348,4354.102539,4410.512695,,,,,,,,,,,,,,,,,,,,,,,,,,,,,,,,,,,,,,,,,,,,,,,,,,,,,,,,,,,,,,,,,,,,,,
1720514475,70,0,4335,4276.153809,4311.025879,4311.153809,4270,4264.230957,4245.384766,4397.820313,4219.487305,4228.846191,4485.512695,4481.794922,4358.717773,4409.230957,,,,,,,,,,,,,,,,,,,,,,,,,,,,,,,,,,,,,,,,,,,,,,,,,,,,,,,,,,,,,,,,,,,,,,
1720514475,71,0,4341.282227,4284.487305,4306.922852,4315.384766,4262.94873,4260.897461,4232.94873,4394.102539,4213.461426,4229.487305,4486.282227,4477.179688,4356.666504,4409.487305,,,,,,,,,,,,,,,,,,,,,,,,,,,,,,,,,,,,,,,,,,,,,,,,,,,,,,,,,,,,,,,,,,,,,,
1720514475,72,0,4341.410156,4296.025879,4315.512695,4331.794922,4271.410156,4260.384766,4230.769043,4399.487305,4213.974121,4230.384766,4493.205078,4490.512695,4360.512695,4413.974121,,,,,,,,,,,,,,,,,,,,,,,,,,,,,,,,,,,,,,,,,,,,,,,,,,,,,,,,,,,,,,,,,,,,,,
1720514475,73,0,4344.487305,4294.871582,4328.461426,4333.717773,4280.384766,4260.769043,4234.743652,4403.205078,4219.615234,4234.487305,4497.179688,4501.922852,4366.538574,4417.05127,,,,,,,,,,,,,,,,,,,,,,,,,,,,,,,,,,,,,,,,,,,,,,,,,,,,,,,,,,,,,,,,,,,,,,
1720514475,74,0,4341.538574,4289.871582,4325.641113,4326.025879,4273.333496,4259.230957,4231.410156,4403.974121,4218.461426,4235.384766,4495.512695,4500.256348,4364.615234,4415.641113,,,,,,,,,,,,,,,,,,,,,,,,,,,,,,,,,,,,,,,,,,,,,,,,,,,,,,,,,,,,,,,,,,,,,,
1720514475,75,0,4329.615234,4289.230957,4318.333496,4323.974121,4269.102539,4261.282227,4229.230957,4400.512695,4208.205078,4232.94873,4494.358887,4494.358887,4364.487305,4413.205078,,,,,,,,,,,,,,,,,,,,,,,,,,,,,,,,,,,,,,,,,,,,,,,,,,,,,,,,,,,,,,,,,,,,,,
1720514475,76,0,4321.282227,4285,4317.820313,4315.897461,4273.333496,4264.102539,4239.487305,4401.922852,4201.025879,4233.205078,4491.282227,4493.717773,4364.230957,4412.05127,10.923252,2.499176,2.328417,0.800474,0.251712,1.785722,1.108352,0.450277,0.288851,0.18142,2.178629,1.358571,0.946036,0.429095,0.121074,0.822664,0.63386,0.50206,0.394985,0.200031,0.465874,0.267475,0.24255,0.121555,0.136725,0.582693,0.539677,0.212963,0.177949,0.084821,0.594233,0.366097,0.147682,0.163731,0.068618,4.884396,1.345293,0.497723,0.237037,0.246021,3.834237,0.586794,0.250628,0.34292,0.159891,1.244856,0.933841,0.515814,0.58522,0.196667,2.154783,1.539306,0.867784,0.902765,0.270377,5.503783,5.04718,2.149391,0.499253,0.235873,3.424837,2.093555,0.769829,0.709558,0.283567,19.189705,3.309914,1.843282,0.346527,0.340344
1720514475,77,0,4321.410156,4278.974121,4314.615234,4312.820313,4273.461426,4264.230957,4249.615234,4410.128418,4210.128418,4233.846191,4490.512695,4497.307617,4362.179688,4415.384766,,,,,,,,,,,,,,,,,,,,,,,,,,,,,,,,,,,,,,,,,,,,,,,,,,,,,,,,,,,,,,,,,,,,,,
1720514475,78,0,4328.589844,4281.410156,4310.897461,4323.461426,4277.05127,4271.410156,4246.282227,4406.410156,4216.794922,4231.410156,4489.230957,4498.461426,4364.743652,4418.717773,,,,,,,,,,,,,,,,,,,,,,,,,,,,,,,,,,,,,,,,,,,,,,,,,,,,,,,,,,,,,,,,,,,,,,
1720514475,79,0,4327.05127,4282.307617,4314.487305,4321.922852,4278.461426,4278.846191,4241.794922,4401.666504,4207.692383,4231.025879,4488.077148,4499.615234,4365.384766,4424.871582,,,,,,,,,,,,,,,,,,,,,,,,,,,,,,,,,,,,,,,,,,,,,,,,,,,,,,,,,,,,,,,,,,,,,,
1720514475,80,0,4317.179688,4275.897461,4316.922852,4310.897461,4268.974121,4271.282227,4242.05127,4406.538574,4200.641113,4232.307617,4492.05127,4500.769043,4361.794922,4435,,,,,,,,,,,,,,,,,,,,,,,,,,,,,,,,,,,,,,,,,,,,,,,,,,,,,,,,,,,,,,,,,,,,,,
1720514475,81,0,4319.871582,4281.025879,4309.230957,4317.307617,4268.974121,4261.538574,4236.153809,4398.589844,4201.794922,4225.512695,4488.077148,4486.282227,4357.563965,4436.538574,,,,,,,,,,,,,,,,,,,,,,,,,,,,,,,,,,,,,,,,,,,,,,,,,,,,,,,,,,,,,,,,,,,,,,
1720514475,82,0,4318.589844,4283.205078,4299.230957,4320.512695,4276.794922,4263.974121,4230.384766,4397.05127,4200.641113,4215.769043,4474.743652,4474.102539,4348.333496,4441.666504,,,,,,,,,,,,,,,,,,,,,,,,,,,,,,,,,,,,,,,,,,,,,,,,,,,,,,,,,,,,,,,,,,,,,,
1720514475,83,0,4294.102539,4264.487305,4291.794922,4300.769043,4269.358887,4264.358887,4231.153809,4400.897461,4199.871582,4217.692383,4470.512695,4474.871582,4352.436035,4463.589844,,,,,,,,,,,,,,,,,,,,,,,,,,,,,,,,,,,,,,,,,,,,,,,,,,,,,,,,,,,,,,,,,,,,,,
1720514475,84,0,4281.794922,4255,4290.769043,4293.333496,4259.487305,4259.743652,4232.05127,4392.820313,4203.333496,4222.179688,4479.487305,4474.487305,4365,4487.94873,,,,,,,,,,,,,,,,,,,,,,,,,,,,,,,,,,,,,,,,,,,,,,,,,,,,,,,,,,,,,,,,,,,,,,
1720514475,85,0,4292.307617,4263.974121,4297.692383,4305.769043,4262.692383,4263.205078,4238.205078,4393.974121,4202.436035,4217.05127,4475.769043,4475.384766,4352.692383,4507.179688,,,,,,,,,,,,,,,,,,,,,,,,,,,,,,,,,,,,,,,,,,,,,,,,,,,,,,,,,,,,,,,,,,,,,,
1720514475,86,0,4286.025879,4261.922852,4300.128418,4310,4264.230957,4265.512695,4249.743652,4403.974121,4199.358887,4215.128418,4467.179688,4482.05127,4342.563965,4531.282227,,,,,,,,,,,,,,,,,,,,,,,,,,,,,,,,,,,,,,,,,,,,,,,,,,,,,,,,,,,,,,,,,,,,,,
1720514475,87,0,4276.153809,4260.641113,4300.641113,4310.897461,4263.333496,4263.589844,4254.615234,4410.512695,4205,4219.871582,4481.666504,4491.282227,4357.05127,4557.820313,,,,,,,,,,,,,,,,,,,,,,,,,,,,,,,,,,,,,,,,,,,,,,,,,,,,,,,,,,,,,,,,,,,,,,
1720514475,88,0,4288.461426,4275.769043,4307.307617,4320.512695,4266.538574,4265.512695,4244.743652,4404.230957,4211.410156,4220,4495.641113,4491.794922,4362.563965,4572.436035,,,,,,,,,,,,,,,,,,,,,,,,,,,,,,,,,,,,,,,,,,,,,,,,,,,,,,,,,,,,,,,,,,,,,,
1720514475,89,0,4299.358887,4277.94873,4316.538574,4319.871582,4266.410156,4266.410156,4236.794922,4394.358887,4213.589844,4218.589844,4483.846191,4489.102539,4357.436035,4581.025879,,,,,,,,,,,,,,,,,,,,,,,,,,,,,,,,,,,,,,,,,,,,,,,,,,,,,,,,,,,,,,,,,,,,,,
1720514475,90,0,4294.743652,4265.128418,4316.538574,4310.512695,4264.358887,4263.205078,4240,4395.512695,4214.358887,4221.410156,4473.461426,4488.846191,4366.282227,4591.025879,,,,,,,,,,,,,,,,,,,,,,,,,,,,,,,,,,,,,,,,,,,,,,,,,,,,,,,,,,,,,,,,,,,,,,
1720514475,91,0,4284.487305,4263.205078,4302.436035,4308.589844,4263.333496,4262.307617,4242.179688,4398.717773,4217.692383,4220.769043,4479.102539,4482.436035,4368.846191,4598.717773,,,,,,,,,,,,,,,,,,,,,,,,,,,,,,,,,,,,,,,,,,,,,,,,,,,,,,,,,,,,,,,,,,,,,,
1720514475,92,0,4279.615234,4267.05127,4288.717773,4307.94873,4261.025879,4261.794922,4241.025879,4393.077148,4224.230957,4213.077148,4471.025879,4466.282227,4350.128418,4597.563965,17.358253,3.160136,2.192102,0.818287,0.232846,2.650973,1.077339,0.43885,0.299126,0.190214,2.266876,1.41859,0.97731,0.392485,0.120363,1.123941,0.623156,0.549564,0.407874,0.21533,0.395681,0.22772,0.214243,0.109798,0.139655,0.498465,0.500585,0.201948,0.171573,0.083084,0.447554,0.463365,0.141529,0.181981,0.067277,4.759645,1.33516,0.529311,0.213094,0.247614,2.98159,0.567796,0.28067,0.345069,0.159488,1.122396,0.816452,0.508383,0.594865,0.185532,2.562614,1.513713,0.852275,0.825462,0.281325,6.032159,5.422702,2.165149,0.485296,0.235845,3.556659,1.813584,0.745739,0.67963,0.309078,19.442249,3.636652,1.982212,0.306692,0.347421
1720514475,93,0,4277.563965,4261.025879,4291.538574,4304.871582,4258.974121,4265.384766,4244.102539,4397.692383,4233.589844,4209.487305,4455.641113,4468.717773,4339.487305,4598.461426,,,,,,,,,,,,,,,,,,,,,,,,,,,,,,,,,,,,,,,,,,,,,,,,,,,,,,,,,,,,,,,,,,,,,,
1720514475,94,0,4275.641113,4255.256348,4299.358887,4303.077148,4259.487305,4271.922852,4248.077148,4409.487305,4243.589844,4212.05127,4462.820313,4494.487305,4351.153809,4616.153809,,,,,,,,,,,,,,,,,,,,,,,,,,,,,,,,,,,,,,,,,,,,,,,,,,,,,,,,,,,,,,,,,,,,,,
1720514475,95,0,4286.025879,4266.025879,4299.230957,4308.717773,4261.666504,4270.128418,4245.256348,4398.461426,4249.358887,4219.358887,4479.358887,4500.769043,4368.589844,4636.282227,,,,,,,,,,,,,,,,,,,,,,,,,,,,,,,,,,,,,,,,,,,,,,,,,,,,,,,,,,,,,,,,,,,,,,
1720514475,96,0,4298.589844,4277.05127,4304.358887,4321.922852,4263.077148,4268.205078,4243.717773,4394.230957,4247.436035,4218.077148,4480.897461,4490,4363.077148,4640.128418,,,,,,,,,,,,,,,,,,,,,,,,,,,,,,,,,,,,,,,,,,,,,,,,,,,,,,,,,,,,,,,,,,,,,,
1720514475,97,0,4291.538574,4276.410156,4312.179688,4325,4264.230957,4270.384766,4244.871582,4396.025879,4235.256348,4204.871582,4465.384766,4483.333496,4342.179688,4636.922852,,,,,,,,,,,,,,,,,,,,,,,,,,,,,,,,,,,,,,,,,,,,,,,,,,,,,,,,,,,,,,,,,,,,,,
1720514475,98,0,4280.128418,4272.436035,4308.717773,4312.307617,4266.666504,4269.871582,4245.256348,4382.563965,4231.922852,4204.102539,4462.94873,4484.743652,4346.538574,4648.846191,,,,,,,,,,,,,,,,,,,,,,,,,,,,,,,,,,,,,,,,,,,,,,,,,,,,,,,,,,,,,,,,,,,,,,
1720514475,99,0,4279.743652,4275.641113,4307.05127,4307.05127,4267.05127,4270.384766,4249.487305,4387.563965,4245.512695,4219.230957,4477.307617,4496.794922,4373.846191,4667.436035,,,,,,,,,,,,,,,,,,,,,,,,,,,,,,,,,,,,,,,,,,,,,,,,,,,,,,,,,,,,,,,,,,,,,,
1720514475,100,0,4281.538574,4287.179688,4309.487305,4314.743652,4265.256348,4270.256348,4250.641113,4398.846191,4253.461426,4225.769043,4481.666504,4501.153809,4383.717773,4669.487305,,,,,,,,,,,,,,,,,,,,,,,,,,,,,,,,,,,,,,,,,,,,,,,,,,,,,,,,,,,,,,,,,,,,,,
1720514475,101,0,4283.333496,4295.512695,4303.077148,4319.615234,4264.615234,4264.743652,4247.179688,4398.461426,4254.487305,4225.128418,4482.563965,4491.410156,4374.487305,4669.102539,,,,,,,,,,,,,,,,,,,,,,,,,,,,,,,,,,,,,,,,,,,,,,,,,,,,,,,,,,,,,,,,,,,,,,
1720514475,102,0,4283.077148,4293.846191,4302.436035,4319.615234,4263.589844,4261.794922,4244.871582,4402.692383,4262.820313,4231.666504,4488.077148,4495.384766,4375.256348,4680.641113,,,,,,,,,,,,,,,,,,,,,,,,,,,,,,,,,,,,,,,,,,,,,,,,,,,,,,,,,,,,,,,,,,,,,,
1720514475,103,0,4277.179688,4291.410156,4309.871582,4314.230957,4261.922852,4263.205078,4244.615234,4406.025879,4268.333496,4235,4486.794922,4512.179688,4383.974121,4682.436035,,,,,,,,,,,,,,,,,,,,,,,,,,,,,,,,,,,,,,,,,,,,,,,,,,,,,,,,,,,,,,,,,,,,,,
1720514475,104,0,4280.897461,4295,4306.025879,4308.205078,4263.717773,4263.846191,4244.358887,4404.358887,4260.128418,4231.538574,4480.256348,4512.436035,4382.307617,4670.769043,,,,,,,,,,,,,,,,,,,,,,,,,,,,,,,,,,,,,,,,,,,,,,,,,,,,,,,,,,,,,,,,,,,,,,
1720514475,105,0,4292.563965,4293.077148,4302.692383,4313.205078,4264.102539,4266.410156,4246.922852,4409.871582,4248.974121,4230,4481.410156,4502.563965,4378.846191,4667.05127,,,,,,,,,,,,,,,,,,,,,,,,,,,,,,,,,,,,,,,,,,,,,,,,,,,,,,,,,,,,,,,,,,,,,,
1720514475,106,0,4295.897461,4291.153809,4309.230957,4317.563965,4259.743652,4263.077148,4247.563965,4399.358887,4236.666504,4221.922852,4478.717773,4495.256348,4381.666504,4665.128418,,,,,,,,,,,,,,,,,,,,,,,,,,,,,,,,,,,,,,,,,,,,,,,,,,,,,,,,,,,,,,,,,,,,,,
1720514475,107,0,4296.666504,4298.333496,4317.692383,4313.333496,4263.077148,4261.794922,4247.05127,4381.666504,4224.871582,4214.358887,4472.179688,4499.102539,4379.871582,4658.461426,,,,,,,,,,,,,,,,,,,,,,,,,,,,,,,,,,,,,,,,,,,,,,,,,,,,,,,,,,,,,,,,,,,,,,
1720514475,108,0,4293.717773,4294.743652,4320.641113,4311.922852,4265.641113,4271.794922,4252.563965,4391.410156,4222.05127,4220.897461,4478.205078,4510.641113,4375.128418,4653.077148,25.712049,3.903662,1.960948,0.785245,0.214283,3.613314,1.056784,0.412538,0.303572,0.198101,2.589187,1.43412,0.976983,0.34084,0.120692,1.520804,0.595739,0.574217,0.39107,0.225145,0.383051,0.188134,0.182944,0.099609,0.139854,0.454547,0.429753,0.199399,0.159965,0.083104,0.385842,0.595723,0.145771,0.203864,0.065254,4.084397,1.225829,0.510655,0.187909,0.245293,2.434593,0.584785,0.333476,0.342184,0.160422,1.179237,0.705687,0.501555,0.587771,0.174578,3.28931,1.51891,0.883082,0.735016,0.282862,6.557182,5.412084,2.062493,0.455608,0.228055,4.284812,1.596459,0.750018,0.622269,0.328262,22.479134,4.148347,2.030682,0.267987,0.333551
1720514475,109,0,4295.769043,4291.922852,4315.769043,4323.974121,4263.717773,4276.538574,4256.153809,4394.487305,4220.769043,4232.05127,4491.666504,4509.230957,4389.871582,4646.282227,,,,,,,,,,,,,,,,,,,,,,,,,,,,,,,,,,,,,,,,,,,,,,,,,,,,,,,,,,,,,,,,,,,,,,
1720514475,110,0,4307.307617,4307.179688,4312.179688,4334.102539,4268.717773,4277.05127,4251.794922,4388.846191,4219.871582,4228.974121,4494.487305,4501.666504,4402.692383,4640.256348,,,,,,,,,,,,,,,,,,,,,,,,,,,,,,,,,,,,,,,,,,,,,,,,,,,,,,,,,,,,,,,,,,,,,,
1720514475,111,0,4302.179688,4312.94873,4311.282227,4324.743652,4270.897461,4275.769043,4245,4392.94873,4221.794922,4225,4481.025879,4498.846191,4386.282227,4626.025879,,,,,,,,,,,,,,,,,,,,,,,,,,,,,,,,,,,,,,,,,,,,,,,,,,,,,,,,,,,,,,,,,,,,,,
1720514475,112,0,4282.436035,4298.205078,4302.307617,4315.128418,4263.077148,4266.922852,4241.794922,4392.436035,4234.102539,4231.922852,4472.179688,4497.05127,4371.794922,4602.94873,,,,,,,,,,,,,,,,,,,,,,,,,,,,,,,,,,,,,,,,,,,,,,,,,,,,,,,,,,,,,,,,,,,,,,
1720514475,113,0,4272.179688,4290,4286.538574,4314.230957,4260.256348,4265.512695,4243.717773,4396.666504,4244.615234,4234.487305,4477.179688,4493.077148,4377.179688,4587.436035,,,,,,,,,,,,,,,,,,,,,,,,,,,,,,,,,,,,,,,,,,,,,,,,,,,,,,,,,,,,,,,,,,,,,,
1720514475,114,0,4270.641113,4294.487305,4283.077148,4311.794922,4264.487305,4272.692383,4245.128418,4401.666504,4242.692383,4232.179688,4479.871582,4485.769043,4378.717773,4581.666504,,,,,,,,,,,,,,,,,,,,,,,,,,,,,,,,,,,,,,,,,,,,,,,,,,,,,,,,,,,,,,,,,,,,,,
1720514475,115,0,4271.282227,4297.179688,4293.846191,4314.743652,4265.897461,4269.487305,4241.922852,4395.641113,4234.615234,4228.205078,4469.487305,4483.077148,4370.256348,4581.025879,,,,,,,,,,,,,,,,,,,,,,,,,,,,,,,,,,,,,,,,,,,,,,,,,,,,,,,,,,,,,,,,,,,,,,
1720514475,116,0,4280,4298.333496,4305.641113,4326.922852,4267.179688,4262.436035,4240.897461,4389.102539,4223.333496,4220.384766,4463.205078,4498.205078,4363.846191,4582.436035,,,,,,,,,,,,,,,,,,,,,,,,,,,,,,,,,,,,,,,,,,,,,,,,,,,,,,,,,,,,,,,,,,,,,,
1720514475,117,0,4281.153809,4297.179688,4312.563965,4328.846191,4267.94873,4263.974121,4245.512695,4386.153809,4211.282227,4214.615234,4480.128418,4515.769043,4368.589844,4580.897461,,,,,,,,,,,,,,,,,,,,,,,,,,,,,,,,,,,,,,,,,,,,,,,,,,,,,,,,,,,,,,,,,,,,,,
1720514475,118,0,4264.102539,4294.230957,4311.922852,4316.153809,4264.102539,4265,4251.538574,4385.769043,4207.692383,4218.589844,4492.179688,4517.05127,4381.922852,4578.717773,,,,,,,,,,,,,,,,,,,,,,,,,,,,,,,,,,,,,,,,,,,,,,,,,,,,,,,,,,,,,,,,,,,,,,
1720514475,119,0,4250.128418,4294.487305,4302.436035,4312.436035,4264.102539,4263.974121,4252.563965,4389.615234,4209.743652,4226.666504,4483.717773,4501.794922,4384.871582,4570.512695,,,,,,,,,,,,,,,,,,,,,,,,,,,,,,,,,,,,,,,,,,,,,,,,,,,,,,,,,,,,,,,,,,,,,,
1720514475,120,0,4249.358887,4288.461426,4291.410156,4311.410156,4264.615234,4263.974121,4250.256348,4391.153809,4211.153809,4231.025879,4479.358887,4485.641113,4377.436035,4555.769043,,,,,,,,,,,,,,,,,,,,,,,,,,,,,,,,,,,,,,,,,,,,,,,,,,,,,,,,,,,,,,,,,,,,,,
1720514475,121,0,4242.179688,4270.897461,4294.487305,4300.256348,4258.333496,4263.589844,4256.282227,4397.94873,4227.436035,4242.179688,4493.077148,4497.179688,4383.846191,4553.333496,,,,,,,,,,,,,,,,,,,,,,,,,,,,,,,,,,,,,,,,,,,,,,,,,,,,,,,,,,,,,,,,,,,,,,
1720514475,122,0,4228.846191,4260.384766,4295.128418,4294.487305,4252.307617,4264.358887,4259.615234,4409.230957,4246.794922,4249.487305,4498.974121,4510.256348,4391.538574,4552.820313,,,,,,,,,,,,,,,,,,,,,,,,,,,,,,,,,,,,,,,,,,,,,,,,,,,,,,,,,,,,,,,,,,,,,,
1720514475,123,0,4234.230957,4270.256348,4283.846191,4302.692383,4257.820313,4263.974121,4250.384766,4396.538574,4238.846191,4241.538574,4479.487305,4487.05127,4378.461426,4529.487305,,,,,,,,,,,,,,,,,,,,,,,,,,,,,,,,,,,,,,,,,,,,,,,,,,,,,,,,,,,,,,,,,,,,,,
1720514475,124,0,4248.333496,4279.743652,4285.128418,4311.025879,4265.256348,4262.692383,4246.922852,4385.256348,4222.94873,4231.666504,4465.384766,4468.205078,4366.410156,4512.436035,33.562721,4.566771,1.754083,0.716002,0.203611,4.362085,1.115306,0.392588,0.314896,0.207466,3.013164,1.423759,0.982203,0.297623,0.12255,1.897524,0.577567,0.591306,0.363277,0.230621,0.396168,0.159276,0.157625,0.095325,0.138311,0.451167,0.35071,0.204743,0.143957,0.083111,0.388537,0.751862,0.170728,0.229496,0.063956,3.103851,1.057365,0.451799,0.167742,0.24204,2.02336,0.610259,0.425432,0.334689,0.163285,1.330444,0.657122,0.522035,0.561599,0.16718,4.082315,1.615053,1.010995,0.644322,0.280048,6.856412,5.122285,1.93233,0.422576,0.217215,5.303963,1.564325,0.840572,0.550155,0.345971,25.971901,4.708293,2.060068,0.24827,0.3063
1720514475,125,0,4245.128418,4273.974121,4295.641113,4308.205078,4263.333496,4261.538574,4247.307617,4390.512695,4213.077148,4227.692383,4470.641113,4480.256348,4371.538574,4514.487305,,,,,,,,,,,,,,,,,,,,,,,,,,,,,,,,,,,,,,,,,,,,,,,,,,,,,,,,,,,,,,,,,,,,,,
1720514475,126,0,4240.897461,4277.307617,4297.179688,4308.974121,4266.282227,4261.282227,4236.410156,4377.179688,4198.846191,4221.922852,4468.974121,4485.512695,4372.820313,4508.717773,,,,,,,,,,,,,,,,,,,,,,,,,,,,,,,,,,,,,,,,,,,,,,,,,,,,,,,,,,,,,,,,,,,,,,
1720514475,127,0,4249.615234,4296.153809,4297.563965,4317.692383,4277.179688,4263.717773,4231.538574,4367.820313,4192.307617,4221.025879,4463.461426,4486.025879,4370,4502.179688,,,,,,,,,,,,,,,,,,,,,,,,,,,,,,,,,,,,,,,,,,,,,,,,,,,,,,,,,,,,,,,,,,,,,,
1720514475,0,0,4252.563965,4301.153809,4296.666504,4323.333496,4277.436035,4263.846191,4241.282227,4374.102539,4197.563965,4230.512695,4473.077148,4488.846191,4378.846191,4499.358887,,,,,,,,,,,,,,,,,,,,,,,,,,,,,,,,,,,,,,,,,,,,,,,,,,,,,,,,,,,,,,,,,,,,,,
1720514475,1,0,4252.436035,4287.820313,4296.922852,4326.025879,4267.94873,4260.256348,4246.922852,4374.743652,4190.256348,4226.538574,4480.256348,4483.077148,4382.94873,4487.692383,,,,,,,,,,,,,,,,,,,,,,,,,,,,,,,,,,,,,,,,,,,,,,,,,,,,,,,,,,,,,,,,,,,,,,
1720514475,2,0,4252.563965,4283.846191,4311.282227,4325.897461,4263.846191,4264.487305,4248.974121,4379.102539,4180.641113,4219.358887,4481.025879,4494.358887,4381.538574,4485.256348,,,,,,,,,,,,,,,,,,,,,,,,,,,,,,,,,,,,,,,,,,,,,,,,,,,,,,,,,,,,,,,,,,,,,,
1720514475,3,0,4239.743652,4292.179688,4312.820313,4319.358887,4264.743652,4276.410156,4250,4382.436035,4181.794922,4227.94873,4485.256348,4511.282227,4386.666504,4486.153809,,,,,,,,,,,,,,,,,,,,,,,,,,,,,,,,,,,,,,,,,,,,,,,,,,,,,,,,,,,,,,,,,,,,,,
1720514475,4,0,4226.153809,4293.205078,4287.307617,4314.615234,4265,4282.820313,4247.563965,4377.94873,4186.025879,4231.922852,4471.794922,4497.692383,4379.102539,4465.512695,,,,,,,,,,,,,,,,,,,,,,,,,,,,,,,,,,,,,,,,,,,,,,,,,,,,,,,,,,,,,,,,,,,,,,
1720514475,5,0,4227.436035,4279.230957,4270.641113,4309.615234,4263.717773,4282.436035,4245.641113,4378.461426,4193.333496,4229.871582,4457.05127,4473.974121,4371.794922,4444.487305,,,,,,,,,,,,,,,,,,,,,,,,,,,,,,,,,,,,,,,,,,,,,,,,,,,,,,,,,,,,,,,,,,,,,,
1720514475,6,0,4231.410156,4266.666504,4276.153809,4297.05127,4261.538574,4282.692383,4245.641113,4374.230957,4193.077148,4226.153809,4460,4467.05127,4380.256348,4438.077148,,,,,,,,,,,,,,,,,,,,,,,,,,,,,,,,,,,,,,,,,,,,,,,,,,,,,,,,,,,,,,,,,,,,,,
1720514475,7,0,4221.025879,4263.461426,4284.102539,4295.512695,4259.487305,4288.589844,4246.410156,4365.641113,4190.128418,4219.487305,4457.692383,4468.333496,4375.769043,4433.333496,,,,,,,,,,,,,,,,,,,,,,,,,,,,,,,,,,,,,,,,,,,,,,,,,,,,,,,,,,,,,,,,,,,,,,
1720514475,8,0,4210.897461,4259.358887,4286.666504,4304.743652,4257.94873,4295,4248.589844,4378.589844,4194.743652,4223.205078,4460.897461,4476.538574,4371.410156,4440,,,,,,,,,,,,,,,,,,,,,,,,,,,,,,,,,,,,,,,,,,,,,,,,,,,,,,,,,,,,,,,,,,,,,,
1720514475,9,0,4218.333496,4258.205078,4288.846191,4303.846191,4258.461426,4291.666504,4250.769043,4383.333496,4192.692383,4233.974121,4472.05127,4480.256348,4387.05127,4447.692383,,,,,,,,,,,,,,,,,,,,,,,,,,,,,,,,,,,,,,,,,,,,,,,,,,,,,,,,,,,,,,,,,,,,,,
1720514475,10,0,4234.358887,4262.307617,4296.282227,4303.589844,4261.922852,4281.410156,4249.358887,4369.358887,4183.461426,4238.589844,4475,4484.230957,4398.461426,4440.769043,,,,,,,,,,,,,,,,,,,,,,,,,,,,,,,,,,,,,,,,,,,,,,,,,,,,,,,,,,,,,,,,,,,,,,
1720514475,11,0,4243.717773,4267.820313,4309.102539,4311.025879,4264.487305,4276.410156,4246.794922,4367.820313,4183.717773,4241.410156,4484.487305,4504.230957,4405.897461,4439.871582,,,,,,,,,,,,,,,,,,,,,,,,,,,,,,,,,,,,,,,,,,,,,,,,,,,,,,,,,,,,,,,,,,,,,,
1720514475,12,0,4247.179688,4274.743652,4312.94873,4312.436035,4265.256348,4277.94873,4247.692383,4370,4185,4240.512695,4496.666504,4512.820313,4416.666504,4445.256348,37.925102,4.922178,1.663137,0.642127,0.206827,4.577208,1.277404,0.396511,0.344337,0.220467,3.281589,1.399404,1.042591,0.2833,0.126065,2.081189,0.583595,0.615451,0.35085,0.235747,0.398556,0.145416,0.142425,0.096891,0.136188,0.464889,0.289255,0.216534,0.126568,0.082284,0.429503,0.910269,0.227186,0.259019,0.064584,2.113778,0.888879,0.391682,0.157898,0.239447,1.807088,0.641754,0.583157,0.327997,0.168362,1.4843,0.718779,0.582628,0.525565,0.164904,4.644992,1.835061,1.241201,0.578982,0.281653,6.719147,4.712393,1.870108,0.414366,0.212541,6.134369,1.75504,1.03237,0.491572,0.371235,27.876808,5.247983,2.129026,0.261344,0.277647
1720514475,13,0,4252.179688,4280.128418,4312.820313,4313.461426,4270.769043,4279.358887,4247.94873,4370.769043,4178.333496,4233.461426,4493.077148,4509.487305,4412.05127,4441.666504,,,,,,,,,,,,,,,,,,,,,,,,,,,,,,,,,,,,,,,,,,,,,,,,,,,,,,,,,,,,,,,,,,,,,,
1720514475,14,0,4248.077148,4280.128418,4318.333496,4316.666504,4276.794922,4280.256348,4242.692383,4364.871582,4171.922852,4234.102539,4485.769043,4510.641113,4401.153809,4437.436035,,,,,,,,,,,,,,,,,,,,,,,,,,,,,,,,,,,,,,,,,,,,,,,,,,,,,,,,,,,,,,,,,,,,,,
1720514475,15,0,4238.333496,4278.717773,4311.410156,4312.05127,4273.077148,4279.871582,4238.974121,4355.384766,4166.538574,4233.205078,4481.794922,4505,4397.563965,4429.743652,,,,,,,,,,,,,,,,,,,,,,,,,,,,,,,,,,,,,,,,,,,,,,,,,,,,,,,,,,,,,,,,,,,,,,
1720514475,16,0,4232.94873,4277.05127,4297.179688,4311.794922,4266.153809,4280.641113,4244.615234,4360.256348,4165.897461,4220.128418,4462.692383,4490.128418,4382.820313,4405,,,,,,,,,,,,,,,,,,,,,,,,,,,,,,,,,,,,,,,,,,,,,,,,,,,,,,,,,,,,,,,,,,,,,,
1720514475,17,0,4220.256348,4268.077148,4292.05127,4311.282227,4264.615234,4286.922852,4250.897461,4366.153809,4167.563965,4214.871582,4443.846191,4480.256348,4361.794922,4381.666504,,,,,,,,,,,,,,,,,,,,,,,,,,,,,,,,,,,,,,,,,,,,,,,,,,,,,,,,,,,,,,,,,,,,,,
1720514475,18,0,4200.128418,4259.230957,4285.256348,4298.205078,4263.974121,4290.641113,4249.615234,4362.692383,4166.538574,4216.025879,4443.974121,4470.769043,4363.077148,4370.769043,,,,,,,,,,,,,,,,,,,,,,,,,,,,,,,,,,,,,,,,,,,,,,,,,,,,,,,,,,,,,,,,,,,,,,
1720514475,19,0,4196.153809,4258.077148,4274.102539,4290.769043,4261.025879,4286.666504,4246.153809,4358.333496,4167.820313,4214.487305,4451.153809,4458.846191,4376.794922,4361.538574,,,,,,,,,,,,,,,,,,,,,,,,,,,,,,,,,,,,,,,,,,,,,,,,,,,,,,,,,,,,,,,,,,,,,,
1720514475,20,0,4203.974121,4257.307617,4274.102539,4294.743652,4261.410156,4286.410156,4242.179688,4355.641113,4167.05127,4213.333496,4456.153809,4462.179688,4375.512695,4358.846191,,,,,,,,,,,,,,,,,,,,,,,,,,,,,,,,,,,,,,,,,,,,,,,,,,,,,,,,,,,,,,,,,,,,,,
1720514475,21,0,4202.307617,4257.05127,4279.358887,4295.897461,4264.615234,4293.717773,4237.692383,4355.256348,4168.461426,4215.512695,4455.641113,4470.384766,4370.512695,4362.179688,,,,,,,,,,,,,,,,,,,,,,,,,,,,,,,,,,,,,,,,,,,,,,,,,,,,,,,,,,,,,,,,,,,,,,
1720514475,22,0,4205.256348,4258.589844,4282.436035,4296.666504,4262.436035,4291.922852,4234.487305,4360.384766,4171.538574,4222.179688,4464.102539,4476.538574,4385.512695,4368.461426,,,,,,,,,,,,,,,,,,,,,,,,,,,,,,,,,,,,,,,,,,,,,,,,,,,,,,,,,,,,,,,,,,,,,,
1720514475,23,0,4222.05127,4262.05127,4290.512695,4302.563965,4261.922852,4278.717773,4229.615234,4346.153809,4162.05127,4230.128418,4486.538574,4482.692383,4404.102539,4374.102539,,,,,,,,,,,,,,,,,,,,,,,,,,,,,,,,,,,,,,,,,,,,,,,,,,,,,,,,,,,,,,,,,,,,,,
1720514475,24,0,4235,4270.384766,4305.769043,4312.05127,4273.974121,4275.641113,4225.897461,4336.794922,4155.897461,4233.846191,4493.333496,4494.743652,4405.769043,4379.230957,,,,,,,,,,,,,,,,,,,,,,,,,,,,,,,,,,,,,,,,,,,,,,,,,,,,,,,,,,,,,,,,,,,,,,
1720514475,25,0,4233.717773,4273.846191,4317.436035,4314.358887,4279.358887,4284.871582,4227.05127,4355.512695,4163.589844,4236.922852,4485.897461,4508.974121,4402.692383,4379.487305,,,,,,,,,,,,,,,,,,,,,,,,,,,,,,,,,,,,,,,,,,,,,,,,,,,,,,,,,,,,,,,,,,,,,,
1720514475,26,0,4221.025879,4267.436035,4306.153809,4303.846191,4266.153809,4283.717773,4231.538574,4349.743652,4168.077148,4241.538574,4497.307617,4497.820313,4401.538574,4366.282227,,,,,,,,,,,,,,,,,,,,,,,,,,,,,,,,,,,,,,,,,,,,,,,,,,,,,,,,,,,,,,,,,,,,,,
1720514475,27,0,4203.077148,4259.871582,4282.820313,4294.743652,4258.461426,4277.436035,4237.179688,4337.94873,4174.230957,4239.871582,4516.025879,4476.025879,4392.436035,4347.94873,,,,,,,,,,,,,,,,,,,,,,,,,,,,,,,,,,,,,,,,,,,,,,,,,,,,,,,,,,,,,,,,,,,,,,
1720514475,28,0,4189.487305,4252.05127,4272.436035,4296.025879,4264.102539,4286.282227,4248.205078,4353.846191,4183.974121,4236.153809,4507.820313,4464.487305,4376.538574,4330.897461,37.104362,4.823345,1.724956,0.597316,0.225937,4.227102,1.509509,0.430904,0.392734,0.238486,3.229692,1.360454,1.211766,0.309653,0.132167,2.014221,0.616546,0.662922,0.374428,0.244386,0.371107,0.146563,0.13922,0.100887,0.134212,0.475458,0.263219,0.228932,0.111828,0.08072,0.463166,1.045069,0.316214,0.289769,0.067797,1.340167,0.769016,0.379359,0.159089,0.237374,1.662846,0.702835,0.85467,0.329891,0.175324,1.546751,0.880069,0.684873,0.487318,0.167029,4.765503,2.134725,1.53891,0.550641,0.295159,6.130524,4.314178,1.9435,0.45679,0.224838,6.321549,2.063752,1.297323,0.464975,0.410515,28.632395,5.653894,2.283389,0.30983,0.256849
1720514475,29,0,4181.282227,4245.512695,4267.05127,4296.794922,4264.743652,4298.205078,4259.358887,4358.589844,4177.692383,4231.025879,4486.282227,4452.94873,4365,4314.487305,,,,,,,,,,,,,,,,,,,,,,,,,,,,,,,,,,,,,,,,,,,,,,,,,,,,,,,,,,,,,,,,,,,,,,
1720514475,30,0,4172.307617,4246.410156,4260.128418,4293.333496,4261.666504,4297.820313,4258.846191,4353.846191,4169.358887,4224.871582,4479.102539,4447.692383,4364.358887,4308.589844,,,,,,,,,,,,,,,,,,,,,,,,,,,,,,,,,,,,,,,,,,,,,,,,,,,,,,,,,,,,,,,,,,,,,,
1720514475,31,0,4169.615234,4249.487305,4263.077148,4293.846191,4263.717773,4295.384766,4253.205078,4356.794922,4174.743652,4222.820313,4478.205078,4457.05127,4367.692383,4310.384766,,,,,,,,,,,,,,,,,,,,,,,,,,,,,,,,,,,,,,,,,,,,,,,,,,,,,,,,,,,,,,,,,,,,,,
1720514475,32,0,4180.769043,4248.717773,4271.282227,4299.102539,4263.974121,4294.743652,4248.589844,4350.897461,4171.025879,4220.897461,4473.461426,4464.615234,4363.077148,4313.077148,,,,,,,,,,,,,,,,,,,,,,,,,,,,,,,,,,,,,,,,,,,,,,,,,,,,,,,,,,,,,,,,,,,,,,
1720514475,33,0,4192.692383,4251.794922,4278.589844,4303.589844,4261.666504,4286.794922,4240.769043,4345.769043,4156.794922,4218.846191,4469.743652,4468.461426,4358.846191,4320.384766,,,,,,,,,,,,,,,,,,,,,,,,,,,,,,,,,,,,,,,,,,,,,,,,,,,,,,,,,,,,,,,,,,,,,,
1720514475,34,0,4193.846191,4253.846191,4279.743652,4303.205078,4262.05127,4276.410156,4227.820313,4349.743652,4144.358887,4213.077148,4467.820313,4471.666504,4360.256348,4316.538574,,,,,,,,,,,,,,,,,,,,,,,,,,,,,,,,,,,,,,,,,,,,,,,,,,,,,,,,,,,,,,,,,,,,,,
1720514475,35,0,4189.487305,4250.769043,4267.692383,4296.153809,4262.94873,4274.102539,4213.974121,4338.461426,4137.692383,4201.025879,4457.94873,4457.820313,4346.922852,4293.205078,,,,,,,,,,,,,,,,,,,,,,,,,,,,,,,,,,,,,,,,,,,,,,,,,,,,,,,,,,,,,,,,,,,,,,
1720514475,36,0,4186.025879,4243.717773,4261.666504,4289.230957,4262.179688,4276.282227,4212.820313,4342.820313,4147.563965,4202.563965,4452.820313,4452.692383,4337.563965,4289.102539,,,,,,,,,,,,,,,,,,,,,,,,,,,,,,,,,,,,,,,,,,,,,,,,,,,,,,,,,,,,,,,,,,,,,,
1720514475,37,0,4193.717773,4245.769043,4274.102539,4295.641113,4265.384766,4277.179688,4225,4361.794922,4164.615234,4226.922852,4469.487305,4471.282227,4363.589844,4308.461426,,,,,,,,,,,,,,,,,,,,,,,,,,,,,,,,,,,,,,,,,,,,,,,,,,,,,,,,,,,,,,,,,,,,,,
1720514475,38,0,4205.641113,4258.717773,4283.589844,4307.563965,4270.256348,4282.436035,4236.538574,4356.153809,4168.205078,4238.589844,4483.333496,4478.205078,4382.307617,4309.871582,,,,,,,,,,,,,,,,,,,,,,,,,,,,,,,,,,,,,,,,,,,,,,,,,,,,,,,,,,,,,,,,,,,,,,
1720514475,39,0,4196.410156,4258.077148,4280.128418,4302.94873,4267.820313,4291.666504,4241.410156,4352.563965,4165.128418,4229.615234,4478.205078,4471.282227,4366.282227,4296.794922,,,,,,,,,,,,,,,,,,,,,,,,,,,,,,,,,,,,,,,,,,,,,,,,,,,,,,,,,,,,,,,,,,,,,,
1720514475,40,0,4183.077148,4244.358887,4271.538574,4292.94873,4262.563965,4296.794922,4248.974121,4363.717773,4170.641113,4233.717773,4475,4470.512695,4363.846191,4294.615234,,,,,,,,,,,,,,,,,,,,,,,,,,,,,,,,,,,,,,,,,,,,,,,,,,,,,,,,,,,,,,,,,,,,,,
1720514475,41,0,4180.641113,4239.102539,4264.743652,4290.897461,4261.538574,4294.743652,4254.487305,4369.743652,4174.487305,4234.871582,4474.358887,4468.974121,4368.589844,4292.820313,,,,,,,,,,,,,,,,,,,,,,,,,,,,,,,,,,,,,,,,,,,,,,,,,,,,,,,,,,,,,,,,,,,,,,
1720514475,42,0,4174.358887,4242.94873,4260.512695,4289.230957,4261.794922,4286.410156,4250,4363.205078,4171.538574,4218.846191,4463.205078,4456.922852,4351.025879,4279.743652,,,,,,,,,,,,,,,,,,,,,,,,,,,,,,,,,,,,,,,,,,,,,,,,,,,,,,,,,,,,,,,,,,,,,,
1720514475,43,0,4170.641113,4245.128418,4260.897461,4291.922852,4261.794922,4284.102539,4246.282227,4358.205078,4171.153809,4218.461426,4456.922852,4453.333496,4345,4273.974121,,,,,,,,,,,,,,,,,,,,,,,,,,,,,,,,,,,,,,,,,,,,,,,,,,,,,,,,,,,,,,,,,,,,,,
1720514475,44,0,4178.589844,4247.94873,4266.666504,4302.563965,4263.333496,4286.922852,4248.333496,4360.256348,4169.358887,4232.436035,4458.846191,4460.512695,4355.897461,4277.179688,31.289099,4.346665,1.893237,0.6002,0.257101,3.477694,1.762406,0.489164,0.449937,0.261091,2.829513,1.371431,1.507503,0.371685,0.142708,1.727784,0.696702,0.737914,0.434552,0.257049,0.318269,0.170535,0.149026,0.103559,0.132216,0.481306,0.279143,0.232835,0.103711,0.079253,0.466815,1.123136,0.421385,0.316263,0.073151,0.880188,0.708374,0.449766,0.168066,0.234776,1.65856,0.837103,1.270423,0.344999,0.1821,1.496423,1.07725,0.825223,0.450944,0.171321,4.402665,2.428035,1.85385,0.555009,0.322927,5.11845,4.041038,2.152985,0.551094,0.262838,5.725517,2.35515,1.602266,0.471788,0.461576,27.139524,5.820514,2.503242,0.383612,0.246384
1720514475,45,0,4187.563965,4251.922852,4278.461426,4308.717773,4265.128418,4283.077148,4246.410156,4355.512695,4159.871582,4233.717773,4456.666504,4464.358887,4358.333496,4279.487305,,,,,,,,,,,,,,,,,,,,,,,,,,,,,,,,,,,,,,,,,,,,,,,,,,,,,,,,,,,,,,,,,,,,,,
1720514475,46,0,4198.974121,4256.666504,4290.256348,4309.487305,4268.333496,4277.05127,4239.487305,4351.922852,4159.871582,4236.282227,4465.384766,4481.666504,4365.128418,4291.410156,,,,,,,,,,,,,,,,,,,,,,,,,,,,,,,,,,,,,,,,,,,,,,,,,,,,,,,,,,,,,,,,,,,,,,
1720514475,47,0,4209.358887,4266.538574,4295.641113,4313.205078,4269.230957,4278.205078,4231.794922,4358.333496,4179.358887,4245.769043,4480.384766,4497.05127,4373.205078,4298.333496,,,,,,,,,,,,,,,,,,,,,,,,,,,,,,,,,,,,,,,,,,,,,,,,,,,,,,,,,,,,,,,,,,,,,,
1720514475,48,0,4198.333496,4264.102539,4294.487305,4313.205078,4264.743652,4277.563965,4231.794922,4361.538574,4187.820313,4238.846191,4473.077148,4485.769043,4358.589844,4280.256348,,,,,,,,,,,,,,,,,,,,,,,,,,,,,,,,,,,,,,,,,,,,,,,,,,,,,,,,,,,,,,,,,,,,,,
1720514475,49,0,4184.358887,4252.436035,4288.717773,4305.128418,4262.179688,4276.282227,4240.384766,4352.563965,4176.538574,4227.820313,4453.974121,4475.128418,4345.769043,4265,,,,,,,,,,,,,,,,,,,,,,,,,,,,,,,,,,,,,,,,,,,,,,,,,,,,,,,,,,,,,,,,,,,,,,
1720514475,50,0,4183.205078,4247.692383,4281.666504,4298.205078,4262.692383,4280.897461,4240.384766,4347.563965,4167.820313,4225.897461,4446.025879,4464.102539,4346.153809,4266.922852,,,,,,,,,,,,,,,,,,,,,,,,,,,,,,,,,,,,,,,,,,,,,,,,,,,,,,,,,,,,,,,,,,,,,,
1720514475,51,0,4172.05127,4241.794922,4267.307617,4294.102539,4260.512695,4281.410156,4231.922852,4339.230957,4168.974121,4220.384766,4440.769043,4416.538574,4338.589844,4253.846191,,,,,,,,,,,,,,,,,,,,,,,,,,,,,,,,,,,,,,,,,,,,,,,,,,,,,,,,,,,,,,,,,,,,,,
1720514475,52,0,4160.384766,4231.410156,4254.615234,4289.487305,4258.589844,4280.384766,4237.94873,4329.743652,4172.563965,4216.282227,4439.743652,4377.179688,4337.563965,4239.871582,,,,,,,,,,,,,,,,,,,,,,,,,,,,,,,,,,,,,,,,,,,,,,,,,,,,,,,,,,,,,,,,,,,,,,
1720514475,53,0,4171.538574,4229.871582,4266.538574,4293.461426,4260.512695,4286.666504,4251.153809,4342.820313,4171.410156,4219.871582,4447.307617,4395.128418,4349.102539,4259.358887,,,,,,,,,,,,,,,,,,,,,,,,,,,,,,,,,,,,,,,,,,,,,,,,,,,,,,,,,,,,,,,,,,,,,,
1720514475,54,0,4182.94873,4237.436035,4278.333496,4303.589844,4262.05127,4295.769043,4250.641113,4349.230957,4167.692383,4222.94873,4443.974121,4410.128418,4347.820313,4275.769043,,,,,,,,,,,,,,,,,,,,,,,,,,,,,,,,,,,,,,,,,,,,,,,,,,,,,,,,,,,,,,,,,,,,,,
1720514475,55,0,4173.717773,4234.487305,4269.358887,4300.897461,4260.512695,4294.487305,4246.794922,4345.897461,4175,4226.538574,4445,4401.153809,4340.512695,4277.94873,,,,,,,,,,,,,,,,,,,,,,,,,,,,,,,,,,,,,,,,,,,,,,,,,,,,,,,,,,,,,,,,,,,,,,
1720514475,56,0,4167.307617,4230.641113,4268.589844,4289.743652,4258.717773,4284.487305,4251.153809,4355.512695,4190.256348,4232.436035,4459.358887,4406.153809,4347.436035,4296.282227,,,,,,,,,,,,,,,,,,,,,,,,,,,,,,,,,,,,,,,,,,,,,,,,,,,,,,,,,,,,,,,,,,,,,,
1720514475,57,0,4177.563965,4241.538574,4282.563965,4294.615234,4257.94873,4278.333496,4249.743652,4357.05127,4199.102539,4235.897461,4460.256348,4413.589844,4354.358887,4322.692383,,,,,,,,,,,,,,,,,,,,,,,,,,,,,,,,,,,,,,,,,,,,,,,,,,,,,,,,,,,,,,,,,,,,,,
1720514475,58,0,4187.436035,4252.820313,4284.358887,4302.307617,4261.153809,4277.307617,4238.333496,4352.179688,4198.974121,4237.05127,4455.897461,4418.974121,4351.794922,4348.717773,,,,,,,,,,,,,,,,,,,,,,,,,,,,,,,,,,,,,,,,,,,,,,,,,,,,,,,,,,,,,,,,,,,,,,
1720514476,59,0,4188.461426,4252.436035,4280,4299.102539,4261.922852,4277.05127,4231.282227,4348.205078,4192.94873,4235.128418,4456.922852,4420.641113,4344.743652,4374.743652,,,,,,,,,,,,,,,,,,,,,,,,,,,,,,,,,,,,,,,,,,,,,,,,,,,,,,,,,,,,,,,,,,,,,,
1720514476,60,0,4185.512695,4241.410156,4281.666504,4296.538574,4254.743652,4278.077148,4239.102539,4337.436035,4187.563965,4235.897461,4450.512695,4411.153809,4343.717773,4390.641113,22.28508,3.848325,2.075155,0.640406,0.291376,2.578058,2.017874,0.560431,0.497091,0.28447,2.201701,1.584259,1.881476,0.453137,0.159662,1.321363,0.861905,0.825234,0.508699,0.269759,0.257682,0.228716,0.171526,0.103478,0.129366,0.505643,0.342018,0.224306,0.103231,0.079456,0.445322,1.143543,0.520983,0.330999,0.079157,0.669106,0.688037,0.5974,0.179445,0.233027,1.793127,1.086568,1.802237,0.373377,0.18641,1.371629,1.253779,0.981382,0.417989,0.175295,3.775088,2.704216,2.126081,0.573942,0.361743,3.962888,4.002177,2.427402,0.674212,0.326201,4.56826,2.597492,1.896077,0.495459,0.514202,23.216618,5.814632,2.725966,0.466073,0.242534
1720514476,61,0,4178.974121,4236.282227,4276.410156,4296.153809,4248.717773,4279.230957,4248.333496,4332.179688,4186.025879,4235.256348,4442.436035,4404.487305,4348.589844,4402.820313,,,,,,,,,,,,,,,,,,,,,,,,,,,,,,,,,,,,,,,,,,,,,,,,,,,,,,,,,,,,,,,,,,,,,,
1720514476,62,0,4173.846191,4239.615234,4264.487305,4296.666504,4247.692383,4282.05127,4249.871582,4337.179688,4184.871582,4223.205078,4440.897461,4400.897461,4338.205078,4417.179688,,,,,,,,,,,,,,,,,,,,,,,,,,,,,,,,,,,,,,,,,,,,,,,,,,,,,,,,,,,,,,,,,,,,,,
1720514476,63,0,4170.256348,4239.615234,4260.128418,4294.102539,4245.897461,4290.256348,4253.974121,4333.077148,4184.358887,4214.487305,4431.025879,4388.333496,4323.461426,4418.846191,,,,,,,,,,,,,,,,,,,,,,,,,,,,,,,,,,,,,,,,,,,,,,,,,,,,,,,,,,,,,,,,,,,,,,
1720514476,64,0,4158.717773,4231.666504,4260.769043,4286.282227,4245.384766,4299.230957,4261.025879,4333.589844,4181.666504,4213.077148,4419.487305,4383.077148,4323.333496,4421.922852,,,,,,,,,,,,,,,,,,,,,,,,,,,,,,,,,,,,,,,,,,,,,,,,,,,,,,,,,,,,,,,,,,,,,,
1720514476,65,0,4147.179688,4221.410156,4252.563965,4278.589844,4243.589844,4294.487305,4261.538574,4338.333496,4171.922852,4211.410156,4418.846191,4386.922852,4320.384766,4435.512695,,,,,,,,,,,,,,,,,,,,,,,,,,,,,,,,,,,,,,,,,,,,,,,,,,,,,,,,,,,,,,,,,,,,,,
1720514476,66,0,4154.230957,4223.205078,4244.102539,4276.153809,4235.256348,4281.666504,4250.641113,4325,4165.256348,4212.307617,4415,4378.589844,4311.410156,4438.974121,,,,,,,,,,,,,,,,,,,,,,,,,,,,,,,,,,,,,,,,,,,,,,,,,,,,,,,,,,,,,,,,,,,,,,
1720514476,67,0,4170.769043,4230.897461,4255.769043,4281.666504,4234.230957,4275.769043,4235.897461,4322.307617,4168.077148,4215.128418,4412.692383,4376.922852,4314.230957,4444.871582,,,,,,,,,,,,,,,,,,,,,,,,,,,,,,,,,,,,,,,,,,,,,,,,,,,,,,,,,,,,,,,,,,,,,,
1720514476,68,0,4178.077148,4233.205078,4271.538574,4289.871582,4243.205078,4276.282227,4231.922852,4327.820313,4166.666504,4217.692383,4426.153809,4395,4324.615234,4465.384766,,,,,,,,,,,,,,,,,,,,,,,,,,,,,,,,,,,,,,,,,,,,,,,,,,,,,,,,,,,,,,,,,,,,,,
1720514476,69,0,4188.461426,4234.743652,4276.410156,4293.846191,4246.666504,4276.410156,4233.589844,4323.205078,4168.717773,4225.384766,4445.256348,4419.358887,4337.563965,4492.563965,,,,,,,,,,,,,,,,,,,,,,,,,,,,,,,,,,,,,,,,,,,,,,,,,,,,,,,,,,,,,,,,,,,,,,
1720514476,70,0,4204.615234,4243.717773,4284.743652,4297.307617,4245,4275,4231.666504,4325.897461,4179.358887,4236.666504,4452.692383,4430.384766,4346.794922,4511.153809,,,,,,,,,,,,,,,,,,,,,,,,,,,,,,,,,,,,,,,,,,,,,,,,,,,,,,,,,,,,,,,,,,,,,,
1720514476,71,0,4206.538574,4251.410156,4292.692383,4308.846191,4246.025879,4275.769043,4235.512695,4331.794922,4185.384766,4241.282227,4446.922852,4416.153809,4338.077148,4509.102539,,,,,,,,,,,,,,,,,,,,,,,,,,,,,,,,,,,,,,,,,,,,,,,,,,,,,,,,,,,,,,,,,,,,,,
1720514476,72,0,4200.128418,4246.794922,4286.922852,4310,4245.641113,4277.307617,4249.743652,4335.512695,4185.128418,4236.794922,4438.974121,4408.077148,4328.333496,4504.615234,,,,,,,,,,,,,,,,,,,,,,,,,,,,,,,,,,,,,,,,,,,,,,,,,,,,,,,,,,,,,,,,,,,,,,
1720514476,73,0,4206.282227,4243.846191,4285.769043,4298.205078,4246.025879,4278.461426,4262.820313,4342.179688,4181.922852,4234.102539,4447.179688,4426.538574,4339.871582,4517.692383,,,,,,,,,,,,,,,,,,,,,,,,,,,,,,,,,,,,,,,,,,,,,,,,,,,,,,,,,,,,,,,,,,,,,,
1720514476,74,0,4217.94873,4246.922852,4300.512695,4299.871582,4247.05127,4279.871582,4268.205078,4347.436035,4182.05127,4240.256348,4461.025879,4441.794922,4347.05127,4530.769043,,,,,,,,,,,,,,,,,,,,,,,,,,,,,,,,,,,,,,,,,,,,,,,,,,,,,,,,,,,,,,,,,,,,,,
1720514476,75,0,4217.307617,4247.692383,4300.128418,4304.871582,4240.384766,4279.871582,4265.641113,4338.717773,4185.512695,4239.743652,4453.461426,4433.333496,4334.102539,4521.794922,,,,,,,,,,,,,,,,,,,,,,,,,,,,,,,,,,,,,,,,,,,,,,,,,,,,,,,,,,,,,,,,,,,,,,
1720514476,76,0,4213.589844,4242.436035,4281.025879,4296.410156,4233.077148,4279.358887,4261.025879,4329.743652,4182.563965,4231.153809,4440.256348,4421.282227,4325,4506.922852,13.473636,3.768197,2.17579,0.691487,0.318886,1.850042,2.28772,0.629815,0.516785,0.302692,1.580003,2.152838,2.225246,0.541688,0.183496,0.938309,1.134248,0.89357,0.566924,0.276648,0.209744,0.324096,0.203305,0.101994,0.124988,0.562798,0.463173,0.212792,0.10903,0.082849,0.427438,1.185215,0.609055,0.328473,0.084084,0.5844,0.68293,0.788453,0.187797,0.234264,2.179978,1.45544,2.377669,0.408773,0.187659,1.298491,1.411526,1.136456,0.389239,0.177162,3.187395,3.076333,2.323128,0.586132,0.40407,2.944105,4.311882,2.661237,0.80303,0.404151,3.429096,2.888077,2.141976,0.517657,0.554928,18.960167,5.776206,2.855113,0.546619,0.240808
1720514476,77,0,4215.897461,4236.922852,4272.436035,4290.512695,4231.922852,4279.743652,4258.974121,4329.102539,4173.846191,4236.153809,4439.615234,4419.358887,4327.94873,4503.333496,,,,,,,,,,,,,,,,,,,,,,,,,,,,,,,,,,,,,,,,,,,,,,,,,,,,,,,,,,,,,,,,,,,,,,
1720514476,78,0,4215.128418,4232.563965,4275.897461,4291.538574,4231.538574,4281.794922,4255.641113,4332.05127,4173.333496,4245,4441.538574,4423.974121,4328.717773,4507.179688,,,,,,,,,,,,,,,,,,,,,,,,,,,,,,,,,,,,,,,,,,,,,,,,,,,,,,,,,,,,,,,,,,,,,,
1720514476,79,0,4213.589844,4233.205078,4278.974121,4291.794922,4231.794922,4280,4253.205078,4330.256348,4174.871582,4239.358887,4438.717773,4424.871582,4328.333496,4504.743652,,,,,,,,,,,,,,,,,,,,,,,,,,,,,,,,,,,,,,,,,,,,,,,,,,,,,,,,,,,,,,,,,,,,,,
1720514476,80,0,4217.692383,4241.794922,4282.05127,4294.871582,4234.487305,4277.307617,4252.692383,4318.717773,4162.692383,4228.974121,4431.153809,4415.128418,4327.692383,4497.436035,,,,,,,,,,,,,,,,,,,,,,,,,,,,,,,,,,,,,,,,,,,,,,,,,,,,,,,,,,,,,,,,,,,,,,
1720514476,81,0,4216.025879,4243.461426,4283.205078,4297.307617,4235.128418,4276.922852,4250.641113,4320,4155.384766,4227.94873,4425.769043,4416.153809,4322.307617,4494.615234,,,,,,,,,,,,,,,,,,,,,,,,,,,,,,,,,,,,,,,,,,,,,,,,,,,,,,,,,,,,,,,,,,,,,,
1720514476,82,0,4212.307617,4238.717773,4277.307617,4293.846191,4232.179688,4274.871582,4246.282227,4323.589844,4158.333496,4238.461426,4426.666504,4424.102539,4318.974121,4481.153809,,,,,,,,,,,,,,,,,,,,,,,,,,,,,,,,,,,,,,,,,,,,,,,,,,,,,,,,,,,,,,,,,,,,,,
1720514476,83,0,4222.307617,4241.666504,4276.794922,4293.333496,4231.282227,4275.897461,4245.384766,4316.025879,4159.487305,4244.615234,4432.820313,4422.307617,4325.128418,4464.743652,,,,,,,,,,,,,,,,,,,,,,,,,,,,,,,,,,,,,,,,,,,,,,,,,,,,,,,,,,,,,,,,,,,,,,
1720514476,84,0,4230.897461,4247.436035,4279.102539,4296.410156,4232.820313,4279.743652,4251.666504,4318.717773,4162.563965,4237.179688,4437.307617,4420,4327.436035,4460.641113,,,,,,,,,,,,,,,,,,,,,,,,,,,,,,,,,,,,,,,,,,,,,,,,,,,,,,,,,,,,,,,,,,,,,,
1720514476,85,0,4221.282227,4243.333496,4268.077148,4296.282227,4233.589844,4279.743652,4259.358887,4321.538574,4168.205078,4231.666504,4429.487305,4410.256348,4317.307617,4443.589844,,,,,,,,,,,,,,,,,,,,,,,,,,,,,,,,,,,,,,,,,,,,,,,,,,,,,,,,,,,,,,,,,,,,,,
1720514476,86,0,4208.717773,4234.743652,4256.153809,4292.307617,4231.282227,4278.974121,4259.743652,4314.358887,4170.256348,4232.05127,4416.025879,4395,4307.692383,4415.512695,,,,,,,,,,,,,,,,,,,,,,,,,,,,,,,,,,,,,,,,,,,,,,,,,,,,,,,,,,,,,,,,,,,,,,
1720514476,87,0,4215.256348,4233.461426,4261.153809,4293.461426,4230,4281.794922,4254.230957,4310.384766,4169.871582,4230.384766,4414.743652,4401.025879,4308.205078,4409.102539,,,,,,,,,,,,,,,,,,,,,,,,,,,,,,,,,,,,,,,,,,,,,,,,,,,,,,,,,,,,,,,,,,,,,,
1720514476,88,0,4227.94873,4234.615234,4270.641113,4292.179688,4231.025879,4282.436035,4251.153809,4308.333496,4172.692383,4229.102539,4416.666504,4415,4310.512695,4413.974121,,,,,,,,,,,,,,,,,,,,,,,,,,,,,,,,,,,,,,,,,,,,,,,,,,,,,,,,,,,,,,,,,,,,,,
1720514476,89,0,4225.256348,4230.641113,4264.743652,4283.461426,4230.641113,4278.333496,4246.666504,4302.05127,4172.692383,4231.025879,4413.205078,4408.461426,4309.871582,4405.769043,,,,,,,,,,,,,,,,,,,,,,,,,,,,,,,,,,,,,,,,,,,,,,,,,,,,,,,,,,,,,,,,,,,,,,
1720514476,90,0,4221.282227,4229.487305,4260.256348,4283.717773,4231.794922,4275.128418,4241.666504,4302.692383,4168.333496,4230.384766,4418.077148,4405.256348,4309.487305,4397.05127,,,,,,,,,,,,,,,,,,,,,,,,,,,,,,,,,,,,,,,,,,,,,,,,,,,,,,,,,,,,,,,,,,,,,,
1720514476,91,0,4230.641113,4240.769043,4272.179688,4295.769043,4235.256348,4273.077148,4242.820313,4300.384766,4167.05127,4231.538574,4424.615234,4418.717773,4311.153809,4396.153809,,,,,,,,,,,,,,,,,,,,,,,,,,,,,,,,,,,,,,,,,,,,,,,,,,,,,,,,,,,,,,,,,,,,,,
1720514476,92,0,4236.410156,4249.743652,4283.717773,4299.743652,4234.743652,4268.461426,4244.615234,4298.333496,4176.153809,4239.871582,4427.05127,4429.871582,4319.871582,4397.307617,6.839902,4.410569,2.137232,0.72459,0.333868,1.403127,2.614099,0.680578,0.500541,0.310608,1.142668,3.143234,2.411062,0.630653,0.21281,0.668931,1.496429,0.906762,0.589202,0.273307,0.18104,0.443529,0.234445,0.101499,0.119155,0.649338,0.659303,0.217196,0.117935,0.09027,0.439928,1.371597,0.696145,0.307813,0.087461,0.566933,0.685249,0.969491,0.191396,0.240311,2.601166,1.908114,2.891353,0.441588,0.187624,1.3672,1.613592,1.277393,0.367492,0.176961,2.905895,3.707462,2.414881,0.575435,0.44,2.477192,5.153175,2.79261,0.921048,0.482548,2.669394,3.352581,2.294858,0.53242,0.574035,15.07067,5.965296,2.814634,0.620144,0.241656
1720514476,93,0,4231.025879,4246.282227,4280.128418,4293.461426,4231.538574,4261.922852,4243.205078,4310.256348,4186.282227,4247.436035,4429.615234,4431.922852,4325.769043,4392.563965,,,,,,,,,,,,,,,,,,,,,,,,,,,,,,,,,,,,,,,,,,,,,,,,,,,,,,,,,,,,,,,,,,,,,,
1720514476,94,0,4229.102539,4236.794922,4272.436035,4294.615234,4229.743652,4261.538574,4242.820313,4310,4185.256348,4248.205078,4428.205078,4425.256348,4322.94873,4380.769043,,,,,,,,,,,,,,,,,,,,,,,,,,,,,,,,,,,,,,,,,,,,,,,,,,,,,,,,,,,,,,,,,,,,,,
1720514476,95,0,4226.666504,4231.025879,4271.025879,4293.205078,4230.384766,4269.871582,4246.794922,4308.205078,4182.563965,4248.077148,4433.846191,4423.974121,4325.128418,4374.743652,,,,,,,,,,,,,,,,,,,,,,,,,,,,,,,,,,,,,,,,,,,,,,,,,,,,,,,,,,,,,,,,,,,,,,
1720514476,96,0,4216.153809,4231.410156,4267.05127,4285.512695,4231.282227,4271.922852,4250,4313.846191,4186.282227,4245.897461,4437.436035,4425.256348,4321.410156,4368.205078,,,,,,,,,,,,,,,,,,,,,,,,,,,,,,,,,,,,,,,,,,,,,,,,,,,,,,,,,,,,,,,,,,,,,,
1720514476,97,0,4213.333496,4231.538574,4259.487305,4286.025879,4231.922852,4267.179688,4248.717773,4306.025879,4184.743652,4236.794922,4420.641113,4417.692383,4307.179688,4354.358887,,,,,,,,,,,,,,,,,,,,,,,,,,,,,,,,,,,,,,,,,,,,,,,,,,,,,,,,,,,,,,,,,,,,,,
1720514476,98,0,4222.820313,4236.538574,4260.384766,4293.077148,4237.436035,4271.153809,4245.897461,4295.384766,4165.128418,4229.487305,4406.794922,4412.179688,4304.615234,4346.538574,,,,,,,,,,,,,,,,,,,,,,,,,,,,,,,,,,,,,,,,,,,,,,,,,,,,,,,,,,,,,,,,,,,,,,
1720514476,99,0,4232.692383,4248.461426,4270,4302.94873,4246.794922,4279.487305,4247.692383,4294.102539,4155.769043,4234.871582,4413.974121,4412.179688,4312.94873,4347.179688,,,,,,,,,,,,,,,,,,,,,,,,,,,,,,,,,,,,,,,,,,,,,,,,,,,,,,,,,,,,,,,,,,,,,,
1720514476,100,0,4233.846191,4253.846191,4270.641113,4306.538574,4248.461426,4273.846191,4246.025879,4293.717773,4165.512695,4237.820313,4420.384766,4411.282227,4312.563965,4344.615234,,,,,,,,,,,,,,,,,,,,,,,,,,,,,,,,,,,,,,,,,,,,,,,,,,,,,,,,,,,,,,,,,,,,,,
1720514476,101,0,4231.666504,4251.666504,4266.025879,4301.538574,4243.717773,4262.563965,4236.282227,4285.769043,4160.641113,4237.179688,4412.94873,4411.410156,4308.974121,4330.897461,,,,,,,,,,,,,,,,,,,,,,,,,,,,,,,,,,,,,,,,,,,,,,,,,,,,,,,,,,,,,,,,,,,,,,
1720514476,102,0,4231.794922,4251.922852,4274.743652,4298.077148,4245.384766,4263.205078,4230.769043,4283.333496,4147.563965,4240.128418,4411.153809,4417.05127,4310.769043,4321.794922,,,,,,,,,,,,,,,,,,,,,,,,,,,,,,,,,,,,,,,,,,,,,,,,,,,,,,,,,,,,,,,,,,,,,,
1720514476,103,0,4230.128418,4252.05127,4279.743652,4300,4248.077148,4267.179688,4233.461426,4290.769043,4152.307617,4240.512695,4417.563965,4420.769043,4309.743652,4324.102539,,,,,,,,,,,,,,,,,,,,,,,,,,,,,,,,,,,,,,,,,,,,,,,,,,,,,,,,,,,,,,,,,,,,,,
1720514476,104,0,4223.461426,4246.794922,4267.94873,4294.615234,4241.410156,4264.615234,4239.871582,4295.256348,4155.769043,4234.102539,4411.153809,4415.769043,4300.512695,4316.666504,,,,,,,,,,,,,,,,,,,,,,,,,,,,,,,,,,,,,,,,,,,,,,,,,,,,,,,,,,,,,,,,,,,,,,
1720514476,105,0,4213.717773,4238.461426,4255.384766,4281.153809,4235.256348,4266.282227,4245.128418,4289.358887,4151.025879,4224.871582,4391.025879,4400.256348,4285.128418,4292.820313,,,,,,,,,,,,,,,,,,,,,,,,,,,,,,,,,,,,,,,,,,,,,,,,,,,,,,,,,,,,,,,,,,,,,,
1720514476,106,0,4203.589844,4231.025879,4251.794922,4277.179688,4235.641113,4277.307617,4245.384766,4288.974121,4158.846191,4219.230957,4384.615234,4387.179688,4276.410156,4277.05127,,,,,,,,,,,,,,,,,,,,,,,,,,,,,,,,,,,,,,,,,,,,,,,,,,,,,,,,,,,,,,,,,,,,,,
1720514476,107,0,4199.230957,4230.897461,4250.512695,4280.769043,4235,4280.897461,4242.94873,4294.230957,4169.743652,4215.769043,4392.436035,4391.794922,4280.384766,4276.794922,,,,,,,,,,,,,,,,,,,,,,,,,,,,,,,,,,,,,,,,,,,,,,,,,,,,,,,,,,,,,,,,,,,,,,
1720514476,108,0,4201.153809,4234.743652,4248.589844,4281.794922,4233.077148,4275.897461,4245.384766,4282.307617,4172.563965,4217.563965,4392.563965,4395.897461,4289.358887,4276.666504,3.55028,5.696918,1.959588,0.728936,0.336995,1.266155,2.999985,0.693192,0.453044,0.305534,1.031002,4.420871,2.352915,0.713707,0.244103,0.551745,1.885779,0.845216,0.573532,0.258815,0.173729,0.564226,0.253059,0.103291,0.112362,0.727846,0.9298,0.254424,0.127308,0.101037,0.498403,1.806737,0.807439,0.275979,0.090257,0.629259,0.707754,1.094983,0.192093,0.250483,3.001395,2.376557,3.217071,0.463944,0.188557,1.607291,1.913381,1.375392,0.357161,0.176275,3.060448,4.627029,2.373913,0.547066,0.46174,2.826335,6.573685,2.820122,1.022244,0.549511,2.457085,3.998911,2.307968,0.550122,0.569939,12.289952,6.501832,2.583812,0.683262,0.250037
1720514476,109,0,4205.128418,4232.94873,4248.461426,4274.743652,4234.615234,4278.589844,4247.307617,4282.692383,4187.820313,4222.436035,4398.974121,4398.077148,4295.128418,4282.563965,,,,,,,,,,,,,,,,,,,,,,,,,,,,,,,,,,,,,,,,,,,,,,,,,,,,,,,,,,,,,,,,,,,,,,
1720514476,110,0,4206.922852,4231.153809,4248.461426,4276.410156,4233.717773,4277.436035,4244.487305,4296.282227,4209.871582,4225.769043,4412.563965,4408.077148,4297.307617,4290.512695,,,,,,,,,,,,,,,,,,,,,,,,,,,,,,,,,,,,,,,,,,,,,,,,,,,,,,,,,,,,,,,,,,,,,,
1720514476,111,0,4208.077148,4240.256348,4248.717773,4291.282227,4234.358887,4266.282227,4243.717773,4289.102539,4213.461426,4231.153809,4413.333496,4411.666504,4297.436035,4287.307617,,,,,,,,,,,,,,,,,,,,,,,,,,,,,,,,,,,,,,,,,,,,,,,,,,,,,,,,,,,,,,,,,,,,,,
1720514476,112,0,4213.461426,4250,4254.615234,4295.128418,4239.743652,4261.922852,4243.589844,4282.436035,4201.025879,4227.94873,4405.384766,4412.179688,4296.538574,4286.025879,,,,,,,,,,,,,,,,,,,,,,,,,,,,,,,,,,,,,,,,,,,,,,,,,,,,,,,,,,,,,,,,,,,,,,
1720514476,113,0,4216.410156,4247.94873,4262.307617,4287.820313,4239.743652,4264.743652,4244.358887,4286.282227,4201.538574,4219.871582,4400.128418,4413.333496,4294.487305,4283.846191,,,,,,,,,,,,,,,,,,,,,,,,,,,,,,,,,,,,,,,,,,,,,,,,,,,,,,,,,,,,,,,,,,,,,,
1720514476,114,0,4208.205078,4237.179688,4263.205078,4286.922852,4235,4267.820313,4247.179688,4286.538574,4215,4215.897461,4395.256348,4405.769043,4287.05127,4269.743652,,,,,,,,,,,,,,,,,,,,,,,,,,,,,,,,,,,,,,,,,,,,,,,,,,,,,,,,,,,,,,,,,,,,,,
1720514476,115,0,4194.487305,4225.256348,4257.94873,4280.512695,4232.563965,4274.358887,4247.307617,4287.94873,4216.282227,4209.743652,4387.307617,4396.410156,4273.974121,4254.487305,,,,,,,,,,,,,,,,,,,,,,,,,,,,,,,,,,,,,,,,,,,,,,,,,,,,,,,,,,,,,,,,,,,,,,
1720514476,116,0,4191.025879,4225.641113,4250.256348,4266.794922,4231.025879,4278.205078,4248.461426,4289.615234,4208.461426,4203.846191,4381.538574,4394.871582,4263.461426,4244.871582,,,,,,,,,,,,,,,,,,,,,,,,,,,,,,,,,,,,,,,,,,,,,,,,,,,,,,,,,,,,,,,,,,,,,,
1720514476,117,0,4196.025879,4227.563965,4247.05127,4264.487305,4229.358887,4275.512695,4254.871582,4288.846191,4214.230957,4209.230957,4382.307617,4399.743652,4262.820313,4240.641113,,,,,,,,,,,,,,,,,,,,,,,,,,,,,,,,,,,,,,,,,,,,,,,,,,,,,,,,,,,,,,,,,,,,,,
1720514476,118,0,4196.025879,4219.487305,4254.102539,4268.077148,4231.153809,4275,4254.615234,4294.102539,4216.025879,4216.282227,4389.230957,4405.512695,4269.230957,4243.717773,,,,,,,,,,,,,,,,,,,,,,,,,,,,,,,,,,,,,,,,,,,,,,,,,,,,,,,,,,,,,,,,,,,,,,
1720514476,119,0,4198.589844,4220.256348,4259.743652,4271.282227,4234.230957,4276.538574,4249.615234,4291.538574,4205.769043,4219.102539,4396.025879,4409.358887,4276.153809,4247.820313,,,,,,,,,,,,,,,,,,,,,,,,,,,,,,,,,,,,,,,,,,,,,,,,,,,,,,,,,,,,,,,,,,,,,,
1720514476,120,0,4206.025879,4234.487305,4260.769043,4278.333496,4235.384766,4276.410156,4253.461426,4282.563965,4207.179688,4221.153809,4398.077148,4417.563965,4279.230957,4247.563965,,,,,,,,,,,,,,,,,,,,,,,,,,,,,,,,,,,,,,,,,,,,,,,,,,,,,,,,,,,,,,,,,,,,,,
1720514476,121,0,4205.897461,4238.717773,4266.282227,4284.102539,4235.128418,4276.282227,4260.769043,4290,4207.820313,4220,4404.871582,4432.307617,4282.563965,4248.846191,,,,,,,,,,,,,,,,,,,,,,,,,,,,,,,,,,,,,,,,,,,,,,,,,,,,,,,,,,,,,,,,,,,,,,
1720514476,122,0,4201.666504,4232.179688,4266.025879,4278.205078,4234.615234,4278.589844,4261.794922,4294.358887,4194.487305,4223.205078,4414.487305,4436.410156,4290.512695,4245,,,,,,,,,,,,,,,,,,,,,,,,,,,,,,,,,,,,,,,,,,,,,,,,,,,,,,,,,,,,,,,,,,,,,,
1720514476,123,0,4203.589844,4233.205078,4262.179688,4265.641113,4236.794922,4277.436035,4257.563965,4288.333496,4188.974121,4232.94873,4418.333496,4433.846191,4295,4241.666504,,,,,,,,,,,,,,,,,,,,,,,,,,,,,,,,,,,,,,,,,,,,,,,,,,,,,,,,,,,,,,,,,,,,,,
1720514476,124,0,4209.230957,4238.205078,4268.974121,4267.563965,4235.128418,4267.692383,4255.512695,4286.538574,4193.461426,4238.974121,4416.025879,4441.538574,4297.307617,4249.358887,2.761413,7.212622,1.69999,0.7125,0.332468,1.283488,3.39217,0.668638,0.38923,0.288318,1.249287,5.708154,2.054665,0.778474,0.272594,0.545518,2.219405,0.724285,0.53254,0.23628,0.178387,0.663178,0.253433,0.106645,0.10504,0.75952,1.245071,0.322918,0.133146,0.112776,0.600022,2.492717,0.962976,0.241878,0.093982,0.766223,0.755507,1.146221,0.194368,0.260647,3.1987,2.746312,3.260174,0.472631,0.191272,1.949356,2.30036,1.408306,0.359496,0.176154,3.565537,5.676596,2.212112,0.523213,0.465187,3.945287,8.37097,2.789512,1.109787,0.598647,2.631069,4.6922,2.173993,0.581826,0.546291,11.167543,7.304146,2.219113,0.734164,0.269885
1720514476,125,0,4217.179688,4244.871582,4278.846191,4281.922852,4233.974121,4265.897461,4260.641113,4288.077148,4193.077148,4243.077148,4418.846191,4448.077148,4300.769043,4256.410156,,,,,,,,,,,,,,,,,,,,,,,,,,,,,,,,,,,,,,,,,,,,,,,,,,,,,,,,,,,,,,,,,,,,,,
1720514476,126,0,4219.487305,4247.179688,4277.563965,4284.743652,4239.102539,4275.512695,4265.384766,4293.461426,4197.179688,4245.256348,4423.974121,4445,4298.974121,4248.461426,,,,,,,,,,,,,,,,,,,,,,,,,,,,,,,,,,,,,,,,,,,,,,,,,,,,,,,,,,,,,,,,,,,,,,
1720514476,127,0,4204.487305,4238.974121,4268.846191,4273.846191,4243.846191,4275.256348,4264.102539,4293.717773,4205.128418,4244.615234,4418.077148,4435.128418,4293.205078,4236.538574,,,,,,,,,,,,,,,,,,,,,,,,,,,,,,,,,,,,,,,,,,,,,,,,,,,,,,,,,,,,,,,,,,,,,,
1720514476,0,0,4197.179688,4238.589844,4265.384766,4276.794922,4246.025879,4272.05127,4263.846191,4292.05127,4199.102539,4247.307617,4415.769043,4433.333496,4297.307617,4236.153809,,,,,,,,,,,,,,,,,,,,,,,,,,,,,,,,,,,,,,,,,,,,,,,,,,,,,,,,,,,,,,,,,,,,,,
1720514476,1,0,4208.333496,4242.94873,4267.179688,4284.871582,4248.333496,4279.487305,4264.102539,4294.743652,4192.05127,4248.846191,4423.974121,4443.333496,4306.538574,4241.410156,,,,,,,,,,,,,,,,,,,,,,,,,,,,,,,,,,,,,,,,,,,,,,,,,,,,,,,,,,,,,,,,,,,,,,
1720514476,2,0,4210.128418,4238.717773,4265,4277.307617,4248.589844,4282.179688,4263.589844,4292.563965,4197.692383,4249.230957,4430,4444.102539,4307.94873,4240.256348,,,,,,,,,,,,,,,,,,,,,,,,,,,,,,,,,,,,,,,,,,,,,,,,,,,,,,,,,,,,,,,,,,,,,,
1720514476,3,0,4200.256348,4233.461426,4262.436035,4268.077148,4247.820313,4278.589844,4262.94873,4288.461426,4201.794922,4253.205078,4426.922852,4435.897461,4304.102539,4236.025879,,,,,,,,,,,,,,,,,,,,,,,,,,,,,,,,,,,,,,,,,,,,,,,,,,,,,,,,,,,,,,,,,,,,,,
1720514476,4,0,4198.717773,4235.384766,4263.333496,4266.538574,4248.717773,4274.871582,4254.102539,4284.615234,4190.897461,4248.846191,4418.077148,4431.282227,4298.205078,4236.538574,,,,,,,,,,,,,,,,,,,,,,,,,,,,,,,,,,,,,,,,,,,,,,,,,,,,,,,,,,,,,,,,,,,,,,
1720514476,5,0,4208.717773,4238.205078,4268.077148,4266.794922,4247.820313,4268.974121,4246.282227,4277.692383,4176.538574,4242.05127,4412.563965,4429.615234,4293.333496,4237.179688,,,,,,,,,,,,,,,,,,,,,,,,,,,,,,,,,,,,,,,,,,,,,,,,,,,,,,,,,,,,,,,,,,,,,,
1720514476,6,0,4218.205078,4241.153809,4276.666504,4270.897461,4249.102539,4269.615234,4253.205078,4276.666504,4177.563965,4246.153809,4418.717773,4434.743652,4299.102539,4237.692383,,,,,,,,,,,,,,,,,,,,,,,,,,,,,,,,,,,,,,,,,,,,,,,,,,,,,,,,,,,,,,,,,,,,,,
1720514476,7,0,4215,4250,4283.205078,4277.307617,4252.307617,4278.077148,4262.563965,4284.871582,4185,4248.846191,4426.666504,4444.487305,4306.794922,4243.589844,,,,,,,,,,,,,,,,,,,,,,,,,,,,,,,,,,,,,,,,,,,,,,,,,,,,,,,,,,,,,,,,,,,,,,
1720514476,8,0,4207.436035,4250.512695,4278.077148,4273.974121,4250.512695,4279.102539,4262.05127,4280.128418,4185.256348,4241.282227,4422.436035,4437.05127,4303.205078,4241.282227,,,,,,,,,,,,,,,,,,,,,,,,,,,,,,,,,,,,,,,,,,,,,,,,,,,,,,,,,,,,,,,,,,,,,,
1720514476,9,0,4201.153809,4232.563965,4263.846191,4259.871582,4245.769043,4270.641113,4252.563965,4270,4172.820313,4226.153809,4400.128418,4418.205078,4282.692383,4220.512695,,,,,,,,,,,,,,,,,,,,,,,,,,,,,,,,,,,,,,,,,,,,,,,,,,,,,,,,,,,,,,,,,,,,,,
1720514476,10,0,4190.256348,4213.974121,4248.974121,4248.205078,4242.307617,4262.563965,4239.871582,4270.641113,4155.384766,4209.615234,4372.563965,4408.077148,4252.692383,4199.743652,,,,,,,,,,,,,,,,,,,,,,,,,,,,,,,,,,,,,,,,,,,,,,,,,,,,,,,,,,,,,,,,,,,,,,
1720514476,11,0,4185.769043,4217.94873,4242.307617,4245.897461,4242.563965,4264.358887,4239.102539,4266.282227,4154.102539,4209.743652,4370.897461,4400.769043,4246.794922,4194.230957,,,,,,,,,,,,,,,,,,,,,,,,,,,,,,,,,,,,,,,,,,,,,,,,,,,,,,,,,,,,,,,,,,,,,,
1720514476,12,0,4199.615234,4235.384766,4251.410156,4255.256348,4246.410156,4276.025879,4250,4267.05127,4166.538574,4228.717773,4395.897461,4406.794922,4274.743652,4207.436035,2.958962,8.404853,1.443846,0.689344,0.325069,1.265542,3.691574,0.646274,0.32694,0.263188,1.655703,6.679985,1.631304,0.810378,0.294445,0.583688,2.42696,0.598576,0.484251,0.211929,0.187651,0.727231,0.24107,0.109112,0.097463,0.725914,1.5444,0.410252,0.133446,0.122696,0.71881,3.29595,1.160407,0.213967,0.099461,0.94386,0.818555,1.130535,0.200598,0.264903,3.336189,2.909816,3.000326,0.469989,0.196236,2.277628,2.687959,1.382963,0.371176,0.176154,4.199692,6.552899,1.990421,0.523527,0.450936,5.447236,10.112716,2.76646,1.177725,0.628167,2.897491,5.199336,1.940168,0.625507,0.509193,12.290215,8.12191,1.83839,0.766919,0.300394
1720514476,13,0,4209.358887,4238.461426,4262.307617,4265.256348,4248.461426,4278.589844,4252.436035,4272.436035,4170.897461,4242.820313,4413.974121,4422.563965,4298.333496,4225.384766,,,,,,,,,,,,,,,,,,,,,,,,,,,,,,,,,,,,,,,,,,,,,,,,,,,,,,,,,,,,,,,,,,,,,,
1720514476,14,0,4202.05127,4231.025879,4261.794922,4263.333496,4244.615234,4268.205078,4246.025879,4267.436035,4172.692383,4244.743652,4414.230957,4422.05127,4297.692383,4223.846191,,,,,,,,,,,,,,,,,,,,,,,,,,,,,,,,,,,,,,,,,,,,,,,,,,,,,,,,,,,,,,,,,,,,,,
1720514476,15,0,4196.410156,4232.05127,4261.153809,4259.743652,4242.94873,4265,4246.153809,4268.333496,4180.128418,4243.205078,4409.615234,4417.05127,4293.717773,4212.820313,,,,,,,,,,,,,,,,,,,,,,,,,,,,,,,,,,,,,,,,,,,,,,,,,,,,,,,,,,,,,,,,,,,,,,
1720514476,16,0,4199.615234,4235.641113,4266.153809,4256.794922,4244.615234,4268.077148,4254.871582,4279.743652,4188.077148,4250.128418,4416.922852,4427.179688,4298.077148,4213.077148,,,,,,,,,,,,,,,,,,,,,,,,,,,,,,,,,,,,,,,,,,,,,,,,,,,,,,,,,,,,,,,,,,,,,,
1720514476,17,0,4196.922852,4226.922852,4269.615234,4251.410156,4243.589844,4268.589844,4259.358887,4282.94873,4188.589844,4260.384766,4431.025879,4437.179688,4300.897461,4215,,,,,,,,,,,,,,,,,,,,,,,,,,,,,,,,,,,,,,,,,,,,,,,,,,,,,,,,,,,,,,,,,,,,,,
1720514476,18,0,4191.666504,4220.512695,4266.410156,4253.333496,4244.487305,4272.820313,4254.102539,4274.230957,4179.743652,4257.436035,4426.794922,4436.922852,4296.794922,4209.615234,,,,,,,,,,,,,,,,,,,,,,,,,,,,,,,,,,,,,,,,,,,,,,,,,,,,,,,,,,,,,,,,,,,,,,
1720514476,19,0,4195.769043,4230.769043,4268.589844,4262.820313,4248.846191,4280.128418,4249.358887,4271.410156,4176.666504,4248.846191,4415.256348,4436.410156,4295.256348,4212.05127,,,,,,,,,,,,,,,,,,,,,,,,,,,,,,,,,,,,,,,,,,,,,,,,,,,,,,,,,,,,,,,,,,,,,,
1720514476,20,0,4203.717773,4237.692383,4274.102539,4267.436035,4249.871582,4279.230957,4249.358887,4267.94873,4179.743652,4250,4422.05127,4430.641113,4302.05127,4216.153809,,,,,,,,,,,,,,,,,,,,,,,,,,,,,,,,,,,,,,,,,,,,,,,,,,,,,,,,,,,,,,,,,,,,,,
1720514476,21,0,4201.282227,4228.846191,4269.487305,4258.974121,4246.153809,4276.282227,4250.384766,4268.333496,4177.94873,4250.641113,4430,4425.641113,4301.153809,4211.922852,,,,,,,,,,,,,,,,,,,,,,,,,,,,,,,,,,,,,,,,,,,,,,,,,,,,,,,,,,,,,,,,,,,,,,
1720514476,22,0,4201.025879,4226.153809,4270,4250.384766,4246.282227,4278.589844,4254.102539,4273.589844,4177.179688,4247.94873,4427.820313,4433.974121,4294.615234,4211.922852,,,,,,,,,,,,,,,,,,,,,,,,,,,,,,,,,,,,,,,,,,,,,,,,,,,,,,,,,,,,,,,,,,,,,,
1720514476,23,0,4206.153809,4232.307617,4276.282227,4252.820313,4248.717773,4279.358887,4256.153809,4277.436035,4188.717773,4251.922852,4428.333496,4439.358887,4297.94873,4213.717773,,,,,,,,,,,,,,,,,,,,,,,,,,,,,,,,,,,,,,,,,,,,,,,,,,,,,,,,,,,,,,,,,,,,,,
1720514476,24,0,4201.922852,4230.641113,4271.153809,4258.589844,4247.05127,4276.410156,4249.871582,4279.230957,4195.256348,4252.05127,4424.743652,4431.410156,4298.333496,4206.794922,,,,,,,,,,,,,,,,,,,,,,,,,,,,,,,,,,,,,,,,,,,,,,,,,,,,,,,,,,,,,,,,,,,,,,
1720514476,25,0,4198.461426,4229.743652,4267.436035,4263.077148,4246.153809,4276.153809,4248.205078,4276.538574,4190.128418,4249.743652,4420.256348,4425.128418,4292.692383,4198.077148,,,,,,,,,,,,,,,,,,,,,,,,,,,,,,,,,,,,,,,,,,,,,,,,,,,,,,,,,,,,,,,,,,,,,,
1720514476,26,0,4196.410156,4233.205078,4275.512695,4261.153809,4248.333496,4277.436035,4255.384766,4274.102539,4189.230957,4249.743652,4427.436035,4428.333496,4291.922852,4198.077148,,,,,,,,,,,,,,,,,,,,,,,,,,,,,,,,,,,,,,,,,,,,,,,,,,,,,,,,,,,,,,,,,,,,,,
1720514476,27,0,4188.461426,4231.410156,4271.410156,4253.974121,4247.692383,4277.307617,4258.717773,4271.410156,4184.615234,4240.384766,4430,4423.846191,4286.025879,4194.615234,,,,,,,,,,,,,,,,,,,,,,,,,,,,,,,,,,,,,,,,,,,,,,,,,,,,,,,,,,,,,,,,,,,,,,
1720514476,28,0,4189.230957,4229.615234,4261.410156,4253.717773,4245.641113,4278.461426,4255.897461,4268.846191,4181.282227,4236.922852,4424.871582,4420.641113,4276.153809,4190.256348,3.091486,8.842896,1.280192,0.666478,0.317662,1.167985,3.797102,0.676858,0.27933,0.236375,2.110526,7.07729,1.247712,0.799911,0.307064,0.624934,2.474265,0.531445,0.443487,0.192381,0.212463,0.753667,0.229008,0.107831,0.089395,0.626589,1.754393,0.503978,0.129415,0.128912,0.811226,3.976927,1.36578,0.197862,0.106428,1.11515,0.871349,1.070087,0.210283,0.258724,3.624996,2.815528,2.510616,0.461872,0.203973,2.499858,2.92419,1.33185,0.386416,0.174268,4.727201,6.919984,1.79962,0.551791,0.423705,6.778866,11.240513,2.787885,1.209641,0.638264,3.060498,5.299574,1.706247,0.668444,0.464663,13.37812,8.602393,1.603802,0.775083,0.334936
1720514476,29,0,4199.615234,4234.615234,4267.05127,4263.077148,4248.077148,4280.641113,4250.897461,4267.820313,4187.820313,4248.077148,4427.307617,4431.025879,4281.282227,4201.025879,,,,,,,,,,,,,,,,,,,,,,,,,,,,,,,,,,,,,,,,,,,,,,,,,,,,,,,,,,,,,,,,,,,,,,
1720514476,30,0,4205.641113,4236.025879,4269.615234,4265.128418,4249.743652,4278.974121,4249.615234,4267.307617,4190.769043,4253.333496,4430.769043,4436.538574,4291.153809,4221.282227,,,,,,,,,,,,,,,,,,,,,,,,,,,,,,,,,,,,,,,,,,,,,,,,,,,,,,,,,,,,,,,,,,,,,,
1720514476,31,0,4202.820313,4230.256348,4264.358887,4256.153809,4247.436035,4276.922852,4249.615234,4275.128418,4186.794922,4247.820313,4427.179688,4431.794922,4285.641113,4238.717773,,,,,,,,,,,,,,,,,,,,,,,,,,,,,,,,,,,,,,,,,,,,,,,,,,,,,,,,,,,,,,,,,,,,,,
1720514476,32,0,4202.820313,4227.563965,4262.05127,4250.512695,4246.153809,4277.307617,4245.769043,4281.794922,4189.743652,4245.641113,4424.487305,4425.769043,4280.256348,4251.025879,,,,,,,,,,,,,,,,,,,,,,,,,,,,,,,,,,,,,,,,,,,,,,,,,,,,,,,,,,,,,,,,,,,,,,
1720514476,33,0,4207.05127,4230.897461,4261.922852,4250.769043,4247.692383,4277.94873,4249.743652,4278.589844,4199.743652,4248.589844,4426.282227,4426.153809,4289.358887,4272.179688,,,,,,,,,,,,,,,,,,,,,,,,,,,,,,,,,,,,,,,,,,,,,,,,,,,,,,,,,,,,,,,,,,,,,,
1720514476,34,0,4208.717773,4232.692383,4265.384766,4251.153809,4248.846191,4282.563965,4261.282227,4277.94873,4192.05127,4248.846191,4422.820313,4430.384766,4291.025879,4299.230957,,,,,,,,,,,,,,,,,,,,,,,,,,,,,,,,,,,,,,,,,,,,,,,,,,,,,,,,,,,,,,,,,,,,,,
1720514476,35,0,4208.846191,4226.410156,4270.641113,4254.615234,4249.230957,4292.692383,4268.461426,4282.307617,4176.410156,4246.153809,4413.461426,4430.641113,4278.974121,4316.794922,,,,,,,,,,,,,,,,,,,,,,,,,,,,,,,,,,,,,,,,,,,,,,,,,,,,,,,,,,,,,,,,,,,,,,
1720514476,36,0,4212.05127,4224.102539,4268.205078,4258.205078,4249.102539,4297.05127,4270.769043,4276.666504,4176.282227,4246.025879,4409.743652,4424.615234,4277.94873,4326.794922,,,,,,,,,,,,,,,,,,,,,,,,,,,,,,,,,,,,,,,,,,,,,,,,,,,,,,,,,,,,,,,,,,,,,,
1720514476,37,0,4214.615234,4226.794922,4258.974121,4252.94873,4247.05127,4294.358887,4272.179688,4274.487305,4179.743652,4247.820313,4411.538574,4420.256348,4288.717773,4340.641113,,,,,,,,,,,,,,,,,,,,,,,,,,,,,,,,,,,,,,,,,,,,,,,,,,,,,,,,,,,,,,,,,,,,,,
1720514476,38,0,4215.769043,4223.846191,4261.538574,4249.743652,4245.769043,4292.563965,4265.128418,4283.846191,4181.282227,4247.820313,4415.769043,4428.205078,4290.897461,4358.717773,,,,,,,,,,,,,,,,,,,,,,,,,,,,,,,,,,,,,,,,,,,,,,,,,,,,,,,,,,,,,,,,,,,,,,
1720514476,39,0,4232.563965,4230.769043,4277.05127,4262.94873,4247.307617,4286.410156,4253.077148,4278.205078,4192.94873,4255.512695,4425.384766,4441.922852,4295.128418,4377.820313,,,,,,,,,,,,,,,,,,,,,,,,,,,,,,,,,,,,,,,,,,,,,,,,,,,,,,,,,,,,,,,,,,,,,,
1720514476,40,0,4251.666504,4246.794922,4288.461426,4270.641113,4248.333496,4277.563965,4249.615234,4272.05127,4198.461426,4265.256348,4436.025879,4455,4307.436035,4400.769043,,,,,,,,,,,,,,,,,,,,,,,,,,,,,,,,,,,,,,,,,,,,,,,,,,,,,,,,,,,,,,,,,,,,,,
1720514476,41,0,4249.871582,4244.487305,4287.820313,4264.102539,4246.922852,4281.025879,4248.333496,4277.563965,4183.717773,4260.769043,4434.102539,4457.94873,4306.794922,4414.102539,,,,,,,,,,,,,,,,,,,,,,,,,,,,,,,,,,,,,,,,,,,,,,,,,,,,,,,,,,,,,,,,,,,,,,
1720514476,42,0,4249.743652,4232.436035,4285.769043,4263.846191,4246.282227,4292.05127,4248.205078,4272.307617,4173.717773,4260.128418,4431.025879,4452.563965,4301.282227,4419.102539,,,,,,,,,,,,,,,,,,,,,,,,,,,,,,,,,,,,,,,,,,,,,,,,,,,,,,,,,,,,,,,,,,,,,,
1720514476,43,0,4250,4233.077148,4280.641113,4266.282227,4245.641113,4293.077148,4257.307617,4267.820313,4175.128418,4268.461426,4429.743652,4448.589844,4298.717773,4427.179688,,,,,,,,,,,,,,,,,,,,,,,,,,,,,,,,,,,,,,,,,,,,,,,,,,,,,,,,,,,,,,,,,,,,,,
1720514476,44,0,4229.871582,4231.025879,4263.205078,4259.102539,4244.487305,4286.666504,4264.358887,4263.205078,4170.256348,4258.461426,4408.333496,4433.205078,4285.769043,4417.94873,2.853063,8.384195,1.236026,0.644594,0.310343,1.024469,3.656553,0.78453,0.255356,0.214257,2.46511,6.808513,1.038277,0.749431,0.30883,0.670537,2.366895,0.55331,0.421894,0.181227,0.267309,0.74618,0.226265,0.102224,0.080074,0.498618,1.81883,0.589499,0.125047,0.131059,0.849734,4.283385,1.512933,0.19366,0.113888,1.200351,0.885519,0.989197,0.220173,0.241523,4.317311,2.499987,1.93865,0.452447,0.215188,2.648841,2.890192,1.302071,0.400396,0.168118,5.068284,6.584377,1.702069,0.600512,0.391667,7.63313,11.325153,2.835854,1.18848,0.628005,3.106552,4.897886,1.574262,0.704126,0.416436,14.806118,8.401798,1.578614,0.762042,0.362561
1720514476,45,0,4212.179688,4221.666504,4255,4258.717773,4242.820313,4288.846191,4262.94873,4255,4164.871582,4245.256348,4393.974121,4413.717773,4278.077148,4401.922852,,,,,,,,,,,,,,,,,,,,,,,,,,,,,,,,,,,,,,,,,,,,,,,,,,,,,,,,,,,,,,,,,,,,,,
1720514476,46,0,4218.205078,4222.94873,4266.025879,4265.897461,4238.717773,4295.384766,4264.743652,4262.307617,4166.025879,4252.307617,4406.153809,4419.102539,4285.641113,4413.717773,,,,,,,,,,,,,,,,,,,,,,,,,,,,,,,,,,,,,,,,,,,,,,,,,,,,,,,,,,,,,,,,,,,,,,
1720514476,47,0,4221.282227,4228.333496,4267.94873,4268.589844,4233.205078,4290.769043,4270.128418,4275.256348,4172.307617,4254.743652,4410.897461,4431.282227,4283.974121,4431.282227,,,,,,,,,,,,,,,,,,,,,,,,,,,,,,,,,,,,,,,,,,,,,,,,,,,,,,,,,,,,,,,,,,,,,,
1720514476,48,0,4211.153809,4228.589844,4260.512695,4270.769043,4232.307617,4279.743652,4266.025879,4268.589844,4182.307617,4247.563965,4401.794922,4425.769043,4277.820313,4428.589844,,,,,,,,,,,,,,,,,,,,,,,,,,,,,,,,,,,,,,,,,,,,,,,,,,,,,,,,,,,,,,,,,,,,,,
1720514476,49,0,4211.794922,4230.641113,4268.846191,4278.589844,4235,4278.333496,4259.743652,4269.743652,4186.922852,4253.717773,4407.05127,4433.974121,4288.846191,4437.05127,,,,,,,,,,,,,,,,,,,,,,,,,,,,,,,,,,,,,,,,,,,,,,,,,,,,,,,,,,,,,,,,,,,,,,
1720514476,50,0,4218.846191,4233.974121,4284.615234,4287.436035,4237.05127,4282.307617,4263.077148,4283.846191,4184.615234,4262.820313,4417.563965,4450.641113,4298.717773,4457.05127,,,,,,,,,,,,,,,,,,,,,,,,,,,,,,,,,,,,,,,,,,,,,,,,,,,,,,,,,,,,,,,,,,,,,,
1720514476,51,0,4219.615234,4235.384766,4289.358887,4295.641113,4236.410156,4280.512695,4262.563965,4276.922852,4186.410156,4258.205078,4413.205078,4444.102539,4293.717773,4455.128418,,,,,,,,,,,,,,,,,,,,,,,,,,,,,,,,,,,,,,,,,,,,,,,,,,,,,,,,,,,,,,,,,,,,,,
1720514476,52,0,4222.692383,4238.589844,4296.153809,4308.589844,4235.897461,4278.974121,4252.563965,4269.230957,4187.820313,4256.025879,4409.358887,4440.769043,4291.538574,4452.179688,,,,,,,,,,,,,,,,,,,,,,,,,,,,,,,,,,,,,,,,,,,,,,,,,,,,,,,,,,,,,,,,,,,,,,
1720514476,53,0,4229.615234,4245.256348,4312.05127,4319.871582,4241.666504,4279.743652,4245.256348,4263.589844,4180.641113,4263.589844,4414.230957,4447.563965,4300.256348,4462.820313,,,,,,,,,,,,,,,,,,,,,,,,,,,,,,,,,,,,,,,,,,,,,,,,,,,,,,,,,,,,,,,,,,,,,,
1720514476,54,0,4234.615234,4248.461426,4323.846191,4322.692383,4246.666504,4279.358887,4248.589844,4249.743652,4177.179688,4266.025879,4416.922852,4443.589844,4308.205078,4465.384766,,,,,,,,,,,,,,,,,,,,,,,,,,,,,,,,,,,,,,,,,,,,,,,,,,,,,,,,,,,,,,,,,,,,,,
1720514476,55,0,4228.589844,4246.538574,4326.922852,4326.794922,4244.871582,4281.282227,4258.333496,4247.563965,4187.179688,4265.128418,4413.974121,4440.512695,4303.589844,4457.820313,,,,,,,,,,,,,,,,,,,,,,,,,,,,,,,,,,,,,,,,,,,,,,,,,,,,,,,,,,,,,,,,,,,,,,
1720514476,56,0,4217.179688,4245.641113,4325.897461,4337.563965,4242.692383,4283.077148,4263.461426,4255.384766,4200.512695,4269.102539,4414.358887,4443.205078,4298.205078,4449.102539,,,,,,,,,,,,,,,,,,,,,,,,,,,,,,,,,,,,,,,,,,,,,,,,,,,,,,,,,,,,,,,,,,,,,,
1720514476,57,0,4219.487305,4247.307617,4327.179688,4346.410156,4243.205078,4281.922852,4266.282227,4262.820313,4205.897461,4268.974121,4414.615234,4445.128418,4297.179688,4440.128418,,,,,,,,,,,,,,,,,,,,,,,,,,,,,,,,,,,,,,,,,,,,,,,,,,,,,,,,,,,,,,,,,,,,,,
1720514476,58,0,4230.384766,4248.461426,4331.282227,4341.538574,4244.615234,4281.025879,4273.077148,4270.897461,4212.94873,4262.05127,4409.743652,4450.512695,4297.94873,4432.436035,,,,,,,,,,,,,,,,,,,,,,,,,,,,,,,,,,,,,,,,,,,,,,,,,,,,,,,,,,,,,,,,,,,,,,
1720514477,59,0,4230.897461,4252.436035,4336.538574,4338.461426,4243.846191,4282.436035,4280.512695,4280.769043,4227.94873,4261.794922,4417.179688,4459.615234,4304.615234,4429.615234,,,,,,,,,,,,,,,,,,,,,,,,,,,,,,,,,,,,,,,,,,,,,,,,,,,,,,,,,,,,,,,,,,,,,,
1720514477,60,0,4228.974121,4261.538574,4341.153809,4353.589844,4243.846191,4281.666504,4276.153809,4283.589844,4234.871582,4266.666504,4426.025879,4459.743652,4305.897461,4420.512695,2.771301,7.167061,1.280789,0.616011,0.301087,0.969212,3.293423,0.951834,0.259166,0.201554,2.735882,5.980773,1.037005,0.671995,0.298972,0.744655,2.140626,0.650778,0.428196,0.177721,0.357157,0.709181,0.233536,0.094004,0.06931,0.381427,1.723824,0.649498,0.125491,0.130139,0.819562,4.074239,1.528473,0.19593,0.121015,1.232361,0.841671,0.903239,0.225604,0.216229,5.392772,2.063264,1.439929,0.44321,0.230374,2.82816,2.581357,1.316771,0.410018,0.157637,5.266045,5.641851,1.712719,0.65467,0.364194,7.965417,10.272316,2.840533,1.108276,0.594854,3.243623,4.111825,1.601745,0.737262,0.367819,15.546564,7.449948,1.755862,0.736279,0.373128
1720514477,61,0,4235.256348,4265.897461,4343.077148,4363.589844,4243.846191,4275.897461,4261.153809,4277.179688,4229.871582,4266.922852,4416.538574,4452.436035,4294.871582,4403.846191,,,,,,,,,,,,,,,,,,,,,,,,,,,,,,,,,,,,,,,,,,,,,,,,,,,,,,,,,,,,,,,,,,,,,,
1720514477,62,0,4229.230957,4264.102539,4339.230957,4348.077148,4239.230957,4272.436035,4250.384766,4268.717773,4224.358887,4264.102539,4406.922852,4444.102539,4290.256348,4390.769043,,,,,,,,,,,,,,,,,,,,,,,,,,,,,,,,,,,,,,,,,,,,,,,,,,,,,,,,,,,,,,,,,,,,,,
1720514477,63,0,4217.307617,4267.05127,4337.820313,4338.333496,4229.358887,4275.128418,4245.128418,4265.769043,4224.230957,4263.461426,4413.974121,4444.358887,4296.538574,4386.666504,,,,,,,,,,,,,,,,,,,,,,,,,,,,,,,,,,,,,,,,,,,,,,,,,,,,,,,,,,,,,,,,,,,,,,
1720514477,64,0,4223.974121,4274.615234,4343.333496,4350.641113,4225,4276.922852,4246.410156,4262.563965,4229.871582,4268.205078,4419.871582,4449.487305,4298.461426,4384.358887,,,,,,,,,,,,,,,,,,,,,,,,,,,,,,,,,,,,,,,,,,,,,,,,,,,,,,,,,,,,,,,,,,,,,,
1720514477,65,0,4233.077148,4280,4345.641113,4350.897461,4228.205078,4277.436035,4256.794922,4257.563965,4233.846191,4271.922852,4414.743652,4451.282227,4297.179688,4376.153809,,,,,,,,,,,,,,,,,,,,,,,,,,,,,,,,,,,,,,,,,,,,,,,,,,,,,,,,,,,,,,,,,,,,,,
1720514477,66,0,4227.563965,4276.666504,4346.153809,4337.05127,4226.153809,4285.897461,4270.641113,4268.205078,4224.487305,4267.692383,4412.179688,4457.179688,4293.974121,4369.487305,,,,,,,,,,,,,,,,,,,,,,,,,,,,,,,,,,,,,,,,,,,,,,,,,,,,,,,,,,,,,,,,,,,,,,
1720514477,67,0,4221.025879,4274.102539,4348.974121,4337.436035,4220,4291.025879,4275.769043,4269.102539,4212.563965,4262.563965,4411.025879,4456.538574,4289.358887,4361.922852,,,,,,,,,,,,,,,,,,,,,,,,,,,,,,,,,,,,,,,,,,,,,,,,,,,,,,,,,,,,,,,,,,,,,,
1720514477,68,0,4230.256348,4278.333496,4354.743652,4345.128418,4217.307617,4286.666504,4276.538574,4258.589844,4221.282227,4263.333496,4411.282227,4455,4293.974121,4356.922852,,,,,,,,,,,,,,,,,,,,,,,,,,,,,,,,,,,,,,,,,,,,,,,,,,,,,,,,,,,,,,,,,,,,,,
1720514477,69,0,4242.820313,4283.589844,4361.153809,4340.641113,4219.102539,4285.384766,4280.897461,4270,4243.717773,4267.692383,4415.384766,4467.307617,4296.282227,4357.94873,,,,,,,,,,,,,,,,,,,,,,,,,,,,,,,,,,,,,,,,,,,,,,,,,,,,,,,,,,,,,,,,,,,,,,
1720514477,70,0,4247.436035,4289.102539,4361.153809,4338.974121,4218.974121,4284.358887,4278.589844,4275.512695,4250.897461,4272.179688,4415.641113,4469.871582,4293.205078,4351.410156,,,,,,,,,,,,,,,,,,,,,,,,,,,,,,,,,,,,,,,,,,,,,,,,,,,,,,,,,,,,,,,,,,,,,,
1720514477,71,0,4257.436035,4294.102539,4364.358887,4347.436035,4217.94873,4278.974121,4268.589844,4267.692383,4242.692383,4275.769043,4417.94873,4462.692383,4300,4345.512695,,,,,,,,,,,,,,,,,,,,,,,,,,,,,,,,,,,,,,,,,,,,,,,,,,,,,,,,,,,,,,,,,,,,,,
1720514477,72,0,4277.820313,4298.717773,4373.717773,4351.025879,4223.589844,4277.436035,4264.102539,4272.94873,4245.512695,4279.615234,4427.436035,4471.025879,4310.769043,4349.871582,,,,,,,,,,,,,,,,,,,,,,,,,,,,,,,,,,,,,,,,,,,,,,,,,,,,,,,,,,,,,,,,,,,,,,
1720514477,73,0,4293.974121,4302.94873,4377.307617,4352.307617,4229.487305,4277.94873,4264.487305,4273.717773,4251.282227,4283.974121,4436.794922,4480.512695,4316.666504,4351.410156,,,,,,,,,,,,,,,,,,,,,,,,,,,,,,,,,,,,,,,,,,,,,,,,,,,,,,,,,,,,,,,,,,,,,,
1720514477,74,0,4296.410156,4306.282227,4376.922852,4359.230957,4228.333496,4277.307617,4260.897461,4263.333496,4238.846191,4283.461426,4441.410156,4479.102539,4321.538574,4351.025879,,,,,,,,,,,,,,,,,,,,,,,,,,,,,,,,,,,,,,,,,,,,,,,,,,,,,,,,,,,,,,,,,,,,,,
1720514477,75,0,4293.461426,4307.692383,4382.94873,4360.769043,4227.436035,4279.102539,4262.179688,4269.358887,4229.615234,4282.692383,4450.769043,4489.102539,4323.974121,4357.307617,,,,,,,,,,,,,,,,,,,,,,,,,,,,,,,,,,,,,,,,,,,,,,,,,,,,,,,,,,,,,,,,,,,,,,
1720514477,76,0,4292.436035,4305.512695,4385.384766,4355,4230.641113,4280.384766,4273.461426,4279.871582,4243.205078,4285.128418,4462.94873,4498.333496,4320.641113,4357.436035,2.534758,5.563702,1.35975,0.574511,0.287876,0.956642,2.801203,1.130302,0.288178,0.199283,2.825052,4.85803,1.17549,0.587728,0.278453,0.825207,1.850186,0.771617,0.46468,0.178374,0.476969,0.645497,0.242932,0.085437,0.057981,0.302252,1.503455,0.675732,0.135405,0.128217,0.745057,3.408382,1.384322,0.200349,0.127686,1.159254,0.749498,0.82551,0.220873,0.189361,6.563494,1.653641,1.129478,0.433448,0.248829,3.10951,2.109487,1.376336,0.415239,0.145305,5.416684,4.432315,1.816422,0.699879,0.348072,7.677607,8.392112,2.763862,0.977117,0.538255,3.510572,3.202702,1.781903,0.776062,0.322405,15.276395,5.950579,2.037043,0.709429,0.362521
1720514477,77,0,4286.794922,4300.641113,4379.102539,4354.358887,4231.666504,4281.794922,4281.922852,4276.153809,4250.128418,4284.487305,4464.102539,4488.717773,4312.307617,4344.358887,,,,,,,,,,,,,,,,,,,,,,,,,,,,,,,,,,,,,,,,,,,,,,,,,,,,,,,,,,,,,,,,,,,,,,
1720514477,78,0,4270.256348,4293.205078,4369.230957,4350.641113,4226.410156,4289.743652,4282.179688,4274.615234,4239.358887,4281.282227,4452.05127,4479.358887,4299.871582,4325.512695,,,,,,,,,,,,,,,,,,,,,,,,,,,,,,,,,,,,,,,,,,,,,,,,,,,,,,,,,,,,,,,,,,,,,,
1720514477,79,0,4255.897461,4286.538574,4357.692383,4339.358887,4218.974121,4291.410156,4281.025879,4271.794922,4233.974121,4271.922852,4436.538574,4470.384766,4289.615234,4306.922852,,,,,,,,,,,,,,,,,,,,,,,,,,,,,,,,,,,,,,,,,,,,,,,,,,,,,,,,,,,,,,,,,,,,,,
1720514477,80,0,4258.717773,4279.615234,4352.436035,4336.410156,4214.743652,4283.461426,4279.487305,4267.179688,4231.922852,4260.512695,4429.871582,4462.563965,4287.563965,4300,,,,,,,,,,,,,,,,,,,,,,,,,,,,,,,,,,,,,,,,,,,,,,,,,,,,,,,,,,,,,,,,,,,,,,
1720514477,81,0,4264.102539,4278.077148,4356.666504,4342.05127,4216.153809,4278.974121,4277.179688,4266.025879,4233.589844,4265.897461,4433.846191,4465.384766,4294.230957,4303.333496,,,,,,,,,,,,,,,,,,,,,,,,,,,,,,,,,,,,,,,,,,,,,,,,,,,,,,,,,,,,,,,,,,,,,,
1720514477,82,0,4262.820313,4282.820313,4364.230957,4343.461426,4217.05127,4280.512695,4277.94873,4265.384766,4238.077148,4278.717773,4448.077148,4472.820313,4306.538574,4307.820313,,,,,,,,,,,,,,,,,,,,,,,,,,,,,,,,,,,,,,,,,,,,,,,,,,,,,,,,,,,,,,,,,,,,,,
1720514477,83,0,4262.179688,4288.589844,4369.358887,4342.307617,4217.307617,4281.153809,4277.179688,4269.102539,4238.974121,4282.820313,4461.025879,4480.128418,4311.794922,4309.487305,,,,,,,,,,,,,,,,,,,,,,,,,,,,,,,,,,,,,,,,,,,,,,,,,,,,,,,,,,,,,,,,,,,,,,
1720514477,84,0,4262.94873,4295.256348,4371.666504,4344.358887,4217.94873,4279.358887,4273.205078,4269.487305,4239.102539,4285.384766,4459.743652,4486.922852,4308.077148,4306.282227,,,,,,,,,,,,,,,,,,,,,,,,,,,,,,,,,,,,,,,,,,,,,,,,,,,,,,,,,,,,,,,,,,,,,,
1720514477,85,0,4267.692383,4297.05127,4380.384766,4351.410156,4219.358887,4278.589844,4274.230957,4267.563965,4238.846191,4290.128418,4458.717773,4491.153809,4312.05127,4306.025879,,,,,,,,,,,,,,,,,,,,,,,,,,,,,,,,,,,,,,,,,,,,,,,,,,,,,,,,,,,,,,,,,,,,,,
1720514477,86,0,4268.717773,4297.94873,4386.794922,4356.666504,4225.128418,4280.128418,4273.333496,4266.410156,4229.743652,4286.410156,4456.922852,4484.871582,4313.333496,4303.974121,,,,,,,,,,,,,,,,,,,,,,,,,,,,,,,,,,,,,,,,,,,,,,,,,,,,,,,,,,,,,,,,,,,,,,
1720514477,87,0,4258.589844,4297.307617,4375.256348,4349.615234,4230.256348,4279.358887,4264.230957,4256.282227,4219.487305,4276.282227,4445.897461,4474.102539,4299.743652,4287.692383,,,,,,,,,,,,,,,,,,,,,,,,,,,,,,,,,,,,,,,,,,,,,,,,,,,,,,,,,,,,,,,,,,,,,,
1720514477,88,0,4244.358887,4286.794922,4360.769043,4341.410156,4228.717773,4281.282227,4265.256348,4247.563965,4229.487305,4274.871582,4440.128418,4474.230957,4291.282227,4276.538574,,,,,,,,,,,,,,,,,,,,,,,,,,,,,,,,,,,,,,,,,,,,,,,,,,,,,,,,,,,,,,,,,,,,,,
1720514477,89,0,4237.94873,4280,4361.153809,4339.743652,4227.563965,4291.538574,4278.077148,4255.641113,4246.922852,4282.436035,4445.128418,4479.230957,4297.692383,4291.410156,,,,,,,,,,,,,,,,,,,,,,,,,,,,,,,,,,,,,,,,,,,,,,,,,,,,,,,,,,,,,,,,,,,,,,
1720514477,90,0,4231.538574,4277.05127,4357.436035,4333.077148,4227.692383,4296.025879,4282.563965,4265.128418,4249.102539,4285.769043,4443.846191,4474.358887,4298.333496,4304.871582,,,,,,,,,,,,,,,,,,,,,,,,,,,,,,,,,,,,,,,,,,,,,,,,,,,,,,,,,,,,,,,,,,,,,,
1720514477,91,0,4218.333496,4267.94873,4346.666504,4325.769043,4220.256348,4293.077148,4282.436035,4267.94873,4249.487305,4281.410156,4441.282227,4469.358887,4290.256348,4295.769043,,,,,,,,,,,,,,,,,,,,,,,,,,,,,,,,,,,,,,,,,,,,,,,,,,,,,,,,,,,,,,,,,,,,,,
1720514477,92,0,4211.153809,4259.358887,4348.205078,4324.487305,4215.256348,4294.743652,4288.333496,4274.358887,4260.128418,4279.230957,4442.94873,4472.820313,4287.179688,4288.205078,2.3998,4.026801,1.442105,0.52616,0.270633,0.998285,2.286967,1.250887,0.333603,0.204143,2.827616,3.755715,1.340566,0.519284,0.250351,0.990207,1.554542,0.850292,0.525163,0.1805,0.605998,0.557894,0.242176,0.078523,0.047664,0.257678,1.227021,0.671475,0.156147,0.127083,0.647246,2.529634,1.149155,0.206378,0.134124,1.057091,0.650734,0.768835,0.203698,0.167446,7.313454,1.361996,1.030376,0.428162,0.268257,3.47661,1.636331,1.441701,0.418065,0.134911,5.505294,3.361964,1.948266,0.730255,0.343842,6.997836,6.254153,2.625467,0.82472,0.462293,3.906119,2.441687,2.025907,0.826273,0.283848,14.189559,4.317401,2.308249,0.694375,0.333831
1720514477,93,0,4215.641113,4266.282227,4353.077148,4324.615234,4223.717773,4291.410156,4289.871582,4271.538574,4267.563965,4281.025879,4437.307617,4468.846191,4285.897461,4288.974121,,,,,,,,,,,,,,,,,,,,,,,,,,,,,,,,,,,,,,,,,,,,,,,,,,,,,,,,,,,,,,,,,,,,,,
1720514477,94,0,4223.205078,4277.563965,4355.128418,4330.641113,4231.538574,4282.307617,4283.333496,4269.615234,4263.333496,4279.743652,4433.333496,4471.922852,4282.436035,4292.563965,,,,,,,,,,,,,,,,,,,,,,,,,,,,,,,,,,,,,,,,,,,,,,,,,,,,,,,,,,,,,,,,,,,,,,
1720514477,95,0,4226.410156,4278.717773,4364.615234,4340.384766,4229.358887,4280.512695,4276.538574,4273.974121,4259.487305,4280.256348,4440.384766,4485,4285.769043,4301.282227,,,,,,,,,,,,,,,,,,,,,,,,,,,,,,,,,,,,,,,,,,,,,,,,,,,,,,,,,,,,,,,,,,,,,,
1720514477,96,0,4229.615234,4283.974121,4375.769043,4341.282227,4228.974121,4281.666504,4276.153809,4264.615234,4256.025879,4282.05127,4445.384766,4487.179688,4297.307617,4309.871582,,,,,,,,,,,,,,,,,,,,,,,,,,,,,,,,,,,,,,,,,,,,,,,,,,,,,,,,,,,,,,,,,,,,,,
1720514477,97,0,4233.589844,4293.205078,4378.077148,4340.641113,4233.461426,4278.717773,4277.94873,4259.487305,4245.641113,4280.384766,4445,4488.717773,4303.717773,4317.179688,,,,,,,,,,,,,,,,,,,,,,,,,,,,,,,,,,,,,,,,,,,,,,,,,,,,,,,,,,,,,,,,,,,,,,
1720514477,98,0,4229.102539,4290.512695,4371.794922,4342.307617,4233.333496,4277.436035,4272.692383,4253.589844,4231.794922,4280,4441.153809,4482.820313,4297.563965,4320,,,,,,,,,,,,,,,,,,,,,,,,,,,,,,,,,,,,,,,,,,,,,,,,,,,,,,,,,,,,,,,,,,,,,,
1720514477,99,0,4221.666504,4281.153809,4361.410156,4338.077148,4229.743652,4280,4264.230957,4238.333496,4227.820313,4275.256348,4433.205078,4465.128418,4292.179688,4316.410156,,,,,,,,,,,,,,,,,,,,,,,,,,,,,,,,,,,,,,,,,,,,,,,,,,,,,,,,,,,,,,,,,,,,,,
1720514477,100,0,4208.717773,4279.487305,4354.743652,4329.871582,4229.487305,4280.897461,4264.358887,4237.563965,4241.282227,4268.205078,4427.436035,4459.615234,4293.461426,4317.820313,,,,,,,,,,,,,,,,,,,,,,,,,,,,,,,,,,,,,,,,,,,,,,,,,,,,,,,,,,,,,,,,,,,,,,
1720514477,101,0,4200.641113,4281.153809,4350.897461,4327.05127,4229.871582,4281.025879,4270.384766,4249.102539,4256.794922,4271.922852,4427.436035,4462.436035,4292.692383,4325.384766,,,,,,,,,,,,,,,,,,,,,,,,,,,,,,,,,,,,,,,,,,,,,,,,,,,,,,,,,,,,,,,,,,,,,,
1720514477,102,0,4208.077148,4278.974121,4346.666504,4329.230957,4230.384766,4284.871582,4279.743652,4257.94873,4261.153809,4279.102539,4430,4463.974121,4291.025879,4332.179688,,,,,,,,,,,,,,,,,,,,,,,,,,,,,,,,,,,,,,,,,,,,,,,,,,,,,,,,,,,,,,,,,,,,,,
1720514477,103,0,4211.282227,4280.256348,4349.102539,4330,4230.641113,4288.717773,4290,4265.384766,4265.512695,4281.410156,4436.282227,4473.205078,4294.743652,4342.307617,,,,,,,,,,,,,,,,,,,,,,,,,,,,,,,,,,,,,,,,,,,,,,,,,,,,,,,,,,,,,,,,,,,,,,
1720514477,104,0,4201.410156,4280.897461,4348.846191,4326.153809,4229.358887,4283.846191,4287.307617,4260.641113,4261.922852,4275.641113,4436.666504,4475.769043,4293.333496,4347.820313,,,,,,,,,,,,,,,,,,,,,,,,,,,,,,,,,,,,,,,,,,,,,,,,,,,,,,,,,,,,,,,,,,,,,,
1720514477,105,0,4198.333496,4276.025879,4340.256348,4318.077148,4231.666504,4276.922852,4274.615234,4248.077148,4248.589844,4268.846191,4430.897461,4467.94873,4288.846191,4342.692383,,,,,,,,,,,,,,,,,,,,,,,,,,,,,,,,,,,,,,,,,,,,,,,,,,,,,,,,,,,,,,,,,,,,,,
1720514477,106,0,4203.846191,4275.769043,4340.256348,4312.820313,4233.205078,4279.230957,4272.94873,4251.922852,4250.256348,4271.922852,4435.512695,4473.077148,4295.128418,4345.769043,,,,,,,,,,,,,,,,,,,,,,,,,,,,,,,,,,,,,,,,,,,,,,,,,,,,,,,,,,,,,,,,,,,,,,
1720514477,107,0,4206.153809,4285.384766,4352.179688,4318.974121,4232.692383,4281.282227,4278.333496,4257.436035,4259.102539,4283.461426,4447.563965,4483.333496,4308.461426,4359.615234,,,,,,,,,,,,,,,,,,,,,,,,,,,,,,,,,,,,,,,,,,,,,,,,,,,,,,,,,,,,,,,,,,,,,,
1720514477,108,0,4219.743652,4297.05127,4367.692383,4329.743652,4238.717773,4278.974121,4279.102539,4257.179688,4253.846191,4287.436035,4451.666504,4486.922852,4310.384766,4364.743652,2.433065,2.904301,1.485785,0.483345,0.251866,1.038146,1.831347,1.240083,0.381612,0.209837,2.86138,2.911043,1.400365,0.477972,0.219209,1.318815,1.295962,0.827382,0.590368,0.184176,0.746429,0.456859,0.221514,0.074425,0.039695,0.23748,0.969355,0.645925,0.184623,0.126895,0.550408,1.764616,0.964574,0.217381,0.140221,0.915833,0.604688,0.760134,0.177135,0.154555,7.285522,1.212735,1.089913,0.430901,0.285688,3.78874,1.271927,1.446409,0.415421,0.129841,5.494406,2.647367,2.00487,0.73993,0.346233,6.103934,4.37566,2.442848,0.684197,0.377204,4.299063,1.943884,2.189083,0.875503,0.255402,13.554918,2.952948,2.455027,0.689771,0.295584
1720514477,109,0,4241.922852,4294.871582,4374.102539,4328.205078,4244.358887,4279.487305,4278.461426,4258.205078,4249.871582,4282.820313,4448.717773,4488.077148,4300.256348,4352.820313,,,,,,,,,,,,,,,,,,,,,,,,,,,,,,,,,,,,,,,,,,,,,,,,,,,,,,,,,,,,,,,,,,,,,,
1720514477,110,0,4231.922852,4284.102539,4364.487305,4324.358887,4237.692383,4278.974121,4279.230957,4253.974121,4251.794922,4283.589844,4445.897461,4484.230957,4294.487305,4339.615234,,,,,,,,,,,,,,,,,,,,,,,,,,,,,,,,,,,,,,,,,,,,,,,,,,,,,,,,,,,,,,,,,,,,,,
1720514477,111,0,4188.205078,4278.333496,4356.538574,4322.563965,4230.641113,4280.128418,4281.538574,4249.743652,4241.282227,4280.512695,4440.384766,4478.846191,4293.589844,4333.846191,,,,,,,,,,,,,,,,,,,,,,,,,,,,,,,,,,,,,,,,,,,,,,,,,,,,,,,,,,,,,,,,,,,,,,
1720514477,112,0,4156.025879,4280.384766,4357.307617,4316.538574,4234.871582,4290.512695,4287.563965,4248.333496,4231.922852,4270.769043,4430.897461,4476.153809,4290.256348,4330.128418,,,,,,,,,,,,,,,,,,,,,,,,,,,,,,,,,,,,,,,,,,,,,,,,,,,,,,,,,,,,,,,,,,,,,,
1720514477,113,0,4139.615234,4281.025879,4351.282227,4311.666504,4239.230957,4295.769043,4288.589844,4247.94873,4232.94873,4261.025879,4422.692383,4470.512695,4280.769043,4323.846191,,,,,,,,,,,,,,,,,,,,,,,,,,,,,,,,,,,,,,,,,,,,,,,,,,,,,,,,,,,,,,,,,,,,,,
1720514477,114,0,4108.461426,4269.487305,4332.05127,4300.384766,4234.230957,4283.333496,4274.615234,4240.769043,4221.666504,4246.794922,4406.410156,4451.666504,4259.615234,4306.794922,,,,,,,,,,,,,,,,,,,,,,,,,,,,,,,,,,,,,,,,,,,,,,,,,,,,,,,,,,,,,,,,,,,,,,
1720514477,115,0,4081.666748,4261.666504,4318.461426,4293.461426,4231.922852,4274.743652,4262.179688,4232.179688,4208.846191,4237.436035,4392.179688,4437.563965,4248.333496,4292.692383,,,,,,,,,,,,,,,,,,,,,,,,,,,,,,,,,,,,,,,,,,,,,,,,,,,,,,,,,,,,,,,,,,,,,,
1720514477,116,0,4087.564209,4276.666504,4331.025879,4311.410156,4241.410156,4283.717773,4268.974121,4241.410156,4224.871582,4256.410156,4413.717773,4456.025879,4273.461426,4308.461426,,,,,,,,,,,,,,,,,,,,,,,,,,,,,,,,,,,,,,,,,,,,,,,,,,,,,,,,,,,,,,,,,,,,,,
1720514477,117,0,4097.05127,4295.641113,4355.128418,4327.436035,4250,4287.436035,4278.077148,4253.589844,4249.615234,4285.128418,4447.94873,4486.538574,4307.563965,4335.256348,,,,,,,,,,,,,,,,,,,,,,,,,,,,,,,,,,,,,,,,,,,,,,,,,,,,,,,,,,,,,,,,,,,,,,
1720514477,118,0,4085.512939,4298.077148,4357.94873,4324.871582,4248.205078,4279.102539,4275.256348,4252.307617,4247.820313,4288.974121,4451.666504,4492.436035,4314.358887,4334.871582,,,,,,,,,,,,,,,,,,,,,,,,,,,,,,,,,,,,,,,,,,,,,,,,,,,,,,,,,,,,,,,,,,,,,,
1720514477,119,0,4063.718018,4289.615234,4345.512695,4321.025879,4246.153809,4275.769043,4273.077148,4256.794922,4240,4285.384766,4447.05127,4484.102539,4309.487305,4320.384766,,,,,,,,,,,,,,,,,,,,,,,,,,,,,,,,,,,,,,,,,,,,,,,,,,,,,,,,,,,,,,,,,,,,,,
1720514477,120,0,4042.820557,4282.563965,4348.717773,4317.692383,4247.436035,4283.333496,4278.205078,4269.487305,4249.615234,4288.974121,4451.410156,4486.794922,4312.563965,4320.128418,,,,,,,,,,,,,,,,,,,,,,,,,,,,,,,,,,,,,,,,,,,,,,,,,,,,,,,,,,,,,,,,,,,,,,
1720514477,121,0,4024.102539,4278.205078,4351.794922,4315,4246.922852,4292.179688,4278.717773,4259.358887,4250.897461,4286.025879,4448.589844,4484.871582,4308.974121,4316.282227,,,,,,,,,,,,,,,,,,,,,,,,,,,,,,,,,,,,,,,,,,,,,,,,,,,,,,,,,,,,,,,,,,,,,,
1720514477,122,0,4009.743652,4275.897461,4344.102539,4318.846191,4247.94873,4295.384766,4280.641113,4252.05127,4238.717773,4278.589844,4449.487305,4479.487305,4297.94873,4304.358887,,,,,,,,,,,,,,,,,,,,,,,,,,,,,,,,,,,,,,,,,,,,,,,,,,,,,,,,,,,,,,,,,,,,,,
1720514477,123,0,3999.871826,4275.641113,4344.358887,4315.641113,4250.769043,4295.897461,4285.769043,4266.922852,4238.077148,4275.641113,4454.358887,4486.153809,4296.282227,4300.641113,,,,,,,,,,,,,,,,,,,,,,,,,,,,,,,,,,,,,,,,,,,,,,,,,,,,,,,,,,,,,,,,,,,,,,
1720514477,124,0,3991.025635,4277.307617,4347.307617,4309.615234,4248.974121,4296.922852,4284.871582,4260.897461,4234.102539,4272.94873,4444.615234,4486.538574,4302.436035,4300.128418,2.799549,2.394518,1.486136,0.456308,0.235803,1.030682,1.509021,1.087348,0.414641,0.209509,2.97336,2.446636,1.315986,0.461055,0.190409,1.829574,1.113257,0.698321,0.632619,0.190204,0.885234,0.365214,0.184915,0.072966,0.034652,0.230319,0.786518,0.603772,0.212737,0.125826,0.464217,1.371621,0.951803,0.234695,0.144324,0.776866,0.66456,0.829012,0.149162,0.150435,6.481459,1.202005,1.246385,0.443633,0.29796,3.897141,1.060922,1.351133,0.402748,0.130654,5.275319,2.314287,1.9283,0.726391,0.346377,5.180002,3.073288,2.256148,0.580208,0.296891,4.509023,1.707862,2.170364,0.896957,0.237867,13.893219,2.066763,2.43294,0.688849,0.258132
1720514477,125,0,3986.281982,4277.94873,4350.769043,4314.487305,4246.666504,4293.205078,4284.102539,4250.897461,4226.794922,4273.717773,4440.384766,4488.077148,4306.794922,4303.461426,,,,,,,,,,,,,,,,,,,,,,,,,,,,,,,,,,,,,,,,,,,,,,,,,,,,,,,,,,,,,,,,,,,,,,
1720514477,126,0,3988.333252,4277.563965,4359.871582,4319.358887,4247.307617,4282.307617,4285.897461,4261.025879,4238.974121,4283.077148,4452.820313,4501.922852,4309.487305,4309.871582,,,,,,,,,,,,,,,,,,,,,,,,,,,,,,,,,,,,,,,,,,,,,,,,,,,,,,,,,,,,,,,,,,,,,,
1720514477,127,0,3986.410156,4279.615234,4364.487305,4321.538574,4248.589844,4276.794922,4282.436035,4262.436035,4246.282227,4289.102539,4461.153809,4505.897461,4313.589844,4305.769043,,,,,,,,,,,,,,,,,,,,,,,,,,,,,,,,,,,,,,,,,,,,,,,,,,,,,,,,,,,,,,,,,,,,,,
1720514477,0,0,3973.205078,4279.358887,4356.922852,4322.179688,4248.077148,4278.846191,4274.102539,4254.871582,4232.179688,4285.897461,4456.922852,4496.922852,4315.897461,4294.871582,,,,,,,,,,,,,,,,,,,,,,,,,,,,,,,,,,,,,,,,,,,,,,,,,,,,,,,,,,,,,,,,,,,,,,
1720514477,1,0,3961.923096,4277.436035,4352.307617,4318.846191,4247.94873,4278.461426,4274.102539,4255.512695,4228.077148,4282.436035,4448.974121,4495.641113,4313.717773,4294.871582,,,,,,,,,,,,,,,,,,,,,,,,,,,,,,,,,,,,,,,,,,,,,,,,,,,,,,,,,,,,,,,,,,,,,,
