Timestamp,EEG.Counter,EEG.Interpolated,EEG.AF3,EEG.F7,EEG.F3,EEG.FC5,EEG.T7,EEG.P7,EEG.O1,EEG.O2,EEG.P8,EEG.T8,EEG.FC6,EEG.F4,EEG.F8,EEG.AF4,POW.AF3.Theta,POW.AF3.Alpha,POW.AF3.BetaL,POW.AF3.BetaH,POW.AF3.Gamma,POW.F7.Theta,POW.F7.Alpha,POW.F7.BetaL,POW.F7.BetaH,POW.F7.Gamma,POW.F3.Theta,POW.F3.Alpha,POW.F3.BetaL,POW.F3.BetaH,POW.F3.Gamma,POW.FC5.Theta,POW.FC5.Alpha,POW.FC5.BetaL,POW.FC5.BetaH,POW.FC5.Gamma,POW.T7.Theta,POW.T7.Alpha,POW.T7.BetaL,POW.T7.BetaH,POW.T7.Gamma,POW.P7.Theta,POW.P7.Alpha,POW.P7.BetaL,POW.P7.BetaH,POW.P7.Gamma,POW.O1.Theta,POW.O1.Alpha,POW.O1.BetaL,POW.O1.BetaH,POW.O1.Gamma,POW.O2.Theta,POW.O2.Alpha,POW.O2.BetaL,POW.O2.BetaH,POW.O2.Gamma,POW.P8.Theta,POW.P8.Alpha,POW.P8.BetaL,POW.P8.BetaH,POW.P8.Gamma,POW.T8.Theta,POW.T8.Alpha,POW.T8.BetaL,POW.T8.BetaH,POW.T8.Gamma,POW.FC6.Theta,POW.FC6.Alpha,POW.FC6.BetaL,POW.FC6.BetaH,POW.FC6.Gamma,POW.F4.Theta,POW.F4.Alpha,POW.F4.BetaL,POW.F4.BetaH,POW.F4.Gamma,POW.F8.Theta,POW.F8.Alpha,POW.F8.BetaL,POW.F8.BetaH,POW.F8.Gamma,POW.AF4.Theta,POW.AF4.Alpha,POW.AF4.BetaL,POW.AF4.BetaH,POW.AF4.Gamma
1720076190,89,0,4413.974121,4534.615234,4501.153809,4527.563965,4462.94873,4472.692383,4538.717773,4402.436035,4508.589844,4513.333496,4405.897461,4572.692383,4515.897461,4506.153809,,,,,,,,,,,,,,,,,,,,,,,,,,,,,,,,,,,,,,,,,,,,,,,,,,,,,,,,,,,,,,,,,,,,,,
1720076190,90,0,4407.820313,4531.153809,4490.769043,4515.897461,4446.538574,4459.743652,4529.871582,4396.922852,4501.922852,4506.282227,4402.692383,4561.666504,4516.153809,4500.641113,,,,,,,,,,,,,,,,,,,,,,,,,,,,,,,,,,,,,,,,,,,,,,,,,,,,,,,,,,,,,,,,,,,,,,
1720076190,91,0,4370.897461,4523.461426,4488.846191,4518.205078,4440.256348,4458.717773,4517.820313,4392.436035,4496.153809,4493.461426,4400.512695,4561.794922,4512.179688,4521.922852,,,,,,,,,,,,,,,,,,,,,,,,,,,,,,,,,,,,,,,,,,,,,,,,,,,,,,,,,,,,,,,,,,,,,,
1720076190,92,0,4342.94873,4524.102539,4479.871582,4509.102539,4448.077148,4462.307617,4512.179688,4390.128418,4491.666504,4497.563965,4392.307617,4555,4499.230957,4574.230957,,,,,,,,,,,,,,,,,,,,,,,,,,,,,,,,,,,,,,,,,,,,,,,,,,,,,,,,,,,,,,,,,,,,,,
1720076190,93,0,4374.230957,4532.563965,4473.077148,4511.282227,4451.538574,4458.077148,4516.922852,4390.256348,4491.410156,4517.692383,4383.589844,4555.769043,4500.769043,4626.025879,,,,,,,,,,,,,,,,,,,,,,,,,,,,,,,,,,,,,,,,,,,,,,,,,,,,,,,,,,,,,,,,,,,,,,
1720076190,94,0,4406.922852,4537.94873,4481.410156,4527.05127,4452.692383,4456.410156,4522.179688,4394.487305,4492.820313,4516.538574,4391.538574,4572.692383,4511.538574,4637.94873,,,,,,,,,,,,,,,,,,,,,,,,,,,,,,,,,,,,,,,,,,,,,,,,,,,,,,,,,,,,,,,,,,,,,,
1720076190,95,0,4382.563965,4537.94873,4489.102539,4523.205078,4442.05127,4461.410156,4528.461426,4401.153809,4490.256348,4492.692383,4407.94873,4584.615234,4505.641113,4626.153809,,,,,,,,,,,,,,,,,,,,,,,,,,,,,,,,,,,,,,,,,,,,,,,,,,,,,,,,,,,,,,,,,,,,,,
1720076190,96,0,4341.538574,4536.922852,4489.230957,4510.769043,4455,4460.128418,4536.025879,4405.256348,4495.769043,4486.794922,4408.717773,4586.410156,4498.717773,4630.769043,21.823475,5.793747,5.376593,2.682399,0.577351,4.956008,0.883255,0.830276,0.354717,0.201522,12.950139,7.928941,3.562446,1.288858,0.490354,7.088878,1.93354,2.399075,1.28987,0.598001,34.725468,18.265657,10.208657,4.849498,4.158956,4.628762,1.599867,0.737842,0.4321,0.220596,20.805456,10.311952,3.559351,1.815217,0.970804,118.422043,49.74773,25.394651,11.0624,4.520858,10.205235,1.51283,1.05503,0.6372,0.286278,22.796148,4.147229,3.458656,0.983846,0.535404,12.97188,3.982644,1.952384,1.477691,0.517792,12.937661,10.960266,2.812555,1.227505,0.403033,4.165787,1.644442,1.098857,0.348005,0.291552,596.359802,210.861801,43.049717,28.550886,8.009912
1720076190,97,0,4342.179688,4537.692383,4490.897461,4508.077148,4456.922852,4459.743652,4543.333496,4414.743652,4506.410156,4500.256348,4398.717773,4592.563965,4509.615234,4644.871582,,,,,,,,,,,,,,,,,,,,,,,,,,,,,,,,,,,,,,,,,,,,,,,,,,,,,,,,,,,,,,,,,,,,,,
1720076190,98,0,4364.871582,4539.230957,4497.94873,4515.769043,4384.871582,4470.897461,4552.436035,4430.256348,4511.282227,4505.897461,4407.05127,4605.641113,4514.487305,4658.974121,,,,,,,,,,,,,,,,,,,,,,,,,,,,,,,,,,,,,,,,,,,,,,,,,,,,,,,,,,,,,,,,,,,,,,
1720076190,99,0,4369.871582,4536.025879,4507.307617,4530.897461,4330.641113,4473.846191,4558.974121,4431.538574,4513.974121,4511.282227,4425.256348,4610.769043,4503.461426,4664.743652,,,,,,,,,,,,,,,,,,,,,,,,,,,,,,,,,,,,,,,,,,,,,,,,,,,,,,,,,,,,,,,,,,,,,,
1720076190,100,0,4363.205078,4530.769043,4505.384766,4536.282227,4332.436035,4470,4555,4426.153809,4513.717773,4506.282227,4428.333496,4611.410156,4501.025879,4659.102539,,,,,,,,,,,,,,,,,,,,,,,,,,,,,,,,,,,,,,,,,,,,,,,,,,,,,,,,,,,,,,,,,,,,,,
1720076190,101,0,4358.077148,4526.794922,4488.205078,4520,4313.846191,4469.358887,4543.846191,4424.487305,4507.94873,4476.282227,4413.846191,4607.05127,4505,4646.538574,,,,,,,,,,,,,,,,,,,,,,,,,,,,,,,,,,,,,,,,,,,,,,,,,,,,,,,,,,,,,,,,,,,,,,
1720076190,102,0,4347.563965,4526.666504,4477.692383,4504.743652,4307.436035,4464.615234,4534.230957,4416.025879,4503.077148,4458.205078,4400.769043,4590.897461,4500.384766,4618.717773,,,,,,,,,,,,,,,,,,,,,,,,,,,,,,,,,,,,,,,,,,,,,,,,,,,,,,,,,,,,,,,,,,,,,,
1720076190,103,0,4344.743652,4526.666504,4478.974121,4503.846191,4352.820313,4461.025879,4522.94873,4407.436035,4501.922852,4473.589844,4403.717773,4584.230957,4496.153809,4613.205078,,,,,,,,,,,,,,,,,,,,,,,,,,,,,,,,,,,,,,,,,,,,,,,,,,,,,,,,,,,,,,,,,,,,,,
1720076190,104,0,4343.846191,4521.410156,4466.282227,4497.94873,4369.487305,4455.256348,4511.794922,4402.94873,4493.589844,4483.461426,4392.436035,4575.897461,4488.846191,4622.179688,,,,,,,,,,,,,,,,,,,,,,,,,,,,,,,,,,,,,,,,,,,,,,,,,,,,,,,,,,,,,,,,,,,,,,
1720076190,105,0,4299.871582,4509.358887,4432.820313,4476.282227,4348.846191,4439.871582,4502.307617,4392.436035,4476.025879,4465.769043,4350.256348,4537.692383,4465.384766,4556.922852,,,,,,,,,,,,,,,,,,,,,,,,,,,,,,,,,,,,,,,,,,,,,,,,,,,,,,,,,,,,,,,,,,,,,,
1720076190,106,0,4245.512695,4503.205078,4410.897461,4457.692383,4357.307617,4432.94873,4502.05127,4387.692383,4470.256348,4464.615234,4331.922852,4519.487305,4455,4460.256348,,,,,,,,,,,,,,,,,,,,,,,,,,,,,,,,,,,,,,,,,,,,,,,,,,,,,,,,,,,,,,,,,,,,,,
1720076190,107,0,4255.128418,4514.230957,4422.820313,4462.05127,4363.846191,4443.717773,4514.743652,4400.128418,4483.589844,4491.025879,4367.179688,4550.769043,4474.230957,4450.641113,,,,,,,,,,,,,,,,,,,,,,,,,,,,,,,,,,,,,,,,,,,,,,,,,,,,,,,,,,,,,,,,,,,,,,
1720076190,108,0,4308.461426,4525.128418,4441.922852,4477.307617,4343.589844,4446.538574,4525.897461,4412.436035,4496.025879,4498.846191,4394.358887,4570.641113,4488.461426,4482.692383,,,,,,,,,,,,,,,,,,,,,,,,,,,,,,,,,,,,,,,,,,,,,,,,,,,,,,,,,,,,,,,,,,,,,,
1720076190,109,0,4323.461426,4522.94873,4444.358887,4488.333496,4331.410156,4443.205078,4527.820313,4417.820313,4495.128418,4481.025879,4379.102539,4565.256348,4482.563965,4471.794922,,,,,,,,,,,,,,,,,,,,,,,,,,,,,,,,,,,,,,,,,,,,,,,,,,,,,,,,,,,,,,,,,,,,,,
1720076190,110,0,4299.743652,4520.641113,4445.897461,4492.94873,4335.384766,4447.179688,4527.563965,4424.487305,4488.589844,4470.512695,4366.410156,4567.307617,4478.589844,4463.333496,,,,,,,,,,,,,,,,,,,,,,,,,,,,,,,,,,,,,,,,,,,,,,,,,,,,,,,,,,,,,,,,,,,,,,
1720076190,111,0,4298.717773,4522.94873,4455.256348,4488.077148,4339.743652,4447.05127,4526.538574,4430.128418,4478.717773,4471.922852,4376.282227,4575.384766,4481.794922,4486.922852,,,,,,,,,,,,,,,,,,,,,,,,,,,,,,,,,,,,,,,,,,,,,,,,,,,,,,,,,,,,,,,,,,,,,,
1720076190,112,0,4310.512695,4526.153809,4463.333496,4484.871582,4345.641113,4444.615234,4524.230957,4431.025879,4470.641113,4469.358887,4389.743652,4581.282227,4480.128418,4497.05127,30.85931,4.511307,4.581403,2.863954,0.505351,5.508039,0.995323,1.002778,0.41356,0.212023,11.362101,6.567186,3.859427,1.262322,0.44035,7.31923,1.657804,2.667963,1.459415,0.611785,25.902714,15.030358,10.266924,3.840021,3.050898,4.341908,1.480529,0.733848,0.445313,0.235038,28.933002,13.290497,4.553088,2.182597,1.124518,137.588196,58.546989,29.823481,12.897923,5.252337,10.249622,1.972731,1.132477,0.659989,0.302614,21.256334,4.804517,3.460336,1.021136,0.537284,12.681196,4.568124,1.830304,1.760992,0.60403,11.270427,12.677961,2.932921,1.49752,0.434659,4.717535,1.703134,1.164892,0.388373,0.277911,823.595276,304.871765,49.070694,36.659904,10.995688
1720076190,113,0,4300.769043,4525.641113,4461.922852,4491.153809,4365.512695,4448.589844,4522.94873,4428.205078,4471.153809,4472.05127,4384.102539,4579.743652,4473.717773,4491.410156,,,,,,,,,,,,,,,,,,,,,,,,,,,,,,,,,,,,,,,,,,,,,,,,,,,,,,,,,,,,,,,,,,,,,,
1720076190,114,0,4282.307617,4524.230957,4462.179688,4495.128418,4362.692383,4456.666504,4523.461426,4430.384766,4472.692383,4477.436035,4369.871582,4576.666504,4476.794922,4493.589844,,,,,,,,,,,,,,,,,,,,,,,,,,,,,,,,,,,,,,,,,,,,,,,,,,,,,,,,,,,,,,,,,,,,,,
1720076190,115,0,4258.461426,4523.589844,4463.846191,4489.230957,4336.410156,4460.384766,4517.179688,4431.025879,4475.128418,4476.153809,4370,4572.307617,4481.282227,4497.179688,,,,,,,,,,,,,,,,,,,,,,,,,,,,,,,,,,,,,,,,,,,,,,,,,,,,,,,,,,,,,,,,,,,,,,
1720076190,116,0,4227.692383,4523.461426,4453.461426,4481.538574,4338.461426,4460.641113,4507.820313,4424.871582,4475.256348,4478.974121,4375,4563.974121,4472.820313,4491.410156,,,,,,,,,,,,,,,,,,,,,,,,,,,,,,,,,,,,,,,,,,,,,,,,,,,,,,,,,,,,,,,,,,,,,,
1720076190,117,0,4215,4518.846191,4439.871582,4472.563965,4357.563965,4462.820313,4503.717773,4419.230957,4467.94873,4472.563965,4373.974121,4558.461426,4466.666504,4489.487305,,,,,,,,,,,,,,,,,,,,,,,,,,,,,,,,,,,,,,,,,,,,,,,,,,,,,,,,,,,,,,,,,,,,,,
1720076190,118,0,4218.205078,4512.179688,4434.743652,4463.717773,4353.717773,4461.410156,4498.974121,4413.974121,4464.615234,4442.436035,4371.025879,4557.05127,4472.179688,4496.538574,,,,,,,,,,,,,,,,,,,,,,,,,,,,,,,,,,,,,,,,,,,,,,,,,,,,,,,,,,,,,,,,,,,,,,
1720076190,119,0,4207.307617,4505.512695,4428.589844,4456.410156,4340.256348,4460.384766,4492.692383,4410.897461,4466.282227,4419.358887,4366.410156,4554.615234,4473.333496,4497.820313,,,,,,,,,,,,,,,,,,,,,,,,,,,,,,,,,,,,,,,,,,,,,,,,,,,,,,,,,,,,,,,,,,,,,,
1720076190,120,0,4177.94873,4497.05127,4415.384766,4445,4339.358887,4459.358887,4491.153809,4410.128418,4465.769043,4418.589844,4360.256348,4549.615234,4459.487305,4488.333496,,,,,,,,,,,,,,,,,,,,,,,,,,,,,,,,,,,,,,,,,,,,,,,,,,,,,,,,,,,,,,,,,,,,,,
1720076190,121,0,4147.692383,4490.641113,4408.846191,4430.897461,4340.256348,4451.666504,4492.179688,4413.205078,4462.179688,4413.846191,4354.871582,4543.589844,4446.922852,4478.717773,,,,,,,,,,,,,,,,,,,,,,,,,,,,,,,,,,,,,,,,,,,,,,,,,,,,,,,,,,,,,,,,,,,,,,
1720076190,122,0,4129.102539,4485.256348,4407.307617,4423.974121,4335.641113,4445.256348,4497.179688,4423.333496,4453.974121,4397.563965,4350,4541.794922,4448.974121,4471.410156,,,,,,,,,,,,,,,,,,,,,,,,,,,,,,,,,,,,,,,,,,,,,,,,,,,,,,,,,,,,,,,,,,,,,,
1720076190,123,0,4136.538574,4485.897461,4407.05127,4432.820313,4334.487305,4448.461426,4508.205078,4426.538574,4447.307617,4395.128418,4340,4542.820313,4448.077148,4457.436035,,,,,,,,,,,,,,,,,,,,,,,,,,,,,,,,,,,,,,,,,,,,,,,,,,,,,,,,,,,,,,,,,,,,,,
1720076190,124,0,4167.820313,4488.333496,4418.461426,4445.128418,4353.717773,4450.256348,4507.436035,4424.102539,4445.128418,4399.102539,4330.512695,4542.692383,4439.487305,4451.922852,,,,,,,,,,,,,,,,,,,,,,,,,,,,,,,,,,,,,,,,,,,,,,,,,,,,,,,,,,,,,,,,,,,,,,
1720076190,125,0,4194.871582,4482.179688,4427.307617,4445.256348,4397.436035,4445.641113,4494.615234,4426.794922,4434.358887,4383.846191,4329.615234,4547.307617,4441.153809,4462.692383,,,,,,,,,,,,,,,,,,,,,,,,,,,,,,,,,,,,,,,,,,,,,,,,,,,,,,,,,,,,,,,,,,,,,,
1720076190,126,0,4209.871582,4476.922852,4423.589844,4443.717773,4436.922852,4443.205078,4490.897461,4425.897461,4420,4373.333496,4325.897461,4551.922852,4451.025879,4463.846191,,,,,,,,,,,,,,,,,,,,,,,,,,,,,,,,,,,,,,,,,,,,,,,,,,,,,,,,,,,,,,,,,,,,,,
1720076190,127,0,4220.641113,4478.846191,4421.282227,4446.153809,4426.410156,4443.717773,4486.922852,4420.641113,4415.769043,4385.256348,4318.589844,4542.94873,4451.025879,4455.256348,,,,,,,,,,,,,,,,,,,,,,,,,,,,,,,,,,,,,,,,,,,,,,,,,,,,,,,,,,,,,,,,,,,,,,
1720076190,0,0,4222.307617,4478.589844,4416.410156,4431.666504,4385.641113,4448.077148,4478.717773,4421.794922,4415.897461,4391.666504,4324.487305,4529.871582,4446.666504,4448.077148,38.696991,3.612173,4.187492,2.859349,0.508687,5.785579,1.037508,1.076538,0.434691,0.214953,10.150558,4.970892,3.900045,1.170086,0.391274,7.516553,1.444804,2.804127,1.543875,0.59927,19.064316,11.918688,9.466117,3.075463,2.219858,4.140537,1.369748,0.712496,0.439953,0.237744,35.765903,15.237174,5.344891,2.428661,1.216796,137.413818,59.228756,29.980249,12.899256,5.240591,9.973481,2.52478,1.242719,0.653315,0.298356,18.375536,5.302575,3.251374,1.098504,0.5329,12.665205,4.849499,1.557035,1.927932,0.699225,9.472125,13.304839,2.804824,1.635707,0.434991,5.086622,1.674302,1.137804,0.42145,0.262932,990.026062,385.962708,56.112068,44.748791,13.56549
1720076190,1,0,4228.333496,4476.025879,4409.615234,4407.179688,4390.256348,4459.743652,4482.179688,4423.205078,4422.436035,4392.94873,4335.641113,4533.589844,4453.461426,4449.487305,,,,,,,,,,,,,,,,,,,,,,,,,,,,,,,,,,,,,,,,,,,,,,,,,,,,,,,,,,,,,,,,,,,,,,
1720076190,2,0,4241.025879,4476.410156,4418.333496,4407.563965,4427.436035,4471.794922,4491.922852,4417.820313,4440.641113,4407.307617,4333.333496,4542.692383,4466.538574,4457.820313,,,,,,,,,,,,,,,,,,,,,,,,,,,,,,,,,,,,,,,,,,,,,,,,,,,,,,,,,,,,,,,,,,,,,,
1720076190,3,0,4225.512695,4479.102539,4392.179688,4418.461426,4431.410156,4475.897461,4492.563965,4412.563965,4456.025879,4416.410156,4323.077148,4535.512695,4470,4457.692383,,,,,,,,,,,,,,,,,,,,,,,,,,,,,,,,,,,,,,,,,,,,,,,,,,,,,,,,,,,,,,,,,,,,,,
1720076190,4,0,4191.666504,4488.077148,4314.487305,4414.487305,4418.077148,4474.102539,4474.230957,4417.307617,4457.692383,4411.538574,4323.461426,4530.256348,4466.410156,4448.974121,,,,,,,,,,,,,,,,,,,,,,,,,,,,,,,,,,,,,,,,,,,,,,,,,,,,,,,,,,,,,,,,,,,,,,
1720076190,5,0,4182.05127,4495,4273.846191,4410.384766,4426.282227,4473.846191,4451.153809,4423.589844,4459.102539,4414.358887,4330.512695,4530.769043,4466.153809,4437.94873,,,,,,,,,,,,,,,,,,,,,,,,,,,,,,,,,,,,,,,,,,,,,,,,,,,,,,,,,,,,,,,,,,,,,,
1720076190,6,0,4175,4490.769043,4287.436035,4412.94873,4434.102539,4474.615234,4460.512695,4428.077148,4469.230957,4416.282227,4333.974121,4526.410156,4464.102539,4428.717773,,,,,,,,,,,,,,,,,,,,,,,,,,,,,,,,,,,,,,,,,,,,,,,,,,,,,,,,,,,,,,,,,,,,,,
1720076190,7,0,4138.077148,4490.897461,4295,4411.538574,4427.436035,4474.230957,4490.384766,4441.153809,4478.077148,4411.922852,4335,4533.717773,4463.589844,4432.05127,,,,,,,,,,,,,,,,,,,,,,,,,,,,,,,,,,,,,,,,,,,,,,,,,,,,,,,,,,,,,,,,,,,,,,
1720076190,8,0,4109.230957,4494.871582,4297.05127,4416.410156,4428.205078,4472.436035,4496.794922,4444.487305,4478.461426,4409.358887,4333.717773,4544.230957,4466.794922,4440.641113,,,,,,,,,,,,,,,,,,,,,,,,,,,,,,,,,,,,,,,,,,,,,,,,,,,,,,,,,,,,,,,,,,,,,,
1720076190,9,0,4136.410156,4491.410156,4313.077148,4434.743652,4429.743652,4472.94873,4496.153809,4441.666504,4470.128418,4403.333496,4329.871582,4545.897461,4472.563965,4450.128418,,,,,,,,,,,,,,,,,,,,,,,,,,,,,,,,,,,,,,,,,,,,,,,,,,,,,,,,,,,,,,,,,,,,,,
1720076190,10,0,4194.615234,4491.538574,4323.846191,4444.358887,4425.256348,4477.05127,4507.436035,4446.410156,4463.333496,4400.641113,4323.846191,4546.410156,4477.820313,4452.307617,,,,,,,,,,,,,,,,,,,,,,,,,,,,,,,,,,,,,,,,,,,,,,,,,,,,,,,,,,,,,,,,,,,,,,
1720076190,11,0,4217.179688,4502.179688,4326.153809,4442.436035,4432.307617,4482.307617,4510.641113,4443.846191,4466.410156,4394.230957,4329.358887,4545.897461,4480.512695,4454.487305,,,,,,,,,,,,,,,,,,,,,,,,,,,,,,,,,,,,,,,,,,,,,,,,,,,,,,,,,,,,,,,,,,,,,,
1720076190,12,0,4212.563965,4505.641113,4329.230957,4448.846191,4446.153809,4487.563965,4511.410156,4441.153809,4472.563965,4375.897461,4347.820313,4551.538574,4490.512695,4496.794922,,,,,,,,,,,,,,,,,,,,,,,,,,,,,,,,,,,,,,,,,,,,,,,,,,,,,,,,,,,,,,,,,,,,,,
1720076190,13,0,4246.922852,4496.410156,4329.615234,4460.641113,4448.717773,4491.282227,4515.769043,4442.692383,4478.077148,4368.974121,4360.641113,4560.256348,4495.641113,4554.615234,,,,,,,,,,,,,,,,,,,,,,,,,,,,,,,,,,,,,,,,,,,,,,,,,,,,,,,,,,,,,,,,,,,,,,
1720076190,14,0,4300.641113,4490.769043,4329.743652,4467.692383,4445.769043,4492.94873,4511.153809,4438.717773,4483.077148,4384.102539,4362.563965,4562.436035,4492.94873,4569.743652,,,,,,,,,,,,,,,,,,,,,,,,,,,,,,,,,,,,,,,,,,,,,,,,,,,,,,,,,,,,,,,,,,,,,,
1720076190,15,0,4311.410156,4493.205078,4323.333496,4467.820313,4445.641113,4491.282227,4503.333496,4431.538574,4482.820313,4391.794922,4350.128418,4554.871582,4493.846191,4552.820313,,,,,,,,,,,,,,,,,,,,,,,,,,,,,,,,,,,,,,,,,,,,,,,,,,,,,,,,,,,,,,,,,,,,,,
1720076190,16,0,4298.974121,4491.025879,4310.128418,4458.461426,4442.820313,4488.077148,4503.077148,4431.922852,4478.589844,4385.641113,4333.589844,4543.589844,4491.538574,4540.384766,42.091431,3.685853,4.022319,2.696755,0.611874,5.486972,1.00745,1.022699,0.411717,0.206405,8.913923,3.683991,3.571098,1.001744,0.343184,7.387238,1.37325,2.704096,1.512243,0.56497,15.766004,9.736254,7.940187,2.655814,1.752371,3.768921,1.327756,0.666793,0.422511,0.229009,39.132675,15.757107,5.734601,2.45976,1.223783,117.354561,51.673668,25.787163,11.063771,4.489141,8.849654,3.078745,1.352452,0.609827,0.270996,14.959899,5.387845,2.897081,1.200668,0.530654,12.229671,4.801989,1.2437,1.91915,0.784602,7.7782,12.967345,2.456341,1.587193,0.405646,4.990192,1.584614,1.015377,0.429995,0.246841,1038.848022,424.705109,58.821236,47.817566,14.743603
1720076190,17,0,4307.820313,4488.205078,4310.769043,4458.461426,4445.256348,4490.641113,4509.615234,4439.743652,4486.922852,4393.077148,4338.333496,4546.025879,4488.333496,4542.307617,,,,,,,,,,,,,,,,,,,,,,,,,,,,,,,,,,,,,,,,,,,,,,,,,,,,,,,,,,,,,,,,,,,,,,
1720076190,18,0,4320.641113,4493.205078,4327.307617,4475.512695,4455.384766,4493.974121,4523.077148,4448.846191,4503.846191,4411.410156,4361.538574,4557.820313,4492.563965,4550.128418,,,,,,,,,,,,,,,,,,,,,,,,,,,,,,,,,,,,,,,,,,,,,,,,,,,,,,,,,,,,,,,,,,,,,,
1720076190,19,0,4319.358887,4494.615234,4336.025879,4480,4464.102539,4491.794922,4535.256348,4455.256348,4510.641113,4416.922852,4363.333496,4560.769043,4496.922852,4544.487305,,,,,,,,,,,,,,,,,,,,,,,,,,,,,,,,,,,,,,,,,,,,,,,,,,,,,,,,,,,,,,,,,,,,,,
1720076190,20,0,4327.563965,4492.05127,4333.974121,4473.589844,4457.94873,4490.769043,4538.974121,4454.615234,4502.94873,4410.384766,4342.692383,4563.589844,4497.436035,4540.897461,,,,,,,,,,,,,,,,,,,,,,,,,,,,,,,,,,,,,,,,,,,,,,,,,,,,,,,,,,,,,,,,,,,,,,
1720076191,21,0,4331.922852,4497.94873,4346.153809,4484.102539,4433.333496,4489.487305,4537.692383,4453.974121,4492.307617,4409.358887,4346.025879,4576.025879,4506.794922,4560.512695,,,,,,,,,,,,,,,,,,,,,,,,,,,,,,,,,,,,,,,,,,,,,,,,,,,,,,,,,,,,,,,,,,,,,,
1720076191,22,0,4307.94873,4506.153809,4364.102539,4493.974121,4427.692383,4486.794922,4538.461426,4451.794922,4492.563965,4408.717773,4367.692383,4577.05127,4511.025879,4530.256348,,,,,,,,,,,,,,,,,,,,,,,,,,,,,,,,,,,,,,,,,,,,,,,,,,,,,,,,,,,,,,,,,,,,,,
1720076191,23,0,4304.871582,4508.077148,4365.128418,4490.384766,4450,4487.820313,4541.282227,4448.717773,4487.436035,4397.307617,4367.692383,4572.179688,4499.615234,4446.922852,,,,,,,,,,,,,,,,,,,,,,,,,,,,,,,,,,,,,,,,,,,,,,,,,,,,,,,,,,,,,,,,,,,,,,
1720076191,24,0,4347.94873,4503.077148,4360.128418,4487.563965,4456.922852,4489.615234,4533.589844,4447.307617,4474.615234,4392.179688,4348.974121,4574.358887,4497.692383,4412.692383,,,,,,,,,,,,,,,,,,,,,,,,,,,,,,,,,,,,,,,,,,,,,,,,,,,,,,,,,,,,,,,,,,,,,,
1720076191,25,0,4369.743652,4495.512695,4354.230957,4484.230957,4447.563965,4488.589844,4522.179688,4443.077148,4481.794922,4404.102539,4342.05127,4563.974121,4505,4427.563965,,,,,,,,,,,,,,,,,,,,,,,,,,,,,,,,,,,,,,,,,,,,,,,,,,,,,,,,,,,,,,,,,,,,,,
1720076191,26,0,4346.410156,4489.487305,4344.871582,4475.256348,4449.871582,4490.512695,4526.922852,4439.871582,4487.820313,4409.230957,4347.436035,4549.230957,4498.077148,4429.871582,,,,,,,,,,,,,,,,,,,,,,,,,,,,,,,,,,,,,,,,,,,,,,,,,,,,,,,,,,,,,,,,,,,,,,
1720076191,27,0,4342.94873,4485.897461,4344.230957,4472.94873,4451.025879,4492.563965,4538.333496,4439.871582,4481.538574,4402.820313,4350.512695,4549.871582,4487.692383,4422.820313,,,,,,,,,,,,,,,,,,,,,,,,,,,,,,,,,,,,,,,,,,,,,,,,,,,,,,,,,,,,,,,,,,,,,,
1720076191,28,0,4375.256348,4481.410156,4354.615234,4480,4451.666504,4493.333496,4544.358887,4444.871582,4487.05127,4405.256348,4355.641113,4557.436035,4493.974121,4422.307617,,,,,,,,,,,,,,,,,,,,,,,,,,,,,,,,,,,,,,,,,,,,,,,,,,,,,,,,,,,,,,,,,,,,,,
1720076191,29,0,4394.230957,4475.512695,4355.641113,4476.282227,4460.256348,4490.897461,4546.922852,4449.743652,4491.410156,4408.846191,4352.179688,4553.589844,4496.666504,4436.666504,,,,,,,,,,,,,,,,,,,,,,,,,,,,,,,,,,,,,,,,,,,,,,,,,,,,,,,,,,,,,,,,,,,,,,
1720076191,30,0,4383.205078,4471.666504,4346.025879,4460.897461,4443.333496,4481.538574,4545.256348,4448.974121,4477.307617,4401.922852,4332.820313,4540.256348,4480.897461,4414.743652,,,,,,,,,,,,,,,,,,,,,,,,,,,,,,,,,,,,,,,,,,,,,,,,,,,,,,,,,,,,,,,,,,,,,,
1720076191,31,0,4377.179688,4470.897461,4344.358887,4457.179688,4417.179688,4475.384766,4539.871582,4445.512695,4470.256348,4396.153809,4324.487305,4531.538574,4474.102539,4302.179688,,,,,,,,,,,,,,,,,,,,,,,,,,,,,,,,,,,,,,,,,,,,,,,,,,,,,,,,,,,,,,,,,,,,,,
1720076191,32,0,4388.589844,4474.230957,4350,4465.641113,4424.743652,4473.077148,4539.358887,4444.615234,4477.179688,4396.794922,4334.230957,4535.384766,4481.025879,4233.461426,41.384357,5.48928,3.878179,2.483456,0.830528,4.789551,0.928038,0.856295,0.354214,0.187162,7.949743,3.462569,2.969729,0.804207,0.305601,6.91537,1.580021,2.360562,1.377468,0.520668,16.776272,8.879506,6.131551,2.568966,1.583022,3.29975,1.413962,0.58993,0.400793,0.212134,37.767666,14.945269,5.608217,2.250958,1.14078,85.317993,38.729824,18.758678,8.038867,3.263397,7.126507,3.526949,1.407984,0.53936,0.227108,11.955964,4.933803,2.504988,1.29543,0.540136,11.522087,4.55624,1.006782,1.736478,0.848293,6.742345,12.201311,1.988124,1.373799,0.362747,4.444025,1.490226,0.834116,0.411648,0.231855,956.858459,406.095032,56.765221,44.459656,14.1457
1720076191,33,0,4393.974121,4475.897461,4352.563965,4464.102539,4446.410156,4466.282227,4540.384766,4441.282227,4473.589844,4397.179688,4337.692383,4541.666504,4480.256348,4292.94873,,,,,,,,,,,,,,,,,,,,,,,,,,,,,,,,,,,,,,,,,,,,,,,,,,,,,,,,,,,,,,,,,,,,,,
1720076191,34,0,4396.025879,4474.230957,4356.153809,4458.077148,4447.05127,4460.128418,4538.717773,4438.717773,4465.128418,4398.333496,4333.461426,4541.538574,4480.256348,4347.179688,,,,,,,,,,,,,,,,,,,,,,,,,,,,,,,,,,,,,,,,,,,,,,,,,,,,,,,,,,,,,,,,,,,,,,
1720076191,35,0,4391.922852,4476.025879,4365.128418,4467.436035,4437.692383,4467.692383,4539.743652,4443.333496,4463.461426,4400.897461,4334.487305,4547.179688,4490,4341.538574,,,,,,,,,,,,,,,,,,,,,,,,,,,,,,,,,,,,,,,,,,,,,,,,,,,,,,,,,,,,,,,,,,,,,,
1720076191,36,0,4362.692383,4479.102539,4366.666504,4481.538574,4434.230957,4474.615234,4535.256348,4441.666504,4463.589844,4398.974121,4337.05127,4547.692383,4483.974121,4341.794922,,,,,,,,,,,,,,,,,,,,,,,,,,,,,,,,,,,,,,,,,,,,,,,,,,,,,,,,,,,,,,,,,,,,,,
1720076191,37,0,4351.538574,4474.871582,4357.307617,4487.563965,4432.563965,4467.563965,4527.307617,4435.641113,4460.256348,4390.256348,4335.256348,4534.358887,4468.461426,4352.820313,,,,,,,,,,,,,,,,,,,,,,,,,,,,,,,,,,,,,,,,,,,,,,,,,,,,,,,,,,,,,,,,,,,,,,
1720076191,38,0,4384.102539,4465.641113,4352.307617,4483.974121,4431.025879,4463.974121,4531.666504,4434.102539,4456.153809,4378.717773,4327.94873,4524.102539,4470.769043,4348.846191,,,,,,,,,,,,,,,,,,,,,,,,,,,,,,,,,,,,,,,,,,,,,,,,,,,,,,,,,,,,,,,,,,,,,,
1720076191,39,0,4406.153809,4465.384766,4359.102539,4479.487305,4425.256348,4471.025879,4539.102539,4434.230957,4456.410156,4376.538574,4322.563965,4527.05127,4475.641113,4350.384766,,,,,,,,,,,,,,,,,,,,,,,,,,,,,,,,,,,,,,,,,,,,,,,,,,,,,,,,,,,,,,,,,,,,,,
1720076191,40,0,4405.897461,4473.077148,4368.589844,4480.128418,4423.461426,4480.256348,4540.769043,4441.282227,4457.820313,4385.641113,4324.487305,4533.846191,4476.153809,4368.589844,,,,,,,,,,,,,,,,,,,,,,,,,,,,,,,,,,,,,,,,,,,,,,,,,,,,,,,,,,,,,,,,,,,,,,
1720076191,41,0,4413.205078,4475.128418,4369.102539,4468.846191,4437.307617,4480,4546.025879,4445.512695,4460,4393.333496,4329.358887,4528.974121,4479.230957,4356.153809,,,,,,,,,,,,,,,,,,,,,,,,,,,,,,,,,,,,,,,,,,,,,,,,,,,,,,,,,,,,,,,,,,,,,,
1720076191,42,0,4414.230957,4471.410156,4368.974121,4444.743652,4445.897461,4475.512695,4548.461426,4442.307617,4462.05127,4396.025879,4341.410156,4526.282227,4475.256348,4290.384766,,,,,,,,,,,,,,,,,,,,,,,,,,,,,,,,,,,,,,,,,,,,,,,,,,,,,,,,,,,,,,,,,,,,,,
1720076191,43,0,4404.230957,4468.077148,4374.102539,4435.512695,4438.333496,4476.794922,4541.153809,4442.820313,4460.769043,4398.077148,4343.077148,4530.641113,4472.94873,4252.05127,,,,,,,,,,,,,,,,,,,,,,,,,,,,,,,,,,,,,,,,,,,,,,,,,,,,,,,,,,,,,,,,,,,,,,
1720076191,44,0,4402.820313,4463.846191,4374.871582,4442.563965,4432.05127,4477.179688,4539.358887,4440.384766,4458.461426,4398.846191,4320,4523.461426,4477.436035,4301.922852,,,,,,,,,,,,,,,,,,,,,,,,,,,,,,,,,,,,,,,,,,,,,,,,,,,,,,,,,,,,,,,,,,,,,,
1720076191,45,0,4406.794922,4461.282227,4366.538574,4443.333496,4430.641113,4469.743652,4542.05127,4431.025879,4456.922852,4398.333496,4306.538574,4513.846191,4470,4368.717773,,,,,,,,,,,,,,,,,,,,,,,,,,,,,,,,,,,,,,,,,,,,,,,,,,,,,,,,,,,,,,,,,,,,,,
1720076191,46,0,4409.102539,4461.794922,4359.102539,4439.230957,4430.641113,4461.153809,4537.94873,4428.333496,4457.94873,4398.461426,4314.358887,4511.538574,4453.205078,4386.410156,,,,,,,,,,,,,,,,,,,,,,,,,,,,,,,,,,,,,,,,,,,,,,,,,,,,,,,,,,,,,,,,,,,,,,
1720076191,47,0,4405.769043,4459.102539,4357.05127,4434.358887,4432.563965,4461.922852,4535.897461,4429.102539,4457.820313,4396.538574,4314.615234,4504.230957,4443.717773,4374.615234,,,,,,,,,,,,,,,,,,,,,,,,,,,,,,,,,,,,,,,,,,,,,,,,,,,,,,,,,,,,,,,,,,,,,,
1720076191,48,0,4399.615234,4457.692383,4354.615234,4424.102539,4419.615234,4465,4538.589844,4428.589844,4451.538574,4390.128418,4308.589844,4500.128418,4442.307617,4372.820313,36.686512,9.660376,3.640163,2.342043,1.159286,3.91987,0.826438,0.6315,0.284353,0.162871,7.533057,4.788147,2.336279,0.660824,0.293049,6.30275,2.148801,1.87659,1.189549,0.480065,20.497934,9.253264,4.627065,2.736258,1.584197,2.745789,1.640567,0.485645,0.380612,0.19115,32.097672,13.326153,5.020496,1.873035,0.986697,51.016197,24.843204,11.242604,4.816212,1.962431,5.137782,3.83149,1.376976,0.469645,0.179556,9.938193,4.058881,2.180967,1.350978,0.566432,10.286489,4.295324,0.917716,1.450493,0.887851,6.216975,11.562269,1.519311,1.082407,0.327186,3.64983,1.429061,0.652978,0.379342,0.222065,777.829529,334.828247,51.065701,35.868252,12.00884
1720076191,49,0,4388.717773,4459.743652,4353.974121,4426.794922,4401.794922,4465.384766,4537.692383,4430.897461,4446.666504,4387.05127,4308.077148,4509.871582,4452.94873,4395.128418,,,,,,,,,,,,,,,,,,,,,,,,,,,,,,,,,,,,,,,,,,,,,,,,,,,,,,,,,,,,,,,,,,,,,,
1720076191,50,0,4360.512695,4460.128418,4359.615234,4445,4409.358887,4461.922852,4536.282227,4428.717773,4445.512695,4388.077148,4308.205078,4514.871582,4463.205078,4404.102539,,,,,,,,,,,,,,,,,,,,,,,,,,,,,,,,,,,,,,,,,,,,,,,,,,,,,,,,,,,,,,,,,,,,,,
1720076191,51,0,4340,4458.717773,4368.717773,4447.820313,4423.717773,4458.589844,4539.487305,4428.077148,4442.307617,4387.692383,4311.410156,4517.692383,4455.769043,4409.615234,,,,,,,,,,,,,,,,,,,,,,,,,,,,,,,,,,,,,,,,,,,,,,,,,,,,,,,,,,,,,,,,,,,,,,
1720076191,52,0,4331.922852,4456.538574,4367.179688,4428.333496,4418.589844,4459.487305,4537.05127,4437.436035,4440.256348,4386.410156,4311.282227,4523.461426,4449.743652,4467.820313,,,,,,,,,,,,,,,,,,,,,,,,,,,,,,,,,,,,,,,,,,,,,,,,,,,,,,,,,,,,,,,,,,,,,,
1720076191,53,0,4322.563965,4456.410156,4358.717773,4418.333496,4412.179688,4460.128418,4527.179688,4433.333496,4441.025879,4386.282227,4309.358887,4518.077148,4453.333496,4546.153809,,,,,,,,,,,,,,,,,,,,,,,,,,,,,,,,,,,,,,,,,,,,,,,,,,,,,,,,,,,,,,,,,,,,,,
1720076191,54,0,4338.077148,4457.820313,4363.589844,4436.153809,4418.205078,4461.538574,4524.615234,4418.333496,4443.077148,4401.666504,4320,4516.025879,4457.436035,4575.384766,,,,,,,,,,,,,,,,,,,,,,,,,,,,,,,,,,,,,,,,,,,,,,,,,,,,,,,,,,,,,,,,,,,,,,
1720076191,55,0,4363.461426,4452.820313,4371.666504,4446.025879,4422.563965,4461.922852,4528.205078,4408.461426,4448.205078,4427.692383,4318.461426,4519.615234,4458.589844,4571.666504,,,,,,,,,,,,,,,,,,,,,,,,,,,,,,,,,,,,,,,,,,,,,,,,,,,,,,,,,,,,,,,,,,,,,,
1720076191,56,0,4355.256348,4443.589844,4367.05127,4434.230957,4417.692383,4458.974121,4525.256348,4401.794922,4450.512695,4435.128418,4298.205078,4510,4456.794922,4552.436035,,,,,,,,,,,,,,,,,,,,,,,,,,,,,,,,,,,,,,,,,,,,,,,,,,,,,,,,,,,,,,,,,,,,,,
1720076191,57,0,4342.820313,4443.461426,4357.563965,4426.666504,4416.538574,4460.512695,4518.077148,4401.410156,4445.897461,4424.230957,4296.282227,4499.102539,4452.94873,4481.794922,,,,,,,,,,,,,,,,,,,,,,,,,,,,,,,,,,,,,,,,,,,,,,,,,,,,,,,,,,,,,,,,,,,,,,
1720076191,58,0,4357.692383,4442.692383,4350.769043,4426.153809,4408.333496,4461.025879,4512.436035,4402.820313,4443.974121,4417.05127,4306.025879,4494.230957,4445.128418,4416.794922,,,,,,,,,,,,,,,,,,,,,,,,,,,,,,,,,,,,,,,,,,,,,,,,,,,,,,,,,,,,,,,,,,,,,,
1720076191,59,0,4364.230957,4432.692383,4342.692383,4418.077148,4379.102539,4449.358887,4507.307617,4401.025879,4444.102539,4414.102539,4295.512695,4483.589844,4435.128418,4373.333496,,,,,,,,,,,,,,,,,,,,,,,,,,,,,,,,,,,,,,,,,,,,,,,,,,,,,,,,,,,,,,,,,,,,,,
1720076191,60,0,4359.487305,4426.666504,4336.153809,4414.230957,4367.307617,4441.538574,4506.025879,4402.94873,4436.410156,4410.384766,4284.358887,4480.256348,4431.282227,4351.666504,,,,,,,,,,,,,,,,,,,,,,,,,,,,,,,,,,,,,,,,,,,,,,,,,,,,,,,,,,,,,,,,,,,,,,
1720076191,61,0,4359.871582,4424.871582,4333.333496,4420.641113,4384.871582,4445,4508.077148,4415.384766,4428.589844,4409.358887,4291.538574,4492.307617,4432.94873,4484.743652,,,,,,,,,,,,,,,,,,,,,,,,,,,,,,,,,,,,,,,,,,,,,,,,,,,,,,,,,,,,,,,,,,,,,,
1720076191,62,0,4353.717773,4420,4328.974121,4417.307617,4390.769043,4439.487305,4507.820313,4425,4427.307617,4409.871582,4295,4494.358887,4430.641113,4705.897461,,,,,,,,,,,,,,,,,,,,,,,,,,,,,,,,,,,,,,,,,,,,,,,,,,,,,,,,,,,,,,,,,,,,,,
1720076191,63,0,4353.205078,4417.692383,4327.179688,4410.384766,4381.282227,4428.717773,4505.256348,4426.153809,4423.717773,4405.512695,4292.94873,4489.743652,4431.025879,4799.871582,,,,,,,,,,,,,,,,,,,,,,,,,,,,,,,,,,,,,,,,,,,,,,,,,,,,,,,,,,,,,,,,,,,,,,
1720076191,64,0,4351.666504,4416.282227,4326.410156,4407.692383,4381.538574,4427.563965,4504.230957,4423.974121,4416.666504,4396.025879,4294.743652,4491.282227,4434.230957,4810,30.961248,16.269129,3.429251,2.356062,1.563509,3.206171,0.733574,0.42222,0.225757,0.140912,7.925702,7.574172,1.934516,0.637326,0.313125,5.652832,3.010321,1.409505,1.013331,0.452797,24.523016,10.223252,3.81314,3.047842,1.650667,2.273846,1.948696,0.375015,0.362835,0.168937,24.005562,11.533769,4.182411,1.459573,0.797692,24.223364,13.874226,5.284896,2.263976,0.934962,3.471723,4.013151,1.256313,0.432762,0.142426,9.008192,3.061475,1.98823,1.34944,0.605469,8.65432,4.107159,0.972802,1.171308,0.908368,5.865011,11.307523,1.132142,0.820731,0.312387,2.819201,1.399694,0.529733,0.352843,0.221286,557.740051,234.641739,43.509727,25.054029,9.073888
1720076191,65,0,4342.94873,4411.282227,4324.487305,4400.256348,4385.641113,4430.256348,4507.820313,4421.538574,4411.922852,4386.538574,4284.358887,4487.179688,4430,4870.512695,,,,,,,,,,,,,,,,,,,,,,,,,,,,,,,,,,,,,,,,,,,,,,,,,,,,,,,,,,,,,,,,,,,,,,
1720076191,66,0,4344.615234,4409.230957,4327.436035,4398.846191,4380.897461,4429.615234,4504.487305,4421.794922,4413.333496,4379.102539,4266.410156,4479.487305,4423.846191,4887.820313,,,,,,,,,,,,,,,,,,,,,,,,,,,,,,,,,,,,,,,,,,,,,,,,,,,,,,,,,,,,,,,,,,,,,,
1720076191,67,0,4338.461426,4411.922852,4329.487305,4409.230957,4376.794922,4427.820313,4493.974121,4418.974121,4412.820313,4371.410156,4269.615234,4474.487305,4420.512695,4813.589844,,,,,,,,,,,,,,,,,,,,,,,,,,,,,,,,,,,,,,,,,,,,,,,,,,,,,,,,,,,,,,,,,,,,,,
1720076191,68,0,4309.358887,4415.128418,4329.102539,4415.641113,4388.077148,4429.487305,4491.153809,4417.436035,4406.922852,4374.615234,4280,4475.256348,4422.563965,4856.794922,,,,,,,,,,,,,,,,,,,,,,,,,,,,,,,,,,,,,,,,,,,,,,,,,,,,,,,,,,,,,,,,,,,,,,
1720076191,69,0,4290.128418,4413.846191,4336.025879,4413.589844,4384.615234,4429.615234,4495,4416.025879,4406.666504,4393.717773,4275.128418,4478.717773,4428.461426,4854.743652,,,,,,,,,,,,,,,,,,,,,,,,,,,,,,,,,,,,,,,,,,,,,,,,,,,,,,,,,,,,,,,,,,,,,,
1720076191,70,0,4297.307617,4411.666504,4343.846191,4415.256348,4349.615234,4429.102539,4494.615234,4416.666504,4413.333496,4409.743652,4284.871582,4483.205078,4430.641113,4460.769043,,,,,,,,,,,,,,,,,,,,,,,,,,,,,,,,,,,,,,,,,,,,,,,,,,,,,,,,,,,,,,,,,,,,,,
1720076191,71,0,4294.230957,4415.384766,4338.461426,4411.666504,4340,4434.102539,4495.384766,4420.769043,4417.179688,4409.358887,4295.897461,4483.974121,4425.128418,4012.820557,,,,,,,,,,,,,,,,,,,,,,,,,,,,,,,,,,,,,,,,,,,,,,,,,,,,,,,,,,,,,,,,,,,,,,
1720076191,72,0,4278.205078,4417.436035,4323.974121,4399.230957,4368.589844,4436.025879,4491.794922,4415.897461,4415,4401.666504,4272.307617,4471.025879,4411.410156,3970.256348,,,,,,,,,,,,,,,,,,,,,,,,,,,,,,,,,,,,,,,,,,,,,,,,,,,,,,,,,,,,,,,,,,,,,,
1720076191,73,0,4275.897461,4411.538574,4315,4398.974121,4377.692383,4431.666504,4481.282227,4410.384766,4412.692383,4398.846191,4256.538574,4456.410156,4405,4072.820557,,,,,,,,,,,,,,,,,,,,,,,,,,,,,,,,,,,,,,,,,,,,,,,,,,,,,,,,,,,,,,,,,,,,,,
1720076191,74,0,4273.333496,4406.282227,4308.974121,4403.974121,4342.179688,4431.153809,4473.461426,4415.512695,4412.05127,4400,4269.487305,4452.436035,4408.077148,4029.743652,,,,,,,,,,,,,,,,,,,,,,,,,,,,,,,,,,,,,,,,,,,,,,,,,,,,,,,,,,,,,,,,,,,,,,
1720076191,75,0,4274.615234,4404.615234,4297.820313,4393.461426,4298.846191,4432.436035,4460.641113,4415.897461,4411.025879,4395.256348,4262.307617,4447.307617,4402.820313,4007.435791,,,,,,,,,,,,,,,,,,,,,,,,,,,,,,,,,,,,,,,,,,,,,,,,,,,,,,,,,,,,,,,,,,,,,,
1720076191,76,0,4288.461426,4401.922852,4290.384766,4389.230957,4283.461426,4425.641113,4439.615234,4405.769043,4403.846191,4389.102539,4242.692383,4437.05127,4390.256348,4049.358887,,,,,,,,,,,,,,,,,,,,,,,,,,,,,,,,,,,,,,,,,,,,,,,,,,,,,,,,,,,,,,,,,,,,,,
1720076191,77,0,4291.025879,4402.307617,4299.102539,4408.461426,4292.05127,4420.512695,4435,4407.179688,4388.077148,4380.641113,4247.05127,4440.512695,4387.436035,4059.743652,,,,,,,,,,,,,,,,,,,,,,,,,,,,,,,,,,,,,,,,,,,,,,,,,,,,,,,,,,,,,,,,,,,,,,
1720076191,78,0,4283.846191,4408.589844,4315.512695,4427.179688,4290.512695,4422.692383,4454.615234,4408.461426,4382.179688,4373.589844,4252.179688,4453.333496,4392.307617,4038.333252,,,,,,,,,,,,,,,,,,,,,,,,,,,,,,,,,,,,,,,,,,,,,,,,,,,,,,,,,,,,,,,,,,,,,,
1720076191,79,0,4293.077148,4417.563965,4326.025879,4430.769043,4290.512695,4427.692383,4471.282227,4400.512695,4390.128418,4380.641113,4250.641113,4458.974121,4391.025879,4016.281982,,,,,,,,,,,,,,,,,,,,,,,,,,,,,,,,,,,,,,,,,,,,,,,,,,,,,,,,,,,,,,,,,,,,,,
1720076191,80,0,4311.282227,4422.820313,4332.692383,4429.743652,4302.692383,4432.692383,4475,4406.794922,4393.461426,4386.025879,4258.077148,4466.666504,4388.974121,4067.692383,26.097723,24.480722,3.399395,2.499149,1.973375,2.878136,0.677387,0.281889,0.191775,0.125945,8.96691,11.13369,1.930739,0.748334,0.359116,5.285708,3.978579,1.085855,0.893089,0.438711,26.665604,11.001181,3.680588,3.357484,1.70864,2.010884,2.221967,0.284182,0.343923,0.14716,15.783062,9.967496,3.345025,1.127552,0.612111,8.444674,7.544393,1.819184,0.782961,0.336672,2.606148,4.096831,1.074469,0.442069,0.122701,8.915044,2.263427,1.915237,1.284981,0.640894,7.087552,3.960995,1.107663,0.989866,0.913826,5.49842,11.263035,0.876692,0.665996,0.3158,2.248493,1.380426,0.497136,0.345478,0.229265,359.811554,138.330261,35.759266,15.537732,6.283456
1720076191,81,0,4317.692383,4419.743652,4339.871582,4431.153809,4280.769043,4431.922852,4483.333496,4406.410156,4388.589844,4379.102539,4265.641113,4467.563965,4391.153809,4129.358887,,,,,,,,,,,,,,,,,,,,,,,,,,,,,,,,,,,,,,,,,,,,,,,,,,,,,,,,,,,,,,,,,,,,,,
1720076191,82,0,4316.666504,4411.666504,4339.615234,4433.077148,4256.410156,4431.666504,4491.153809,4397.307617,4387.563965,4375.256348,4264.871582,4463.717773,4393.717773,4121.025879,,,,,,,,,,,,,,,,,,,,,,,,,,,,,,,,,,,,,,,,,,,,,,,,,,,,,,,,,,,,,,,,,,,,,,
1720076191,83,0,4305.769043,4397.307617,4321.922852,4424.102539,4271.282227,4425.897461,4484.743652,4401.410156,4388.589844,4373.846191,4251.410156,4460,4385.641113,4100.641113,,,,,,,,,,,,,,,,,,,,,,,,,,,,,,,,,,,,,,,,,,,,,,,,,,,,,,,,,,,,,,,,,,,,,,
1720076191,84,0,4283.717773,4379.358887,4296.025879,4400.512695,4280.897461,4410.641113,4471.794922,4400.256348,4378.846191,4363.077148,4222.820313,4433.077148,4361.922852,4090.128174,,,,,,,,,,,,,,,,,,,,,,,,,,,,,,,,,,,,,,,,,,,,,,,,,,,,,,,,,,,,,,,,,,,,,,
1720076191,85,0,4263.717773,4372.436035,4286.282227,4390.512695,4271.666504,4415,4470.512695,4395.512695,4371.282227,4347.692383,4208.461426,4416.282227,4350.128418,4087.435791,,,,,,,,,,,,,,,,,,,,,,,,,,,,,,,,,,,,,,,,,,,,,,,,,,,,,,,,,,,,,,,,,,,,,,
1720076191,86,0,4264.871582,4378.589844,4292.179688,4402.307617,4281.410156,4427.436035,4476.922852,4400.641113,4381.282227,4338.461426,4224.230957,4434.487305,4364.102539,4105.512695,,,,,,,,,,,,,,,,,,,,,,,,,,,,,,,,,,,,,,,,,,,,,,,,,,,,,,,,,,,,,,,,,,,,,,
1720076191,87,0,4279.615234,4382.692383,4296.410156,4402.436035,4295.128418,4416.538574,4473.333496,4397.820313,4391.794922,4341.153809,4237.307617,4438.846191,4371.538574,4105.769043,,,,,,,,,,,,,,,,,,,,,,,,,,,,,,,,,,,,,,,,,,,,,,,,,,,,,,,,,,,,,,,,,,,,,,
1720076191,88,0,4260.641113,4381.666504,4291.922852,4385.897461,4285.128418,4406.922852,4461.794922,4390.512695,4386.666504,4347.307617,4236.666504,4420.384766,4358.077148,4078.718018,,,,,,,,,,,,,,,,,,,,,,,,,,,,,,,,,,,,,,,,,,,,,,,,,,,,,,,,,,,,,,,,,,,,,,
1720076191,89,0,4231.153809,4377.692383,4283.205078,4386.025879,4278.333496,4412.05127,4457.692383,4391.922852,4380,4344.743652,4230.897461,4415.769043,4351.025879,4070.641113,,,,,,,,,,,,,,,,,,,,,,,,,,,,,,,,,,,,,,,,,,,,,,,,,,,,,,,,,,,,,,,,,,,,,,
1720076191,90,0,4236.538574,4373.205078,4278.846191,4398.846191,4280.128418,4408.077148,4456.666504,4386.922852,4380.384766,4351.794922,4219.743652,4417.563965,4357.692383,4095.128174,,,,,,,,,,,,,,,,,,,,,,,,,,,,,,,,,,,,,,,,,,,,,,,,,,,,,,,,,,,,,,,,,,,,,,
1720076191,91,0,4243.589844,4378.589844,4284.615234,4397.692383,4282.05127,4404.230957,4446.794922,4382.563965,4378.205078,4374.230957,4216.794922,4419.743652,4360.897461,4092.179443,,,,,,,,,,,,,,,,,,,,,,,,,,,,,,,,,,,,,,,,,,,,,,,,,,,,,,,,,,,,,,,,,,,,,,
1720076191,92,0,4227.563965,4384.615234,4292.692383,4395.897461,4287.692383,4406.666504,4441.666504,4386.538574,4373.205078,4380.512695,4230.256348,4428.333496,4355.769043,4024.102539,,,,,,,,,,,,,,,,,,,,,,,,,,,,,,,,,,,,,,,,,,,,,,,,,,,,,,,,,,,,,,,,,,,,,,
1720076191,93,0,4224.230957,4377.436035,4293.589844,4403.333496,4269.487305,4401.410156,4445.769043,4386.666504,4365,4368.717773,4234.102539,4426.153809,4354.615234,3969.743652,,,,,,,,,,,,,,,,,,,,,,,,,,,,,,,,,,,,,,,,,,,,,,,,,,,,,,,,,,,,,,,,,,,,,,
1720076191,94,0,4238.846191,4374.871582,4293.974121,4403.205078,4239.871582,4398.077148,4444.358887,4383.205078,4354.230957,4358.461426,4222.05127,4420,4352.307617,3984.871826,,,,,,,,,,,,,,,,,,,,,,,,,,,,,,,,,,,,,,,,,,,,,,,,,,,,,,,,,,,,,,,,,,,,,,
1720076191,95,0,4247.94873,4382.820313,4297.563965,4402.820313,4249.358887,4400.641113,4441.794922,4380.641113,4355.512695,4356.410156,4226.538574,4426.794922,4346.794922,4011.410156,,,,,,,,,,,,,,,,,,,,,,,,,,,,,,,,,,,,,,,,,,,,,,,,,,,,,,,,,,,,,,,,,,,,,,
1720076191,96,0,4253.205078,4380.384766,4296.794922,4408.589844,4275.769043,4403.205078,4445.128418,4384.230957,4366.153809,4363.205078,4237.820313,4435.769043,4351.153809,4013.974365,24.006191,32.594707,3.515412,2.652758,2.294974,2.939125,0.675763,0.223379,0.180176,0.117635,10.463096,14.469145,2.283506,0.952705,0.412803,5.221137,4.815864,0.956495,0.83462,0.432045,25.548975,10.924814,3.920827,3.524412,1.712312,1.972094,2.360659,0.223568,0.319803,0.126955,9.276691,8.646363,2.686803,0.93428,0.458065,2.393971,5.147566,0.510793,0.227422,0.106057,2.52778,4.081914,0.864698,0.482346,0.118378,9.234081,1.854146,1.889397,1.169594,0.651595,5.744071,3.760272,1.237374,0.933888,0.903322,4.994541,11.008523,0.755445,0.624335,0.322365,1.97813,1.370631,0.542934,0.360134,0.240765,221.845551,78.218285,30.658415,10.332641,4.475489
1720076191,97,0,4257.05127,4373.461426,4295.897461,4405.897461,4273.589844,4404.487305,4446.025879,4388.333496,4369.358887,4368.717773,4226.153809,4433.333496,4354.743652,4022.05127,,,,,,,,,,,,,,,,,,,,,,,,,,,,,,,,,,,,,,,,,,,,,,,,,,,,,,,,,,,,,,,,,,,,,,
1720076191,98,0,4264.871582,4373.846191,4305.897461,4404.358887,4269.615234,4403.077148,4444.615234,4389.230957,4370.384766,4367.820313,4212.692383,4431.538574,4346.922852,4034.102539,,,,,,,,,,,,,,,,,,,,,,,,,,,,,,,,,,,,,,,,,,,,,,,,,,,,,,,,,,,,,,,,,,,,,,
1720076191,99,0,4277.94873,4372.307617,4311.410156,4401.794922,4279.743652,4403.974121,4444.102539,4389.487305,4375.128418,4369.230957,4219.743652,4430.641113,4338.077148,4034.871826,,,,,,,,,,,,,,,,,,,,,,,,,,,,,,,,,,,,,,,,,,,,,,,,,,,,,,,,,,,,,,,,,,,,,,
1720076191,100,0,4280.769043,4367.563965,4301.538574,4369.615234,4273.846191,4406.025879,4443.205078,4388.717773,4372.692383,4369.615234,4222.307617,4418.077148,4333.205078,4034.102539,,,,,,,,,,,,,,,,,,,,,,,,,,,,,,,,,,,,,,,,,,,,,,,,,,,,,,,,,,,,,,,,,,,,,,
1720076191,101,0,4276.538574,4360.384766,4289.743652,4334.102539,4262.436035,4398.461426,4442.563965,4383.846191,4366.410156,4361.666504,4205.769043,4405.384766,4327.179688,4032.820557,,,,,,,,,,,,,,,,,,,,,,,,,,,,,,,,,,,,,,,,,,,,,,,,,,,,,,,,,,,,,,,,,,,,,,
1720076191,102,0,4277.692383,4351.922852,4282.820313,4329.487305,4265.384766,4393.333496,4440.641113,4376.666504,4363.205078,4357.179688,4196.666504,4403.846191,4322.820313,4032.820557,,,,,,,,,,,,,,,,,,,,,,,,,,,,,,,,,,,,,,,,,,,,,,,,,,,,,,,,,,,,,,,,,,,,,,
1720076191,103,0,4284.615234,4350.256348,4279.358887,4328.589844,4266.282227,4399.487305,4435.769043,4376.666504,4361.794922,4361.410156,4205.384766,4408.589844,4324.358887,4041.794922,,,,,,,,,,,,,,,,,,,,,,,,,,,,,,,,,,,,,,,,,,,,,,,,,,,,,,,,,,,,,,,,,,,,,,
1720076191,104,0,4290.769043,4349.102539,4278.205078,4323.461426,4265.769043,4391.666504,4428.974121,4374.102539,4357.692383,4361.153809,4202.563965,4403.205078,4324.230957,4053.589844,,,,,,,,,,,,,,,,,,,,,,,,,,,,,,,,,,,,,,,,,,,,,,,,,,,,,,,,,,,,,,,,,,,,,,
1720076191,105,0,4291.282227,4342.820313,4277.179688,4335.128418,4262.820313,4377.05127,4421.410156,4370.128418,4347.307617,4353.974121,4187.436035,4394.743652,4324.230957,4058.461426,,,,,,,,,,,,,,,,,,,,,,,,,,,,,,,,,,,,,,,,,,,,,,,,,,,,,,,,,,,,,,,,,,,,,,
1720076191,106,0,4296.153809,4340.897461,4277.692383,4341.922852,4241.666504,4379.358887,4417.820313,4369.743652,4335.128418,4344.871582,4190.256348,4395.641113,4325.384766,4061.153809,,,,,,,,,,,,,,,,,,,,,,,,,,,,,,,,,,,,,,,,,,,,,,,,,,,,,,,,,,,,,,,,,,,,,,
1720076191,107,0,4304.102539,4342.05127,4279.871582,4326.025879,4229.871582,4380.897461,4418.589844,4366.538574,4329.615234,4335.128418,4200.128418,4394.102539,4326.410156,4068.846191,,,,,,,,,,,,,,,,,,,,,,,,,,,,,,,,,,,,,,,,,,,,,,,,,,,,,,,,,,,,,,,,,,,,,,
1720076191,108,0,4282.307617,4336.538574,4277.820313,4323.077148,4252.563965,4371.922852,4416.153809,4362.563965,4323.589844,4326.538574,4191.538574,4386.410156,4329.487305,4080.384521,,,,,,,,,,,,,,,,,,,,,,,,,,,,,,,,,,,,,,,,,,,,,,,,,,,,,,,,,,,,,,,,,,,,,,
1720076191,109,0,4255.769043,4332.05127,4274.743652,4340.641113,4270.256348,4368.589844,4411.666504,4363.461426,4312.436035,4319.102539,4178.974121,4382.563965,4330.128418,4083.333252,,,,,,,,,,,,,,,,,,,,,,,,,,,,,,,,,,,,,,,,,,,,,,,,,,,,,,,,,,,,,,,,,,,,,,
1720076191,110,0,4276.282227,4332.563965,4276.025879,4348.589844,4263.846191,4374.487305,4414.358887,4366.153809,4306.794922,4308.589844,4177.307617,4382.94873,4328.333496,4086.923096,,,,,,,,,,,,,,,,,,,,,,,,,,,,,,,,,,,,,,,,,,,,,,,,,,,,,,,,,,,,,,,,,,,,,,
1720076191,111,0,4304.358887,4333.461426,4275.256348,4344.615234,4260.128418,4375.897461,4415.384766,4363.717773,4307.563965,4303.461426,4172.05127,4380.256348,4332.563965,4130.256348,,,,,,,,,,,,,,,,,,,,,,,,,,,,,,,,,,,,,,,,,,,,,,,,,,,,,,,,,,,,,,,,,,,,,,
1720076191,112,0,4298.077148,4334.102539,4275.769043,4343.846191,4266.922852,4373.846191,4406.538574,4360.384766,4308.589844,4308.077148,4166.538574,4376.153809,4340.384766,4197.05127,23.824154,38.481571,3.623621,2.688743,2.445886,3.195287,0.721899,0.225059,0.179934,0.112017,11.925957,16.62911,2.760022,1.165174,0.450793,5.405012,5.332383,0.976511,0.804831,0.426694,21.76053,9.754753,4.06952,3.473862,1.640501,2.041739,2.325658,0.187982,0.289148,0.110035,5.346956,7.354949,2.266741,0.855936,0.344279,1.238213,4.614748,0.34229,0.144699,0.063206,2.821952,3.960115,0.669755,0.521517,0.121863,9.478086,1.890607,1.836275,1.035857,0.621928,4.745621,3.369147,1.315986,0.967655,0.873021,4.353433,10.117138,0.778432,0.64498,0.315572,1.897524,1.35629,0.619237,0.391837,0.248847,177.404617,75.224785,31.274351,11.442826,4.229773
1720076191,113,0,4294.102539,4330.897461,4277.179688,4340.897461,4276.282227,4378.077148,4401.794922,4361.666504,4311.153809,4299.615234,4174.358887,4377.436035,4336.153809,4220.128418,,,,,,,,,,,,,,,,,,,,,,,,,,,,,,,,,,,,,,,,,,,,,,,,,,,,,,,,,,,,,,,,,,,,,,
1720076191,114,0,4306.153809,4326.153809,4274.358887,4339.230957,4283.461426,4380.769043,4404.743652,4365.641113,4316.025879,4277.820313,4181.025879,4379.102539,4322.692383,4210.384766,,,,,,,,,,,,,,,,,,,,,,,,,,,,,,,,,,,,,,,,,,,,,,,,,,,,,,,,,,,,,,,,,,,,,,
1720076191,115,0,4306.922852,4325.128418,4271.666504,4346.922852,4281.538574,4376.922852,4405.128418,4367.307617,4322.307617,4270.384766,4178.846191,4376.153809,4320.512695,4218.205078,,,,,,,,,,,,,,,,,,,,,,,,,,,,,,,,,,,,,,,,,,,,,,,,,,,,,,,,,,,,,,,,,,,,,,
1720076191,116,0,4305.512695,4325.384766,4276.282227,4348.333496,4278.589844,4377.179688,4404.615234,4367.05127,4326.282227,4278.589844,4172.307617,4373.974121,4329.615234,4227.179688,,,,,,,,,,,,,,,,,,,,,,,,,,,,,,,,,,,,,,,,,,,,,,,,,,,,,,,,,,,,,,,,,,,,,,
1720076191,117,0,4315.897461,4323.846191,4276.153809,4341.282227,4276.282227,4383.846191,4403.461426,4366.410156,4326.794922,4286.282227,4169.230957,4373.589844,4331.922852,4217.563965,,,,,,,,,,,,,,,,,,,,,,,,,,,,,,,,,,,,,,,,,,,,,,,,,,,,,,,,,,,,,,,,,,,,,,
1720076191,118,0,4326.153809,4320.897461,4267.94873,4339.615234,4281.282227,4382.307617,4400.641113,4365.256348,4326.538574,4289.358887,4175.512695,4370.128418,4328.846191,4218.589844,,,,,,,,,,,,,,,,,,,,,,,,,,,,,,,,,,,,,,,,,,,,,,,,,,,,,,,,,,,,,,,,,,,,,,
1720076191,119,0,4327.94873,4320.641113,4270.256348,4342.563965,4280.641113,4378.205078,4404.230957,4369.230957,4328.077148,4294.358887,4183.589844,4374.487305,4335.641113,4235,,,,,,,,,,,,,,,,,,,,,,,,,,,,,,,,,,,,,,,,,,,,,,,,,,,,,,,,,,,,,,,,,,,,,,
1720076191,120,0,4329.487305,4322.179688,4279.358887,4346.794922,4255.128418,4380.897461,4406.794922,4371.794922,4327.94873,4301.538574,4188.717773,4380.641113,4343.974121,4239.871582,,,,,,,,,,,,,,,,,,,,,,,,,,,,,,,,,,,,,,,,,,,,,,,,,,,,,,,,,,,,,,,,,,,,,,
1720076191,121,0,4324.871582,4321.153809,4277.179688,4349.743652,4248.461426,4379.743652,4398.846191,4368.846191,4326.410156,4301.666504,4193.717773,4377.94873,4346.666504,4236.666504,,,,,,,,,,,,,,,,,,,,,,,,,,,,,,,,,,,,,,,,,,,,,,,,,,,,,,,,,,,,,,,,,,,,,,
1720076191,122,0,4316.282227,4320.384766,4274.230957,4352.563965,4281.153809,4379.871582,4397.05127,4368.461426,4325.897461,4304.102539,4192.05127,4380.769043,4348.077148,4256.538574,,,,,,,,,,,,,,,,,,,,,,,,,,,,,,,,,,,,,,,,,,,,,,,,,,,,,,,,,,,,,,,,,,,,,,
1720076191,123,0,4330.256348,4324.487305,4282.179688,4359.743652,4299.358887,4381.282227,4400.641113,4369.358887,4322.820313,4322.563965,4186.153809,4390,4349.871582,4292.05127,,,,,,,,,,,,,,,,,,,,,,,,,,,,,,,,,,,,,,,,,,,,,,,,,,,,,,,,,,,,,,,,,,,,,,
1720076191,124,0,4355.641113,4330.256348,4293.077148,4366.538574,4292.692383,4377.307617,4392.179688,4365.256348,4319.743652,4340.128418,4200.769043,4393.717773,4357.692383,4300.897461,,,,,,,,,,,,,,,,,,,,,,,,,,,,,,,,,,,,,,,,,,,,,,,,,,,,,,,,,,,,,,,,,,,,,,
1720076191,125,0,4356.025879,4331.922852,4302.563965,4368.333496,4293.974121,4376.666504,4386.282227,4363.846191,4319.358887,4340,4218.846191,4397.94873,4362.563965,4311.153809,,,,,,,,,,,,,,,,,,,,,,,,,,,,,,,,,,,,,,,,,,,,,,,,,,,,,,,,,,,,,,,,,,,,,,
1720076191,126,0,4343.333496,4329.230957,4310.128418,4373.333496,4290.769043,4376.153809,4392.563965,4364.358887,4315.384766,4332.563965,4208.589844,4399.102539,4350.512695,4326.794922,,,,,,,,,,,,,,,,,,,,,,,,,,,,,,,,,,,,,,,,,,,,,,,,,,,,,,,,,,,,,,,,,,,,,,
1720076191,127,0,4342.94873,4326.666504,4307.436035,4376.153809,4280.256348,4368.589844,4393.205078,4362.05127,4310,4331.794922,4193.461426,4391.538574,4338.717773,4200.128418,,,,,,,,,,,,,,,,,,,,,,,,,,,,,,,,,,,,,,,,,,,,,,,,,,,,,,,,,,,,,,,,,,,,,,
1720076191,0,0,4345,4327.179688,4300.897461,4368.846191,4280.769043,4364.615234,4386.282227,4363.461426,4313.846191,4334.487305,4197.179688,4389.743652,4337.820313,3967.179443,24.941944,40.31562,3.562424,2.555436,2.39206,3.375658,0.797498,0.269007,0.182132,0.105509,12.641083,17.027716,3.103964,1.294258,0.454196,5.592705,5.491778,1.069172,0.765418,0.422402,16.456087,7.749458,3.816761,3.231674,1.502088,2.091922,2.14394,0.166688,0.255035,0.099081,3.439333,5.92629,2.032276,0.820881,0.264985,1.244603,4.261516,0.451581,0.156289,0.060877,3.004526,3.746363,0.521506,0.529519,0.126402,9.240604,2.228791,1.736926,0.91471,0.551163,3.919117,2.755882,1.354231,1.029896,0.822318,3.62688,8.527539,0.937124,0.667376,0.290755,1.846419,1.317335,0.680917,0.430395,0.250024,233.848816,132.801056,38.689186,19.025358,5.705584
1720076191,1,0,4341.025879,4322.692383,4291.153809,4358.333496,4279.743652,4366.794922,4389.230957,4364.487305,4319.230957,4332.179688,4198.077148,4389.358887,4327.820313,3899.102539,,,,,,,,,,,,,,,,,,,,,,,,,,,,,,,,,,,,,,,,,,,,,,,,,,,,,,,,,,,,,,,,,,,,,,
1720076191,2,0,4341.025879,4312.820313,4282.94873,4350.256348,4278.717773,4367.436035,4397.563965,4366.666504,4320,4328.846191,4187.820313,4378.461426,4316.153809,3996.281982,,,,,,,,,,,,,,,,,,,,,,,,,,,,,,,,,,,,,,,,,,,,,,,,,,,,,,,,,,,,,,,,,,,,,,
1720076191,3,0,4343.846191,4310.641113,4284.615234,4353.077148,4283.974121,4373.333496,4398.077148,4371.794922,4322.436035,4336.153809,4184.871582,4375.128418,4315.128418,4029.358887,,,,,,,,,,,,,,,,,,,,,,,,,,,,,,,,,,,,,,,,,,,,,,,,,,,,,,,,,,,,,,,,,,,,,,
1720076191,4,0,4344.230957,4312.820313,4285.641113,4361.794922,4276.922852,4373.077148,4388.717773,4366.794922,4321.666504,4343.846191,4187.94873,4378.717773,4309.743652,4004.871826,,,,,,,,,,,,,,,,,,,,,,,,,,,,,,,,,,,,,,,,,,,,,,,,,,,,,,,,,,,,,,,,,,,,,,
1720076191,5,0,4341.538574,4309.230957,4278.461426,4359.102539,4283.846191,4362.820313,4381.282227,4362.179688,4313.205078,4341.922852,4183.333496,4375.641113,4303.974121,4030.641113,,,,,,,,,,,,,,,,,,,,,,,,,,,,,,,,,,,,,,,,,,,,,,,,,,,,,,,,,,,,,,,,,,,,,,
1720076191,6,0,4339.102539,4307.563965,4274.487305,4353.846191,4325.769043,4363.461426,4380.512695,4361.025879,4308.846191,4341.922852,4177.05127,4366.025879,4304.230957,4053.846191,,,,,,,,,,,,,,,,,,,,,,,,,,,,,,,,,,,,,,,,,,,,,,,,,,,,,,,,,,,,,,,,,,,,,,
1720076191,7,0,4342.94873,4310.256348,4275.897461,4360.512695,4339.102539,4366.538574,4376.922852,4346.922852,4309.615234,4344.487305,4179.102539,4356.153809,4300.128418,4047.307617,,,,,,,,,,,,,,,,,,,,,,,,,,,,,,,,,,,,,,,,,,,,,,,,,,,,,,,,,,,,,,,,,,,,,,
1720076191,8,0,4354.487305,4311.153809,4275.897461,4360.256348,4319.487305,4362.05127,4372.307617,4332.692383,4304.230957,4345.769043,4186.282227,4355.897461,4298.077148,4054.615479,,,,,,,,,,,,,,,,,,,,,,,,,,,,,,,,,,,,,,,,,,,,,,,,,,,,,,,,,,,,,,,,,,,,,,
1720076191,9,0,4367.820313,4314.743652,4280.128418,4356.153809,4331.794922,4359.871582,4371.282227,4333.205078,4298.205078,4344.358887,4185.256348,4360.256348,4298.461426,4067.692383,,,,,,,,,,,,,,,,,,,,,,,,,,,,,,,,,,,,,,,,,,,,,,,,,,,,,,,,,,,,,,,,,,,,,,
1720076191,10,0,4378.205078,4324.358887,4291.153809,4370,4361.666504,4368.205078,4375.769043,4337.94873,4301.794922,4345.769043,4183.205078,4364.358887,4298.333496,4078.846191,,,,,,,,,,,,,,,,,,,,,,,,,,,,,,,,,,,,,,,,,,,,,,,,,,,,,,,,,,,,,,,,,,,,,,
1720076191,11,0,4382.94873,4327.692383,4301.538574,4382.820313,4366.153809,4377.307617,4383.974121,4341.025879,4305.512695,4353.717773,4193.974121,4376.794922,4301.922852,4103.717773,,,,,,,,,,,,,,,,,,,,,,,,,,,,,,,,,,,,,,,,,,,,,,,,,,,,,,,,,,,,,,,,,,,,,,
1720076191,12,0,4382.436035,4322.692383,4304.743652,4381.410156,4360.769043,4377.820313,4381.666504,4344.743652,4298.846191,4351.538574,4201.922852,4391.410156,4302.820313,4132.307617,,,,,,,,,,,,,,,,,,,,,,,,,,,,,,,,,,,,,,,,,,,,,,,,,,,,,,,,,,,,,,,,,,,,,,
1720076191,13,0,4384.230957,4322.94873,4300.256348,4380.128418,4362.307617,4371.538574,4373.205078,4344.871582,4296.025879,4341.666504,4194.230957,4393.205078,4295,4141.794922,,,,,,,,,,,,,,,,,,,,,,,,,,,,,,,,,,,,,,,,,,,,,,,,,,,,,,,,,,,,,,,,,,,,,,
1720076191,14,0,4389.871582,4323.974121,4294.487305,4377.179688,4359.871582,4367.692383,4375.897461,4345.769043,4306.538574,4345.512695,4186.922852,4389.487305,4292.307617,4145.128418,,,,,,,,,,,,,,,,,,,,,,,,,,,,,,,,,,,,,,,,,,,,,,,,,,,,,,,,,,,,,,,,,,,,,,
1720076191,15,0,4383.205078,4314.102539,4286.025879,4365.128418,4352.820313,4364.487305,4384.230957,4348.846191,4308.205078,4353.846191,4189.102539,4385.897461,4294.743652,4155.769043,,,,,,,,,,,,,,,,,,,,,,,,,,,,,,,,,,,,,,,,,,,,,,,,,,,,,,,,,,,,,,,,,,,,,,
1720076191,16,0,4374.487305,4309.615234,4278.461426,4361.538574,4349.743652,4355.769043,4380.512695,4347.436035,4302.179688,4355,4188.205078,4376.025879,4285.769043,4161.666504,25.79706,37.473476,3.262309,2.305998,2.160888,3.323512,0.888287,0.349536,0.185958,0.097769,12.097397,15.692352,3.168221,1.287038,0.41751,5.571252,5.430512,1.193936,0.710232,0.421189,11.363529,5.586088,3.203901,2.891326,1.333985,2.024945,1.881768,0.152921,0.224252,0.096766,2.726061,4.474502,1.897037,0.771088,0.211766,1.329113,3.59728,0.566713,0.159257,0.062298,2.830704,3.476135,0.437583,0.494293,0.129108,8.569346,2.640262,1.629026,0.825243,0.455647,3.14639,2.01858,1.386335,1.072147,0.757604,2.877614,6.572448,1.176484,0.655501,0.25718,1.658673,1.251715,0.701443,0.465437,0.245374,367.622681,233.462387,50.730488,31.31625,8.537418
1720076191,17,0,4373.077148,4316.153809,4276.538574,4371.025879,4352.307617,4353.077148,4368.717773,4345.128418,4305.641113,4360.641113,4180.641113,4368.205078,4277.179688,4162.692383,,,,,,,,,,,,,,,,,,,,,,,,,,,,,,,,,,,,,,,,,,,,,,,,,,,,,,,,,,,,,,,,,,,,,,
1720076191,18,0,4362.563965,4314.358887,4271.794922,4373.077148,4347.05127,4355.641113,4359.871582,4338.461426,4306.025879,4362.307617,4171.794922,4359.358887,4276.282227,4163.077148,,,,,,,,,,,,,,,,,,,,,,,,,,,,,,,,,,,,,,,,,,,,,,,,,,,,,,,,,,,,,,,,,,,,,,
1720076191,19,0,4351.922852,4306.282227,4261.153809,4362.94873,4352.436035,4355.769043,4354.743652,4332.94873,4296.025879,4353.205078,4162.05127,4346.666504,4273.974121,4160.384766,,,,,,,,,,,,,,,,,,,,,,,,,,,,,,,,,,,,,,,,,,,,,,,,,,,,,,,,,,,,,,,,,,,,,,
1720076191,20,0,4350.512695,4307.692383,4256.666504,4352.563965,4339.487305,4352.820313,4354.358887,4333.974121,4292.307617,4351.666504,4158.846191,4344.102539,4272.179688,4165.512695,,,,,,,,,,,,,,,,,,,,,,,,,,,,,,,,,,,,,,,,,,,,,,,,,,,,,,,,,,,,,,,,,,,,,,
1720076192,21,0,4337.179688,4311.410156,4257.05127,4358.205078,4259.743652,4346.025879,4363.205078,4330.512695,4290.769043,4356.025879,4158.077148,4345.897461,4266.282227,4172.307617,,,,,,,,,,,,,,,,,,,,,,,,,,,,,,,,,,,,,,,,,,,,,,,,,,,,,,,,,,,,,,,,,,,,,,
1720076192,22,0,4323.333496,4311.538574,4258.974121,4374.615234,4208.589844,4346.153809,4377.436035,4328.974121,4282.563965,4355.256348,4154.102539,4346.666504,4260.256348,4175,,,,,,,,,,,,,,,,,,,,,,,,,,,,,,,,,,,,,,,,,,,,,,,,,,,,,,,,,,,,,,,,,,,,,,
1720076192,23,0,4342.436035,4312.820313,4268.589844,4377.820313,4241.282227,4353.717773,4389.615234,4332.563965,4280.512695,4353.461426,4158.333496,4355.512695,4263.077148,4187.692383,,,,,,,,,,,,,,,,,,,,,,,,,,,,,,,,,,,,,,,,,,,,,,,,,,,,,,,,,,,,,,,,,,,,,,
1720076192,24,0,4368.589844,4313.333496,4278.077148,4376.025879,4248.461426,4354.230957,4393.333496,4330.769043,4283.461426,4354.102539,4176.538574,4368.717773,4268.974121,4204.102539,,,,,,,,,,,,,,,,,,,,,,,,,,,,,,,,,,,,,,,,,,,,,,,,,,,,,,,,,,,,,,,,,,,,,,
1720076192,25,0,4372.692383,4314.230957,4280.384766,4382.692383,4215.256348,4350.641113,4389.487305,4328.077148,4281.153809,4357.436035,4184.743652,4377.820313,4267.94873,4207.307617,,,,,,,,,,,,,,,,,,,,,,,,,,,,,,,,,,,,,,,,,,,,,,,,,,,,,,,,,,,,,,,,,,,,,,
1720076192,26,0,4372.05127,4311.794922,4278.461426,4377.94873,4234.230957,4352.179688,4384.871582,4330.128418,4279.615234,4358.205078,4172.436035,4377.436035,4268.205078,4205.512695,,,,,,,,,,,,,,,,,,,,,,,,,,,,,,,,,,,,,,,,,,,,,,,,,,,,,,,,,,,,,,,,,,,,,,
1720076192,27,0,4374.743652,4311.410156,4282.307617,4366.025879,4301.282227,4346.538574,4384.487305,4328.974121,4280.641113,4353.333496,4164.487305,4374.102539,4271.025879,4220.641113,,,,,,,,,,,,,,,,,,,,,,,,,,,,,,,,,,,,,,,,,,,,,,,,,,,,,,,,,,,,,,,,,,,,,,
1720076192,28,0,4374.615234,4318.589844,4291.410156,4368.461426,4348.205078,4336.666504,4384.358887,4330.256348,4278.461426,4347.692383,4171.282227,4378.717773,4269.743652,4247.05127,,,,,,,,,,,,,,,,,,,,,,,,,,,,,,,,,,,,,,,,,,,,,,,,,,,,,,,,,,,,,,,,,,,,,,
1720076192,29,0,4378.205078,4321.794922,4294.487305,4376.794922,4359.615234,4337.692383,4384.102539,4333.589844,4275.256348,4345,4179.615234,4380.897461,4264.358887,4257.436035,,,,,,,,,,,,,,,,,,,,,,,,,,,,,,,,,,,,,,,,,,,,,,,,,,,,,,,,,,,,,,,,,,,,,,
1720076192,30,0,4384.230957,4320.512695,4292.94873,4381.538574,4358.077148,4341.410156,4389.615234,4331.410156,4277.307617,4341.410156,4182.563965,4378.717773,4257.94873,4252.820313,,,,,,,,,,,,,,,,,,,,,,,,,,,,,,,,,,,,,,,,,,,,,,,,,,,,,,,,,,,,,,,,,,,,,,
1720076192,31,0,4380.384766,4323.974121,4296.410156,4387.307617,4359.871582,4343.846191,4392.179688,4337.94873,4281.025879,4339.615234,4181.025879,4383.461426,4256.922852,4268.846191,,,,,,,,,,,,,,,,,,,,,,,,,,,,,,,,,,,,,,,,,,,,,,,,,,,,,,,,,,,,,,,,,,,,,,
1720076192,32,0,4370.384766,4326.922852,4295.641113,4386.025879,4363.589844,4346.794922,4389.358887,4343.974121,4281.794922,4342.563965,4181.153809,4385.384766,4259.230957,4262.307617,25.945309,30.664785,2.769421,2.034364,1.823301,3.110031,0.983892,0.451264,0.191815,0.090249,10.320984,13.213271,2.962753,1.154534,0.350581,5.473822,5.371192,1.323021,0.654574,0.423787,7.448326,3.941097,2.480408,2.572964,1.18506,1.908045,1.598263,0.147742,0.199832,0.103415,2.499455,3.271007,1.809476,0.692607,0.177911,1.463228,2.801826,0.639168,0.150633,0.065975,2.547292,3.195685,0.411568,0.4248,0.129294,7.922523,2.947358,1.572734,0.775009,0.360975,2.400172,1.372555,1.434207,1.078031,0.689566,2.232065,4.840163,1.433714,0.610169,0.227809,1.41725,1.205822,0.67304,0.489978,0.238864,545.789978,346.889984,63.145477,45.261803,11.970444
1720076192,33,0,4366.922852,4324.615234,4285,4374.615234,4366.538574,4346.794922,4390.512695,4336.922852,4280.512695,4343.205078,4183.461426,4381.538574,4255.384766,4206.282227,,,,,,,,,,,,,,,,,,,,,,,,,,,,,,,,,,,,,,,,,,,,,,,,,,,,,,,,,,,,,,,,,,,,,,
1720076192,34,0,4366.666504,4322.692383,4281.153809,4369.743652,4365.256348,4342.05127,4390.384766,4334.487305,4280.641113,4341.666504,4184.230957,4383.461426,4250.128418,4205.512695,,,,,,,,,,,,,,,,,,,,,,,,,,,,,,,,,,,,,,,,,,,,,,,,,,,,,,,,,,,,,,,,,,,,,,
1720076192,35,0,4363.461426,4321.794922,4283.205078,4375.384766,4356.922852,4333.077148,4381.538574,4334.102539,4277.436035,4340.897461,4185.384766,4380.897461,4251.025879,4268.589844,,,,,,,,,,,,,,,,,,,,,,,,,,,,,,,,,,,,,,,,,,,,,,,,,,,,,,,,,,,,,,,,,,,,,,
1720076192,36,0,4370.256348,4324.615234,4281.794922,4382.307617,4354.615234,4327.436035,4371.153809,4328.333496,4268.461426,4334.358887,4185,4377.820313,4252.820313,4289.487305,,,,,,,,,,,,,,,,,,,,,,,,,,,,,,,,,,,,,,,,,,,,,,,,,,,,,,,,,,,,,,,,,,,,,,
1720076192,37,0,4380.256348,4328.974121,4278.974121,4369.230957,4360,4325,4363.717773,4323.461426,4261.666504,4324.743652,4182.94873,4382.94873,4246.153809,4277.05127,,,,,,,,,,,,,,,,,,,,,,,,,,,,,,,,,,,,,,,,,,,,,,,,,,,,,,,,,,,,,,,,,,,,,,
1720076192,38,0,4375.256348,4325,4278.846191,4344.230957,4362.94873,4320,4361.410156,4324.743652,4262.179688,4323.205078,4186.025879,4386.025879,4239.871582,4285.512695,,,,,,,,,,,,,,,,,,,,,,,,,,,,,,,,,,,,,,,,,,,,,,,,,,,,,,,,,,,,,,,,,,,,,,
1720076192,39,0,4371.794922,4324.615234,4286.410156,4341.794922,4363.974121,4322.692383,4366.282227,4327.820313,4265.128418,4328.333496,4196.153809,4386.025879,4243.461426,4291.153809,,,,,,,,,,,,,,,,,,,,,,,,,,,,,,,,,,,,,,,,,,,,,,,,,,,,,,,,,,,,,,,,,,,,,,
1720076192,40,0,4378.717773,4331.153809,4295.256348,4355,4367.94873,4330.256348,4372.563965,4332.307617,4265.128418,4327.05127,4201.922852,4389.743652,4244.743652,4286.538574,,,,,,,,,,,,,,,,,,,,,,,,,,,,,,,,,,,,,,,,,,,,,,,,,,,,,,,,,,,,,,,,,,,,,,
1720076192,41,0,4379.358887,4330.769043,4296.794922,4361.153809,4367.179688,4331.025879,4377.05127,4335.256348,4265.384766,4325.641113,4195,4394.615234,4238.717773,4290.256348,,,,,,,,,,,,,,,,,,,,,,,,,,,,,,,,,,,,,,,,,,,,,,,,,,,,,,,,,,,,,,,,,,,,,,
1720076192,42,0,4372.563965,4324.487305,4292.820313,4357.692383,4348.077148,4330.769043,4381.922852,4329.743652,4266.282227,4326.922852,4184.102539,4390.512695,4232.307617,4287.307617,,,,,,,,,,,,,,,,,,,,,,,,,,,,,,,,,,,,,,,,,,,,,,,,,,,,,,,,,,,,,,,,,,,,,,
1720076192,43,0,4368.077148,4324.102539,4293.717773,4349.102539,4335.256348,4333.333496,4382.307617,4322.94873,4264.743652,4321.153809,4177.436035,4380.512695,4225.384766,4285.256348,,,,,,,,,,,,,,,,,,,,,,,,,,,,,,,,,,,,,,,,,,,,,,,,,,,,,,,,,,,,,,,,,,,,,,
1720076192,44,0,4363.205078,4327.436035,4291.282227,4342.94873,4353.077148,4328.461426,4374.487305,4318.589844,4262.05127,4311.794922,4173.077148,4372.692383,4220.256348,4283.461426,,,,,,,,,,,,,,,,,,,,,,,,,,,,,,,,,,,,,,,,,,,,,,,,,,,,,,,,,,,,,,,,,,,,,,
1720076192,45,0,4364.487305,4325.128418,4282.820313,4340.641113,4370.384766,4321.282227,4367.05127,4318.589844,4260.128418,4305.512695,4167.692383,4373.077148,4220.512695,4277.692383,,,,,,,,,,,,,,,,,,,,,,,,,,,,,,,,,,,,,,,,,,,,,,,,,,,,,,,,,,,,,,,,,,,,,,
1720076192,46,0,4375.128418,4322.692383,4283.974121,4342.05127,4366.410156,4319.871582,4366.538574,4319.743652,4262.820313,4306.410156,4168.717773,4380,4220.512695,4281.282227,,,,,,,,,,,,,,,,,,,,,,,,,,,,,,,,,,,,,,,,,,,,,,,,,,,,,,,,,,,,,,,,,,,,,,
1720076192,47,0,4382.94873,4328.077148,4298.077148,4353.333496,4363.589844,4315.641113,4371.282227,4319.487305,4264.358887,4310.641113,4177.436035,4387.563965,4223.974121,4292.179688,,,,,,,,,,,,,,,,,,,,,,,,,,,,,,,,,,,,,,,,,,,,,,,,,,,,,,,,,,,,,,,,,,,,,,
1720076192,48,0,4387.692383,4334.871582,4308.589844,4365.512695,4366.666504,4311.922852,4369.615234,4321.666504,4255.769043,4314.615234,4189.743652,4397.94873,4230.256348,4297.436035,25.074837,21.984215,2.225052,1.808896,1.463294,2.769245,1.089277,0.548198,0.199128,0.084694,7.834276,10.483397,2.58465,0.953435,0.272892,5.326031,5.51014,1.437872,0.622131,0.425484,5.949615,3.242376,1.887817,2.353148,1.094014,1.727287,1.326152,0.155155,0.181784,0.115707,2.574893,2.493563,1.719816,0.59756,0.159056,1.580798,2.088396,0.646257,0.132935,0.070051,2.253453,2.944887,0.427341,0.34362,0.126779,7.794497,3.063359,1.588886,0.758297,0.28717,1.862181,0.988604,1.497701,1.053919,0.627704,1.829785,3.76727,1.640755,0.546937,0.210051,1.221185,1.243156,0.612095,0.497231,0.233511,724.665771,437.255646,72.519539,57.222248,15.060369
1720076192,49,0,4394.230957,4338.461426,4310.128418,4360.384766,4370.897461,4311.410156,4362.05127,4323.077148,4247.820313,4307.94873,4201.794922,4406.666504,4225.256348,4296.794922,,,,,,,,,,,,,,,,,,,,,,,,,,,,,,,,,,,,,,,,,,,,,,,,,,,,,,,,,,,,,,,,,,,,,,
1720076192,50,0,4396.538574,4343.589844,4315.384766,4355.256348,4380.256348,4315.769043,4372.94873,4323.333496,4252.05127,4282.563965,4199.230957,4415,4224.102539,4299.102539,,,,,,,,,,,,,,,,,,,,,,,,,,,,,,,,,,,,,,,,,,,,,,,,,,,,,,,,,,,,,,,,,,,,,,
1720076192,51,0,4395,4348.461426,4319.487305,4368.589844,4383.333496,4321.538574,4384.871582,4320.384766,4252.692383,4262.05127,4192.179688,4420.769043,4232.820313,4299.358887,,,,,,,,,,,,,,,,,,,,,,,,,,,,,,,,,,,,,,,,,,,,,,,,,,,,,,,,,,,,,,,,,,,,,,
1720076192,52,0,4394.358887,4346.410156,4313.589844,4371.922852,4381.538574,4323.461426,4358.077148,4317.94873,4248.205078,4261.153809,4195,4414.230957,4225.256348,4299.230957,,,,,,,,,,,,,,,,,,,,,,,,,,,,,,,,,,,,,,,,,,,,,,,,,,,,,,,,,,,,,,,,,,,,,,
1720076192,53,0,4390.897461,4343.846191,4309.487305,4359.358887,4388.205078,4326.666504,4320.897461,4324.487305,4253.077148,4257.436035,4192.436035,4410,4212.436035,4278.205078,,,,,,,,,,,,,,,,,,,,,,,,,,,,,,,,,,,,,,,,,,,,,,,,,,,,,,,,,,,,,,,,,,,,,,
1720076192,54,0,4383.717773,4348.077148,4313.846191,4356.922852,4397.436035,4328.846191,4320.256348,4331.666504,4258.461426,4241.410156,4185.897461,4416.666504,4215.512695,4217.436035,,,,,,,,,,,,,,,,,,,,,,,,,,,,,,,,,,,,,,,,,,,,,,,,,,,,,,,,,,,,,,,,,,,,,,
1720076192,55,0,4381.410156,4353.205078,4321.538574,4362.820313,4398.717773,4327.692383,4334.743652,4332.94873,4257.94873,4239.358887,4193.974121,4422.05127,4217.692383,4172.563965,,,,,,,,,,,,,,,,,,,,,,,,,,,,,,,,,,,,,,,,,,,,,,,,,,,,,,,,,,,,,,,,,,,,,,
1720076192,56,0,4389.487305,4356.794922,4327.436035,4367.436035,4396.410156,4327.179688,4335.641113,4336.922852,4262.94873,4255.769043,4201.666504,4428.974121,4216.666504,4194.615234,,,,,,,,,,,,,,,,,,,,,,,,,,,,,,,,,,,,,,,,,,,,,,,,,,,,,,,,,,,,,,,,,,,,,,
1720076192,57,0,4395.256348,4360.256348,4330.641113,4371.666504,4399.871582,4327.563965,4334.743652,4342.05127,4272.179688,4272.692383,4198.333496,4438.846191,4224.487305,4253.461426,,,,,,,,,,,,,,,,,,,,,,,,,,,,,,,,,,,,,,,,,,,,,,,,,,,,,,,,,,,,,,,,,,,,,,
1720076192,58,0,4385.512695,4365.897461,4334.487305,4379.358887,4415.769043,4325.256348,4341.666504,4342.692383,4278.077148,4287.563965,4211.282227,4443.205078,4231.922852,4306.794922,,,,,,,,,,,,,,,,,,,,,,,,,,,,,,,,,,,,,,,,,,,,,,,,,,,,,,,,,,,,,,,,,,,,,,
1720076192,59,0,4372.692383,4374.487305,4340.384766,4387.692383,4417.436035,4328.333496,4349.871582,4346.282227,4279.230957,4296.410156,4233.846191,4449.102539,4233.974121,4335.641113,,,,,,,,,,,,,,,,,,,,,,,,,,,,,,,,,,,,,,,,,,,,,,,,,,,,,,,,,,,,,,,,,,,,,,
1720076192,60,0,4369.615234,4381.538574,4341.282227,4384.230957,4396.666504,4334.358887,4350,4348.589844,4279.102539,4297.94873,4231.410156,4453.846191,4234.358887,4333.077148,,,,,,,,,,,,,,,,,,,,,,,,,,,,,,,,,,,,,,,,,,,,,,,,,,,,,,,,,,,,,,,,,,,,,,
1720076192,61,0,4373.333496,4381.153809,4344.102539,4382.94873,4396.410156,4335.128418,4342.692383,4344.871582,4279.102539,4299.230957,4217.820313,4452.820313,4235.769043,4333.333496,,,,,,,,,,,,,,,,,,,,,,,,,,,,,,,,,,,,,,,,,,,,,,,,,,,,,,,,,,,,,,,,,,,,,,
1720076192,62,0,4381.794922,4378.974121,4351.282227,4391.282227,4425.256348,4337.05127,4338.717773,4342.692383,4271.666504,4293.461426,4212.307617,4451.666504,4233.461426,4342.692383,,,,,,,,,,,,,,,,,,,,,,,,,,,,,,,,,,,,,,,,,,,,,,,,,,,,,,,,,,,,,,,,,,,,,,
1720076192,63,0,4391.538574,4381.922852,4352.94873,4390,4441.538574,4340.128418,4341.922852,4340.128418,4264.615234,4285,4219.102539,4452.692383,4228.846191,4337.94873,,,,,,,,,,,,,,,,,,,,,,,,,,,,,,,,,,,,,,,,,,,,,,,,,,,,,,,,,,,,,,,,,,,,,,
1720076192,64,0,4400.897461,4388.846191,4361.410156,4396.538574,4440.512695,4347.820313,4352.436035,4347.692383,4280.256348,4289.358887,4238.974121,4464.871582,4239.102539,4345,23.326172,13.796288,1.750082,1.650971,1.145646,2.44991,1.199272,0.610951,0.203543,0.081737,5.462584,8.280473,2.150021,0.752119,0.203346,5.373489,5.852306,1.512868,0.624444,0.419155,7.271266,3.604046,1.667873,2.23993,1.083942,1.599892,1.082084,0.179283,0.170973,0.128134,2.72244,2.105094,1.618947,0.504043,0.149094,1.645852,1.591076,0.59745,0.111598,0.072429,2.242737,2.771679,0.460294,0.272485,0.121574,8.413813,2.973776,1.637245,0.755168,0.240218,1.788769,0.919389,1.539171,1.008042,0.574812,1.865263,3.452389,1.737368,0.479394,0.202338,1.348207,1.385671,0.531996,0.480177,0.228622,850.046082,475.935791,75.900635,63.68251,16.886923
1720076192,65,0,4409.871582,4393.589844,4378.205078,4418.205078,4449.358887,4359.871582,4364.358887,4362.692383,4303.077148,4307.692383,4256.282227,4487.179688,4260.128418,4365,,,,,,,,,,,,,,,,,,,,,,,,,,,,,,,,,,,,,,,,,,,,,,,,,,,,,,,,,,,,,,,,,,,,,,
1720076192,66,0,4415.641113,4397.179688,4387.05127,4417.179688,4460.769043,4362.563965,4371.153809,4365.897461,4313.717773,4321.666504,4258.205078,4499.230957,4278.205078,4374.358887,,,,,,,,,,,,,,,,,,,,,,,,,,,,,,,,,,,,,,,,,,,,,,,,,,,,,,,,,,,,,,,,,,,,,,
1720076192,67,0,4413.717773,4404.102539,4391.282227,4409.230957,4460.641113,4356.410156,4373.077148,4366.922852,4317.436035,4305.512695,4260.384766,4499.487305,4283.846191,4375,,,,,,,,,,,,,,,,,,,,,,,,,,,,,,,,,,,,,,,,,,,,,,,,,,,,,,,,,,,,,,,,,,,,,,
1720076192,68,0,4412.94873,4411.282227,4398.205078,4424.743652,4459.358887,4358.333496,4369.358887,4373.974121,4315.897461,4270.256348,4277.94873,4505,4272.05127,4374.871582,,,,,,,,,,,,,,,,,,,,,,,,,,,,,,,,,,,,,,,,,,,,,,,,,,,,,,,,,,,,,,,,,,,,,,
1720076192,69,0,4417.05127,4412.563965,4400.641113,4431.794922,4461.538574,4360.897461,4361.538574,4373.077148,4312.05127,4254.871582,4282.692383,4503.974121,4265.256348,4370.384766,,,,,,,,,,,,,,,,,,,,,,,,,,,,,,,,,,,,,,,,,,,,,,,,,,,,,,,,,,,,,,,,,,,,,,
1720076192,70,0,4407.820313,4406.794922,4388.717773,4417.179688,4462.94873,4351.153809,4353.974121,4363.461426,4309.487305,4264.615234,4252.05127,4480.384766,4265.512695,4356.666504,,,,,,,,,,,,,,,,,,,,,,,,,,,,,,,,,,,,,,,,,,,,,,,,,,,,,,,,,,,,,,,,,,,,,,
1720076192,71,0,4379.358887,4394.487305,4366.282227,4396.666504,4457.692383,4343.717773,4349.102539,4360.512695,4299.743652,4272.179688,4214.743652,4455,4244.871582,4327.820313,,,,,,,,,,,,,,,,,,,,,,,,,,,,,,,,,,,,,,,,,,,,,,,,,,,,,,,,,,,,,,,,,,,,,,
1720076192,72,0,4361.025879,4391.025879,4355.512695,4381.410156,4455.769043,4344.102539,4352.05127,4359.358887,4291.282227,4276.538574,4208.974121,4444.102539,4226.794922,4303.846191,,,,,,,,,,,,,,,,,,,,,,,,,,,,,,,,,,,,,,,,,,,,,,,,,,,,,,,,,,,,,,,,,,,,,,
1720076192,73,0,4378.974121,4403.717773,4374.871582,4393.974121,4463.333496,4350.128418,4365.897461,4362.307617,4299.487305,4292.436035,4235.256348,4456.410156,4245,4336.153809,,,,,,,,,,,,,,,,,,,,,,,,,,,,,,,,,,,,,,,,,,,,,,,,,,,,,,,,,,,,,,,,,,,,,,
1720076192,74,0,4407.179688,4418.461426,4404.358887,4419.871582,4473.461426,4361.153809,4376.922852,4372.692383,4315,4311.538574,4260.769043,4485.769043,4270.897461,4356.410156,,,,,,,,,,,,,,,,,,,,,,,,,,,,,,,,,,,,,,,,,,,,,,,,,,,,,,,,,,,,,,,,,,,,,,
1720076192,75,0,4411.794922,4423.717773,4415.256348,4430.384766,4487.05127,4366.153809,4375.512695,4375.769043,4320.769043,4314.230957,4269.615234,4500.128418,4272.94873,4293.077148,,,,,,,,,,,,,,,,,,,,,,,,,,,,,,,,,,,,,,,,,,,,,,,,,,,,,,,,,,,,,,,,,,,,,,
1720076192,76,0,4407.820313,4425.256348,4412.307617,4427.820313,4494.230957,4363.205078,4372.820313,4377.179688,4318.333496,4300.641113,4272.436035,4494.358887,4266.666504,4269.743652,,,,,,,,,,,,,,,,,,,,,,,,,,,,,,,,,,,,,,,,,,,,,,,,,,,,,,,,,,,,,,,,,,,,,,
1720076192,77,0,4411.794922,4430.384766,4414.615234,4421.794922,4475.641113,4366.410156,4380.512695,4380.384766,4319.102539,4297.307617,4276.794922,4498.333496,4274.230957,4346.538574,,,,,,,,,,,,,,,,,,,,,,,,,,,,,,,,,,,,,,,,,,,,,,,,,,,,,,,,,,,,,,,,,,,,,,
1720076192,78,0,4415.769043,4434.102539,4427.179688,4422.94873,4461.666504,4372.179688,4385,4383.589844,4328.077148,4308.461426,4286.282227,4516.538574,4290.384766,4395.769043,,,,,,,,,,,,,,,,,,,,,,,,,,,,,,,,,,,,,,,,,,,,,,,,,,,,,,,,,,,,,,,,,,,,,,
1720076192,79,0,4414.102539,4430.769043,4428.974121,4428.461426,4477.820313,4370.512695,4368.974121,4388.846191,4332.307617,4313.461426,4298.077148,4520.897461,4290.512695,4380.384766,,,,,,,,,,,,,,,,,,,,,,,,,,,,,,,,,,,,,,,,,,,,,,,,,,,,,,,,,,,,,,,,,,,,,,
1720076192,80,0,4412.94873,4431.025879,4422.563965,4427.436035,4491.025879,4364.487305,4350.769043,4385.384766,4327.692383,4298.589844,4296.794922,4512.307617,4282.436035,4377.05127,20.774559,7.827178,1.396512,1.534759,0.897051,2.121469,1.285175,0.619874,0.198952,0.080596,3.788762,6.915151,1.761277,0.599012,0.152574,5.421088,6.186492,1.518267,0.660803,0.400607,12.292111,4.907471,1.990653,2.188798,1.156696,1.449285,0.857628,0.232511,0.16823,0.135345,2.685743,1.946665,1.552659,0.428734,0.144894,1.641003,1.314138,0.523848,0.093208,0.071599,2.361076,2.663724,0.489465,0.224331,0.11427,9.675144,2.720568,1.650486,0.74882,0.213371,2.163618,1.065039,1.522897,0.942152,0.526145,2.286622,3.642258,1.712577,0.413214,0.19655,1.61021,1.582693,0.455766,0.436031,0.221019,876.682312,450.644531,72.462982,62.852604,16.902821
1720076192,81,0,4410.897461,4441.538574,4421.538574,4426.666504,4487.94873,4362.307617,4352.179688,4379.871582,4329.358887,4273.589844,4290.641113,4513.974121,4289.230957,4386.153809,,,,,,,,,,,,,,,,,,,,,,,,,,,,,,,,,,,,,,,,,,,,,,,,,,,,,,,,,,,,,,,,,,,,,,
1720076192,82,0,4401.282227,4447.820313,4418.077148,4428.205078,4487.436035,4371.282227,4355.384766,4387.820313,4332.692383,4275.128418,4296.282227,4520.769043,4290.897461,4383.846191,,,,,,,,,,,,,,,,,,,,,,,,,,,,,,,,,,,,,,,,,,,,,,,,,,,,,,,,,,,,,,,,,,,,,,
1720076192,83,0,4392.94873,4443.205078,4409.871582,4420.512695,4481.794922,4378.717773,4346.153809,4393.589844,4330.384766,4299.230957,4293.846191,4516.410156,4276.410156,4376.794922,,,,,,,,,,,,,,,,,,,,,,,,,,,,,,,,,,,,,,,,,,,,,,,,,,,,,,,,,,,,,,,,,,,,,,
1720076192,84,0,4396.922852,4441.153809,4409.871582,4416.794922,4470.384766,4375.384766,4343.461426,4388.589844,4328.461426,4306.666504,4280.384766,4510.512695,4278.461426,4369.230957,,,,,,,,,,,,,,,,,,,,,,,,,,,,,,,,,,,,,,,,,,,,,,,,,,,,,,,,,,,,,,,,,,,,,,
1720076192,85,0,4386.538574,4443.589844,4422.05127,4425.384766,4474.871582,4376.794922,4350.128418,4389.102539,4326.538574,4302.179688,4281.666504,4510.384766,4290.641113,4369.871582,,,,,,,,,,,,,,,,,,,,,,,,,,,,,,,,,,,,,,,,,,,,,,,,,,,,,,,,,,,,,,,,,,,,,,
1720076192,86,0,4341.666504,4444.102539,4426.794922,4425.384766,4480.128418,4381.794922,4349.743652,4390,4321.922852,4309.743652,4291.153809,4506.410156,4285.256348,4368.717773,,,,,,,,,,,,,,,,,,,,,,,,,,,,,,,,,,,,,,,,,,,,,,,,,,,,,,,,,,,,,,,,,,,,,,
1720076192,87,0,4304.230957,4442.94873,4420.512695,4423.333496,4470.769043,4377.05127,4347.820313,4391.666504,4320.641113,4314.358887,4293.205078,4508.717773,4281.666504,4369.102539,,,,,,,,,,,,,,,,,,,,,,,,,,,,,,,,,,,,,,,,,,,,,,,,,,,,,,,,,,,,,,,,,,,,,,
1720076192,88,0,4303.717773,4442.94873,4415.897461,4423.589844,4468.333496,4371.153809,4350.512695,4400.769043,4325.897461,4309.358887,4293.461426,4518.846191,4290.384766,4377.179688,,,,,,,,,,,,,,,,,,,,,,,,,,,,,,,,,,,,,,,,,,,,,,,,,,,,,,,,,,,,,,,,,,,,,,
1720076192,89,0,4311.666504,4444.230957,4416.666504,4418.205078,4478.205078,4368.589844,4348.205078,4398.333496,4325,4302.436035,4293.717773,4516.794922,4286.794922,4376.410156,,,,,,,,,,,,,,,,,,,,,,,,,,,,,,,,,,,,,,,,,,,,,,,,,,,,,,,,,,,,,,,,,,,,,,
1720076192,90,0,4301.410156,4444.487305,4412.94873,4410.256348,4475.128418,4366.153809,4340.641113,4390.897461,4315.769043,4289.487305,4291.282227,4512.179688,4276.538574,4372.179688,,,,,,,,,,,,,,,,,,,,,,,,,,,,,,,,,,,,,,,,,,,,,,,,,,,,,,,,,,,,,,,,,,,,,,
1720076192,91,0,4287.307617,4443.846191,4404.358887,4407.05127,4460.641113,4365.256348,4338.333496,4391.666504,4308.717773,4276.025879,4284.230957,4512.563965,4281.794922,4377.94873,,,,,,,,,,,,,,,,,,,,,,,,,,,,,,,,,,,,,,,,,,,,,,,,,,,,,,,,,,,,,,,,,,,,,,
1720076192,92,0,4290.128418,4440.897461,4398.974121,4403.205078,4463.333496,4363.717773,4341.666504,4389.358887,4307.563965,4266.153809,4280.128418,4510.641113,4288.077148,4384.358887,,,,,,,,,,,,,,,,,,,,,,,,,,,,,,,,,,,,,,,,,,,,,,,,,,,,,,,,,,,,,,,,,,,,,,
1720076192,93,0,4294.487305,4436.538574,4396.153809,4392.179688,4456.153809,4362.820313,4340,4386.922852,4307.563965,4253.846191,4279.871582,4508.333496,4277.820313,4373.461426,,,,,,,,,,,,,,,,,,,,,,,,,,,,,,,,,,,,,,,,,,,,,,,,,,,,,,,,,,,,,,,,,,,,,,
1720076192,94,0,4287.563965,4433.846191,4397.436035,4388.205078,4430.641113,4366.666504,4331.410156,4390.897461,4307.05127,4248.461426,4270.641113,4505.384766,4272.307617,4369.358887,,,,,,,,,,,,,,,,,,,,,,,,,,,,,,,,,,,,,,,,,,,,,,,,,,,,,,,,,,,,,,,,,,,,,,
1720076192,95,0,4283.205078,4434.871582,4397.94873,4392.692383,4440,4367.692383,4328.846191,4390.897461,4309.615234,4246.410156,4263.974121,4500.384766,4277.692383,4377.05127,,,,,,,,,,,,,,,,,,,,,,,,,,,,,,,,,,,,,,,,,,,,,,,,,,,,,,,,,,,,,,,,,,,,,,
1720076192,96,0,4287.307617,4440.769043,4398.077148,4397.820313,4477.820313,4372.692383,4337.179688,4390,4314.358887,4237.94873,4275.641113,4499.230957,4279.358887,4328.205078,17.860994,4.597463,1.153007,1.41139,0.711916,1.930204,1.316961,0.575895,0.181217,0.080068,3.037092,6.197327,1.472372,0.504465,0.121692,5.602793,6.228997,1.449948,0.719255,0.3719,20.622183,6.935293,2.809203,2.136652,1.287063,1.370121,0.662446,0.327345,0.171318,0.134189,2.590843,1.808954,1.5874,0.380885,0.148848,1.577757,1.192935,0.472664,0.082797,0.067651,2.632525,2.569087,0.513972,0.199127,0.106343,10.846023,2.430324,1.592351,0.737639,0.197376,2.863523,1.278635,1.48019,0.855899,0.478259,3.073123,3.992713,1.632021,0.350225,0.184562,2.122984,1.742287,0.421591,0.370979,0.208712,795.423279,371.814453,64.218346,55.402714,15.159595
1720076192,97,0,4285.512695,4443.974121,4397.436035,4400.769043,4486.282227,4380.512695,4337.820313,4393.461426,4318.846191,4236.538574,4277.563965,4498.333496,4276.538574,4239.871582,,,,,,,,,,,,,,,,,,,,,,,,,,,,,,,,,,,,,,,,,,,,,,,,,,,,,,,,,,,,,,,,,,,,,,
1720076192,98,0,4277.179688,4435.641113,4388.589844,4400.128418,4477.563965,4378.846191,4328.205078,4392.307617,4324.358887,4242.563965,4259.871582,4488.846191,4276.538574,4212.307617,,,,,,,,,,,,,,,,,,,,,,,,,,,,,,,,,,,,,,,,,,,,,,,,,,,,,,,,,,,,,,,,,,,,,,
1720076192,99,0,4270.384766,4428.333496,4379.230957,4395.512695,4488.077148,4377.692383,4324.102539,4393.461426,4323.846191,4226.794922,4256.410156,4483.717773,4277.94873,4239.615234,,,,,,,,,,,,,,,,,,,,,,,,,,,,,,,,,,,,,,,,,,,,,,,,,,,,,,,,,,,,,,,,,,,,,,
1720076192,100,0,4259.102539,4427.820313,4374.230957,4385.256348,4494.487305,4380.512695,4324.871582,4395.384766,4318.333496,4193.077148,4261.666504,4478.717773,4274.102539,4235.897461,,,,,,,,,,,,,,,,,,,,,,,,,,,,,,,,,,,,,,,,,,,,,,,,,,,,,,,,,,,,,,,,,,,,,,
1720076192,101,0,4248.589844,4423.077148,4363.461426,4373.846191,4480.641113,4374.230957,4325.256348,4391.153809,4316.025879,4179.487305,4253.717773,4468.717773,4269.743652,4215.641113,,,,,,,,,,,,,,,,,,,,,,,,,,,,,,,,,,,,,,,,,,,,,,,,,,,,,,,,,,,,,,,,,,,,,,
1720076192,102,0,4243.974121,4418.974121,4354.743652,4368.589844,4470,4363.846191,4325.384766,4391.282227,4312.94873,4189.487305,4254.102539,4471.025879,4275.512695,4225.769043,,,,,,,,,,,,,,,,,,,,,,,,,,,,,,,,,,,,,,,,,,,,,,,,,,,,,,,,,,,,,,,,,,,,,,
1720076192,103,0,4246.794922,4423.974121,4364.358887,4374.102539,4477.94873,4366.153809,4321.922852,4392.563965,4310.641113,4198.974121,4263.333496,4481.538574,4287.563965,4238.717773,,,,,,,,,,,,,,,,,,,,,,,,,,,,,,,,,,,,,,,,,,,,,,,,,,,,,,,,,,,,,,,,,,,,,,
1720076192,104,0,4256.794922,4434.230957,4378.717773,4383.461426,4495,4373.846191,4319.230957,4392.692383,4317.179688,4199.102539,4261.794922,4489.615234,4294.487305,4245,,,,,,,,,,,,,,,,,,,,,,,,,,,,,,,,,,,,,,,,,,,,,,,,,,,,,,,,,,,,,,,,,,,,,,
1720076192,105,0,4263.717773,4440.256348,4384.615234,4387.820313,4500.256348,4373.846191,4318.333496,4394.230957,4325.384766,4200.384766,4264.871582,4493.333496,4297.692383,4255,,,,,,,,,,,,,,,,,,,,,,,,,,,,,,,,,,,,,,,,,,,,,,,,,,,,,,,,,,,,,,,,,,,,,,
1720076192,106,0,4265.641113,4442.436035,4390.384766,4393.077148,4491.025879,4374.230957,4315.897461,4394.615234,4324.871582,4213.589844,4281.794922,4497.05127,4303.205078,4261.282227,,,,,,,,,,,,,,,,,,,,,,,,,,,,,,,,,,,,,,,,,,,,,,,,,,,,,,,,,,,,,,,,,,,,,,
1720076192,107,0,4264.102539,4446.666504,4399.102539,4404.102539,4495.384766,4380.512695,4315.641113,4396.025879,4327.563965,4229.102539,4281.153809,4498.974121,4309.487305,4257.820313,,,,,,,,,,,,,,,,,,,,,,,,,,,,,,,,,,,,,,,,,,,,,,,,,,,,,,,,,,,,,,,,,,,,,,
1720076192,108,0,4261.794922,4448.717773,4400.128418,4411.794922,4512.563965,4385.769043,4320,4396.794922,4333.717773,4235.512695,4262.94873,4492.436035,4307.563965,4253.333496,,,,,,,,,,,,,,,,,,,,,,,,,,,,,,,,,,,,,,,,,,,,,,,,,,,,,,,,,,,,,,,,,,,,,,
1720076192,109,0,4260.641113,4444.358887,4393.205078,4412.05127,4500.641113,4387.563965,4327.563965,4394.615234,4333.461426,4237.820313,4263.974121,4484.743652,4298.589844,4256.153809,,,,,,,,,,,,,,,,,,,,,,,,,,,,,,,,,,,,,,,,,,,,,,,,,,,,,,,,,,,,,,,,,,,,,,
1720076192,110,0,4265,4443.461426,4389.102539,4415.128418,4481.922852,4393.205078,4338.589844,4397.179688,4338.333496,4236.153809,4275.641113,4488.333496,4296.538574,4263.205078,,,,,,,,,,,,,,,,,,,,,,,,,,,,,,,,,,,,,,,,,,,,,,,,,,,,,,,,,,,,,,,,,,,,,,
1720076192,111,0,4272.307617,4447.820313,4390,4412.820313,4497.94873,4395.769043,4345.256348,4401.538574,4347.820313,4226.922852,4269.230957,4487.05127,4303.717773,4272.307617,,,,,,,,,,,,,,,,,,,,,,,,,,,,,,,,,,,,,,,,,,,,,,,,,,,,,,,,,,,,,,,,,,,,,,
1720076192,112,0,4280.384766,4446.538574,4391.025879,4404.743652,4515.641113,4397.820313,4344.615234,4402.692383,4352.563965,4235.641113,4260.128418,4484.615234,4312.05127,4286.666504,14.895486,3.579064,1.012652,1.266574,0.576021,1.753261,1.274798,0.506276,0.155947,0.079777,3.062694,5.72754,1.302024,0.453496,0.10703,5.590395,5.804535,1.348139,0.789139,0.341975,30.74329,9.278734,3.883923,2.04124,1.428056,1.245888,0.544276,0.464934,0.175281,0.125355,2.465647,1.620789,1.785271,0.360674,0.16473,1.472998,1.157912,0.486246,0.081021,0.062601,2.767821,2.445704,0.5617,0.191305,0.100248,11.608944,2.283893,1.516612,0.741114,0.191634,3.645258,1.521961,1.543822,0.763856,0.43596,4.031571,4.337054,1.630719,0.298624,0.166779,2.5592,1.826991,0.487942,0.303096,0.195971,633.665039,266.040741,54.560268,43.970165,12.280458
1720076192,113,0,4282.179688,4443.846191,4387.820313,4407.05127,4507.05127,4406.666504,4345.128418,4407.820313,4354.487305,4242.05127,4262.179688,4483.846191,4313.077148,4298.205078,,,,,,,,,,,,,,,,,,,,,,,,,,,,,,,,,,,,,,,,,,,,,,,,,,,,,,,,,,,,,,,,,,,,,,
1720076192,114,0,4267.94873,4440.128418,4375.384766,4401.410156,4504.102539,4402.692383,4342.05127,4406.922852,4357.179688,4192.05127,4264.615234,4449.871582,4309.102539,4298.333496,,,,,,,,,,,,,,,,,,,,,,,,,,,,,,,,,,,,,,,,,,,,,,,,,,,,,,,,,,,,,,,,,,,,,,
1720076192,115,0,4261.410156,4436.410156,4366.153809,4380.512695,4509.102539,4390.769043,4334.358887,4401.153809,4358.205078,4132.563965,4276.153809,4417.05127,4313.717773,4306.538574,,,,,,,,,,,,,,,,,,,,,,,,,,,,,,,,,,,,,,,,,,,,,,,,,,,,,,,,,,,,,,,,,,,,,,
1720076192,116,0,4278.717773,4440.512695,4377.820313,4378.974121,4506.666504,4390.512695,4333.974121,4404.615234,4357.94873,4135,4291.922852,4432.436035,4323.589844,4320.897461,,,,,,,,,,,,,,,,,,,,,,,,,,,,,,,,,,,,,,,,,,,,,,,,,,,,,,,,,,,,,,,,,,,,,,
1720076192,117,0,4297.563965,4445.128418,4396.282227,4397.436035,4505.512695,4391.794922,4335.641113,4406.410156,4357.94873,4157.436035,4283.333496,4447.94873,4320,4321.410156,,,,,,,,,,,,,,,,,,,,,,,,,,,,,,,,,,,,,,,,,,,,,,,,,,,,,,,,,,,,,,,,,,,,,,
1720076192,118,0,4296.922852,4443.846191,4400.128418,4405.769043,4506.794922,4391.025879,4330.128418,4406.666504,4357.179688,4153.846191,4268.974121,4439.102539,4310.384766,4322.563965,,,,,,,,,,,,,,,,,,,,,,,,,,,,,,,,,,,,,,,,,,,,,,,,,,,,,,,,,,,,,,,,,,,,,,
1720076192,119,0,4287.563965,4443.846191,4396.025879,4399.487305,4507.05127,4394.102539,4324.230957,4407.179688,4354.487305,4154.102539,4268.974121,4435.769043,4311.794922,4323.461426,,,,,,,,,,,,,,,,,,,,,,,,,,,,,,,,,,,,,,,,,,,,,,,,,,,,,,,,,,,,,,,,,,,,,,
1720076192,120,0,4283.461426,4445,4393.333496,4390.641113,4508.589844,4393.846191,4324.615234,4402.179688,4350.256348,4155.128418,4265.769043,4431.410156,4313.717773,4308.461426,,,,,,,,,,,,,,,,,,,,,,,,,,,,,,,,,,,,,,,,,,,,,,,,,,,,,,,,,,,,,,,,,,,,,,
1720076192,121,0,4280.128418,4443.589844,4387.436035,4390.769043,4506.794922,4392.179688,4325.256348,4398.846191,4347.94873,4133.333496,4257.179688,4421.922852,4307.436035,4299.743652,,,,,,,,,,,,,,,,,,,,,,,,,,,,,,,,,,,,,,,,,,,,,,,,,,,,,,,,,,,,,,,,,,,,,,
1720076192,122,0,4276.025879,4443.077148,4380.512695,4400.384766,4504.487305,4397.94873,4324.871582,4405.256348,4351.282227,4118.846191,4262.05127,4427.94873,4304.743652,4313.461426,,,,,,,,,,,,,,,,,,,,,,,,,,,,,,,,,,,,,,,,,,,,,,,,,,,,,,,,,,,,,,,,,,,,,,
1720076192,123,0,4277.307617,4442.05127,4379.615234,4402.436035,4512.05127,4404.871582,4329.871582,4407.94873,4357.94873,4129.230957,4265.641113,4431.538574,4307.820313,4315,,,,,,,,,,,,,,,,,,,,,,,,,,,,,,,,,,,,,,,,,,,,,,,,,,,,,,,,,,,,,,,,,,,,,,
1720076192,124,0,4279.615234,4441.538574,4381.153809,4394.615234,4506.922852,4411.282227,4337.179688,4407.820313,4365.384766,4145.384766,4252.692383,4428.717773,4310.256348,4306.025879,,,,,,,,,,,,,,,,,,,,,,,,,,,,,,,,,,,,,,,,,,,,,,,,,,,,,,,,,,,,,,,,,,,,,,
1720076192,125,0,4271.153809,4444.743652,4377.307617,4385.769043,4482.307617,4408.717773,4338.461426,4413.077148,4371.025879,4152.94873,4244.487305,4430.128418,4311.153809,4308.974121,,,,,,,,,,,,,,,,,,,,,,,,,,,,,,,,,,,,,,,,,,,,,,,,,,,,,,,,,,,,,,,,,,,,,,
1720076192,126,0,4270.641113,4442.692383,4372.94873,4387.563965,4479.615234,4398.461426,4337.436035,4411.922852,4373.974121,4158.205078,4258.846191,4433.333496,4312.179688,4314.871582,,,,,,,,,,,,,,,,,,,,,,,,,,,,,,,,,,,,,,,,,,,,,,,,,,,,,,,,,,,,,,,,,,,,,,
1720076192,127,0,4290.256348,4443.333496,4383.077148,4406.794922,4503.077148,4404.487305,4342.692383,4413.205078,4384.358887,4172.94873,4280.256348,4447.820313,4319.743652,4322.94873,,,,,,,,,,,,,,,,,,,,,,,,,,,,,,,,,,,,,,,,,,,,,,,,,,,,,,,,,,,,,,,,,,,,,,
1720076192,0,0,4305,4455.512695,4396.025879,4416.025879,4514.871582,4417.820313,4347.692383,4419.230957,4395,4198.717773,4291.410156,4467.820313,4334.743652,4336.282227,12.352907,3.799164,1.008905,1.132586,0.47993,1.596952,1.158733,0.451917,0.137781,0.080097,3.330278,5.23384,1.282168,0.430327,0.105172,5.267727,4.971982,1.292565,0.862457,0.319218,40.237179,11.241721,4.901938,1.90743,1.52691,1.122749,0.551017,0.633706,0.17616,0.112737,2.40253,1.444058,2.143987,0.365532,0.193222,1.323992,1.146433,0.571718,0.085649,0.059189,2.55768,2.27352,0.67221,0.199725,0.098316,11.26028,2.501796,1.546094,0.791534,0.205399,4.117101,1.845912,1.860619,0.697321,0.411516,4.817289,4.664743,1.825466,0.276254,0.152193,2.763136,1.860258,0.699349,0.257839,0.191792,442.991547,164.894791,45.924461,31.991766,9.154593
1720076192,1,0,4306.794922,4461.025879,4396.153809,4410.897461,4507.05127,4418.717773,4345.256348,4416.922852,4394.615234,4204.358887,4298.589844,4470,4342.307617,4342.436035,,,,,,,,,,,,,,,,,,,,,,,,,,,,,,,,,,,,,,,,,,,,,,,,,,,,,,,,,,,,,,,,,,,,,,
1720076192,2,0,4309.871582,4457.05127,4396.538574,4415.769043,4505.897461,4419.102539,4343.077148,4415.256348,4391.538574,4180.256348,4295.769043,4467.179688,4336.666504,4337.05127,,,,,,,,,,,,,,,,,,,,,,,,,,,,,,,,,,,,,,,,,,,,,,,,,,,,,,,,,,,,,,,,,,,,,,
1720076192,3,0,4314.871582,4460.769043,4399.358887,4420.512695,4518.461426,4426.282227,4348.717773,4417.94873,4393.717773,4169.358887,4280.769043,4469.358887,4332.692383,4334.743652,,,,,,,,,,,,,,,,,,,,,,,,,,,,,,,,,,,,,,,,,,,,,,,,,,,,,,,,,,,,,,,,,,,,,,
1720076192,4,0,4312.307617,4462.820313,4394.358887,4410.897461,4523.077148,4430.512695,4349.102539,4414.743652,4392.563965,4179.358887,4270.384766,4462.05127,4332.436035,4330.128418,,,,,,,,,,,,,,,,,,,,,,,,,,,,,,,,,,,,,,,,,,,,,,,,,,,,,,,,,,,,,,,,,,,,,,
1720076192,5,0,4300.512695,4454.871582,4390.256348,4408.846191,4508.717773,4427.563965,4332.179688,4407.692383,4384.871582,4197.307617,4271.538574,4457.692383,4330.384766,4297.179688,,,,,,,,,,,,,,,,,,,,,,,,,,,,,,,,,,,,,,,,,,,,,,,,,,,,,,,,,,,,,,,,,,,,,,
1720076192,6,0,4283.333496,4452.692383,4397.820313,4420.128418,4494.230957,4423.077148,4336.922852,4406.282227,4384.871582,4221.922852,4273.461426,4470,4328.589844,4257.05127,,,,,,,,,,,,,,,,,,,,,,,,,,,,,,,,,,,,,,,,,,,,,,,,,,,,,,,,,,,,,,,,,,,,,,
1720076192,7,0,4280.769043,4461.410156,4404.358887,4417.563965,4494.358887,4423.205078,4330.256348,4407.692383,4389.871582,4238.974121,4276.153809,4478.846191,4327.820313,4253.077148,,,,,,,,,,,,,,,,,,,,,,,,,,,,,,,,,,,,,,,,,,,,,,,,,,,,,,,,,,,,,,,,,,,,,,
1720076192,8,0,4294.230957,4460.512695,4401.410156,4406.282227,4495,4426.666504,4237.179688,4412.94873,4388.974121,4242.94873,4281.666504,4474.871582,4328.333496,4269.871582,,,,,,,,,,,,,,,,,,,,,,,,,,,,,,,,,,,,,,,,,,,,,,,,,,,,,,,,,,,,,,,,,,,,,,
1720076192,9,0,4305,4449.102539,4398.974121,4406.666504,4490.512695,4427.820313,4152.307617,4419.615234,4391.410156,4248.717773,4278.717773,4474.358887,4332.436035,4268.461426,,,,,,,,,,,,,,,,,,,,,,,,,,,,,,,,,,,,,,,,,,,,,,,,,,,,,,,,,,,,,,,,,,,,,,
1720076192,10,0,4307.436035,4442.692383,4397.05127,4416.025879,4493.974121,4433.589844,4171.794922,4423.589844,4403.589844,4254.102539,4272.94873,4482.94873,4335.384766,4266.922852,,,,,,,,,,,,,,,,,,,,,,,,,,,,,,,,,,,,,,,,,,,,,,,,,,,,,,,,,,,,,,,,,,,,,,
1720076192,11,0,4302.692383,4442.94873,4382.820313,4413.846191,4493.461426,4441.922852,4209.358887,4424.358887,4415.256348,4254.358887,4279.102539,4478.589844,4327.820313,4271.666504,,,,,,,,,,,,,,,,,,,,,,,,,,,,,,,,,,,,,,,,,,,,,,,,,,,,,,,,,,,,,,,,,,,,,,
1720076192,12,0,4294.102539,4441.153809,4361.025879,4395.384766,4478.589844,4443.717773,4207.179688,4424.230957,4417.820313,4260.512695,4285.897461,4463.077148,4322.563965,4262.94873,,,,,,,,,,,,,,,,,,,,,,,,,,,,,,,,,,,,,,,,,,,,,,,,,,,,,,,,,,,,,,,,,,,,,,
1720076192,13,0,4291.153809,4441.410156,4354.358887,4387.307617,4469.615234,4445.512695,4213.205078,4428.974121,4416.538574,4258.205078,4267.307617,4459.102539,4328.846191,4256.538574,,,,,,,,,,,,,,,,,,,,,,,,,,,,,,,,,,,,,,,,,,,,,,,,,,,,,,,,,,,,,,,,,,,,,,
1720076192,14,0,4293.589844,4439.102539,4355.384766,4394.487305,4477.436035,4442.692383,4220.641113,4422.05127,4412.307617,4233.846191,4241.666504,4455.641113,4323.077148,4252.179688,,,,,,,,,,,,,,,,,,,,,,,,,,,,,,,,,,,,,,,,,,,,,,,,,,,,,,,,,,,,,,,,,,,,,,
1720076192,15,0,4295.897461,4433.077148,4350.897461,4397.179688,4480.128418,4431.666504,4212.307617,4406.666504,4408.077148,4213.461426,4244.615234,4447.05127,4310,4247.94873,,,,,,,,,,,,,,,,,,,,,,,,,,,,,,,,,,,,,,,,,,,,,,,,,,,,,,,,,,,,,,,,,,,,,,
1720076192,16,0,4313.974121,4437.179688,4355.641113,4394.871582,4474.358887,4428.589844,4212.94873,4406.922852,4407.692383,4218.205078,4265,4455.256348,4317.94873,4261.922852,10.512154,4.475642,1.159818,1.046795,0.41452,1.461461,0.992281,0.444814,0.141337,0.081289,3.48875,4.681995,1.474643,0.431082,0.114094,4.69353,3.979758,1.360126,0.931238,0.306196,45.633575,12.11762,5.524199,1.769546,1.54364,0.984305,0.699443,0.797264,0.171982,0.101212,2.55148,1.366496,2.568759,0.385304,0.229881,1.165321,1.105565,0.693878,0.093468,0.059143,2.157909,2.071689,0.851179,0.222539,0.101065,10.950957,3.226428,1.756599,0.922913,0.251911,4.326198,2.252795,2.467333,0.686645,0.412457,5.352684,4.981181,2.233631,0.302323,0.151435,2.740093,1.869069,1.055481,0.251083,0.203474,276.902527,91.675583,39.103416,22.182255,6.52058
1720076192,17,0,4334.615234,4448.333496,4368.846191,4397.94873,4478.846191,4433.717773,4214.615234,4406.922852,4410.769043,4235.512695,4270.256348,4468.205078,4330,4278.333496,,,,,,,,,,,,,,,,,,,,,,,,,,,,,,,,,,,,,,,,,,,,,,,,,,,,,,,,,,,,,,,,,,,,,,
1720076192,18,0,4331.666504,4448.333496,4372.692383,4396.153809,4481.153809,4426.666504,4212.436035,4398.333496,4410.897461,4241.794922,4262.307617,4469.615234,4323.589844,4303.205078,,,,,,,,,,,,,,,,,,,,,,,,,,,,,,,,,,,,,,,,,,,,,,,,,,,,,,,,,,,,,,,,,,,,,,
1720076192,19,0,4332.94873,4443.589844,4370.512695,4386.153809,4474.615234,4422.563965,4212.436035,4400.641113,4408.974121,4248.589844,4259.615234,4469.102539,4322.179688,4364.102539,,,,,,,,,,,,,,,,,,,,,,,,,,,,,,,,,,,,,,,,,,,,,,,,,,,,,,,,,,,,,,,,,,,,,,
1720076192,20,0,4352.94873,4445.897461,4369.743652,4378.461426,4479.743652,4434.615234,4216.153809,4406.794922,4416.025879,4269.871582,4264.358887,4470.769043,4331.538574,4422.94873,,,,,,,,,,,,,,,,,,,,,,,,,,,,,,,,,,,,,,,,,,,,,,,,,,,,,,,,,,,,,,,,,,,,,,
1720076193,21,0,4359.358887,4446.410156,4366.282227,4374.102539,4493.077148,4445.384766,4228.846191,4404.487305,4423.846191,4286.153809,4275.897461,4472.179688,4324.743652,4436.025879,,,,,,,,,,,,,,,,,,,,,,,,,,,,,,,,,,,,,,,,,,,,,,,,,,,,,,,,,,,,,,,,,,,,,,
1720076193,22,0,4347.692383,4436.282227,4358.333496,4371.282227,4496.666504,4450.641113,4244.358887,4408.846191,4421.538574,4291.025879,4279.230957,4472.94873,4310.384766,4431.538574,,,,,,,,,,,,,,,,,,,,,,,,,,,,,,,,,,,,,,,,,,,,,,,,,,,,,,,,,,,,,,,,,,,,,,
1720076193,23,0,4343.717773,4427.05127,4345.897461,4366.025879,4492.179688,4452.94873,4251.282227,4417.179688,4420.512695,4291.922852,4263.846191,4470.897461,4311.666504,4431.282227,,,,,,,,,,,,,,,,,,,,,,,,,,,,,,,,,,,,,,,,,,,,,,,,,,,,,,,,,,,,,,,,,,,,,,
1720076193,24,0,4342.307617,4425.641113,4340.128418,4362.436035,4486.794922,4449.615234,4250.128418,4416.025879,4428.333496,4290.641113,4255.128418,4467.563965,4317.692383,4424.615234,,,,,,,,,,,,,,,,,,,,,,,,,,,,,,,,,,,,,,,,,,,,,,,,,,,,,,,,,,,,,,,,,,,,,,
1720076193,25,0,4339.743652,4419.743652,4343.589844,4368.077148,4478.461426,4446.410156,4250.897461,4418.461426,4434.487305,4300,4265.384766,4469.743652,4316.282227,4424.615234,,,,,,,,,,,,,,,,,,,,,,,,,,,,,,,,,,,,,,,,,,,,,,,,,,,,,,,,,,,,,,,,,,,,,,
1720076193,26,0,4341.282227,4410.641113,4337.820313,4365,4477.94873,4443.205078,4251.538574,4423.461426,4435,4318.717773,4269.102539,4466.025879,4312.179688,4426.282227,,,,,,,,,,,,,,,,,,,,,,,,,,,,,,,,,,,,,,,,,,,,,,,,,,,,,,,,,,,,,,,,,,,,,,
1720076193,27,0,4328.717773,4409.615234,4325.384766,4348.717773,4469.743652,4441.410156,4248.974121,4420.256348,4429.358887,4321.538574,4260.256348,4455.897461,4305.641113,4418.333496,,,,,,,,,,,,,,,,,,,,,,,,,,,,,,,,,,,,,,,,,,,,,,,,,,,,,,,,,,,,,,,,,,,,,,
1720076193,28,0,4308.205078,4407.820313,4322.307617,4350.769043,4441.410156,4443.974121,4251.025879,4414.871582,4416.282227,4311.538574,4250.769043,4449.615234,4301.538574,4411.922852,,,,,,,,,,,,,,,,,,,,,,,,,,,,,,,,,,,,,,,,,,,,,,,,,,,,,,,,,,,,,,,,,,,,,,
1720076193,29,0,4304.743652,4403.461426,4322.563965,4371.538574,4434.102539,4441.153809,4249.743652,4407.94873,4407.436035,4312.179688,4235.512695,4443.846191,4303.333496,4406.922852,,,,,,,,,,,,,,,,,,,,,,,,,,,,,,,,,,,,,,,,,,,,,,,,,,,,,,,,,,,,,,,,,,,,,,
1720076193,30,0,4313.717773,4404.358887,4318.589844,4378.077148,4451.410156,4429.615234,4237.307617,4402.820313,4403.974121,4314.743652,4219.487305,4438.846191,4303.846191,4404.487305,,,,,,,,,,,,,,,,,,,,,,,,,,,,,,,,,,,,,,,,,,,,,,,,,,,,,,,,,,,,,,,,,,,,,,
1720076193,31,0,4315.641113,4406.282227,4321.538574,4366.153809,4452.692383,4424.230957,4229.358887,4403.077148,4398.461426,4308.205078,4222.307617,4442.179688,4302.05127,4405.769043,,,,,,,,,,,,,,,,,,,,,,,,,,,,,,,,,,,,,,,,,,,,,,,,,,,,,,,,,,,,,,,,,,,,,,
1720076193,32,0,4319.487305,4407.692383,4329.871582,4360.512695,4446.922852,4426.282227,4230.128418,4402.94873,4396.922852,4307.179688,4237.436035,4449.615234,4301.922852,4408.974121,9.519102,5.227716,1.423094,1.030527,0.376581,1.377216,0.817525,0.489602,0.171989,0.083216,3.39837,4.144225,1.896868,0.458755,0.131656,4.032136,3.087849,1.561598,0.983969,0.301399,45.048267,11.515015,5.540078,1.653258,1.465034,0.872862,0.958232,0.918015,0.162406,0.094675,2.972098,1.456935,2.921643,0.411408,0.269643,1.002831,1.013052,0.799006,0.100696,0.062222,1.66859,1.907022,1.076463,0.255193,0.10693,11.287663,4.425193,2.176039,1.162394,0.340265,4.273934,2.681438,3.239601,0.749073,0.436302,5.615302,5.213815,2.741412,0.39045,0.170798,2.519577,1.869326,1.483256,0.281368,0.230897,165.091095,52.054111,33.193611,15.564058,4.701896
1720076193,33,0,4329.230957,4408.077148,4332.820313,4373.077148,4458.333496,4426.153809,4232.05127,4401.153809,4402.820313,4315.256348,4239.358887,4448.333496,4302.94873,4407.05127,,,,,,,,,,,,,,,,,,,,,,,,,,,,,,,,,,,,,,,,,,,,,,,,,,,,,,,,,,,,,,,,,,,,,,
1720076193,34,0,4331.538574,4402.05127,4326.025879,4378.333496,4461.666504,4426.025879,4237.94873,4400,4407.307617,4299.487305,4228.717773,4440,4305.384766,4393.717773,,,,,,,,,,,,,,,,,,,,,,,,,,,,,,,,,,,,,,,,,,,,,,,,,,,,,,,,,,,,,,,,,,,,,,
1720076193,35,0,4326.794922,4396.794922,4318.846191,4370.256348,4450,4431.410156,4250.512695,4403.717773,4408.205078,4258.077148,4227.179688,4441.666504,4309.358887,4380.512695,,,,,,,,,,,,,,,,,,,,,,,,,,,,,,,,,,,,,,,,,,,,,,,,,,,,,,,,,,,,,,,,,,,,,,
1720076193,36,0,4324.487305,4396.282227,4321.282227,4372.05127,4444.743652,4434.615234,4260.641113,4408.589844,4410.256348,4239.358887,4233.717773,4452.05127,4312.05127,4367.563965,,,,,,,,,,,,,,,,,,,,,,,,,,,,,,,,,,,,,,,,,,,,,,,,,,,,,,,,,,,,,,,,,,,,,,
1720076193,37,0,4338.077148,4393.077148,4322.179688,4369.743652,4443.333496,4433.077148,4265.512695,4407.563965,4412.820313,4261.153809,4233.974121,4449.743652,4306.922852,4361.153809,,,,,,,,,,,,,,,,,,,,,,,,,,,,,,,,,,,,,,,,,,,,,,,,,,,,,,,,,,,,,,,,,,,,,,
1720076193,38,0,4333.846191,4388.461426,4316.025879,4355.769043,4443.333496,4439.487305,4268.461426,4405.512695,4420.384766,4288.846191,4236.153809,4443.461426,4302.820313,4371.153809,,,,,,,,,,,,,,,,,,,,,,,,,,,,,,,,,,,,,,,,,,,,,,,,,,,,,,,,,,,,,,,,,,,,,,
1720076193,39,0,4272.563965,4382.307617,4307.563965,4359.487305,4447.05127,4447.563965,4268.077148,4404.102539,4426.538574,4300.256348,4231.025879,4441.922852,4303.846191,4322.179688,,,,,,,,,,,,,,,,,,,,,,,,,,,,,,,,,,,,,,,,,,,,,,,,,,,,,,,,,,,,,,,,,,,,,,
1720076193,40,0,4215.512695,4374.102539,4298.205078,4364.871582,4441.794922,4437.563965,4264.358887,4393.717773,4417.05127,4300.384766,4214.871582,4428.717773,4301.538574,4205.128418,,,,,,,,,,,,,,,,,,,,,,,,,,,,,,,,,,,,,,,,,,,,,,,,,,,,,,,,,,,,,,,,,,,,,,
1720076193,41,0,4228.974121,4376.538574,4301.153809,4354.615234,4431.282227,4430.897461,4264.615234,4386.922852,4407.563965,4294.871582,4218.846191,4423.333496,4301.794922,4159.230957,,,,,,,,,,,,,,,,,,,,,,,,,,,,,,,,,,,,,,,,,,,,,,,,,,,,,,,,,,,,,,,,,,,,,,
1720076193,42,0,4263.846191,4387.05127,4319.615234,4370,4435.769043,4438.974121,4268.205078,4392.436035,4412.179688,4298.974121,4229.358887,4437.179688,4308.333496,4200.641113,,,,,,,,,,,,,,,,,,,,,,,,,,,,,,,,,,,,,,,,,,,,,,,,,,,,,,,,,,,,,,,,,,,,,,
1720076193,43,0,4265.256348,4385.512695,4322.94873,4387.94873,4432.307617,4435.897461,4267.436035,4393.077148,4409.743652,4307.436035,4222.05127,4440.384766,4308.077148,4213.333496,,,,,,,,,,,,,,,,,,,,,,,,,,,,,,,,,,,,,,,,,,,,,,,,,,,,,,,,,,,,,,,,,,,,,,
1720076193,44,0,4255.769043,4374.358887,4308.077148,4363.846191,4406.153809,4424.230957,4270.256348,4392.307617,4397.307617,4306.410156,4221.666504,4435.512695,4305.512695,4201.025879,,,,,,,,,,,,,,,,,,,,,,,,,,,,,,,,,,,,,,,,,,,,,,,,,,,,,,,,,,,,,,,,,,,,,,
1720076193,45,0,4261.410156,4372.307617,4306.538574,4351.410156,4406.666504,4425.769043,4279.487305,4394.871582,4399.615234,4303.974121,4229.743652,4440.641113,4306.666504,4213.974121,,,,,,,,,,,,,,,,,,,,,,,,,,,,,,,,,,,,,,,,,,,,,,,,,,,,,,,,,,,,,,,,,,,,,,
1720076193,46,0,4274.743652,4375.384766,4313.717773,4373.461426,4430.641113,4432.820313,4283.077148,4395.769043,4410.256348,4308.461426,4226.538574,4442.94873,4305.384766,4224.358887,,,,,,,,,,,,,,,,,,,,,,,,,,,,,,,,,,,,,,,,,,,,,,,,,,,,,,,,,,,,,,,,,,,,,,
1720076193,47,0,4278.974121,4372.307617,4311.666504,4376.922852,4430.512695,4430,4287.307617,4398.589844,4411.794922,4317.436035,4226.025879,4438.333496,4306.666504,4225.128418,,,,,,,,,,,,,,,,,,,,,,,,,,,,,,,,,,,,,,,,,,,,,,,,,,,,,,,,,,,,,,,,,,,,,,
1720076193,48,0,4279.102539,4373.077148,4313.846191,4369.358887,4428.205078,4426.282227,4300.641113,4404.358887,4411.538574,4324.615234,4236.282227,4444.871582,4313.846191,4232.94873,9.332135,5.859968,1.710505,1.074902,0.36716,1.371126,0.685806,0.561094,0.220616,0.085637,3.137933,3.708843,2.464015,0.507348,0.152641,3.546087,2.498952,1.821502,1.005818,0.302095,38.492104,9.553753,4.965818,1.552841,1.308159,0.815739,1.261109,0.978496,0.148963,0.09481,4.277272,1.799808,3.208894,0.496382,0.319329,0.848722,0.892786,0.843904,0.104863,0.066731,1.355552,1.853946,1.299241,0.287158,0.112812,13.333108,5.956849,2.782469,1.514037,0.465285,4.151825,3.038418,3.949062,0.869848,0.471547,5.919651,5.259952,3.17603,0.535225,0.207945,2.345077,1.865874,1.865398,0.33104,0.266335,108.141228,35.833748,26.82091,11.540831,3.600194
1720076193,49,0,4298.589844,4383.589844,4325.512695,4383.717773,4446.666504,4428.717773,4311.922852,4404.230957,4415.128418,4331.025879,4244.615234,4459.230957,4319.358887,4248.077148,,,,,,,,,,,,,,,,,,,,,,,,,,,,,,,,,,,,,,,,,,,,,,,,,,,,,,,,,,,,,,,,,,,,,,
1720076193,50,0,4318.717773,4386.282227,4338.974121,4391.794922,4453.077148,4433.333496,4310.769043,4401.794922,4415,4339.743652,4246.153809,4462.307617,4323.589844,4256.025879,,,,,,,,,,,,,,,,,,,,,,,,,,,,,,,,,,,,,,,,,,,,,,,,,,,,,,,,,,,,,,,,,,,,,,
1720076193,51,0,4310,4377.179688,4333.846191,4381.153809,4438.846191,4433.974121,4303.077148,4397.179688,4407.307617,4337.05127,4237.307617,4448.461426,4318.333496,4242.436035,,,,,,,,,,,,,,,,,,,,,,,,,,,,,,,,,,,,,,,,,,,,,,,,,,,,,,,,,,,,,,,,,,,,,,
1720076193,52,0,4292.307617,4366.282227,4271.282227,4369.230957,4428.846191,4423.717773,4293.205078,4380.897461,4392.307617,4300,4218.974121,4425.384766,4296.410156,4225.128418,,,,,,,,,,,,,,,,,,,,,,,,,,,,,,,,,,,,,,,,,,,,,,,,,,,,,,,,,,,,,,,,,,,,,,
1720076193,53,0,4289.230957,4356.922852,4182.820313,4349.743652,4430.512695,4410.128418,4284.743652,4369.615234,4377.436035,4246.025879,4194.358887,4405.641113,4280.897461,4216.666504,,,,,,,,,,,,,,,,,,,,,,,,,,,,,,,,,,,,,,,,,,,,,,,,,,,,,,,,,,,,,,,,,,,,,,
1720076193,54,0,4291.153809,4357.307617,4155.128418,4335.384766,4432.179688,4410.384766,4288.846191,4369.102539,4382.179688,4223.974121,4182.436035,4406.282227,4288.974121,4217.94873,,,,,,,,,,,,,,,,,,,,,,,,,,,,,,,,,,,,,,,,,,,,,,,,,,,,,,,,,,,,,,,,,,,,,,
1720076193,55,0,4297.179688,4372.05127,4187.820313,4361.025879,4424.102539,4424.358887,4305.769043,4368.974121,4405,4245.769043,4208.333496,4429.358887,4304.743652,4237.563965,,,,,,,,,,,,,,,,,,,,,,,,,,,,,,,,,,,,,,,,,,,,,,,,,,,,,,,,,,,,,,,,,,,,,,
1720076193,56,0,4305.512695,4382.436035,4200.769043,4393.589844,4437.820313,4429.230957,4315.769043,4371.153809,4420.384766,4291.025879,4237.94873,4448.589844,4313.717773,4258.717773,,,,,,,,,,,,,,,,,,,,,,,,,,,,,,,,,,,,,,,,,,,,,,,,,,,,,,,,,,,,,,,,,,,,,,
1720076193,57,0,4306.794922,4381.538574,4182.436035,4389.615234,4443.205078,4425.256348,4311.666504,4373.205078,4420.128418,4329.871582,4235.769043,4447.820313,4308.333496,4256.666504,,,,,,,,,,,,,,,,,,,,,,,,,,,,,,,,,,,,,,,,,,,,,,,,,,,,,,,,,,,,,,,,,,,,,,
1720076193,58,0,4317.05127,4380.256348,4176.153809,4382.820313,4380.512695,4426.538574,4310,4369.358887,4414.102539,4342.307617,4228.589844,4442.563965,4296.922852,4248.846191,,,,,,,,,,,,,,,,,,,,,,,,,,,,,,,,,,,,,,,,,,,,,,,,,,,,,,,,,,,,,,,,,,,,,,
1720076193,59,0,4324.743652,4380.769043,4187.05127,4391.153809,4310.256348,4429.743652,4317.179688,4365.897461,4414.230957,4340.769043,4230.512695,4447.436035,4301.410156,4258.333496,,,,,,,,,,,,,,,,,,,,,,,,,,,,,,,,,,,,,,,,,,,,,,,,,,,,,,,,,,,,,,,,,,,,,,
1720076193,60,0,4290.128418,4380.512695,4199.487305,4393.974121,4295.769043,4427.820313,4320.641113,4365.512695,4417.563965,4345.769043,4224.743652,4447.94873,4311.153809,4270.512695,,,,,,,,,,,,,,,,,,,,,,,,,,,,,,,,,,,,,,,,,,,,,,,,,,,,,,,,,,,,,,,,,,,,,,
1720076193,61,0,4243.717773,4378.333496,4201.794922,4388.974121,4322.94873,4422.692383,4316.666504,4360.256348,4411.666504,4343.589844,4216.153809,4439.230957,4303.333496,4266.922852,,,,,,,,,,,,,,,,,,,,,,,,,,,,,,,,,,,,,,,,,,,,,,,,,,,,,,,,,,,,,,,,,,,,,,
1720076193,62,0,4239.230957,4373.205078,4198.846191,4381.153809,4374.230957,4425.384766,4311.538574,4354.743652,4401.025879,4331.025879,4215.384766,4435.641113,4290.128418,4245.641113,,,,,,,,,,,,,,,,,,,,,,,,,,,,,,,,,,,,,,,,,,,,,,,,,,,,,,,,,,,,,,,,,,,,,,
1720076193,63,0,4251.538574,4369.102539,4199.871582,4375,4422.692383,4427.692383,4314.487305,4353.077148,4400,4327.307617,4217.94873,4437.179688,4290.128418,4222.307617,,,,,,,,,,,,,,,,,,,,,,,,,,,,,,,,,,,,,,,,,,,,,,,,,,,,,,,,,,,,,,,,,,,,,,
1720076193,64,0,4251.410156,4369.487305,4205.256348,4380.512695,4427.94873,4412.307617,4322.05127,4354.743652,4402.692383,4327.179688,4215.769043,4438.589844,4294.487305,4199.743652,9.510595,6.38894,1.939049,1.164083,0.380272,1.433897,0.635955,0.615266,0.268168,0.088452,2.874015,3.45338,3.003417,0.560619,0.170685,3.347931,2.253091,2.036355,0.989161,0.308175,28.255487,6.933613,4.047143,1.45344,1.11328,0.819011,1.528169,0.974393,0.13606,0.100761,6.949896,2.469384,3.537206,0.712104,0.392475,0.690382,0.813639,0.810669,0.104398,0.070649,1.248706,1.931975,1.435165,0.306548,0.115354,16.886187,7.549366,3.519027,1.954988,0.603145,3.988844,3.261615,4.360147,1.011769,0.503105,6.339257,5.057754,3.383881,0.706329,0.251565,2.212752,1.85223,2.083957,0.374774,0.297387,85.593872,29.071531,19.824755,8.86204,2.910347
1720076193,65,0,4244.743652,4366.410156,4205.384766,4380.128418,4415.384766,4391.538574,4325.128418,4355.512695,4402.820313,4322.94873,4205,4433.974121,4294.358887,4160.128418,,,,,,,,,,,,,,,,,,,,,,,,,,,,,,,,,,,,,,,,,,,,,,,,,,,,,,,,,,,,,,,,,,,,,,
1720076193,66,0,4235.512695,4360,4196.153809,4361.794922,4416.410156,4387.05127,4326.922852,4355.769043,4407.94873,4324.487305,4195.641113,4428.717773,4288.717773,4127.692383,,,,,,,,,,,,,,,,,,,,,,,,,,,,,,,,,,,,,,,,,,,,,,,,,,,,,,,,,,,,,,,,,,,,,,
1720076193,67,0,4235.641113,4356.153809,4192.436035,4358.974121,4412.94873,4390.384766,4328.205078,4361.153809,4412.820313,4327.820313,4202.436035,4429.102539,4279.487305,4133.846191,,,,,,,,,,,,,,,,,,,,,,,,,,,,,,,,,,,,,,,,,,,,,,,,,,,,,,,,,,,,,,,,,,,,,,
1720076193,68,0,4244.230957,4353.461426,4195.512695,4366.538574,4412.692383,4383.717773,4328.461426,4364.743652,4412.179688,4324.743652,4216.538574,4427.94873,4276.282227,4145.512695,,,,,,,,,,,,,,,,,,,,,,,,,,,,,,,,,,,,,,,,,,,,,,,,,,,,,,,,,,,,,,,,,,,,,,
1720076193,69,0,4245.384766,4354.615234,4200.128418,4363.589844,4412.563965,4381.794922,4332.05127,4363.974121,4411.410156,4321.538574,4219.102539,4427.307617,4280.897461,4144.102539,,,,,,,,,,,,,,,,,,,,,,,,,,,,,,,,,,,,,,,,,,,,,,,,,,,,,,,,,,,,,,,,,,,,,,
1720076193,70,0,4242.820313,4359.102539,4207.94873,4367.820313,4405.512695,4386.153809,4338.077148,4360.897461,4407.94873,4322.692383,4208.846191,4428.077148,4289.230957,4146.025879,,,,,,,,,,,,,,,,,,,,,,,,,,,,,,,,,,,,,,,,,,,,,,,,,,,,,,,,,,,,,,,,,,,,,,
1720076193,71,0,4251.538574,4358.846191,4216.025879,4369.102539,4402.94873,4381.794922,4337.307617,4355.897461,4402.05127,4321.794922,4198.717773,4427.05127,4288.974121,4141.666504,,,,,,,,,,,,,,,,,,,,,,,,,,,,,,,,,,,,,,,,,,,,,,,,,,,,,,,,,,,,,,,,,,,,,,
1720076193,72,0,4266.922852,4355,4216.153809,4355.256348,4406.025879,4377.692383,4333.589844,4354.358887,4397.307617,4314.487305,4198.461426,4429.102539,4283.846191,4127.94873,,,,,,,,,,,,,,,,,,,,,,,,,,,,,,,,,,,,,,,,,,,,,,,,,,,,,,,,,,,,,,,,,,,,,,
1720076193,73,0,4270.769043,4354.102539,4214.230957,4353.717773,4405,4379.743652,4333.846191,4353.717773,4390.641113,4308.077148,4201.538574,4428.461426,4287.692383,4120.641113,,,,,,,,,,,,,,,,,,,,,,,,,,,,,,,,,,,,,,,,,,,,,,,,,,,,,,,,,,,,,,,,,,,,,,
1720076193,74,0,4270.256348,4355.384766,4219.615234,4370.897461,4397.94873,4381.538574,4332.820313,4347.563965,4383.846191,4310,4201.153809,4421.794922,4295.897461,4123.461426,,,,,,,,,,,,,,,,,,,,,,,,,,,,,,,,,,,,,,,,,,,,,,,,,,,,,,,,,,,,,,,,,,,,,,
1720076193,75,0,4281.410156,4351.794922,4221.282227,4370.256348,4402.05127,4379.358887,4327.94873,4343.077148,4382.563965,4298.846191,4193.717773,4413.077148,4294.871582,4123.589844,,,,,,,,,,,,,,,,,,,,,,,,,,,,,,,,,,,,,,,,,,,,,,,,,,,,,,,,,,,,,,,,,,,,,,
1720076193,76,0,4292.436035,4343.974121,4212.307617,4355.128418,4396.794922,4376.025879,4323.333496,4346.794922,4381.025879,4269.102539,4179.487305,4403.589844,4283.205078,4117.05127,,,,,,,,,,,,,,,,,,,,,,,,,,,,,,,,,,,,,,,,,,,,,,,,,,,,,,,,,,,,,,,,,,,,,,
1720076193,77,0,4290.897461,4337.820313,4204.743652,4351.922852,4372.820313,4375,4326.538574,4352.05127,4378.717773,4255.897461,4174.102539,4398.205078,4280.256348,4114.743652,,,,,,,,,,,,,,,,,,,,,,,,,,,,,,,,,,,,,,,,,,,,,,,,,,,,,,,,,,,,,,,,,,,,,,
1720076193,78,0,4289.102539,4331.922852,4202.692383,4345.384766,4369.230957,4379.743652,4335.769043,4357.94873,4383.846191,4268.717773,4181.666504,4398.461426,4286.794922,4117.94873,,,,,,,,,,,,,,,,,,,,,,,,,,,,,,,,,,,,,,,,,,,,,,,,,,,,,,,,,,,,,,,,,,,,,,
1720076193,79,0,4291.153809,4327.820313,4200,4338.846191,4381.410156,4377.692383,4336.153809,4361.794922,4387.436035,4285.769043,4186.410156,4396.282227,4287.692383,4114.871582,,,,,,,,,,,,,,,,,,,,,,,,,,,,,,,,,,,,,,,,,,,,,,,,,,,,,,,,,,,,,,,,,,,,,,
1720076193,80,0,4292.692383,4331.410156,4198.461426,4350,4381.794922,4363.461426,4326.410156,4356.794922,4380.128418,4294.743652,4175.384766,4387.820313,4285,4109.743652,9.772338,6.904089,2.089132,1.305221,0.410133,1.539216,0.680636,0.616763,0.2991,0.09187,2.932935,3.494688,3.372529,0.626217,0.187935,3.475895,2.23451,2.105118,0.940832,0.324268,17.684498,4.636503,3.136866,1.376271,0.927464,0.876026,1.707372,0.914627,0.128511,0.110254,11.41925,3.518087,4.038394,1.092275,0.494596,0.560643,0.852668,0.713711,0.101317,0.072756,1.325253,2.131898,1.428725,0.310948,0.113627,21.522852,8.847274,4.374267,2.432275,0.723349,3.895336,3.326005,4.347115,1.144192,0.518789,6.976037,4.628514,3.309261,0.868772,0.287539,2.254483,1.802571,2.0718,0.399867,0.312744,77.15612,25.595385,13.767473,6.787356,2.406055
1720076193,81,0,4296.538574,4333.205078,4198.974121,4352.94873,4380.384766,4361.025879,4323.461426,4355.128418,4372.05127,4296.025879,4160.128418,4384.871582,4284.615234,4113.205078,,,,,,,,,,,,,,,,,,,,,,,,,,,,,,,,,,,,,,,,,,,,,,,,,,,,,,,,,,,,,,,,,,,,,,
1720076193,82,0,4303.333496,4329.743652,4200.384766,4338.333496,4388.077148,4372.820313,4326.025879,4358.205078,4370.128418,4295.128418,4161.794922,4383.846191,4284.358887,4114.615234,,,,,,,,,,,,,,,,,,,,,,,,,,,,,,,,,,,,,,,,,,,,,,,,,,,,,,,,,,,,,,,,,,,,,,
1720076193,83,0,4315.769043,4333.846191,4207.94873,4344.871582,4392.820313,4381.410156,4325.128418,4356.025879,4370.641113,4291.410156,4172.692383,4385,4284.743652,4119.230957,,,,,,,,,,,,,,,,,,,,,,,,,,,,,,,,,,,,,,,,,,,,,,,,,,,,,,,,,,,,,,,,,,,,,,
1720076193,84,0,4330.512695,4340.384766,4219.230957,4363.333496,4394.102539,4382.179688,4329.487305,4353.205078,4369.358887,4282.05127,4174.102539,4391.922852,4289.230957,4134.487305,,,,,,,,,,,,,,,,,,,,,,,,,,,,,,,,,,,,,,,,,,,,,,,,,,,,,,,,,,,,,,,,,,,,,,
1720076193,85,0,4342.820313,4338.717773,4224.615234,4358.717773,4397.179688,4381.410156,4337.436035,4356.410156,4368.461426,4278.974121,4165,4392.307617,4287.436035,4136.922852,,,,,,,,,,,,,,,,,,,,,,,,,,,,,,,,,,,,,,,,,,,,,,,,,,,,,,,,,,,,,,,,,,,,,,
1720076193,86,0,4353.974121,4341.282227,4232.94873,4361.282227,4396.153809,4382.94873,4340.384766,4362.05127,4373.333496,4289.615234,4163.589844,4393.846191,4282.692383,4135.384766,,,,,,,,,,,,,,,,,,,,,,,,,,,,,,,,,,,,,,,,,,,,,,,,,,,,,,,,,,,,,,,,,,,,,,
1720076193,87,0,4361.410156,4343.205078,4251.794922,4376.410156,4396.025879,4388.205078,4342.94873,4363.717773,4384.487305,4303.717773,4178.333496,4408.205078,4291.153809,4157.94873,,,,,,,,,,,,,,,,,,,,,,,,,,,,,,,,,,,,,,,,,,,,,,,,,,,,,,,,,,,,,,,,,,,,,,
1720076193,88,0,4377.820313,4339.102539,4262.05127,4370.256348,4402.436035,4395.512695,4350.897461,4363.589844,4393.846191,4318.333496,4196.410156,4420.128418,4304.615234,4177.436035,,,,,,,,,,,,,,,,,,,,,,,,,,,,,,,,,,,,,,,,,,,,,,,,,,,,,,,,,,,,,,,,,,,,,,
1720076193,89,0,4380.641113,4326.025879,4257.05127,4360.128418,4413.205078,4397.94873,4357.692383,4367.563965,4396.794922,4330.256348,4200.256348,4417.436035,4310.256348,4171.922852,,,,,,,,,,,,,,,,,,,,,,,,,,,,,,,,,,,,,,,,,,,,,,,,,,,,,,,,,,,,,,,,,,,,,,
1720076193,90,0,4324.487305,4297.692383,4253.974121,4367.436035,4416.282227,4400.641113,4357.307617,4374.358887,4397.179688,4335.128418,4195.897461,4411.025879,4307.563965,4165.769043,,,,,,,,,,,,,,,,,,,,,,,,,,,,,,,,,,,,,,,,,,,,,,,,,,,,,,,,,,,,,,,,,,,,,,
1720076193,91,0,4262.05127,4278.974121,4259.230957,4375.128418,4408.461426,4410.512695,4357.94873,4376.410156,4401.153809,4340.641113,4195.384766,4407.94873,4303.333496,4166.538574,,,,,,,,,,,,,,,,,,,,,,,,,,,,,,,,,,,,,,,,,,,,,,,,,,,,,,,,,,,,,,,,,,,,,,
1720076193,92,0,4261.025879,4277.820313,4265.512695,4371.410156,4410.384766,4411.666504,4364.871582,4378.589844,4408.333496,4348.974121,4200.769043,4411.153809,4302.436035,4173.205078,,,,,,,,,,,,,,,,,,,,,,,,,,,,,,,,,,,,,,,,,,,,,,,,,,,,,,,,,,,,,,,,,,,,,,
1720076193,93,0,4279.743652,4268.846191,4263.974121,4372.436035,4416.922852,4391.666504,4371.410156,4379.743652,4413.333496,4357.563965,4210.384766,4419.230957,4304.487305,4188.846191,,,,,,,,,,,,,,,,,,,,,,,,,,,,,,,,,,,,,,,,,,,,,,,,,,,,,,,,,,,,,,,,,,,,,,
1720076193,94,0,4283.333496,4256.794922,4263.717773,4389.102539,4409.487305,4373.974121,4372.94873,4372.307617,4414.487305,4364.615234,4211.153809,4418.077148,4309.615234,4197.820313,,,,,,,,,,,,,,,,,,,,,,,,,,,,,,,,,,,,,,,,,,,,,,,,,,,,,,,,,,,,,,,,,,,,,,
1720076193,95,0,4296.538574,4264.102539,4270.641113,4404.743652,4404.615234,4378.846191,4372.179688,4372.05127,4407.820313,4360.641113,4203.461426,4418.846191,4315.641113,4199.102539,,,,,,,,,,,,,,,,,,,,,,,,,,,,,,,,,,,,,,,,,,,,,,,,,,,,,,,,,,,,,,,,,,,,,,
1720076193,96,0,4311.025879,4272.436035,4279.358887,4404.615234,4417.692383,4383.846191,4367.05127,4369.102539,4398.589844,4356.025879,4201.794922,4422.179688,4315.769043,4201.922852,10.631796,7.489635,2.183902,1.517125,0.457782,1.615218,0.804199,0.569659,0.311647,0.096297,3.757041,4.017259,3.604224,0.763354,0.223046,3.673874,2.288486,2.013088,0.882084,0.358886,10.030293,3.540624,2.654026,1.436934,0.791471,0.96236,1.792836,0.831073,0.131937,0.121422,17.061707,4.845957,4.736608,1.592496,0.613445,0.481472,1.040699,0.585974,0.098718,0.072767,1.455502,2.426704,1.306292,0.30618,0.110537,25.886108,9.563347,5.470654,2.886528,0.798444,3.799012,3.250046,3.955813,1.259051,0.516276,7.534839,4.049698,3.001362,0.998335,0.305753,2.300507,1.679952,1.845689,0.411141,0.309143,77.886932,24.700941,9.992849,5.302658,2.035364
1720076193,97,0,4317.94873,4273.077148,4288.717773,4400.641113,4428.717773,4378.846191,4363.077148,4356.025879,4395.897461,4363.077148,4201.794922,4416.794922,4310.512695,4203.589844,,,,,,,,,,,,,,,,,,,,,,,,,,,,,,,,,,,,,,,,,,,,,,,,,,,,,,,,,,,,,,,,,,,,,,
1720076193,98,0,4333.974121,4278.333496,4294.358887,4412.436035,4427.820313,4384.358887,4369.615234,4357.05127,4387.563965,4354.743652,4202.05127,4418.461426,4316.282227,4206.025879,,,,,,,,,,,,,,,,,,,,,,,,,,,,,,,,,,,,,,,,,,,,,,,,,,,,,,,,,,,,,,,,,,,,,,
1720076193,99,0,4346.025879,4281.025879,4297.436035,4425.512695,4426.025879,4389.102539,4374.871582,4361.025879,4371.922852,4327.05127,4202.820313,4423.589844,4324.102539,4210.641113,,,,,,,,,,,,,,,,,,,,,,,,,,,,,,,,,,,,,,,,,,,,,,,,,,,,,,,,,,,,,,,,,,,,,,
1720076193,100,0,4349.358887,4284.358887,4304.358887,4418.333496,4426.025879,4385.128418,4373.717773,4357.307617,4369.871582,4320.384766,4199.102539,4424.230957,4323.846191,4212.05127,,,,,,,,,,,,,,,,,,,,,,,,,,,,,,,,,,,,,,,,,,,,,,,,,,,,,,,,,,,,,,,,,,,,,,
1720076193,101,0,4357.179688,4289.487305,4313.717773,4406.538574,4434.230957,4390.897461,4376.538574,4359.487305,4383.205078,4339.615234,4202.436035,4431.538574,4321.922852,4203.846191,,,,,,,,,,,,,,,,,,,,,,,,,,,,,,,,,,,,,,,,,,,,,,,,,,,,,,,,,,,,,,,,,,,,,,
1720076193,102,0,4361.410156,4289.871582,4315.128418,4411.922852,4441.922852,4399.487305,4385.256348,4364.230957,4393.205078,4350.128418,4213.717773,4438.205078,4320.769043,4195.641113,,,,,,,,,,,,,,,,,,,,,,,,,,,,,,,,,,,,,,,,,,,,,,,,,,,,,,,,,,,,,,,,,,,,,,
1720076193,103,0,4356.282227,4290,4311.153809,4421.538574,4433.717773,4401.282227,4393.846191,4364.615234,4395.769043,4351.922852,4212.307617,4435.384766,4321.410156,4200.512695,,,,,,,,,,,,,,,,,,,,,,,,,,,,,,,,,,,,,,,,,,,,,,,,,,,,,,,,,,,,,,,,,,,,,,
1720076193,104,0,4353.333496,4291.538574,4310.384766,4417.179688,4428.077148,4404.487305,4397.179688,4366.410156,4396.922852,4362.692383,4209.615234,4433.974121,4321.025879,4207.436035,,,,,,,,,,,,,,,,,,,,,,,,,,,,,,,,,,,,,,,,,,,,,,,,,,,,,,,,,,,,,,,,,,,,,,
1720076193,105,0,4355.769043,4293.333496,4310.384766,4413.974121,4434.102539,4407.94873,4396.794922,4364.743652,4401.922852,4372.692383,4218.717773,4430.897461,4323.974121,4201.410156,,,,,,,,,,,,,,,,,,,,,,,,,,,,,,,,,,,,,,,,,,,,,,,,,,,,,,,,,,,,,,,,,,,,,,
1720076193,106,0,4350.128418,4291.025879,4307.307617,4413.717773,4436.153809,4405.384766,4398.717773,4358.717773,4407.05127,4378.077148,4213.205078,4419.102539,4332.94873,4195.641113,,,,,,,,,,,,,,,,,,,,,,,,,,,,,,,,,,,,,,,,,,,,,,,,,,,,,,,,,,,,,,,,,,,,,,
1720076193,107,0,4343.333496,4285,4301.025879,4405.384766,4434.230957,4404.487305,4398.589844,4359.102539,4403.589844,4385.641113,4201.025879,4415.256348,4336.794922,4202.94873,,,,,,,,,,,,,,,,,,,,,,,,,,,,,,,,,,,,,,,,,,,,,,,,,,,,,,,,,,,,,,,,,,,,,,
1720076193,108,0,4352.692383,4283.974121,4297.563965,4394.358887,4431.666504,4399.487305,4390.384766,4354.743652,4397.307617,4385.256348,4206.410156,4414.871582,4326.666504,4208.461426,,,,,,,,,,,,,,,,,,,,,,,,,,,,,,,,,,,,,,,,,,,,,,,,,,,,,,,,,,,,,,,,,,,,,,
1720076193,109,0,4365,4293.205078,4302.05127,4387.179688,4425.769043,4393.461426,4386.538574,4348.589844,4395.512695,4385.384766,4209.871582,4411.410156,4318.333496,4205.769043,,,,,,,,,,,,,,,,,,,,,,,,,,,,,,,,,,,,,,,,,,,,,,,,,,,,,,,,,,,,,,,,,,,,,,
1720076193,110,0,4365.897461,4299.230957,4308.461426,4386.410156,4431.410156,4401.025879,4390.641113,4355.256348,4395.897461,4398.846191,4202.692383,4412.307617,4322.179688,4207.05127,,,,,,,,,,,,,,,,,,,,,,,,,,,,,,,,,,,,,,,,,,,,,,,,,,,,,,,,,,,,,,,,,,,,,,
1720076193,111,0,4364.358887,4292.692383,4305.384766,4370.769043,4434.102539,4408.077148,4387.436035,4359.487305,4392.692383,4403.717773,4197.307617,4408.077148,4315.512695,4212.436035,,,,,,,,,,,,,,,,,,,,,,,,,,,,,,,,,,,,,,,,,,,,,,,,,,,,,,,,,,,,,,,,,,,,,,
1720076193,112,0,4370,4293.717773,4309.615234,4352.563965,4420.384766,4409.102539,4386.410156,4356.410156,4389.743652,4396.282227,4200.512695,4409.743652,4308.974121,4222.179688,12.74498,8.192125,2.31476,1.813596,0.528952,1.622936,0.987229,0.501719,0.315071,0.101765,5.784704,5.180237,3.79929,1.035241,0.297675,3.735755,2.334597,1.82055,0.836995,0.417681,6.647666,4.047626,2.897292,1.764434,0.71852,1.063098,1.809237,0.750266,0.151442,0.134023,22.516108,6.140367,5.496887,2.088743,0.718619,0.496612,1.335959,0.470204,0.099411,0.071006,1.5157,2.738671,1.147667,0.303967,0.110469,28.762533,9.760485,6.932235,3.280423,0.814556,3.604042,3.092806,3.361972,1.367463,0.501979,7.694149,3.462378,2.580891,1.086337,0.303443,2.226197,1.48534,1.495615,0.422617,0.29303,86.449913,25.689283,8.211226,4.432309,1.768817
1720076193,113,0,4383.846191,4307.820313,4333.077148,4373.461426,4424.743652,4416.153809,4397.307617,4359.102539,4392.94873,4400.128418,4209.871582,4429.615234,4324.102539,4237.692383,,,,,,,,,,,,,,,,,,,,,,,,,,,,,,,,,,,,,,,,,,,,,,,,,,,,,,,,,,,,,,,,,,,,,,
1720076193,114,0,4400.128418,4315.256348,4346.153809,4404.102539,4444.871582,4418.846191,4405.512695,4363.205078,4396.410156,4401.153809,4217.563965,4439.487305,4339.487305,4250.641113,,,,,,,,,,,,,,,,,,,,,,,,,,,,,,,,,,,,,,,,,,,,,,,,,,,,,,,,,,,,,,,,,,,,,,
1720076193,115,0,4405.641113,4314.230957,4341.153809,4390.128418,4445.897461,4407.307617,4406.922852,4362.436035,4394.230957,4401.025879,4220.128418,4438.333496,4339.871582,4257.692383,,,,,,,,,,,,,,,,,,,,,,,,,,,,,,,,,,,,,,,,,,,,,,,,,,,,,,,,,,,,,,,,,,,,,,
1720076193,116,0,4413.589844,4317.820313,4345.384766,4366.794922,4439.358887,4404.230957,4411.025879,4363.846191,4394.615234,4414.230957,4227.94873,4453.205078,4341.794922,4263.589844,,,,,,,,,,,,,,,,,,,,,,,,,,,,,,,,,,,,,,,,,,,,,,,,,,,,,,,,,,,,,,,,,,,,,,
1720076193,117,0,4425.641113,4323.974121,4355.897461,4373.205078,4445.512695,4412.307617,4413.974121,4363.974121,4403.205078,4400.256348,4238.333496,4463.205078,4349.615234,4264.358887,,,,,,,,,,,,,,,,,,,,,,,,,,,,,,,,,,,,,,,,,,,,,,,,,,,,,,,,,,,,,,,,,,,,,,
1720076193,118,0,4376.410156,4321.538574,4355.128418,4375,4443.974121,4399.358887,4411.410156,4366.794922,4409.871582,4370.897461,4234.230957,4452.692383,4351.666504,4260.512695,,,,,,,,,,,,,,,,,,,,,,,,,,,,,,,,,,,,,,,,,,,,,,,,,,,,,,,,,,,,,,,,,,,,,,
1720076193,119,0,4282.563965,4318.717773,4351.922852,4369.487305,4435.256348,4373.717773,4413.205078,4373.589844,4415.384766,4385.769043,4230.384766,4445.512695,4343.333496,4264.230957,,,,,,,,,,,,,,,,,,,,,,,,,,,,,,,,,,,,,,,,,,,,,,,,,,,,,,,,,,,,,,,,,,,,,,
