Timestamp,EEG.Counter,EEG.Interpolated,EEG.AF3,EEG.F7,EEG.F3,EEG.FC5,EEG.T7,EEG.P7,EEG.O1,EEG.O2,EEG.P8,EEG.T8,EEG.FC6,EEG.F4,EEG.F8,EEG.AF4,POW.AF3.Theta,POW.AF3.Alpha,POW.AF3.BetaL,POW.AF3.BetaH,POW.AF3.Gamma,POW.F7.Theta,POW.F7.Alpha,POW.F7.BetaL,POW.F7.BetaH,POW.F7.Gamma,POW.F3.Theta,POW.F3.Alpha,POW.F3.BetaL,POW.F3.BetaH,POW.F3.Gamma,POW.FC5.Theta,POW.FC5.Alpha,POW.FC5.BetaL,POW.FC5.BetaH,POW.FC5.Gamma,POW.T7.Theta,POW.T7.Alpha,POW.T7.BetaL,POW.T7.BetaH,POW.T7.Gamma,POW.P7.Theta,POW.P7.Alpha,POW.P7.BetaL,POW.P7.BetaH,POW.P7.Gamma,POW.O1.Theta,POW.O1.Alpha,POW.O1.BetaL,POW.O1.BetaH,POW.O1.Gamma,POW.O2.Theta,POW.O2.Alpha,POW.O2.BetaL,POW.O2.BetaH,POW.O2.Gamma,POW.P8.Theta,POW.P8.Alpha,POW.P8.BetaL,POW.P8.BetaH,POW.P8.Gamma,POW.T8.Theta,POW.T8.Alpha,POW.T8.BetaL,POW.T8.BetaH,POW.T8.Gamma,POW.FC6.Theta,POW.FC6.Alpha,POW.FC6.BetaL,POW.FC6.BetaH,POW.FC6.Gamma,POW.F4.Theta,POW.F4.Alpha,POW.F4.BetaL,POW.F4.BetaH,POW.F4.Gamma,POW.F8.Theta,POW.F8.Alpha,POW.F8.BetaL,POW.F8.BetaH,POW.F8.Gamma,POW.AF4.Theta,POW.AF4.Alpha,POW.AF4.BetaL,POW.AF4.BetaH,POW.AF4.Gamma
1720159485,11,0,4317.179688,4311.410156,4302.563965,4315,4290.128418,4281.282227,4263.974121,4279.615234,4247.05127,4316.538574,4440.256348,4457.692383,4346.410156,4403.974121,,,,,,,,,,,,,,,,,,,,,,,,,,,,,,,,,,,,,,,,,,,,,,,,,,,,,,,,,,,,,,,,,,,,,,
1720159485,12,0,4314.743652,4321.153809,4314.230957,4327.692383,4292.307617,4286.666504,4270.512695,4283.205078,4239.615234,4314.615234,4449.615234,4471.666504,4354.487305,4392.05127,0.27515,0.86635,0.332153,0.439176,0.236339,0.935921,1.519618,0.568546,0.937613,0.089084,0.922274,3.718748,0.5786,1.516122,0.148286,0.380031,1.499548,0.434398,1.332381,0.257171,0.102051,0.084253,0.070399,0.034221,0.027179,0.634803,0.386776,0.350927,0.412422,0.069121,0.975613,2.302145,0.715389,1.417796,0.136848,0.433468,1.628349,0.705297,0.77098,0.135089,0.654172,2.58062,0.547824,0.953197,0.157598,0.949189,2.083426,0.200105,0.573376,0.055448,0.736087,3.860172,0.831173,1.321533,0.1583,1.126041,6.536837,1.073204,2.216593,0.288334,0.85331,3.701964,1.189165,1.974576,0.138754,0.492027,1.398853,0.337925,0.552081,1.048949
1720159485,13,0,4302.307617,4317.692383,4313.846191,4324.487305,4287.436035,4294.102539,4278.205078,4279.615234,4230.384766,4308.589844,4444.871582,4466.282227,4362.563965,4371.410156,,,,,,,,,,,,,,,,,,,,,,,,,,,,,,,,,,,,,,,,,,,,,,,,,,,,,,,,,,,,,,,,,,,,,,
1720159485,14,0,4318.974121,4310.512695,4318.461426,4323.077148,4287.307617,4294.743652,4281.666504,4281.794922,4232.692383,4310.769043,4445,4476.282227,4368.333496,4406.922852,,,,,,,,,,,,,,,,,,,,,,,,,,,,,,,,,,,,,,,,,,,,,,,,,,,,,,,,,,,,,,,,,,,,,,
1720159485,15,0,4317.436035,4311.410156,4313.717773,4325.256348,4292.820313,4291.794922,4275.641113,4273.589844,4232.436035,4316.538574,4446.794922,4481.410156,4367.94873,4398.205078,,,,,,,,,,,,,,,,,,,,,,,,,,,,,,,,,,,,,,,,,,,,,,,,,,,,,,,,,,,,,,,,,,,,,,
1720159485,16,0,4306.794922,4310.641113,4306.282227,4322.692383,4292.692383,4291.922852,4277.436035,4262.563965,4225.897461,4315.512695,4447.563965,4473.461426,4363.589844,4384.358887,,,,,,,,,,,,,,,,,,,,,,,,,,,,,,,,,,,,,,,,,,,,,,,,,,,,,,,,,,,,,,,,,,,,,,
1720159485,17,0,4309.487305,4307.307617,4307.692383,4324.743652,4290.512695,4290.769043,4278.461426,4265.128418,4225,4314.487305,4446.025879,4463.846191,4360.128418,4392.05127,,,,,,,,,,,,,,,,,,,,,,,,,,,,,,,,,,,,,,,,,,,,,,,,,,,,,,,,,,,,,,,,,,,,,,
1720159485,18,0,4311.410156,4306.282227,4306.410156,4320.128418,4288.077148,4283.589844,4267.820313,4266.025879,4230.897461,4318.461426,4441.666504,4456.794922,4358.717773,4386.025879,,,,,,,,,,,,,,,,,,,,,,,,,,,,,,,,,,,,,,,,,,,,,,,,,,,,,,,,,,,,,,,,,,,,,,
1720159485,19,0,4313.077148,4302.436035,4301.794922,4307.94873,4285.128418,4276.410156,4267.692383,4267.820313,4235.128418,4321.794922,4441.410156,4461.025879,4357.179688,4388.589844,,,,,,,,,,,,,,,,,,,,,,,,,,,,,,,,,,,,,,,,,,,,,,,,,,,,,,,,,,,,,,,,,,,,,,
1720159485,20,0,4312.820313,4302.563965,4295.641113,4310.769043,4281.922852,4279.743652,4271.922852,4271.666504,4233.205078,4318.589844,4441.410156,4459.871582,4356.282227,4385.384766,,,,,,,,,,,,,,,,,,,,,,,,,,,,,,,,,,,,,,,,,,,,,,,,,,,,,,,,,,,,,,,,,,,,,,
1720159486,21,0,4313.717773,4304.487305,4295.769043,4320.512695,4281.794922,4283.461426,4267.94873,4269.230957,4230.256348,4313.333496,4438.333496,4455.897461,4359.615234,4385.128418,,,,,,,,,,,,,,,,,,,,,,,,,,,,,,,,,,,,,,,,,,,,,,,,,,,,,,,,,,,,,,,,,,,,,,
1720159486,22,0,4315.897461,4300.384766,4307.692383,4322.05127,4284.487305,4281.153809,4265.641113,4266.538574,4231.025879,4314.358887,4435.769043,4462.94873,4362.94873,4397.820313,,,,,,,,,,,,,,,,,,,,,,,,,,,,,,,,,,,,,,,,,,,,,,,,,,,,,,,,,,,,,,,,,,,,,,
1720159486,23,0,4311.153809,4295.512695,4305.512695,4323.077148,4286.794922,4281.794922,4265.384766,4265.641113,4228.717773,4316.410156,4433.589844,4461.666504,4356.538574,4387.692383,,,,,,,,,,,,,,,,,,,,,,,,,,,,,,,,,,,,,,,,,,,,,,,,,,,,,,,,,,,,,,,,,,,,,,
1720159486,24,0,4306.666504,4295.897461,4292.179688,4318.589844,4290.256348,4290,4263.717773,4260.256348,4223.974121,4314.358887,4428.333496,4447.563965,4347.436035,4373.717773,,,,,,,,,,,,,,,,,,,,,,,,,,,,,,,,,,,,,,,,,,,,,,,,,,,,,,,,,,,,,,,,,,,,,,
1720159486,25,0,4314.743652,4295,4299.743652,4310.128418,4292.436035,4296.410156,4273.077148,4266.153809,4228.333496,4314.487305,4425.641113,4450.769043,4343.077148,4396.666504,,,,,,,,,,,,,,,,,,,,,,,,,,,,,,,,,,,,,,,,,,,,,,,,,,,,,,,,,,,,,,,,,,,,,,
1720159486,26,0,4306.153809,4290.128418,4304.871582,4314.358887,4284.871582,4291.666504,4280.512695,4272.05127,4230,4313.461426,4426.153809,4456.153809,4340.256348,4382.563965,,,,,,,,,,,,,,,,,,,,,,,,,,,,,,,,,,,,,,,,,,,,,,,,,,,,,,,,,,,,,,,,,,,,,,
1720159486,27,0,4303.974121,4293.589844,4303.846191,4325.384766,4278.461426,4281.153809,4275.256348,4264.615234,4220,4311.410156,4430.256348,4458.205078,4345,4372.179688,,,,,,,,,,,,,,,,,,,,,,,,,,,,,,,,,,,,,,,,,,,,,,,,,,,,,,,,,,,,,,,,,,,,,,
1720159486,28,0,4329.487305,4302.436035,4326.282227,4327.563965,4285.256348,4277.820313,4277.179688,4270.256348,4219.743652,4320.384766,4445.897461,4484.358887,4359.743652,4411.538574,0.266204,0.85254,0.288921,0.406449,0.242484,1.015604,1.418474,0.560739,0.849416,0.101695,0.93728,3.586027,0.496484,1.451246,0.143997,0.377013,1.370084,0.439779,1.259554,0.265619,0.100291,0.078803,0.055689,0.034897,0.027134,0.637487,0.317995,0.30058,0.394399,0.067234,1.016871,2.216583,0.641634,1.676699,0.129189,0.438553,1.551841,0.619936,0.81655,0.141108,0.623653,2.061592,0.626756,0.861909,0.149047,0.885346,1.837596,0.218975,0.447176,0.056562,0.631367,3.57678,0.722533,1.180654,0.166247,1.06973,6.402826,0.921309,2.106276,0.292343,0.7961,3.421635,1.150083,1.666227,0.144408,0.508402,1.271107,0.279371,0.495642,1.049037
1720159486,29,0,4329.230957,4312.563965,4344.230957,4331.282227,4290.256348,4286.410156,4281.410156,4277.179688,4227.563965,4326.025879,4456.794922,4500.897461,4368.589844,4402.436035,,,,,,,,,,,,,,,,,,,,,,,,,,,,,,,,,,,,,,,,,,,,,,,,,,,,,,,,,,,,,,,,,,,,,,
1720159486,30,0,4323.205078,4313.846191,4341.410156,4340.641113,4290.256348,4290.641113,4282.436035,4275.512695,4226.025879,4318.589844,4453.461426,4494.358887,4365,4392.05127,,,,,,,,,,,,,,,,,,,,,,,,,,,,,,,,,,,,,,,,,,,,,,,,,,,,,,,,,,,,,,,,,,,,,,
1720159486,31,0,4327.563965,4301.794922,4330.641113,4330.128418,4293.717773,4282.436035,4278.077148,4273.205078,4224.487305,4317.563965,4441.666504,4482.179688,4355.641113,4403.589844,,,,,,,,,,,,,,,,,,,,,,,,,,,,,,,,,,,,,,,,,,,,,,,,,,,,,,,,,,,,,,,,,,,,,,
1720159486,32,0,4315.256348,4291.025879,4312.179688,4311.025879,4288.333496,4278.589844,4267.436035,4267.820313,4232.05127,4322.820313,4430.641113,4462.307617,4347.179688,4383.974121,,,,,,,,,,,,,,,,,,,,,,,,,,,,,,,,,,,,,,,,,,,,,,,,,,,,,,,,,,,,,,,,,,,,,,
1720159486,33,0,4310.128418,4291.538574,4302.94873,4318.589844,4280.128418,4281.410156,4268.077148,4269.743652,4236.153809,4325.769043,4431.282227,4456.538574,4346.922852,4382.94873,,,,,,,,,,,,,,,,,,,,,,,,,,,,,,,,,,,,,,,,,,,,,,,,,,,,,,,,,,,,,,,,,,,,,,
1720159486,34,0,4316.153809,4295.769043,4309.487305,4329.487305,4284.487305,4280.897461,4274.487305,4276.666504,4234.615234,4328.461426,4436.922852,4468.461426,4353.205078,4400.256348,,,,,,,,,,,,,,,,,,,,,,,,,,,,,,,,,,,,,,,,,,,,,,,,,,,,,,,,,,,,,,,,,,,,,,
1720159486,35,0,4307.820313,4295.512695,4310.641113,4322.692383,4292.179688,4282.820313,4272.05127,4269.743652,4233.333496,4326.922852,4438.589844,4470.256348,4357.563965,4382.05127,,,,,,,,,,,,,,,,,,,,,,,,,,,,,,,,,,,,,,,,,,,,,,,,,,,,,,,,,,,,,,,,,,,,,,
1720159486,36,0,4309.102539,4289.358887,4308.205078,4321.153809,4292.563965,4291.666504,4274.615234,4261.025879,4227.820313,4321.282227,4434.230957,4464.871582,4355.512695,4382.05127,,,,,,,,,,,,,,,,,,,,,,,,,,,,,,,,,,,,,,,,,,,,,,,,,,,,,,,,,,,,,,,,,,,,,,
1720159486,37,0,4322.692383,4282.179688,4305.641113,4320.128418,4291.410156,4294.487305,4282.436035,4268.461426,4222.436035,4317.692383,4427.179688,4463.333496,4347.307617,4405.512695,,,,,,,,,,,,,,,,,,,,,,,,,,,,,,,,,,,,,,,,,,,,,,,,,,,,,,,,,,,,,,,,,,,,,,
1720159486,38,0,4306.666504,4278.077148,4294.358887,4306.025879,4291.794922,4291.538574,4273.846191,4265.897461,4216.538574,4312.05127,4419.487305,4451.410156,4338.589844,4372.05127,,,,,,,,,,,,,,,,,,,,,,,,,,,,,,,,,,,,,,,,,,,,,,,,,,,,,,,,,,,,,,,,,,,,,,
1720159486,39,0,4300.128418,4276.922852,4294.615234,4307.179688,4290.641113,4292.05127,4266.666504,4256.666504,4213.461426,4312.820313,4422.563965,4450.897461,4339.230957,4369.230957,,,,,,,,,,,,,,,,,,,,,,,,,,,,,,,,,,,,,,,,,,,,,,,,,,,,,,,,,,,,,,,,,,,,,,
1720159486,40,0,4312.692383,4281.666504,4306.922852,4325.641113,4289.102539,4293.717773,4276.282227,4263.974121,4220.897461,4324.487305,4436.922852,4468.717773,4349.102539,4399.230957,,,,,,,,,,,,,,,,,,,,,,,,,,,,,,,,,,,,,,,,,,,,,,,,,,,,,,,,,,,,,,,,,,,,,,
1720159486,41,0,4312.692383,4294.871582,4314.871582,4329.743652,4288.589844,4291.025879,4279.615234,4275.256348,4233.846191,4329.615234,4442.94873,4479.743652,4358.205078,4388.717773,,,,,,,,,,,,,,,,,,,,,,,,,,,,,,,,,,,,,,,,,,,,,,,,,,,,,,,,,,,,,,,,,,,,,,
1720159486,42,0,4317.05127,4300.384766,4321.794922,4323.589844,4290.256348,4283.461426,4279.743652,4282.94873,4239.743652,4329.102539,4445.384766,4490.384766,4370.769043,4393.717773,,,,,,,,,,,,,,,,,,,,,,,,,,,,,,,,,,,,,,,,,,,,,,,,,,,,,,,,,,,,,,,,,,,,,,
1720159486,43,0,4315.897461,4290.897461,4318.974121,4328.589844,4292.94873,4282.563965,4284.743652,4281.794922,4234.487305,4330.897461,4449.871582,4494.102539,4382.436035,4399.743652,,,,,,,,,,,,,,,,,,,,,,,,,,,,,,,,,,,,,,,,,,,,,,,,,,,,,,,,,,,,,,,,,,,,,,
1720159486,44,0,4312.307617,4283.717773,4313.333496,4329.487305,4290.128418,4291.153809,4289.230957,4281.282227,4232.692383,4334.487305,4451.666504,4489.743652,4380.512695,4395.897461,0.244297,0.82333,0.245147,0.360067,0.251607,1.007609,1.350939,0.568413,0.742439,0.113858,0.930308,3.408228,0.450708,1.372361,0.145947,0.355006,1.28478,0.47481,1.159534,0.274424,0.096048,0.072418,0.043618,0.037095,0.027687,0.595399,0.284332,0.26393,0.38108,0.064434,1.001012,2.188267,0.578627,1.955136,0.121456,0.446832,1.506463,0.534476,0.907128,0.146019,0.588237,1.492077,0.67141,0.824788,0.132965,0.825851,1.492331,0.259289,0.345318,0.0577,0.526195,3.09438,0.612251,1.053699,0.182388,1.018282,5.990141,0.775965,2.032516,0.296262,0.793208,2.972301,1.119048,1.323931,0.144874,0.505213,1.087228,0.219453,0.433556,1.074054
1720159486,45,0,4313.205078,4281.153809,4312.692383,4315.769043,4283.333496,4292.563965,4283.974121,4279.743652,4231.153809,4330.128418,4445.769043,4481.282227,4363.974121,4392.820313,,,,,,,,,,,,,,,,,,,,,,,,,,,,,,,,,,,,,,,,,,,,,,,,,,,,,,,,,,,,,,,,,,,,,,
1720159486,46,0,4303.333496,4265.897461,4299.358887,4309.487305,4279.230957,4281.922852,4266.794922,4265.769043,4220.769043,4315.897461,4431.794922,4457.307617,4340.769043,4379.230957,,,,,,,,,,,,,,,,,,,,,,,,,,,,,,,,,,,,,,,,,,,,,,,,,,,,,,,,,,,,,,,,,,,,,,
1720159486,47,0,4292.307617,4244.102539,4279.615234,4304.230957,4278.461426,4274.615234,4255.512695,4255.384766,4212.179688,4309.487305,4419.358887,4440,4327.179688,4376.410156,,,,,,,,,,,,,,,,,,,,,,,,,,,,,,,,,,,,,,,,,,,,,,,,,,,,,,,,,,,,,,,,,,,,,,
1720159486,48,0,4291.538574,4242.563965,4277.307617,4291.794922,4278.077148,4276.153809,4259.358887,4258.717773,4214.230957,4314.102539,4418.461426,4447.05127,4331.794922,4379.743652,,,,,,,,,,,,,,,,,,,,,,,,,,,,,,,,,,,,,,,,,,,,,,,,,,,,,,,,,,,,,,,,,,,,,,
1720159486,49,0,4296.922852,4258.589844,4288.461426,4296.153809,4278.846191,4278.077148,4265.256348,4263.461426,4222.436035,4320.128418,4427.94873,4457.179688,4344.230957,4375.128418,,,,,,,,,,,,,,,,,,,,,,,,,,,,,,,,,,,,,,,,,,,,,,,,,,,,,,,,,,,,,,,,,,,,,,
1720159486,50,0,4300.128418,4266.282227,4295.641113,4309.102539,4280.897461,4277.692383,4262.820313,4263.205078,4223.461426,4324.743652,4432.820313,4458.077148,4346.025879,4380.128418,,,,,,,,,,,,,,,,,,,,,,,,,,,,,,,,,,,,,,,,,,,,,,,,,,,,,,,,,,,,,,,,,,,,,,
1720159486,51,0,4298.461426,4264.102539,4295.128418,4308.205078,4279.743652,4277.94873,4259.102539,4263.077148,4217.563965,4323.589844,4428.589844,4456.794922,4338.846191,4384.487305,,,,,,,,,,,,,,,,,,,,,,,,,,,,,,,,,,,,,,,,,,,,,,,,,,,,,,,,,,,,,,,,,,,,,,
1720159486,52,0,4297.692383,4266.025879,4289.615234,4310,4279.743652,4277.692383,4258.205078,4261.794922,4214.615234,4315.769043,4421.538574,4451.666504,4339.871582,4373.205078,,,,,,,,,,,,,,,,,,,,,,,,,,,,,,,,,,,,,,,,,,,,,,,,,,,,,,,,,,,,,,,,,,,,,,
1720159486,53,0,4314.102539,4273.077148,4296.666504,4325.897461,4285,4277.563965,4261.922852,4262.820313,4216.410156,4312.179688,4422.307617,4454.615234,4344.358887,4392.692383,,,,,,,,,,,,,,,,,,,,,,,,,,,,,,,,,,,,,,,,,,,,,,,,,,,,,,,,,,,,,,,,,,,,,,
1720159486,54,0,4310.897461,4278.333496,4304.871582,4325.897461,4290.256348,4280.384766,4267.179688,4266.282227,4215.256348,4315.128418,4426.922852,4460.769043,4341.794922,4391.410156,,,,,,,,,,,,,,,,,,,,,,,,,,,,,,,,,,,,,,,,,,,,,,,,,,,,,,,,,,,,,,,,,,,,,,
1720159486,55,0,4293.333496,4278.589844,4301.153809,4315.641113,4287.307617,4283.333496,4266.153809,4263.589844,4214.230957,4318.461426,4428.461426,4456.282227,4339.615234,4360.641113,,,,,,,,,,,,,,,,,,,,,,,,,,,,,,,,,,,,,,,,,,,,,,,,,,,,,,,,,,,,,,,,,,,,,,
1720159486,56,0,4313.333496,4275.897461,4304.230957,4317.436035,4282.692383,4278.846191,4267.692383,4267.179688,4219.615234,4323.974121,4434.743652,4464.358887,4346.538574,4387.307617,,,,,,,,,,,,,,,,,,,,,,,,,,,,,,,,,,,,,,,,,,,,,,,,,,,,,,,,,,,,,,,,,,,,,,
1720159486,57,0,4318.333496,4270.641113,4302.692383,4316.922852,4284.102539,4269.615234,4263.461426,4267.307617,4221.025879,4320.769043,4433.461426,4465.128418,4348.846191,4393.589844,,,,,,,,,,,,,,,,,,,,,,,,,,,,,,,,,,,,,,,,,,,,,,,,,,,,,,,,,,,,,,,,,,,,,,
1720159486,58,0,4301.666504,4264.487305,4293.461426,4309.102539,4285.256348,4263.205078,4249.615234,4258.205078,4218.333496,4313.077148,4420.128418,4442.179688,4342.05127,4369.743652,,,,,,,,,,,,,,,,,,,,,,,,,,,,,,,,,,,,,,,,,,,,,,,,,,,,,,,,,,,,,,,,,,,,,,
1720159486,59,0,4308.461426,4263.461426,4288.974121,4307.820313,4282.436035,4264.487305,4243.077148,4252.563965,4216.794922,4316.794922,4416.666504,4435.641113,4349.487305,4378.205078,,,,,,,,,,,,,,,,,,,,,,,,,,,,,,,,,,,,,,,,,,,,,,,,,,,,,,,,,,,,,,,,,,,,,,
1720159486,60,0,4310.384766,4260.128418,4284.230957,4308.333496,4279.871582,4272.179688,4246.410156,4249.743652,4214.743652,4318.461426,4423.846191,4442.94873,4355.512695,4377.563965,0.213562,0.801817,0.216298,0.318551,0.267711,0.919987,1.348744,0.601528,0.654645,0.123443,0.908064,3.292605,0.469897,1.316615,0.153965,0.318196,1.279291,0.53533,1.074275,0.283592,0.094378,0.065254,0.034507,0.043004,0.029661,0.534215,0.279108,0.250636,0.379423,0.061691,0.94447,2.185251,0.556867,2.175161,0.115976,0.468771,1.460186,0.50454,1.027926,0.149747,0.531742,1.0125,0.686845,0.855567,0.11598,0.828786,1.149824,0.306642,0.289058,0.059556,0.438422,2.590022,0.542677,0.971052,0.201077,0.982918,5.488893,0.726774,2.040546,0.30159,0.839489,2.513963,1.126716,1.050547,0.139201,0.479334,0.91338,0.174914,0.384392,1.129765
1720159486,61,0,4302.563965,4253.589844,4284.743652,4305.641113,4280,4276.794922,4254.871582,4254.487305,4214.102539,4313.077148,4426.153809,4445.641113,4342.307617,4378.077148,,,,,,,,,,,,,,,,,,,,,,,,,,,,,,,,,,,,,,,,,,,,,,,,,,,,,,,,,,,,,,,,,,,,,,
1720159486,62,0,4300.769043,4256.282227,4289.487305,4305.512695,4280.256348,4274.615234,4262.05127,4262.692383,4215.897461,4313.589844,4424.487305,4446.410156,4341.410156,4380.769043,,,,,,,,,,,,,,,,,,,,,,,,,,,,,,,,,,,,,,,,,,,,,,,,,,,,,,,,,,,,,,,,,,,,,,
1720159486,63,0,4305.512695,4262.692383,4295.128418,4306.794922,4281.666504,4274.487305,4263.077148,4263.717773,4221.666504,4321.153809,4427.563965,4454.743652,4362.820313,4380.897461,,,,,,,,,,,,,,,,,,,,,,,,,,,,,,,,,,,,,,,,,,,,,,,,,,,,,,,,,,,,,,,,,,,,,,
1720159486,64,0,4315.384766,4262.820313,4305.384766,4311.794922,4282.94873,4278.589844,4261.922852,4264.230957,4229.615234,4322.307617,4436.025879,4466.922852,4374.230957,4392.820313,,,,,,,,,,,,,,,,,,,,,,,,,,,,,,,,,,,,,,,,,,,,,,,,,,,,,,,,,,,,,,,,,,,,,,
1720159486,65,0,4321.538574,4265.897461,4308.717773,4321.410156,4281.794922,4279.743652,4262.820313,4268.333496,4228.717773,4317.436035,4445.641113,4469.230957,4362.563965,4396.794922,,,,,,,,,,,,,,,,,,,,,,,,,,,,,,,,,,,,,,,,,,,,,,,,,,,,,,,,,,,,,,,,,,,,,,
1720159486,66,0,4308.589844,4266.538574,4297.307617,4315.128418,4282.179688,4279.615234,4262.436035,4265.897461,4220.769043,4312.820313,4445.897461,4457.307617,4352.436035,4374.230957,,,,,,,,,,,,,,,,,,,,,,,,,,,,,,,,,,,,,,,,,,,,,,,,,,,,,,,,,,,,,,,,,,,,,,
1720159486,67,0,4309.358887,4259.743652,4302.179688,4307.563965,4283.333496,4279.487305,4261.794922,4262.05127,4218.717773,4312.563965,4438.846191,4456.282227,4359.358887,4393.077148,,,,,,,,,,,,,,,,,,,,,,,,,,,,,,,,,,,,,,,,,,,,,,,,,,,,,,,,,,,,,,,,,,,,,,
1720159486,68,0,4321.025879,4266.282227,4315.769043,4318.205078,4280.128418,4275.641113,4260.897461,4262.436035,4218.077148,4311.794922,4434.358887,4465,4363.205078,4412.94873,,,,,,,,,,,,,,,,,,,,,,,,,,,,,,,,,,,,,,,,,,,,,,,,,,,,,,,,,,,,,,,,,,,,,,
1720159486,69,0,4307.94873,4279.743652,4309.358887,4321.025879,4279.487305,4275.128418,4260.384766,4259.230957,4214.871582,4307.692383,4434.615234,4457.94873,4354.358887,4373.974121,,,,,,,,,,,,,,,,,,,,,,,,,,,,,,,,,,,,,,,,,,,,,,,,,,,,,,,,,,,,,,,,,,,,,,
1720159486,70,0,4307.692383,4273.846191,4304.358887,4311.410156,4287.820313,4277.820313,4266.282227,4263.846191,4217.563965,4310.256348,4439.871582,4457.692383,4353.717773,4383.589844,,,,,,,,,,,,,,,,,,,,,,,,,,,,,,,,,,,,,,,,,,,,,,,,,,,,,,,,,,,,,,,,,,,,,,
1720159486,71,0,4312.436035,4262.94873,4299.487305,4310,4288.589844,4276.538574,4266.153809,4263.077148,4217.307617,4309.230957,4435.897461,4454.871582,4355.256348,4398.846191,,,,,,,,,,,,,,,,,,,,,,,,,,,,,,,,,,,,,,,,,,,,,,,,,,,,,,,,,,,,,,,,,,,,,,
1720159486,72,0,4306.282227,4263.717773,4291.538574,4311.410156,4279.871582,4276.282227,4262.820313,4255.512695,4213.717773,4304.358887,4426.922852,4441.282227,4344.487305,4377.307617,,,,,,,,,,,,,,,,,,,,,,,,,,,,,,,,,,,,,,,,,,,,,,,,,,,,,,,,,,,,,,,,,,,,,,
1720159486,73,0,4308.333496,4261.922852,4295.897461,4308.974121,4278.589844,4278.077148,4266.794922,4263.589844,4217.820313,4308.077148,4430.641113,4446.538574,4345.128418,4384.358887,,,,,,,,,,,,,,,,,,,,,,,,,,,,,,,,,,,,,,,,,,,,,,,,,,,,,,,,,,,,,,,,,,,,,,
1720159486,74,0,4305.384766,4258.333496,4297.179688,4308.333496,4281.410156,4276.538574,4262.94873,4265.128418,4219.487305,4309.615234,4430.384766,4448.846191,4353.461426,4384.487305,,,,,,,,,,,,,,,,,,,,,,,,,,,,,,,,,,,,,,,,,,,,,,,,,,,,,,,,,,,,,,,,,,,,,,
1720159486,75,0,4305.897461,4260.512695,4293.846191,4310,4280.128418,4275.641113,4257.179688,4251.666504,4216.666504,4308.205078,4425.384766,4441.153809,4344.230957,4379.487305,,,,,,,,,,,,,,,,,,,,,,,,,,,,,,,,,,,,,,,,,,,,,,,,,,,,,,,,,,,,,,,,,,,,,,
1720159486,76,0,4313.717773,4261.538574,4296.153809,4309.871582,4279.615234,4274.615234,4257.563965,4248.717773,4215.769043,4308.974121,4432.692383,4443.461426,4336.282227,4385.128418,0.184643,0.804433,0.209024,0.294923,0.290605,0.798635,1.423127,0.649334,0.604971,0.129278,0.915654,3.323473,0.547866,1.297052,0.165535,0.284552,1.352992,0.598308,1.02309,0.292323,0.102367,0.061014,0.028151,0.055597,0.033597,0.489656,0.311539,0.258273,0.389592,0.061167,0.897285,2.179536,0.584338,2.250461,0.114329,0.510462,1.397288,0.559607,1.137249,0.152856,0.522978,0.703157,0.693053,0.930891,0.104209,0.804174,0.89157,0.346303,0.277907,0.062304,0.394395,2.228937,0.528081,0.940311,0.214128,0.991466,5.114893,0.800084,2.125119,0.306971,0.92354,2.200872,1.17332,0.910157,0.12902,0.438136,0.8064,0.153608,0.360505,1.20295
1720159486,77,0,4310.128418,4262.820313,4294.230957,4310,4279.871582,4268.333496,4254.102539,4249.871582,4215.384766,4308.974121,4438.077148,4444.487305,4344.615234,4380.512695,,,,,,,,,,,,,,,,,,,,,,,,,,,,,,,,,,,,,,,,,,,,,,,,,,,,,,,,,,,,,,,,,,,,,,
1720159486,78,0,4307.692383,4260.897461,4293.974121,4309.358887,4278.461426,4261.922852,4252.563965,4248.461426,4217.179688,4308.205078,4431.922852,4443.205078,4352.179688,4383.077148,,,,,,,,,,,,,,,,,,,,,,,,,,,,,,,,,,,,,,,,,,,,,,,,,,,,,,,,,,,,,,,,,,,,,,
1720159486,79,0,4316.538574,4251.538574,4301.922852,4305.897461,4279.358887,4259.871582,4258.846191,4258.717773,4220.641113,4310.641113,4429.358887,4455.769043,4354.230957,4397.179688,,,,,,,,,,,,,,,,,,,,,,,,,,,,,,,,,,,,,,,,,,,,,,,,,,,,,,,,,,,,,,,,,,,,,,
1720159486,80,0,4308.205078,4252.179688,4297.94873,4306.794922,4278.846191,4265.897461,4259.230957,4259.102539,4218.205078,4307.94873,4430.384766,4455.512695,4350.128418,4375.512695,,,,,,,,,,,,,,,,,,,,,,,,,,,,,,,,,,,,,,,,,,,,,,,,,,,,,,,,,,,,,,,,,,,,,,
1720159486,81,0,4306.666504,4264.102539,4298.461426,4311.025879,4278.333496,4275.256348,4259.871582,4251.025879,4213.974121,4304.743652,4429.871582,4447.179688,4343.846191,4381.282227,,,,,,,,,,,,,,,,,,,,,,,,,,,,,,,,,,,,,,,,,,,,,,,,,,,,,,,,,,,,,,,,,,,,,,
1720159486,82,0,4320.641113,4262.820313,4309.615234,4310.897461,4280.641113,4273.333496,4262.05127,4256.153809,4215.384766,4308.205078,4431.410156,4452.307617,4346.025879,4405.128418,,,,,,,,,,,,,,,,,,,,,,,,,,,,,,,,,,,,,,,,,,,,,,,,,,,,,,,,,,,,,,,,,,,,,,
1720159486,83,0,4309.230957,4257.94873,4301.282227,4309.358887,4280.897461,4265.384766,4250.128418,4251.922852,4216.025879,4305,4428.846191,4447.179688,4348.846191,4374.102539,,,,,,,,,,,,,,,,,,,,,,,,,,,,,,,,,,,,,,,,,,,,,,,,,,,,,,,,,,,,,,,,,,,,,,
1720159486,84,0,4302.179688,4262.307617,4294.230957,4313.846191,4279.871582,4265.512695,4247.05127,4247.563965,4216.153809,4300.769043,4427.563965,4447.307617,4348.077148,4379.487305,,,,,,,,,,,,,,,,,,,,,,,,,,,,,,,,,,,,,,,,,,,,,,,,,,,,,,,,,,,,,,,,,,,,,,
1720159486,85,0,4310.384766,4258.333496,4298.974121,4310.384766,4278.974121,4269.230957,4259.102539,4255.897461,4218.077148,4299.358887,4425.384766,4448.846191,4343.846191,4395.512695,,,,,,,,,,,,,,,,,,,,,,,,,,,,,,,,,,,,,,,,,,,,,,,,,,,,,,,,,,,,,,,,,,,,,,
1720159486,86,0,4310,4248.589844,4297.436035,4299.743652,4277.307617,4268.717773,4260.641113,4257.307617,4218.333496,4296.666504,4423.846191,4436.282227,4334.230957,4375.128418,,,,,,,,,,,,,,,,,,,,,,,,,,,,,,,,,,,,,,,,,,,,,,,,,,,,,,,,,,,,,,,,,,,,,,
1720159486,87,0,4288.205078,4249.743652,4300.512695,4300,4276.666504,4267.307617,4263.461426,4259.871582,4218.461426,4297.436035,4433.333496,4444.871582,4332.05127,4383.205078,,,,,,,,,,,,,,,,,,,,,,,,,,,,,,,,,,,,,,,,,,,,,,,,,,,,,,,,,,,,,,,,,,,,,,
1720159486,88,0,4246.666504,4260.641113,4311.153809,4306.282227,4277.436035,4265.897461,4267.436035,4263.205078,4217.05127,4297.563965,4433.461426,4463.589844,4338.205078,4391.025879,,,,,,,,,,,,,,,,,,,,,,,,,,,,,,,,,,,,,,,,,,,,,,,,,,,,,,,,,,,,,,,,,,,,,,
1720159486,89,0,4231.794922,4268.205078,4321.025879,4314.743652,4278.077148,4265.512695,4257.94873,4253.461426,4215.256348,4298.717773,4427.563965,4466.922852,4345.256348,4390,,,,,,,,,,,,,,,,,,,,,,,,,,,,,,,,,,,,,,,,,,,,,,,,,,,,,,,,,,,,,,,,,,,,,,
1720159486,90,0,4241.922852,4269.871582,4324.743652,4318.333496,4278.846191,4264.871582,4245.128418,4243.333496,4216.025879,4302.94873,4438.846191,4468.717773,4352.820313,4398.846191,,,,,,,,,,,,,,,,,,,,,,,,,,,,,,,,,,,,,,,,,,,,,,,,,,,,,,,,,,,,,,,,,,,,,,
1720159486,91,0,4235.384766,4266.410156,4317.179688,4313.846191,4278.846191,4266.025879,4245.256348,4244.615234,4218.461426,4302.436035,4444.615234,4465.641113,4352.563965,4393.589844,,,,,,,,,,,,,,,,,,,,,,,,,,,,,,,,,,,,,,,,,,,,,,,,,,,,,,,,,,,,,,,,,,,,,,
1720159486,92,0,4228.461426,4259.230957,4303.717773,4308.077148,4278.717773,4271.153809,4255.384766,4253.717773,4217.94873,4295,4431.410156,4453.077148,4339.743652,4384.743652,0.171402,0.838236,0.217855,0.291982,0.317105,0.681741,1.580686,0.69491,0.589805,0.132572,0.979197,3.51311,0.643236,1.301433,0.177424,0.268779,1.485512,0.641521,0.997218,0.299068,0.12146,0.066118,0.024287,0.076127,0.03919,0.459307,0.386018,0.277423,0.405397,0.064987,0.861852,2.144418,0.641339,2.13202,0.116399,0.549787,1.321663,0.678999,1.185515,0.155164,0.508832,0.559648,0.698507,0.998816,0.100462,0.758942,0.742532,0.365488,0.294656,0.065994,0.392652,2.079416,0.540966,0.946138,0.215022,1.033155,4.987373,0.948111,2.237708,0.309769,1.035462,2.094418,1.224159,0.905478,0.119473,0.389698,0.783528,0.150891,0.362683,1.271431
1720159486,93,0,4235.256348,4257.94873,4299.102539,4302.436035,4281.538574,4276.666504,4264.102539,4262.563965,4217.179688,4293.205078,4421.794922,4448.974121,4329.871582,4390.641113,,,,,,,,,,,,,,,,,,,,,,,,,,,,,,,,,,,,,,,,,,,,,,,,,,,,,,,,,,,,,,,,,,,,,,
1720159486,94,0,4230.641113,4261.794922,4299.615234,4303.589844,4281.025879,4277.94873,4267.307617,4264.230957,4224.102539,4293.461426,4422.563965,4451.794922,4328.717773,4376.538574,,,,,,,,,,,,,,,,,,,,,,,,,,,,,,,,,,,,,,,,,,,,,,,,,,,,,,,,,,,,,,,,,,,,,,
1720159486,95,0,4234.487305,4263.077148,4306.282227,4314.615234,4277.179688,4277.94873,4277.94873,4269.358887,4230.256348,4291.666504,4433.717773,4461.538574,4331.922852,4383.333496,,,,,,,,,,,,,,,,,,,,,,,,,,,,,,,,,,,,,,,,,,,,,,,,,,,,,,,,,,,,,,,,,,,,,,
1720159486,96,0,4248.974121,4262.179688,4324.102539,4323.333496,4279.871582,4278.589844,4293.974121,4278.589844,4227.307617,4295,4444.230957,4476.282227,4342.179688,4413.589844,,,,,,,,,,,,,,,,,,,,,,,,,,,,,,,,,,,,,,,,,,,,,,,,,,,,,,,,,,,,,,,,,,,,,,
1720159486,97,0,4238.461426,4266.538574,4323.333496,4318.589844,4282.179688,4278.974121,4285.256348,4265.384766,4217.820313,4296.153809,4433.461426,4462.692383,4343.205078,4380.512695,,,,,,,,,,,,,,,,,,,,,,,,,,,,,,,,,,,,,,,,,,,,,,,,,,,,,,,,,,,,,,,,,,,,,,
1720159486,98,0,4241.282227,4264.871582,4312.563965,4312.820313,4279.102539,4280.384766,4268.205078,4256.282227,4216.922852,4296.025879,4426.025879,4452.563965,4334.230957,4372.179688,,,,,,,,,,,,,,,,,,,,,,,,,,,,,,,,,,,,,,,,,,,,,,,,,,,,,,,,,,,,,,,,,,,,,,
1720159486,99,0,4248.077148,4253.717773,4309.102539,4304.487305,4276.794922,4275.769043,4263.205078,4262.179688,4224.871582,4299.102539,4431.410156,4466.025879,4335,4397.307617,,,,,,,,,,,,,,,,,,,,,,,,,,,,,,,,,,,,,,,,,,,,,,,,,,,,,,,,,,,,,,,,,,,,,,
1720159486,100,0,4231.666504,4252.436035,4304.871582,4301.282227,4276.282227,4266.666504,4254.358887,4253.717773,4223.333496,4296.922852,4425.897461,4456.794922,4338.077148,4379.102539,,,,,,,,,,,,,,,,,,,,,,,,,,,,,,,,,,,,,,,,,,,,,,,,,,,,,,,,,,,,,,,,,,,,,,
1720159486,101,0,4236.794922,4262.94873,4307.94873,4318.589844,4277.05127,4263.717773,4252.307617,4253.333496,4215.769043,4293.461426,4423.461426,4450.512695,4340,4379.230957,,,,,,,,,,,,,,,,,,,,,,,,,,,,,,,,,,,,,,,,,,,,,,,,,,,,,,,,,,,,,,,,,,,,,,
1720159486,102,0,4251.666504,4273.205078,4319.487305,4327.94873,4278.974121,4266.410156,4259.871582,4260.512695,4215.769043,4296.666504,4435.641113,4472.820313,4345.128418,4391.153809,,,,,,,,,,,,,,,,,,,,,,,,,,,,,,,,,,,,,,,,,,,,,,,,,,,,,,,,,,,,,,,,,,,,,,
1720159486,103,0,4252.820313,4273.077148,4334.743652,4326.282227,4280,4271.922852,4263.205078,4254.615234,4217.05127,4303.333496,4445.641113,4492.179688,4352.692383,4395.641113,,,,,,,,,,,,,,,,,,,,,,,,,,,,,,,,,,,,,,,,,,,,,,,,,,,,,,,,,,,,,,,,,,,,,,
1720159486,104,0,4252.179688,4270,4337.820313,4328.461426,4280.769043,4277.179688,4262.179688,4248.077148,4216.922852,4307.94873,4448.077148,4489.358887,4360.641113,4402.692383,,,,,,,,,,,,,,,,,,,,,,,,,,,,,,,,,,,,,,,,,,,,,,,,,,,,,,,,,,,,,,,,,,,,,,
1720159486,105,0,4247.307617,4261.922852,4315.769043,4313.717773,4280.512695,4277.692383,4261.025879,4246.410156,4225.256348,4308.077148,4440.128418,4469.230957,4358.717773,4389.358887,,,,,,,,,,,,,,,,,,,,,,,,,,,,,,,,,,,,,,,,,,,,,,,,,,,,,,,,,,,,,,,,,,,,,,
1720159486,106,0,4243.589844,4250.384766,4295.512695,4294.102539,4277.94873,4276.410156,4260.256348,4251.922852,4233.717773,4309.358887,4429.871582,4456.153809,4346.666504,4379.871582,,,,,,,,,,,,,,,,,,,,,,,,,,,,,,,,,,,,,,,,,,,,,,,,,,,,,,,,,,,,,,,,,,,,,,
1720159486,107,0,4252.563965,4250.256348,4302.692383,4304.230957,4277.436035,4276.025879,4266.410156,4265,4233.974121,4310.769043,4428.974121,4459.871582,4340.897461,4402.820313,,,,,,,,,,,,,,,,,,,,,,,,,,,,,,,,,,,,,,,,,,,,,,,,,,,,,,,,,,,,,,,,,,,,,,
1720159486,108,0,4242.820313,4253.717773,4305.384766,4315.512695,4278.974121,4268.846191,4262.692383,4261.666504,4227.307617,4300.641113,4429.743652,4454.230957,4340.256348,4382.05127,0.180007,0.904301,0.239927,0.304003,0.341728,0.639634,1.820975,0.723133,0.591571,0.136216,1.085595,3.807264,0.702984,1.302664,0.186869,0.277701,1.648986,0.652677,0.969032,0.301929,0.153542,0.084751,0.022527,0.102566,0.045365,0.465498,0.491114,0.298268,0.418064,0.073647,0.858189,2.06281,0.698312,1.835606,0.120092,0.587812,1.245857,0.811476,1.143624,0.155361,0.530238,0.520581,0.704405,1.011536,0.103192,0.674399,0.670763,0.361125,0.317586,0.070319,0.445356,2.1034,0.545008,0.959993,0.202123,1.112942,5.086674,1.08815,2.310372,0.307758,1.177285,2.145001,1.24545,0.991067,0.118749,0.347819,0.82356,0.156517,0.379529,1.31215
1720159486,109,0,4233.974121,4253.077148,4294.871582,4303.205078,4278.205078,4261.025879,4249.871582,4248.461426,4220.128418,4293.717773,4429.871582,4444.615234,4339.230957,4360.641113,,,,,,,,,,,,,,,,,,,,,,,,,,,,,,,,,,,,,,,,,,,,,,,,,,,,,,,,,,,,,,,,,,,,,,
1720159486,110,0,4254.487305,4250.897461,4299.487305,4303.461426,4277.692383,4263.717773,4258.077148,4259.487305,4221.794922,4303.205078,4432.692383,4456.153809,4340.256348,4399.230957,,,,,,,,,,,,,,,,,,,,,,,,,,,,,,,,,,,,,,,,,,,,,,,,,,,,,,,,,,,,,,,,,,,,,,
1720159486,111,0,4248.205078,4251.922852,4294.230957,4310.256348,4276.922852,4265.512695,4261.282227,4261.666504,4223.333496,4303.974121,4422.436035,4449.487305,4336.025879,4382.179688,,,,,,,,,,,,,,,,,,,,,,,,,,,,,,,,,,,,,,,,,,,,,,,,,,,,,,,,,,,,,,,,,,,,,,
1720159486,112,0,4236.025879,4247.820313,4285.384766,4297.692383,4276.922852,4264.102539,4250.641113,4247.94873,4217.820313,4294.743652,4416.282227,4430.128418,4328.077148,4363.077148,,,,,,,,,,,,,,,,,,,,,,,,,,,,,,,,,,,,,,,,,,,,,,,,,,,,,,,,,,,,,,,,,,,,,,
1720159486,113,0,4246.794922,4246.538574,4288.205078,4295.769043,4278.589844,4265.641113,4242.692383,4246.794922,4214.102539,4297.94873,4424.743652,4435.128418,4325.897461,4387.05127,,,,,,,,,,,,,,,,,,,,,,,,,,,,,,,,,,,,,,,,,,,,,,,,,,,,,,,,,,,,,,,,,,,,,,
1720159486,114,0,4248.461426,4255.384766,4285.256348,4309.743652,4278.974121,4264.487305,4232.692383,4240.512695,4212.563965,4299.487305,4420.384766,4435.512695,4325.384766,4375.769043,,,,,,,,,,,,,,,,,,,,,,,,,,,,,,,,,,,,,,,,,,,,,,,,,,,,,,,,,,,,,,,,,,,,,,
1720159486,115,0,4249.358887,4263.077148,4292.820313,4313.205078,4279.230957,4265.128418,4236.025879,4239.487305,4216.922852,4293.077148,4416.025879,4437.307617,4330.769043,4374.102539,,,,,,,,,,,,,,,,,,,,,,,,,,,,,,,,,,,,,,,,,,,,,,,,,,,,,,,,,,,,,,,,,,,,,,
1720159486,116,0,4250.256348,4265.128418,4309.102539,4309.615234,4279.615234,4276.282227,4258.974121,4255.897461,4229.743652,4293.205078,4427.179688,4452.307617,4342.692383,4384.743652,,,,,,,,,,,,,,,,,,,,,,,,,,,,,,,,,,,,,,,,,,,,,,,,,,,,,,,,,,,,,,,,,,,,,,
1720159486,117,0,4249.871582,4257.307617,4310.512695,4310.897461,4279.615234,4283.974121,4274.230957,4266.922852,4238.077148,4299.871582,4431.025879,4458.333496,4342.94873,4381.282227,,,,,,,,,,,,,,,,,,,,,,,,,,,,,,,,,,,,,,,,,,,,,,,,,,,,,,,,,,,,,,,,,,,,,,
1720159486,118,0,4251.025879,4247.820313,4304.230957,4308.846191,4279.487305,4279.615234,4278.333496,4268.589844,4238.461426,4302.692383,4428.461426,4455.256348,4332.179688,4379.743652,,,,,,,,,,,,,,,,,,,,,,,,,,,,,,,,,,,,,,,,,,,,,,,,,,,,,,,,,,,,,,,,,,,,,,
1720159486,119,0,4245.641113,4249.871582,4297.179688,4308.205078,4278.333496,4277.436035,4283.461426,4269.230957,4238.205078,4298.974121,4432.307617,4451.538574,4331.666504,4377.820313,,,,,,,,,,,,,,,,,,,,,,,,,,,,,,,,,,,,,,,,,,,,,,,,,,,,,,,,,,,,,,,,,,,,,,
1720159486,120,0,4244.102539,4259.871582,4296.025879,4316.282227,4277.94873,4275.897461,4278.077148,4267.436035,4235.769043,4298.205078,4429.871582,4451.666504,4345.384766,4376.410156,,,,,,,,,,,,,,,,,,,,,,,,,,,,,,,,,,,,,,,,,,,,,,,,,,,,,,,,,,,,,,,,,,,,,,
1720159486,121,0,4255.897461,4263.846191,4309.102539,4321.153809,4279.102539,4266.282227,4262.563965,4262.307617,4227.307617,4304.487305,4426.922852,4458.333496,4353.846191,4386.922852,,,,,,,,,,,,,,,,,,,,,,,,,,,,,,,,,,,,,,,,,,,,,,,,,,,,,,,,,,,,,,,,,,,,,,
1720159486,122,0,4252.563965,4262.94873,4307.563965,4324.487305,4278.205078,4257.820313,4252.436035,4253.974121,4216.666504,4303.461426,4432.692383,4457.94873,4350.128418,4374.487305,,,,,,,,,,,,,,,,,,,,,,,,,,,,,,,,,,,,,,,,,,,,,,,,,,,,,,,,,,,,,,,,,,,,,,
1720159486,123,0,4242.436035,4262.05127,4291.794922,4321.538574,4276.666504,4262.05127,4254.230957,4250.512695,4216.922852,4294.743652,4425.769043,4446.794922,4341.153809,4362.436035,,,,,,,,,,,,,,,,,,,,,,,,,,,,,,,,,,,,,,,,,,,,,,,,,,,,,,,,,,,,,,,,,,,,,,
1720159486,124,0,4255.256348,4249.871582,4295.128418,4309.102539,4277.692383,4273.077148,4261.794922,4258.461426,4230.256348,4293.974121,4416.153809,4447.179688,4330.897461,4395.769043,0.2975,1.013209,0.284518,0.322264,0.360631,0.651862,2.115353,0.725777,0.593396,0.1426,1.202567,4.106752,0.69627,1.278457,0.192305,0.30262,1.808255,0.633282,0.915663,0.298785,0.189349,0.115405,0.022577,0.12933,0.050676,0.498734,0.596944,0.316495,0.420809,0.085225,0.880696,1.929611,0.746847,1.438596,0.12339,0.61437,1.180492,0.910306,1.020555,0.152334,0.536011,0.516707,0.712941,0.951838,0.107987,0.569235,0.626468,0.345626,0.333142,0.074571,0.536402,2.199433,0.513819,0.957849,0.180937,1.215047,5.278551,1.151261,2.289729,0.300812,1.340686,2.244828,1.215298,1.107522,0.132549,0.324923,0.884405,0.161125,0.394852,1.312826
1720159486,125,0,4249.487305,4238.077148,4287.436035,4312.436035,4278.717773,4278.461426,4253.205078,4253.077148,4231.282227,4295.512695,4413.846191,4436.666504,4322.179688,4374.743652,,,,,,,,,,,,,,,,,,,,,,,,,,,,,,,,,,,,,,,,,,,,,,,,,,,,,,,,,,,,,,,,,,,,,,
1720159486,126,0,4237.563965,4247.05127,4272.563965,4328.077148,4279.230957,4277.307617,4240.384766,4241.282227,4220.384766,4293.717773,4406.922852,4416.025879,4319.615234,4345.256348,,,,,,,,,,,,,,,,,,,,,,,,,,,,,,,,,,,,,,,,,,,,,,,,,,,,,,,,,,,,,,,,,,,,,,
1720159486,127,0,4249.358887,4260.384766,4285.512695,4329.487305,4280.769043,4276.025879,4246.538574,4245.641113,4215.897461,4294.615234,4401.922852,4422.692383,4323.717773,4374.102539,,,,,,,,,,,,,,,,,,,,,,,,,,,,,,,,,,,,,,,,,,,,,,,,,,,,,,,,,,,,,,,,,,,,,,
1720159486,0,0,4256.922852,4262.179688,4301.538574,4334.358887,4281.025879,4277.436035,4260.897461,4248.974121,4215.897461,4292.436035,4411.153809,4437.820313,4328.846191,4375.897461,,,,,,,,,,,,,,,,,,,,,,,,,,,,,,,,,,,,,,,,,,,,,,,,,,,,,,,,,,,,,,,,,,,,,,
1720159486,1,0,4265.128418,4270.128418,4311.025879,4352.94873,4280,4277.94873,4278.589844,4259.871582,4224.358887,4294.358887,4424.743652,4450,4333.077148,4375.769043,,,,,,,,,,,,,,,,,,,,,,,,,,,,,,,,,,,,,,,,,,,,,,,,,,,,,,,,,,,,,,,,,,,,,,
1720159486,2,0,4269.743652,4281.538574,4325.256348,4357.820313,4279.615234,4278.846191,4292.307617,4277.179688,4236.153809,4307.179688,4434.230957,4466.666504,4342.05127,4386.922852,,,,,,,,,,,,,,,,,,,,,,,,,,,,,,,,,,,,,,,,,,,,,,,,,,,,,,,,,,,,,,,,,,,,,,
1720159486,3,0,4263.717773,4275.897461,4331.153809,4355.384766,4278.846191,4281.153809,4288.077148,4274.871582,4232.307617,4309.871582,4442.563965,4478.717773,4351.538574,4383.589844,,,,,,,,,,,,,,,,,,,,,,,,,,,,,,,,,,,,,,,,,,,,,,,,,,,,,,,,,,,,,,,,,,,,,,
1720159486,4,0,4265.769043,4265.641113,4323.589844,4358.333496,4279.102539,4275.897461,4276.922852,4261.025879,4219.358887,4301.794922,4439.230957,4475.641113,4352.692383,4392.820313,,,,,,,,,,,,,,,,,,,,,,,,,,,,,,,,,,,,,,,,,,,,,,,,,,,,,,,,,,,,,,,,,,,,,,
1720159486,5,0,4267.307617,4266.153809,4316.282227,4358.205078,4280.512695,4266.666504,4263.461426,4252.436035,4213.077148,4300.256348,4424.871582,4461.538574,4344.743652,4391.922852,,,,,,,,,,,,,,,,,,,,,,,,,,,,,,,,,,,,,,,,,,,,,,,,,,,,,,,,,,,,,,,,,,,,,,
1720159486,6,0,4256.410156,4264.230957,4308.205078,4352.692383,4280.641113,4264.230957,4248.974121,4248.205078,4215.512695,4301.538574,4424.230957,4452.05127,4334.615234,4366.410156,,,,,,,,,,,,,,,,,,,,,,,,,,,,,,,,,,,,,,,,,,,,,,,,,,,,,,,,,,,,,,,,,,,,,,
1720159486,7,0,4261.794922,4259.743652,4303.589844,4344.871582,4279.743652,4264.615234,4244.487305,4247.820313,4225.384766,4298.717773,4433.846191,4453.717773,4332.94873,4386.922852,,,,,,,,,,,,,,,,,,,,,,,,,,,,,,,,,,,,,,,,,,,,,,,,,,,,,,,,,,,,,,,,,,,,,,
1720159486,8,0,4265.128418,4259.230957,4295.128418,4343.333496,4279.615234,4265,4243.717773,4247.436035,4231.410156,4296.922852,4423.461426,4443.846191,4336.153809,4394.102539,,,,,,,,,,,,,,,,,,,,,,,,,,,,,,,,,,,,,,,,,,,,,,,,,,,,,,,,,,,,,,,,,,,,,,
1720159486,9,0,4248.717773,4252.563965,4280.128418,4356.282227,4279.871582,4272.820313,4238.974121,4243.717773,4228.205078,4294.487305,4399.871582,4418.461426,4334.102539,4349.743652,,,,,,,,,,,,,,,,,,,,,,,,,,,,,,,,,,,,,,,,,,,,,,,,,,,,,,,,,,,,,,,,,,,,,,
1720159486,10,0,4252.94873,4245,4282.820313,4361.410156,4280,4280.128418,4249.615234,4248.974121,4230.256348,4294.487305,4402.05127,4420.512695,4323.717773,4367.05127,,,,,,,,,,,,,,,,,,,,,,,,,,,,,,,,,,,,,,,,,,,,,,,,,,,,,,,,,,,,,,,,,,,,,,
1720159486,11,0,4252.94873,4244.615234,4280.641113,4347.179688,4279.230957,4279.487305,4260,4248.461426,4230.256348,4294.230957,4407.94873,4424.358887,4312.307617,4378.333496,,,,,,,,,,,,,,,,,,,,,,,,,,,,,,,,,,,,,,,,,,,,,,,,,,,,,,,,,,,,,,,,,,,,,,
1720159486,12,0,4240.641113,4237.436035,4263.333496,4337.94873,4277.05127,4277.563965,4254.871582,4241.153809,4220.897461,4287.820313,4392.563965,4404.743652,4306.922852,4354.743652,0.715928,1.177966,0.370286,0.342344,0.373612,0.739063,2.403747,0.702353,0.592888,0.152278,1.301602,4.301316,0.628907,1.234496,0.193923,0.340748,1.920832,0.594902,0.84332,0.289493,0.220942,0.150912,0.024457,0.148938,0.053721,0.563268,0.674088,0.337188,0.409194,0.095993,0.936637,1.78221,0.8096,1.050419,0.125879,0.635784,1.145653,0.951837,0.856024,0.147033,0.533612,0.525946,0.720363,0.831847,0.110337,0.457208,0.586862,0.327746,0.338762,0.078051,0.641913,2.267033,0.441845,0.934516,0.161294,1.339236,5.396766,1.111608,2.172529,0.292068,1.508234,2.298671,1.126405,1.212893,0.160273,0.325686,0.929273,0.161748,0.398122,1.274796
1720159486,13,0,4245.512695,4228.461426,4266.025879,4338.461426,4276.410156,4273.846191,4255.641113,4246.922852,4213.205078,4282.94873,4394.743652,4405.512695,4307.436035,4369.230957,,,,,,,,,,,,,,,,,,,,,,,,,,,,,,,,,,,,,,,,,,,,,,,,,,,,,,,,,,,,,,,,,,,,,,
1720159486,14,0,4251.666504,4241.922852,4286.666504,4347.05127,4279.102539,4273.205078,4265.897461,4253.589844,4211.666504,4287.307617,4416.025879,4427.820313,4319.102539,4371.538574,,,,,,,,,,,,,,,,,,,,,,,,,,,,,,,,,,,,,,,,,,,,,,,,,,,,,,,,,,,,,,,,,,,,,,
1720159486,15,0,4263.589844,4263.974121,4310.384766,4367.94873,4281.666504,4280.384766,4277.820313,4260.897461,4220.897461,4294.487305,4425.256348,4454.871582,4340.897461,4379.615234,,,,,,,,,,,,,,,,,,,,,,,,,,,,,,,,,,,,,,,,,,,,,,,,,,,,,,,,,,,,,,,,,,,,,,
1720159486,16,0,4278.333496,4269.615234,4325.128418,4378.205078,4282.05127,4279.102539,4276.025879,4267.820313,4231.794922,4298.205078,4425.384766,4473.974121,4351.794922,4408.077148,,,,,,,,,,,,,,,,,,,,,,,,,,,,,,,,,,,,,,,,,,,,,,,,,,,,,,,,,,,,,,,,,,,,,,
1720159486,17,0,4276.153809,4266.410156,4321.666504,4372.05127,4280.384766,4264.230957,4251.794922,4251.153809,4223.205078,4293.589844,4425.512695,4466.538574,4345.128418,4391.282227,,,,,,,,,,,,,,,,,,,,,,,,,,,,,,,,,,,,,,,,,,,,,,,,,,,,,,,,,,,,,,,,,,,,,,
1720159486,18,0,4275.256348,4268.333496,4316.025879,4369.487305,4280.512695,4259.487305,4235.384766,4232.563965,4212.05127,4290.897461,4425.769043,4458.461426,4345.384766,4380.256348,,,,,,,,,,,,,,,,,,,,,,,,,,,,,,,,,,,,,,,,,,,,,,,,,,,,,,,,,,,,,,,,,,,,,,
1720159486,19,0,4276.282227,4266.410156,4314.615234,4366.153809,4282.179688,4272.179688,4244.230957,4238.974121,4222.179688,4295.641113,4423.717773,4462.179688,4352.94873,4392.820313,,,,,,,,,,,,,,,,,,,,,,,,,,,,,,,,,,,,,,,,,,,,,,,,,,,,,,,,,,,,,,,,,,,,,,
1720159486,20,0,4263.846191,4253.205078,4302.179688,4357.05127,4280.512695,4282.307617,4261.666504,4254.102539,4242.436035,4295.897461,4419.358887,4455.641113,4343.205078,4376.538574,,,,,,,,,,,,,,,,,,,,,,,,,,,,,,,,,,,,,,,,,,,,,,,,,,,,,,,,,,,,,,,,,,,,,,
1720159487,21,0,4257.692383,4241.410156,4289.871582,4351.410156,4277.436035,4282.436035,4276.153809,4267.307617,4255.256348,4294.358887,4420.256348,4448.589844,4323.974121,4376.794922,,,,,,,,,,,,,,,,,,,,,,,,,,,,,,,,,,,,,,,,,,,,,,,,,,,,,,,,,,,,,,,,,,,,,,
1720159487,22,0,4254.358887,4241.538574,4281.922852,4344.615234,4276.922852,4281.666504,4275,4267.436035,4257.563965,4297.94873,4421.410156,4442.563965,4315.256348,4374.102539,,,,,,,,,,,,,,,,,,,,,,,,,,,,,,,,,,,,,,,,,,,,,,,,,,,,,,,,,,,,,,,,,,,,,,
1720159487,23,0,4247.820313,4245,4274.487305,4341.794922,4277.692383,4281.794922,4261.538574,4255.384766,4253.717773,4297.563965,4409.358887,4427.820313,4320.512695,4352.179688,,,,,,,,,,,,,,,,,,,,,,,,,,,,,,,,,,,,,,,,,,,,,,,,,,,,,,,,,,,,,,,,,,,,,,
1720159487,24,0,4264.871582,4243.205078,4286.794922,4349.487305,4279.487305,4280,4262.563965,4259.230957,4247.563965,4295.512695,4406.025879,4436.410156,4334.102539,4387.307617,,,,,,,,,,,,,,,,,,,,,,,,,,,,,,,,,,,,,,,,,,,,,,,,,,,,,,,,,,,,,,,,,,,,,,
1720159487,25,0,4271.153809,4249.615234,4297.307617,4353.461426,4279.871582,4273.333496,4260.256348,4256.922852,4237.05127,4295.512695,4416.666504,4448.333496,4338.974121,4391.282227,,,,,,,,,,,,,,,,,,,,,,,,,,,,,,,,,,,,,,,,,,,,,,,,,,,,,,,,,,,,,,,,,,,,,,
1720159487,26,0,4266.025879,4263.205078,4297.94873,4359.743652,4278.205078,4267.692383,4252.179688,4244.487305,4228.205078,4291.153809,4423.717773,4446.025879,4333.077148,4366.794922,,,,,,,,,,,,,,,,,,,,,,,,,,,,,,,,,,,,,,,,,,,,,,,,,,,,,,,,,,,,,,,,,,,,,,
1720159487,27,0,4280.256348,4267.179688,4313.589844,4375.641113,4278.333496,4272.94873,4261.538574,4254.615234,4224.102539,4283.589844,4428.333496,4465.769043,4339.615234,4394.615234,,,,,,,,,,,,,,,,,,,,,,,,,,,,,,,,,,,,,,,,,,,,,,,,,,,,,,,,,,,,,,,,,,,,,,
1720159487,28,0,4280.256348,4265.641113,4318.846191,4379.230957,4280.769043,4281.922852,4269.102539,4259.487305,4221.538574,4283.077148,4429.102539,4476.538574,4349.102539,4391.538574,1.566703,1.399187,0.497455,0.36154,0.383313,0.819169,2.609789,0.648896,0.599749,0.162898,1.375882,4.330962,0.519377,1.195879,0.193662,0.398532,1.953215,0.54592,0.777575,0.274678,0.235556,0.180725,0.028066,0.154926,0.053564,0.63921,0.719868,0.369928,0.384263,0.10226,1.023376,1.737287,0.911947,0.769952,0.128878,0.652086,1.169589,0.934868,0.701285,0.142407,0.496432,0.565425,0.724489,0.684947,0.108886,0.373182,0.548516,0.30898,0.335374,0.080897,0.730412,2.263812,0.343733,0.894729,0.151462,1.47063,5.352161,0.976761,1.992016,0.286928,1.654115,2.276908,0.988994,1.281438,0.194085,0.343561,0.945244,0.154897,0.386189,1.213909
1720159487,29,0,4277.05127,4266.410156,4313.589844,4370.641113,4282.05127,4275,4263.333496,4246.025879,4223.461426,4285.769043,4428.205078,4467.563965,4346.025879,4380.641113,,,,,,,,,,,,,,,,,,,,,,,,,,,,,,,,,,,,,,,,,,,,,,,,,,,,,,,,,,,,,,,,,,,,,,
1720159487,30,0,4276.282227,4265.769043,4310.384766,4356.794922,4280,4263.846191,4253.974121,4242.94873,4230,4281.025879,4421.666504,4459.487305,4340.128418,4392.179688,,,,,,,,,,,,,,,,,,,,,,,,,,,,,,,,,,,,,,,,,,,,,,,,,,,,,,,,,,,,,,,,,,,,,,
1720159487,31,0,4264.743652,4260,4300.641113,4343.974121,4276.794922,4267.179688,4248.589844,4249.615234,4237.179688,4279.358887,4413.461426,4449.102539,4340,4382.563965,,,,,,,,,,,,,,,,,,,,,,,,,,,,,,,,,,,,,,,,,,,,,,,,,,,,,,,,,,,,,,,,,,,,,,
1720159487,32,0,4267.692383,4258.205078,4297.307617,4348.077148,4276.025879,4273.589844,4255.641113,4258.846191,4249.487305,4289.358887,4424.487305,4452.307617,4338.333496,4381.025879,,,,,,,,,,,,,,,,,,,,,,,,,,,,,,,,,,,,,,,,,,,,,,,,,,,,,,,,,,,,,,,,,,,,,,
1720159487,33,0,4274.615234,4257.692383,4296.666504,4351.282227,4277.307617,4273.077148,4265.641113,4265.897461,4259.102539,4295.256348,4435.769043,4460.128418,4333.589844,4384.102539,,,,,,,,,,,,,,,,,,,,,,,,,,,,,,,,,,,,,,,,,,,,,,,,,,,,,,,,,,,,,,,,,,,,,,
1720159487,34,0,4262.820313,4250.897461,4282.563965,4337.05127,4276.410156,4272.563965,4261.153809,4260.256348,4257.563965,4289.487305,4422.436035,4444.487305,4333.974121,4367.436035,,,,,,,,,,,,,,,,,,,,,,,,,,,,,,,,,,,,,,,,,,,,,,,,,,,,,,,,,,,,,,,,,,,,,,
1720159487,35,0,4263.205078,4245.897461,4278.846191,4325.128418,4275.897461,4275.256348,4252.563965,4252.563965,4253.846191,4283.974121,4416.410156,4432.307617,4333.974121,4380,,,,,,,,,,,,,,,,,,,,,,,,,,,,,,,,,,,,,,,,,,,,,,,,,,,,,,,,,,,,,,,,,,,,,,
1720159487,36,0,4271.538574,4246.153809,4288.717773,4324.871582,4277.563965,4276.794922,4250.769043,4251.282227,4248.333496,4282.179688,4428.717773,4441.538574,4327.820313,4393.205078,,,,,,,,,,,,,,,,,,,,,,,,,,,,,,,,,,,,,,,,,,,,,,,,,,,,,,,,,,,,,,,,,,,,,,
1720159487,37,0,4261.538574,4248.333496,4287.307617,4331.794922,4277.307617,4276.666504,4246.922852,4243.205078,4236.538574,4279.615234,4424.358887,4440.128418,4326.282227,4358.333496,,,,,,,,,,,,,,,,,,,,,,,,,,,,,,,,,,,,,,,,,,,,,,,,,,,,,,,,,,,,,,,,,,,,,,
1720159487,38,0,4275.256348,4255.897461,4296.153809,4342.94873,4277.563965,4275.512695,4248.717773,4244.230957,4228.589844,4278.846191,4417.692383,4445.641113,4337.436035,4380,,,,,,,,,,,,,,,,,,,,,,,,,,,,,,,,,,,,,,,,,,,,,,,,,,,,,,,,,,,,,,,,,,,,,,
1720159487,39,0,4287.05127,4262.692383,4305.897461,4339.487305,4279.871582,4275,4255.897461,4252.94873,4228.974121,4276.538574,4425.256348,4457.563965,4344.487305,4403.333496,,,,,,,,,,,,,,,,,,,,,,,,,,,,,,,,,,,,,,,,,,,,,,,,,,,,,,,,,,,,,,,,,,,,,,
1720159487,40,0,4267.05127,4257.179688,4292.820313,4327.820313,4280,4276.025879,4257.820313,4250.512695,4230.384766,4272.692383,4428.333496,4448.333496,4342.563965,4372.820313,,,,,,,,,,,,,,,,,,,,,,,,,,,,,,,,,,,,,,,,,,,,,,,,,,,,,,,,,,,,,,,,,,,,,,
1720159487,41,0,4267.05127,4248.077148,4291.153809,4322.692383,4279.230957,4272.692383,4262.179688,4253.077148,4231.153809,4277.436035,4429.615234,4449.358887,4342.94873,4381.153809,,,,,,,,,,,,,,,,,,,,,,,,,,,,,,,,,,,,,,,,,,,,,,,,,,,,,,,,,,,,,,,,,,,,,,
1720159487,42,0,4275.769043,4248.461426,4296.922852,4318.461426,4279.230957,4266.282227,4262.307617,4253.205078,4232.692383,4276.538574,4431.025879,4454.358887,4334.230957,4381.282227,,,,,,,,,,,,,,,,,,,,,,,,,,,,,,,,,,,,,,,,,,,,,,,,,,,,,,,,,,,,,,,,,,,,,,
1720159487,43,0,4271.666504,4245,4287.94873,4316.282227,4276.025879,4262.05127,4252.692383,4241.538574,4228.717773,4268.205078,4419.487305,4439.102539,4322.563965,4364.102539,,,,,,,,,,,,,,,,,,,,,,,,,,,,,,,,,,,,,,,,,,,,,,,,,,,,,,,,,,,,,,,,,,,,,,
1720159487,44,0,4270.128418,4236.538574,4278.846191,4315,4273.846191,4262.307617,4247.692383,4238.717773,4225.512695,4268.846191,4407.820313,4425.769043,4325.384766,4370.128418,2.79335,1.653355,0.64444,0.37701,0.391401,0.888805,2.690032,0.57845,0.62397,0.170889,1.449613,4.303214,0.40692,1.185111,0.194132,0.469505,1.90737,0.494485,0.744675,0.256599,0.228222,0.194883,0.032586,0.144678,0.049998,0.709387,0.764264,0.41676,0.353697,0.102386,1.146622,1.956547,1.072586,0.653916,0.134654,0.674129,1.279516,0.878925,0.598027,0.141914,0.438778,0.660364,0.732764,0.551272,0.105992,0.33312,0.51353,0.288649,0.322409,0.083571,0.792831,2.228007,0.250216,0.841386,0.155214,1.633942,5.262916,0.800169,1.790085,0.290071,1.744681,2.237749,0.831495,1.299446,0.221952,0.367642,0.955201,0.143356,0.362094,1.154389
1720159487,45,0,4270.128418,4231.922852,4271.922852,4308.974121,4272.307617,4258.205078,4245.512695,4240.769043,4227.94873,4270.512695,4412.94873,4422.563965,4323.461426,4366.282227,,,,,,,,,,,,,,,,,,,,,,,,,,,,,,,,,,,,,,,,,,,,,,,,,,,,,,,,,,,,,,,,,,,,,,
1720159487,46,0,4266.153809,4226.410156,4264.230957,4303.974121,4268.333496,4250.769043,4236.922852,4236.282227,4227.05127,4265.128418,4413.717773,4418.077148,4312.563965,4360.769043,,,,,,,,,,,,,,,,,,,,,,,,,,,,,,,,,,,,,,,,,,,,,,,,,,,,,,,,,,,,,,,,,,,,,,
1720159487,47,0,4258.846191,4223.333496,4262.05127,4297.692383,4265.256348,4247.436035,4226.666504,4228.589844,4220.512695,4263.589844,4395.641113,4408.205078,4309.358887,4358.974121,,,,,,,,,,,,,,,,,,,,,,,,,,,,,,,,,,,,,,,,,,,,,,,,,,,,,,,,,,,,,,,,,,,,,,
1720159487,48,0,4257.820313,4222.94873,4258.974121,4292.307617,4266.025879,4246.282227,4219.871582,4220.641113,4216.282227,4263.589844,4383.205078,4394.102539,4299.743652,4345.128418,,,,,,,,,,,,,,,,,,,,,,,,,,,,,,,,,,,,,,,,,,,,,,,,,,,,,,,,,,,,,,,,,,,,,,
1720159487,49,0,4265.256348,4218.333496,4251.153809,4296.025879,4267.05127,4246.153809,4220.128418,4223.974121,4218.717773,4261.153809,4387.307617,4388.205078,4288.974121,4349.102539,,,,,,,,,,,,,,,,,,,,,,,,,,,,,,,,,,,,,,,,,,,,,,,,,,,,,,,,,,,,,,,,,,,,,,
1720159487,50,0,4263.077148,4217.563965,4250.128418,4294.615234,4266.153809,4247.563965,4222.820313,4231.025879,4215.384766,4260,4385.641113,4391.282227,4300.256348,4357.94873,,,,,,,,,,,,,,,,,,,,,,,,,,,,,,,,,,,,,,,,,,,,,,,,,,,,,,,,,,,,,,,,,,,,,,
1720159487,51,0,4253.461426,4222.820313,4255.384766,4286.410156,4263.974121,4247.692383,4218.717773,4221.922852,4205.256348,4254.230957,4382.436035,4388.205078,4310.256348,4333.717773,,,,,,,,,,,,,,,,,,,,,,,,,,,,,,,,,,,,,,,,,,,,,,,,,,,,,,,,,,,,,,,,,,,,,,
1720159487,52,0,4270,4221.282227,4263.589844,4290.641113,4261.794922,4242.94873,4221.025879,4219.615234,4197.436035,4246.410156,4393.205078,4394.358887,4300.512695,4353.717773,,,,,,,,,,,,,,,,,,,,,,,,,,,,,,,,,,,,,,,,,,,,,,,,,,,,,,,,,,,,,,,,,,,,,,
1720159487,53,0,4278.589844,4221.538574,4266.666504,4288.589844,4262.692383,4243.205078,4225.769043,4224.230957,4189.102539,4244.230957,4391.666504,4401.282227,4293.461426,4372.179688,,,,,,,,,,,,,,,,,,,,,,,,,,,,,,,,,,,,,,,,,,,,,,,,,,,,,,,,,,,,,,,,,,,,,,
1720159487,54,0,4260,4228.717773,4262.179688,4281.410156,4264.230957,4243.846191,4220,4217.307617,4183.717773,4243.589844,4377.563965,4398.717773,4296.538574,4341.794922,,,,,,,,,,,,,,,,,,,,,,,,,,,,,,,,,,,,,,,,,,,,,,,,,,,,,,,,,,,,,,,,,,,,,,
1720159487,55,0,4264.102539,4224.487305,4267.692383,4288.205078,4263.461426,4236.538574,4220.512695,4221.025879,4192.820313,4245.256348,4386.538574,4413.461426,4297.820313,4357.05127,,,,,,,,,,,,,,,,,,,,,,,,,,,,,,,,,,,,,,,,,,,,,,,,,,,,,,,,,,,,,,,,,,,,,,
1720159487,56,0,4271.025879,4218.589844,4267.05127,4288.205078,4260.769043,4231.666504,4219.871582,4224.743652,4200.769043,4246.153809,4393.205078,4414.743652,4298.333496,4363.333496,,,,,,,,,,,,,,,,,,,,,,,,,,,,,,,,,,,,,,,,,,,,,,,,,,,,,,,,,,,,,,,,,,,,,,
1720159487,57,0,4258.717773,4215.769043,4253.077148,4274.743652,4261.666504,4232.179688,4212.179688,4216.153809,4199.487305,4244.871582,4379.358887,4389.102539,4294.230957,4340.641113,,,,,,,,,,,,,,,,,,,,,,,,,,,,,,,,,,,,,,,,,,,,,,,,,,,,,,,,,,,,,,,,,,,,,,
1720159487,58,0,4255.897461,4205.641113,4244.871582,4276.538574,4260,4231.025879,4209.230957,4216.794922,4202.820313,4247.05127,4376.410156,4381.153809,4284.102539,4343.205078,,,,,,,,,,,,,,,,,,,,,,,,,,,,,,,,,,,,,,,,,,,,,,,,,,,,,,,,,,,,,,,,,,,,,,
1720159487,59,0,4258.589844,4204.615234,4242.563965,4279.102539,4254.487305,4228.846191,4207.436035,4216.666504,4206.538574,4246.282227,4378.461426,4382.563965,4279.230957,4340.769043,,,,,,,,,,,,,,,,,,,,,,,,,,,,,,,,,,,,,,,,,,,,,,,,,,,,,,,,,,,,,,,,,,,,,,
1720159487,60,0,4258.589844,4211.282227,4246.025879,4264.743652,4254.615234,4229.615234,4206.410156,4210,4195.897461,4239.358887,4370,4378.205078,4282.179688,4341.282227,4.116598,1.911849,0.790351,0.386514,0.396288,0.930315,2.683633,0.522616,0.667184,0.173967,1.557199,4.476332,0.350139,1.209165,0.197758,0.584599,1.844809,0.466612,0.760128,0.239373,0.197757,0.188834,0.036695,0.120606,0.043658,0.748818,0.841977,0.471394,0.329207,0.09791,1.285815,2.53282,1.311416,0.700317,0.145361,0.699808,1.478373,0.829181,0.566562,0.148183,0.37835,0.862884,0.767722,0.465125,0.106483,0.326928,0.492338,0.268443,0.299975,0.086651,0.82394,2.253511,0.192205,0.776881,0.171871,1.843724,5.425555,0.659787,1.606589,0.304026,1.75136,2.307145,0.700563,1.271883,0.234559,0.384885,1.017152,0.144524,0.332941,1.117152
1720159487,61,0,4253.589844,4205.128418,4248.846191,4264.743652,4255,4231.282227,4207.436035,4206.538574,4183.077148,4235.769043,4367.179688,4380,4282.307617,4350.512695,,,,,,,,,,,,,,,,,,,,,,,,,,,,,,,,,,,,,,,,,,,,,,,,,,,,,,,,,,,,,,,,,,,,,,
1720159487,62,0,4246.794922,4199.615234,4245,4274.743652,4256.025879,4233.717773,4207.307617,4207.307617,4189.102539,4241.025879,4373.846191,4383.333496,4277.820313,4340.512695,,,,,,,,,,,,,,,,,,,,,,,,,,,,,,,,,,,,,,,,,,,,,,,,,,,,,,,,,,,,,,,,,,,,,,
1720159487,63,0,4252.307617,4204.615234,4240.641113,4266.538574,4257.820313,4232.307617,4208.846191,4211.666504,4200.641113,4244.871582,4372.563965,4383.846191,4277.179688,4339.615234,,,,,,,,,,,,,,,,,,,,,,,,,,,,,,,,,,,,,,,,,,,,,,,,,,,,,,,,,,,,,,,,,,,,,,
1720159487,64,0,4259.743652,4203.461426,4235.384766,4256.794922,4253.077148,4222.692383,4203.589844,4212.436035,4194.871582,4237.94873,4360,4380.769043,4274.487305,4352.436035,,,,,,,,,,,,,,,,,,,,,,,,,,,,,,,,,,,,,,,,,,,,,,,,,,,,,,,,,,,,,,,,,,,,,,
1720159487,65,0,4243.717773,4197.307617,4224.358887,4257.05127,4247.179688,4213.846191,4186.538574,4200,4182.436035,4229.230957,4348.077148,4361.282227,4265.128418,4317.94873,,,,,,,,,,,,,,,,,,,,,,,,,,,,,,,,,,,,,,,,,,,,,,,,,,,,,,,,,,,,,,,,,,,,,,
1720159487,66,0,4245.641113,4199.102539,4230.769043,4257.307617,4250.384766,4212.307617,4189.230957,4197.436035,4185.128418,4231.410156,4354.743652,4361.538574,4266.666504,4319.102539,,,,,,,,,,,,,,,,,,,,,,,,,,,,,,,,,,,,,,,,,,,,,,,,,,,,,,,,,,,,,,,,,,,,,,
1720159487,67,0,4264.871582,4208.205078,4248.205078,4265.641113,4250.384766,4213.333496,4203.589844,4207.692383,4184.871582,4234.230957,4370.897461,4389.615234,4280.641113,4359.358887,,,,,,,,,,,,,,,,,,,,,,,,,,,,,,,,,,,,,,,,,,,,,,,,,,,,,,,,,,,,,,,,,,,,,,
1720159487,68,0,4260,4218.461426,4249.102539,4277.563965,4245,4215.512695,4200.897461,4207.307617,4174.102539,4233.846191,4374.487305,4396.794922,4286.794922,4343.717773,,,,,,,,,,,,,,,,,,,,,,,,,,,,,,,,,,,,,,,,,,,,,,,,,,,,,,,,,,,,,,,,,,,,,,
1720159487,69,0,4261.025879,4216.538574,4252.94873,4273.846191,4247.179688,4220.769043,4206.025879,4211.282227,4178.846191,4239.358887,4381.282227,4397.436035,4281.794922,4341.922852,,,,,,,,,,,,,,,,,,,,,,,,,,,,,,,,,,,,,,,,,,,,,,,,,,,,,,,,,,,,,,,,,,,,,,
1720159487,70,0,4261.538574,4207.563965,4251.153809,4259.743652,4248.077148,4220.256348,4213.205078,4212.692383,4186.025879,4241.025879,4379.615234,4395.897461,4279.615234,4353.461426,,,,,,,,,,,,,,,,,,,,,,,,,,,,,,,,,,,,,,,,,,,,,,,,,,,,,,,,,,,,,,,,,,,,,,
1720159487,71,0,4251.153809,4200.128418,4234.743652,4247.94873,4246.538574,4215.384766,4200.256348,4201.922852,4178.333496,4233.077148,4361.538574,4377.436035,4278.974121,4343.846191,,,,,,,,,,,,,,,,,,,,,,,,,,,,,,,,,,,,,,,,,,,,,,,,,,,,,,,,,,,,,,,,,,,,,,
1720159487,72,0,4252.692383,4192.563965,4229.615234,4244.487305,4246.282227,4214.102539,4186.666504,4198.333496,4172.05127,4231.153809,4356.153809,4369.102539,4273.333496,4340.897461,,,,,,,,,,,,,,,,,,,,,,,,,,,,,,,,,,,,,,,,,,,,,,,,,,,,,,,,,,,,,,,,,,,,,,
1720159487,73,0,4251.282227,4193.461426,4227.179688,4245.769043,4244.102539,4212.436035,4182.820313,4195.897461,4172.307617,4234.102539,4358.846191,4368.589844,4265.641113,4332.820313,,,,,,,,,,,,,,,,,,,,,,,,,,,,,,,,,,,,,,,,,,,,,,,,,,,,,,,,,,,,,,,,,,,,,,
1720159487,74,0,4247.436035,4202.436035,4225.128418,4247.94873,4243.589844,4208.974121,4182.563965,4190.769043,4169.358887,4232.94873,4358.974121,4367.94873,4261.538574,4332.563965,,,,,,,,,,,,,,,,,,,,,,,,,,,,,,,,,,,,,,,,,,,,,,,,,,,,,,,,,,,,,,,,,,,,,,
1720159487,75,0,4255.512695,4202.94873,4238.461426,4258.205078,4246.922852,4211.794922,4191.538574,4195.512695,4167.307617,4231.153809,4366.538574,4378.461426,4265.384766,4346.794922,,,,,,,,,,,,,,,,,,,,,,,,,,,,,,,,,,,,,,,,,,,,,,,,,,,,,,,,,,,,,,,,,,,,,,
1720159487,76,0,4256.153809,4201.794922,4243.974121,4265.897461,4246.922852,4218.461426,4200.897461,4201.666504,4168.461426,4229.871582,4368.846191,4385.128418,4266.410156,4337.05127,5.123412,2.153299,0.915456,0.386355,0.393951,1.030932,2.689611,0.512745,0.718725,0.171508,1.753634,5.094042,0.386304,1.247649,0.204768,0.753449,1.86337,0.49523,0.816273,0.226155,0.156824,0.166165,0.039529,0.089322,0.035801,0.759715,0.965986,0.52448,0.318395,0.092877,1.432421,3.396577,1.630082,0.856603,0.161503,0.736446,1.724184,0.835409,0.602946,0.161045,0.339561,1.233514,0.839733,0.440476,0.114056,0.353353,0.49508,0.247943,0.26957,0.090376,0.860786,2.421358,0.185536,0.705148,0.198373,2.169605,6.104534,0.608375,1.46147,0.326706,1.691989,2.601382,0.631705,1.213176,0.229247,0.401616,1.189638,0.171977,0.305159,1.110214
1720159487,77,0,4251.666504,4202.94873,4233.589844,4252.436035,4245.384766,4217.563965,4198.717773,4198.717773,4167.563965,4230,4354.487305,4377.94873,4262.94873,4327.436035,,,,,,,,,,,,,,,,,,,,,,,,,,,,,,,,,,,,,,,,,,,,,,,,,,,,,,,,,,,,,,,,,,,,,,
1720159487,78,0,4259.743652,4192.307617,4231.538574,4240.256348,4247.05127,4212.94873,4196.666504,4201.794922,4172.820313,4234.102539,4350.384766,4374.487305,4264.230957,4348.077148,,,,,,,,,,,,,,,,,,,,,,,,,,,,,,,,,,,,,,,,,,,,,,,,,,,,,,,,,,,,,,,,,,,,,,
1720159487,79,0,4246.410156,4187.436035,4222.94873,4245.641113,4245.769043,4214.230957,4192.820313,4198.461426,4176.538574,4229.615234,4355.512695,4365.641113,4262.563965,4325,,,,,,,,,,,,,,,,,,,,,,,,,,,,,,,,,,,,,,,,,,,,,,,,,,,,,,,,,,,,,,,,,,,,,,
1720159487,80,0,4238.077148,4199.230957,4211.025879,4244.871582,4245.769043,4214.871582,4185.384766,4190.897461,4171.025879,4221.153809,4350.128418,4357.820313,4258.974121,4309.871582,,,,,,,,,,,,,,,,,,,,,,,,,,,,,,,,,,,,,,,,,,,,,,,,,,,,,,,,,,,,,,,,,,,,,,
1720159487,81,0,4253.846191,4204.102539,4222.179688,4242.179688,4246.282227,4205.897461,4183.461426,4192.94873,4165.512695,4219.358887,4347.05127,4366.538574,4264.871582,4342.05127,,,,,,,,,,,,,,,,,,,,,,,,,,,,,,,,,,,,,,,,,,,,,,,,,,,,,,,,,,,,,,,,,,,,,,
1720159487,82,0,4248.974121,4199.615234,4232.692383,4250,4238.846191,4197.820313,4183.461426,4189.230957,4165.897461,4219.102539,4351.410156,4370.256348,4267.820313,4332.692383,,,,,,,,,,,,,,,,,,,,,,,,,,,,,,,,,,,,,,,,,,,,,,,,,,,,,,,,,,,,,,,,,,,,,,
1720159487,83,0,4246.538574,4197.05127,4228.974121,4244.615234,4233.846191,4203.846191,4190.384766,4190.256348,4168.717773,4219.871582,4353.846191,4370,4262.563965,4323.461426,,,,,,,,,,,,,,,,,,,,,,,,,,,,,,,,,,,,,,,,,,,,,,,,,,,,,,,,,,,,,,,,,,,,,,
1720159487,84,0,4249.230957,4191.410156,4222.563965,4232.179688,4236.538574,4213.461426,4200.512695,4200.641113,4169.743652,4221.025879,4345,4365.641113,4260.256348,4329.871582,,,,,,,,,,,,,,,,,,,,,,,,,,,,,,,,,,,,,,,,,,,,,,,,,,,,,,,,,,,,,,,,,,,,,,
1720159487,85,0,4235.897461,4177.307617,4210.641113,4233.974121,4235.897461,4217.307617,4202.436035,4203.846191,4176.153809,4219.487305,4338.589844,4357.179688,4253.589844,4322.820313,,,,,,,,,,,,,,,,,,,,,,,,,,,,,,,,,,,,,,,,,,,,,,,,,,,,,,,,,,,,,,,,,,,,,,
1720159487,86,0,4232.05127,4172.692383,4203.205078,4232.05127,4234.487305,4216.794922,4197.692383,4199.615234,4182.179688,4218.974121,4348.717773,4358.974121,4244.358887,4325.128418,,,,,,,,,,,,,,,,,,,,,,,,,,,,,,,,,,,,,,,,,,,,,,,,,,,,,,,,,,,,,,,,,,,,,,
1720159487,87,0,4242.692383,4183.589844,4210,4229.102539,4235.641113,4210.512695,4191.025879,4193.846191,4176.025879,4218.589844,4351.922852,4358.461426,4248.846191,4326.922852,,,,,,,,,,,,,,,,,,,,,,,,,,,,,,,,,,,,,,,,,,,,,,,,,,,,,,,,,,,,,,,,,,,,,,
1720159487,88,0,4249.615234,4192.179688,4220.641113,4237.692383,4234.743652,4203.589844,4186.922852,4188.077148,4166.153809,4217.436035,4344.615234,4359.487305,4261.794922,4325.769043,,,,,,,,,,,,,,,,,,,,,,,,,,,,,,,,,,,,,,,,,,,,,,,,,,,,,,,,,,,,,,,,,,,,,,
1720159487,89,0,4250.256348,4188.205078,4219.743652,4238.717773,4233.717773,4204.358887,4182.820313,4183.589844,4158.846191,4217.563965,4342.820313,4365.641113,4267.820313,4333.717773,,,,,,,,,,,,,,,,,,,,,,,,,,,,,,,,,,,,,,,,,,,,,,,,,,,,,,,,,,,,,,,,,,,,,,
1720159487,90,0,4242.820313,4185.256348,4212.692383,4231.666504,4232.307617,4204.615234,4177.307617,4179.230957,4154.358887,4216.922852,4346.666504,4356.153809,4259.871582,4323.974121,,,,,,,,,,,,,,,,,,,,,,,,,,,,,,,,,,,,,,,,,,,,,,,,,,,,,,,,,,,,,,,,,,,,,,
1720159487,91,0,4239.230957,4186.794922,4216.282227,4235,4229.102539,4201.794922,4179.358887,4178.717773,4160.897461,4221.153809,4346.794922,4346.666504,4253.589844,4313.717773,,,,,,,,,,,,,,,,,,,,,,,,,,,,,,,,,,,,,,,,,,,,,,,,,,,,,,,,,,,,,,,,,,,,,,
1720159487,92,0,4252.436035,4180.769043,4219.743652,4234.487305,4231.153809,4207.820313,4188.333496,4187.436035,4171.538574,4231.922852,4342.94873,4356.922852,4260.769043,4337.563965,5.507821,2.348816,0.999817,0.372293,0.381839,1.102989,2.795382,0.561163,0.759079,0.164875,1.971422,6.208306,0.51067,1.263836,0.213132,0.925353,2.027314,0.600567,0.88462,0.218436,0.111676,0.1366,0.040773,0.059162,0.028002,0.723102,1.107938,0.566585,0.32107,0.091167,1.519628,4.307112,1.9713,1.049249,0.180893,0.757851,1.933035,0.905104,0.682256,0.176953,0.326631,1.791473,0.938927,0.468745,0.128851,0.390649,0.52108,0.226919,0.234493,0.094409,0.908229,2.739108,0.221663,0.634379,0.230546,2.529421,7.346118,0.643191,1.354744,0.351789,1.560598,3.139091,0.628882,1.138194,0.211522,0.415851,1.486602,0.223635,0.282668,1.125132
1720159487,93,0,4243.589844,4179.230957,4204.615234,4227.436035,4233.974121,4213.717773,4185.256348,4186.922852,4169.743652,4230.384766,4339.615234,4349.358887,4260.897461,4317.436035,,,,,,,,,,,,,,,,,,,,,,,,,,,,,,,,,,,,,,,,,,,,,,,,,,,,,,,,,,,,,,,,,,,,,,
1720159487,94,0,4236.282227,4191.666504,4201.153809,4225.897461,4232.05127,4206.025879,4180.256348,4183.717773,4169.743652,4223.717773,4343.333496,4340.256348,4255,4308.461426,,,,,,,,,,,,,,,,,,,,,,,,,,,,,,,,,,,,,,,,,,,,,,,,,,,,,,,,,,,,,,,,,,,,,,
1720159487,95,0,4252.179688,4199.230957,4218.974121,4225.512695,4231.282227,4199.102539,4185.897461,4190.641113,4171.666504,4225,4351.666504,4359.102539,4256.922852,4336.922852,,,,,,,,,,,,,,,,,,,,,,,,,,,,,,,,,,,,,,,,,,,,,,,,,,,,,,,,,,,,,,,,,,,,,,
1720159487,96,0,4243.589844,4200.128418,4221.025879,4236.410156,4231.410156,4202.179688,4183.846191,4185.384766,4160.256348,4219.743652,4342.307617,4358.333496,4259.230957,4299.615234,,,,,,,,,,,,,,,,,,,,,,,,,,,,,,,,,,,,,,,,,,,,,,,,,,,,,,,,,,,,,,,,,,,,,,
1720159487,97,0,4241.538574,4205.256348,4220.512695,4251.794922,4230,4203.461426,4182.94873,4182.05127,4158.077148,4213.717773,4336.794922,4353.205078,4262.307617,4298.077148,,,,,,,,,,,,,,,,,,,,,,,,,,,,,,,,,,,,,,,,,,,,,,,,,,,,,,,,,,,,,,,,,,,,,,
1720159487,98,0,4248.077148,4200,4223.461426,4241.153809,4230.128418,4201.282227,4189.102539,4186.282227,4165.128418,4216.153809,4341.666504,4354.487305,4262.692383,4327.94873,,,,,,,,,,,,,,,,,,,,,,,,,,,,,,,,,,,,,,,,,,,,,,,,,,,,,,,,,,,,,,,,,,,,,,
1720159487,99,0,4234.743652,4185.512695,4207.179688,4221.410156,4231.025879,4202.94873,4183.461426,4176.922852,4160,4217.820313,4334.230957,4338.589844,4253.589844,4313.461426,,,,,,,,,,,,,,,,,,,,,,,,,,,,,,,,,,,,,,,,,,,,,,,,,,,,,,,,,,,,,,,,,,,,,,
1720159487,100,0,4234.615234,4188.461426,4198.974121,4218.717773,4230.769043,4204.102539,4174.871582,4173.205078,4160.897461,4221.282227,4329.615234,4336.153809,4251.282227,4320.641113,,,,,,,,,,,,,,,,,,,,,,,,,,,,,,,,,,,,,,,,,,,,,,,,,,,,,,,,,,,,,,,,,,,,,,
1720159487,101,0,4242.94873,4201.666504,4209.487305,4220.769043,4231.410156,4203.077148,4176.282227,4177.307617,4167.94873,4220.641113,4336.025879,4346.538574,4252.05127,4325.128418,,,,,,,,,,,,,,,,,,,,,,,,,,,,,,,,,,,,,,,,,,,,,,,,,,,,,,,,,,,,,,,,,,,,,,
1720159487,102,0,4246.410156,4201.794922,4221.153809,4230.769043,4232.94873,4203.846191,4183.974121,4179.102539,4161.922852,4217.436035,4343.333496,4353.077148,4250.256348,4322.179688,,,,,,,,,,,,,,,,,,,,,,,,,,,,,,,,,,,,,,,,,,,,,,,,,,,,,,,,,,,,,,,,,,,,,,
1720159487,103,0,4249.615234,4202.307617,4228.589844,4247.692383,4232.05127,4208.589844,4193.077148,4185.128418,4154.743652,4222.179688,4346.794922,4365.256348,4262.692383,4334.230957,,,,,,,,,,,,,,,,,,,,,,,,,,,,,,,,,,,,,,,,,,,,,,,,,,,,,,,,,,,,,,,,,,,,,,
1720159487,104,0,4243.846191,4207.436035,4228.589844,4245,4228.974121,4213.333496,4203.717773,4191.922852,4161.538574,4222.563965,4348.333496,4374.102539,4266.025879,4330.897461,,,,,,,,,,,,,,,,,,,,,,,,,,,,,,,,,,,,,,,,,,,,,,,,,,,,,,,,,,,,,,,,,,,,,,
1720159487,105,0,4234.615234,4195,4221.153809,4237.05127,4231.282227,4216.538574,4215.384766,4195.384766,4169.102539,4215,4346.666504,4367.179688,4249.102539,4317.563965,,,,,,,,,,,,,,,,,,,,,,,,,,,,,,,,,,,,,,,,,,,,,,,,,,,,,,,,,,,,,,,,,,,,,,
1720159487,106,0,4240.384766,4183.077148,4212.179688,4231.410156,4230.641113,4217.179688,4216.410156,4201.410156,4169.358887,4215.128418,4339.615234,4358.717773,4246.666504,4328.333496,,,,,,,,,,,,,,,,,,,,,,,,,,,,,,,,,,,,,,,,,,,,,,,,,,,,,,,,,,,,,,,,,,,,,,
1720159487,107,0,4239.230957,4191.282227,4206.410156,4220.384766,4221.538574,4209.871582,4203.589844,4200.384766,4171.794922,4219.743652,4338.205078,4355,4251.153809,4330.256348,,,,,,,,,,,,,,,,,,,,,,,,,,,,,,,,,,,,,,,,,,,,,,,,,,,,,,,,,,,,,,,,,,,,,,
1720159487,108,0,4229.615234,4197.94873,4207.179688,4222.179688,4221.025879,4201.282227,4193.589844,4190.641113,4176.538574,4218.974121,4337.94873,4351.922852,4245.769043,4310.512695,5.108421,2.464628,1.031445,0.342828,0.362184,1.212081,3.020457,0.650523,0.772055,0.156583,2.203654,7.578452,0.679606,1.230882,0.220007,1.077552,2.319393,0.772779,0.935477,0.215979,0.081488,0.110821,0.040631,0.036914,0.02184,0.667056,1.212784,0.593856,0.330319,0.094345,1.53272,4.948722,2.26836,1.214756,0.198549,0.762199,2.021601,1.015602,0.770289,0.190636,0.35772,2.475628,1.043612,0.526427,0.14741,0.424379,0.555884,0.208024,0.200581,0.0981,1.009911,3.116301,0.279475,0.579082,0.264186,2.907241,8.873203,0.71664,1.280109,0.371564,1.415977,3.79863,0.677639,1.056417,0.190663,0.455133,1.851445,0.286861,0.269387,1.142766
1720159487,109,0,4241.922852,4195,4214.743652,4232.94873,4230.384766,4197.820313,4187.94873,4182.820313,4169.871582,4215.512695,4336.666504,4358.461426,4251.794922,4321.794922,,,,,,,,,,,,,,,,,,,,,,,,,,,,,,,,,,,,,,,,,,,,,,,,,,,,,,,,,,,,,,,,,,,,,,
1720159487,110,0,4251.538574,4199.230957,4221.282227,4234.358887,4234.487305,4196.794922,4172.820313,4171.538574,4151.666504,4211.666504,4337.05127,4362.692383,4262.307617,4333.205078,,,,,,,,,,,,,,,,,,,,,,,,,,,,,,,,,,,,,,,,,,,,,,,,,,,,,,,,,,,,,,,,,,,,,,
1720159487,111,0,4245.384766,4207.692383,4227.820313,4240.641113,4232.05127,4203.077148,4173.461426,4168.589844,4146.666504,4211.025879,4336.794922,4360.897461,4255.128418,4320.769043,,,,,,,,,,,,,,,,,,,,,,,,,,,,,,,,,,,,,,,,,,,,,,,,,,,,,,,,,,,,,,,,,,,,,,
1720159487,112,0,4242.436035,4201.025879,4225.384766,4238.717773,4230.641113,4214.358887,4197.179688,4183.974121,4161.922852,4218.846191,4339.230957,4362.94873,4247.692383,4321.794922,,,,,,,,,,,,,,,,,,,,,,,,,,,,,,,,,,,,,,,,,,,,,,,,,,,,,,,,,,,,,,,,,,,,,,
1720159487,113,0,4236.922852,4186.922852,4204.615234,4218.077148,4232.05127,4214.487305,4205.384766,4193.333496,4177.05127,4216.922852,4335.256348,4351.153809,4243.205078,4313.974121,,,,,,,,,,,,,,,,,,,,,,,,,,,,,,,,,,,,,,,,,,,,,,,,,,,,,,,,,,,,,,,,,,,,,,
1720159487,114,0,4228.846191,4181.153809,4190.512695,4210.128418,4228.461426,4206.410156,4201.282227,4193.974121,4184.102539,4204.487305,4326.666504,4334.358887,4235.128418,4307.307617,,,,,,,,,,,,,,,,,,,,,,,,,,,,,,,,,,,,,,,,,,,,,,,,,,,,,,,,,,,,,,,,,,,,,,
1720159487,115,0,4227.05127,4180.641113,4189.743652,4216.538574,4220.769043,4203.717773,4198.077148,4192.05127,4188.461426,4206.538574,4333.461426,4336.666504,4238.974121,4325.897461,,,,,,,,,,,,,,,,,,,,,,,,,,,,,,,,,,,,,,,,,,,,,,,,,,,,,,,,,,,,,,,,,,,,,,
1720159487,116,0,4233.205078,4184.358887,4191.538574,4223.846191,4219.487305,4202.307617,4187.563965,4184.743652,4185.641113,4213.077148,4338.974121,4340.128418,4248.846191,4318.717773,,,,,,,,,,,,,,,,,,,,,,,,,,,,,,,,,,,,,,,,,,,,,,,,,,,,,,,,,,,,,,,,,,,,,,
1720159487,117,0,4244.871582,4199.743652,4203.974121,4230.641113,4226.666504,4198.205078,4181.794922,4184.230957,4176.538574,4206.538574,4337.179688,4346.666504,4255.128418,4316.794922,,,,,,,,,,,,,,,,,,,,,,,,,,,,,,,,,,,,,,,,,,,,,,,,,,,,,,,,,,,,,,,,,,,,,,
1720159487,118,0,4250.256348,4218.077148,4223.461426,4233.077148,4229.615234,4195.256348,4191.538574,4187.436035,4168.846191,4199.615234,4344.743652,4369.871582,4267.820313,4336.538574,,,,,,,,,,,,,,,,,,,,,,,,,,,,,,,,,,,,,,,,,,,,,,,,,,,,,,,,,,,,,,,,,,,,,,
1720159487,119,0,4251.538574,4222.05127,4234.871582,4242.436035,4230.512695,4196.538574,4198.974121,4184.358887,4166.794922,4198.205078,4351.922852,4386.922852,4277.692383,4331.666504,,,,,,,,,,,,,,,,,,,,,,,,,,,,,,,,,,,,,,,,,,,,,,,,,,,,,,,,,,,,,,,,,,,,,,
1720159487,120,0,4266.538574,4220.641113,4241.666504,4253.205078,4234.358887,4205.512695,4204.358887,4194.358887,4172.307617,4199.871582,4356.025879,4393.974121,4273.333496,4345.512695,,,,,,,,,,,,,,,,,,,,,,,,,,,,,,,,,,,,,,,,,,,,,,,,,,,,,,,,,,,,,,,,,,,,,,
1720159487,121,0,4260.897461,4217.563965,4234.102539,4243.461426,4233.717773,4217.692383,4207.05127,4196.282227,4179.230957,4199.743652,4351.794922,4384.743652,4261.025879,4335.512695,,,,,,,,,,,,,,,,,,,,,,,,,,,,,,,,,,,,,,,,,,,,,,,,,,,,,,,,,,,,,,,,,,,,,,
1720159487,122,0,4239.487305,4205.512695,4221.666504,4227.179688,4232.307617,4221.282227,4206.794922,4185.128418,4189.358887,4200,4338.333496,4368.461426,4251.922852,4310.128418,,,,,,,,,,,,,,,,,,,,,,,,,,,,,,,,,,,,,,,,,,,,,,,,,,,,,,,,,,,,,,,,,,,,,,
1720159487,123,0,4244.615234,4200.641113,4225.256348,4230.512695,4231.666504,4220.384766,4214.358887,4193.717773,4203.205078,4204.358887,4339.487305,4375,4256.410156,4332.436035,,,,,,,,,,,,,,,,,,,,,,,,,,,,,,,,,,,,,,,,,,,,,,,,,,,,,,,,,,,,,,,,,,,,,,
1720159487,124,0,4242.436035,4203.205078,4219.102539,4234.487305,4223.077148,4218.461426,4207.692383,4198.461426,4200.512695,4194.871582,4338.589844,4368.589844,4253.846191,4324.615234,4.109534,2.464448,1.00307,0.302695,0.341367,1.223477,3.283651,0.73373,0.754852,0.149089,2.256021,8.731705,0.832369,1.152922,0.222753,1.101562,2.630511,0.962933,0.954843,0.2167,0.06914,0.095306,0.039362,0.025204,0.018362,0.587819,1.221639,0.606005,0.337437,0.100593,1.418553,5.070991,2.455593,1.307115,0.208449,0.703096,1.93438,1.12557,0.826464,0.196788,0.416083,3.127802,1.125805,0.584207,0.16427,0.439732,0.578215,0.192664,0.173693,0.100372,1.112634,3.390912,0.338829,0.548659,0.294093,3.057428,10.143278,0.775714,1.231701,0.379398,1.247502,4.346411,0.743371,0.970233,0.174789,0.494084,2.172608,0.344607,0.269653,1.144242
1720159487,125,0,4228.205078,4189.358887,4199.871582,4222.563965,4213.589844,4210.384766,4191.153809,4184.102539,4190.769043,4176.538574,4318.589844,4339.230957,4225.512695,4304.743652,,,,,,,,,,,,,,,,,,,,,,,,,,,,,,,,,,,,,,,,,,,,,,,,,,,,,,,,,,,,,,,,,,,,,,
1720159487,126,0,4228.333496,4175.769043,4186.153809,4209.487305,4215.897461,4207.05127,4188.333496,4181.794922,4198.846191,4175.128418,4310.384766,4328.717773,4208.461426,4310.256348,,,,,,,,,,,,,,,,,,,,,,,,,,,,,,,,,,,,,,,,,,,,,,,,,,,,,,,,,,,,,,,,,,,,,,
1720159487,127,0,4231.666504,4183.205078,4177.94873,4212.05127,4222.820313,4214.615234,4185.256348,4188.333496,4217.563965,4187.436035,4321.794922,4333.333496,4227.820313,4306.538574,,,,,,,,,,,,,,,,,,,,,,,,,,,,,,,,,,,,,,,,,,,,,,,,,,,,,,,,,,,,,,,,,,,,,,
1720159487,0,0,4238.461426,4187.05127,4184.487305,4215.128418,4222.307617,4216.922852,4177.563965,4188.205078,4227.820313,4194.358887,4327.05127,4338.974121,4246.922852,4311.666504,,,,,,,,,,,,,,,,,,,,,,,,,,,,,,,,,,,,,,,,,,,,,,,,,,,,,,,,,,,,,,,,,,,,,,
1720159487,1,0,4241.538574,4187.94873,4197.307617,4210.384766,4220.384766,4209.487305,4175.384766,4182.436035,4223.717773,4191.538574,4325.512695,4343.974121,4248.205078,4314.615234,,,,,,,,,,,,,,,,,,,,,,,,,,,,,,,,,,,,,,,,,,,,,,,,,,,,,,,,,,,,,,,,,,,,,,
1720159487,2,0,4243.461426,4204.102539,4206.410156,4223.846191,4225.512695,4208.589844,4181.922852,4178.717773,4210.897461,4187.563965,4335.512695,4355.256348,4251.538574,4314.102539,,,,,,,,,,,,,,,,,,,,,,,,,,,,,,,,,,,,,,,,,,,,,,,,,,,,,,,,,,,,,,,,,,,,,,
1720159487,3,0,4256.666504,4218.717773,4225.384766,4244.102539,4232.179688,4215,4199.102539,4181.666504,4200.256348,4183.589844,4350.641113,4377.94873,4253.846191,4329.358887,,,,,,,,,,,,,,,,,,,,,,,,,,,,,,,,,,,,,,,,,,,,,,,,,,,,,,,,,,,,,,,,,,,,,,
1720159487,4,0,4261.666504,4218.846191,4241.922852,4247.436035,4232.563965,4216.282227,4217.436035,4190.384766,4197.179688,4177.436035,4350.128418,4390.128418,4254.615234,4331.666504,,,,,,,,,,,,,,,,,,,,,,,,,,,,,,,,,,,,,,,,,,,,,,,,,,,,,,,,,,,,,,,,,,,,,,
1720159487,5,0,4250.128418,4216.922852,4233.589844,4245,4230,4215.256348,4220.128418,4195.769043,4202.307617,4171.282227,4340.128418,4380.512695,4265.128418,4320.641113,,,,,,,,,,,,,,,,,,,,,,,,,,,,,,,,,,,,,,,,,,,,,,,,,,,,,,,,,,,,,,,,,,,,,,
1720159487,6,0,4252.94873,4214.102539,4225.256348,4240.128418,4227.05127,4214.615234,4215.641113,4199.871582,4210.128418,4168.974121,4337.94873,4374.230957,4271.025879,4331.922852,,,,,,,,,,,,,,,,,,,,,,,,,,,,,,,,,,,,,,,,,,,,,,,,,,,,,,,,,,,,,,,,,,,,,,
1720159487,7,0,4256.794922,4211.410156,4224.615234,4231.922852,4220.128418,4214.487305,4209.230957,4204.102539,4216.794922,4167.820313,4340.256348,4374.230957,4260,4334.358887,,,,,,,,,,,,,,,,,,,,,,,,,,,,,,,,,,,,,,,,,,,,,,,,,,,,,,,,,,,,,,,,,,,,,,
1720159487,8,0,4245.512695,4215.641113,4213.846191,4229.743652,4218.077148,4214.743652,4199.102539,4201.794922,4222.179688,4165.769043,4340,4365.128418,4249.102539,4317.94873,,,,,,,,,,,,,,,,,,,,,,,,,,,,,,,,,,,,,,,,,,,,,,,,,,,,,,,,,,,,,,,,,,,,,,
1720159487,9,0,4245.256348,4214.230957,4206.666504,4232.563965,4224.230957,4215.769043,4197.05127,4195.641113,4228.077148,4167.436035,4340.512695,4357.692383,4246.410156,4322.05127,,,,,,,,,,,,,,,,,,,,,,,,,,,,,,,,,,,,,,,,,,,,,,,,,,,,,,,,,,,,,,,,,,,,,,
1720159487,10,0,4243.333496,4204.615234,4206.922852,4227.94873,4227.563965,4216.666504,4200.384766,4192.436035,4234.358887,4172.692383,4336.410156,4353.205078,4244.871582,4323.461426,,,,,,,,,,,,,,,,,,,,,,,,,,,,,,,,,,,,,,,,,,,,,,,,,,,,,,,,,,,,,,,,,,,,,,
1720159487,11,0,4236.794922,4200.256348,4206.410156,4217.94873,4226.282227,4220.128418,4207.436035,4196.794922,4245.256348,4177.179688,4333.846191,4352.179688,4248.589844,4318.077148,,,,,,,,,,,,,,,,,,,,,,,,,,,,,,,,,,,,,,,,,,,,,,,,,,,,,,,,,,,,,,,,,,,,,,
1720159487,12,0,4243.205078,4200.256348,4206.153809,4217.179688,4224.871582,4225,4213.205078,4199.358887,4254.743652,4175.897461,4341.794922,4356.538574,4258.077148,4321.153809,2.80059,2.317918,0.922279,0.262596,0.326045,1.238145,3.430975,0.767068,0.724644,0.143999,2.174954,9.166577,0.943043,1.069028,0.220204,1.03101,2.802324,1.105579,0.957215,0.217989,0.080794,0.090092,0.039887,0.022642,0.017996,0.525708,1.106083,0.607244,0.336611,0.105935,1.248622,4.598541,2.492747,1.308856,0.206903,0.625466,1.673576,1.193861,0.82482,0.192303,0.50965,3.542455,1.155433,0.625174,0.174904,0.441638,0.56994,0.183553,0.157823,0.10054,1.230398,3.411549,0.392644,0.543331,0.314159,3.031072,10.607332,0.818219,1.211263,0.372067,1.118432,4.543509,0.786267,0.87971,0.167051,0.559086,2.334886,0.387601,0.285426,1.122331
1720159487,13,0,4246.025879,4199.871582,4202.94873,4227.179688,4221.282227,4222.436035,4204.871582,4190.384766,4252.692383,4169.743652,4345.641113,4356.794922,4260.641113,4321.410156,,,,,,,,,,,,,,,,,,,,,,,,,,,,,,,,,,,,,,,,,,,,,,,,,,,,,,,,,,,,,,,,,,,,,,
1720159487,14,0,4244.615234,4201.794922,4202.436035,4231.794922,4217.692383,4214.487305,4191.794922,4183.077148,4241.538574,4161.922852,4338.589844,4356.025879,4254.230957,4323.589844,,,,,,,,,,,,,,,,,,,,,,,,,,,,,,,,,,,,,,,,,,,,,,,,,,,,,,,,,,,,,,,,,,,,,,
1720159487,15,0,4249.487305,4206.666504,4211.025879,4228.461426,4217.563965,4213.717773,4187.94873,4180.128418,4227.563965,4147.563965,4335.256348,4360.769043,4252.820313,4326.922852,,,,,,,,,,,,,,,,,,,,,,,,,,,,,,,,,,,,,,,,,,,,,,,,,,,,,,,,,,,,,,,,,,,,,,
1720159487,16,0,4256.794922,4216.410156,4228.717773,4238.333496,4222.179688,4215.897461,4194.743652,4179.743652,4212.179688,4135.641113,4347.692383,4375.897461,4260,4327.307617,,,,,,,,,,,,,,,,,,,,,,,,,,,,,,,,,,,,,,,,,,,,,,,,,,,,,,,,,,,,,,,,,,,,,,
1720159487,17,0,4267.94873,4231.538574,4250.128418,4250.641113,4229.230957,4207.307617,4204.871582,4186.025879,4202.179688,4136.025879,4362.563965,4396.794922,4269.230957,4339.743652,,,,,,,,,,,,,,,,,,,,,,,,,,,,,,,,,,,,,,,,,,,,,,,,,,,,,,,,,,,,,,,,,,,,,,
1720159487,18,0,4274.230957,4235.128418,4258.077148,4250.897461,4232.820313,4199.615234,4209.743652,4194.487305,4206.922852,4139.871582,4366.666504,4406.666504,4275.384766,4353.333496,,,,,,,,,,,,,,,,,,,,,,,,,,,,,,,,,,,,,,,,,,,,,,,,,,,,,,,,,,,,,,,,,,,,,,
1720159487,19,0,4255.641113,4223.974121,4235.641113,4248.205078,4229.871582,4207.179688,4209.743652,4193.974121,4223.077148,4136.153809,4362.94873,4388.846191,4270.128418,4326.153809,,,,,,,,,,,,,,,,,,,,,,,,,,,,,,,,,,,,,,,,,,,,,,,,,,,,,,,,,,,,,,,,,,,,,,
1720159487,20,0,4246.794922,4211.025879,4211.282227,4240.641113,4228.205078,4215,4216.922852,4200.384766,4236.153809,4133.205078,4353.205078,4364.615234,4254.358887,4315.769043,,,,,,,,,,,,,,,,,,,,,,,,,,,,,,,,,,,,,,,,,,,,,,,,,,,,,,,,,,,,,,,,,,,,,,
1720159488,21,0,4249.358887,4202.307617,4209.358887,4232.692383,4230.512695,4214.230957,4220.641113,4210.769043,4239.487305,4133.846191,4339.743652,4355.769043,4242.179688,4326.538574,,,,,,,,,,,,,,,,,,,,,,,,,,,,,,,,,,,,,,,,,,,,,,,,,,,,,,,,,,,,,,,,,,,,,,
1720159488,22,0,4234.743652,4198.333496,4202.436035,4232.692383,4227.179688,4214.487305,4205.128418,4196.153809,4239.743652,4130.256348,4331.538574,4345,4235.769043,4308.846191,,,,,,,,,,,,,,,,,,,,,,,,,,,,,,,,,,,,,,,,,,,,,,,,,,,,,,,,,,,,,,,,,,,,,,
1720159488,23,0,4238.846191,4196.666504,4193.333496,4228.974121,4223.846191,4215.384766,4188.461426,4178.974121,4243.717773,4128.589844,4334.102539,4334.230957,4230.384766,4314.102539,,,,,,,,,,,,,,,,,,,,,,,,,,,,,,,,,,,,,,,,,,,,,,,,,,,,,,,,,,,,,,,,,,,,,,
1720159488,24,0,4247.563965,4194.487305,4194.487305,4223.333496,4225.641113,4213.589844,4177.436035,4173.589844,4248.717773,4129.615234,4330,4328.974121,4229.871582,4316.538574,,,,,,,,,,,,,,,,,,,,,,,,,,,,,,,,,,,,,,,,,,,,,,,,,,,,,,,,,,,,,,,,,,,,,,
1720159488,25,0,4241.666504,4194.230957,4193.333496,4227.436035,4221.282227,4213.461426,4164.615234,4163.077148,4250.384766,4129.102539,4321.410156,4324.487305,4231.282227,4304.102539,,,,,,,,,,,,,,,,,,,,,,,,,,,,,,,,,,,,,,,,,,,,,,,,,,,,,,,,,,,,,,,,,,,,,,
1720159488,26,0,4247.307617,4193.974121,4190,4230.641113,4219.615234,4214.230957,4154.230957,4156.282227,4247.307617,4130.769043,4325.384766,4326.922852,4235.256348,4315.512695,,,,,,,,,,,,,,,,,,,,,,,,,,,,,,,,,,,,,,,,,,,,,,,,,,,,,,,,,,,,,,,,,,,,,,
1720159488,27,0,4251.153809,4190.256348,4190.128418,4224.487305,4224.743652,4216.025879,4158.205078,4163.205078,4237.94873,4124.871582,4331.794922,4332.563965,4234.871582,4317.94873,,,,,,,,,,,,,,,,,,,,,,,,,,,,,,,,,,,,,,,,,,,,,,,,,,,,,,,,,,,,,,,,,,,,,,
1720159488,28,0,4251.025879,4192.179688,4198.846191,4229.487305,4223.205078,4222.820313,4183.205078,4178.333496,4230.384766,4115,4340.128418,4342.05127,4231.282227,4319.102539,1.635459,2.058921,0.821809,0.235081,0.318637,1.159895,3.362731,0.748369,0.711278,0.14204,1.892508,8.69516,1.028575,1.03361,0.213108,0.830048,2.746204,1.155477,0.975548,0.218608,0.106077,0.093244,0.052237,0.02568,0.020807,0.479425,0.88917,0.614674,0.330257,0.106836,1.062836,3.691691,2.422333,1.234539,0.194449,0.519343,1.307251,1.212601,0.765744,0.177802,0.587128,3.59351,1.139997,0.656902,0.177981,0.422101,0.524083,0.180457,0.153673,0.099222,1.269946,3.14097,0.439173,0.551695,0.319587,2.74331,10.085155,0.873855,1.215994,0.350688,1.004196,4.30876,0.792846,0.791766,0.167161,0.62014,2.293889,0.418352,0.312227,1.077494
1720159488,29,0,4255,4206.794922,4211.282227,4243.205078,4221.922852,4226.794922,4211.282227,4195.384766,4232.820313,4118.077148,4351.794922,4359.487305,4238.333496,4324.871582,,,,,,,,,,,,,,,,,,,,,,,,,,,,,,,,,,,,,,,,,,,,,,,,,,,,,,,,,,,,,,,,,,,,,,
1720159488,30,0,4259.102539,4218.846191,4224.487305,4247.436035,4230.512695,4221.666504,4224.358887,4205.897461,4236.538574,4127.563965,4355.384766,4378.205078,4252.307617,4327.820313,,,,,,,,,,,,,,,,,,,,,,,,,,,,,,,,,,,,,,,,,,,,,,,,,,,,,,,,,,,,,,,,,,,,,,
1720159488,31,0,4267.05127,4217.820313,4236.410156,4248.717773,4232.563965,4214.358887,4228.589844,4208.974121,4235.769043,4126.794922,4357.563965,4393.974121,4261.410156,4338.461426,,,,,,,,,,,,,,,,,,,,,,,,,,,,,,,,,,,,,,,,,,,,,,,,,,,,,,,,,,,,,,,,,,,,,,
1720159488,32,0,4268.205078,4215.256348,4236.922852,4254.615234,4226.794922,4215.128418,4232.94873,4213.077148,4240.512695,4123.205078,4365.384766,4399.743652,4260.897461,4336.410156,,,,,,,,,,,,,,,,,,,,,,,,,,,,,,,,,,,,,,,,,,,,,,,,,,,,,,,,,,,,,,,,,,,,,,
1720159488,33,0,4257.307617,4215.256348,4228.333496,4251.410156,4227.820313,4223.974121,4234.615234,4215.512695,4249.743652,4126.153809,4362.692383,4391.666504,4252.179688,4324.487305,,,,,,,,,,,,,,,,,,,,,,,,,,,,,,,,,,,,,,,,,,,,,,,,,,,,,,,,,,,,,,,,,,,,,,
1720159488,34,0,4258.717773,4209.230957,4223.333496,4243.077148,4230,4230.384766,4230.641113,4212.820313,4255.641113,4130.769043,4350.512695,4379.871582,4244.743652,4331.153809,,,,,,,,,,,,,,,,,,,,,,,,,,,,,,,,,,,,,,,,,,,,,,,,,,,,,,,,,,,,,,,,,,,,,,
1720159488,35,0,4261.025879,4201.410156,4214.615234,4247.179688,4231.282227,4229.743652,4215.256348,4204.871582,4262.179688,4132.820313,4348.333496,4365.384766,4246.538574,4325.512695,,,,,,,,,,,,,,,,,,,,,,,,,,,,,,,,,,,,,,,,,,,,,,,,,,,,,,,,,,,,,,,,,,,,,,
1720159488,36,0,4243.974121,4200.641113,4193.974121,4244.743652,4231.666504,4229.230957,4188.077148,4184.871582,4263.717773,4133.974121,4346.410156,4342.820313,4248.077148,4299.102539,,,,,,,,,,,,,,,,,,,,,,,,,,,,,,,,,,,,,,,,,,,,,,,,,,,,,,,,,,,,,,,,,,,,,,
1720159488,37,0,4247.179688,4201.025879,4193.974121,4232.179688,4231.282227,4231.282227,4178.717773,4171.410156,4256.025879,4139.358887,4343.717773,4338.846191,4247.307617,4308.846191,,,,,,,,,,,,,,,,,,,,,,,,,,,,,,,,,,,,,,,,,,,,,,,,,,,,,,,,,,,,,,,,,,,,,,
1720159488,38,0,4258.077148,4200.512695,4206.538574,4238.461426,4233.589844,4233.205078,4189.615234,4176.794922,4253.717773,4144.230957,4348.205078,4354.358887,4249.358887,4325,,,,,,,,,,,,,,,,,,,,,,,,,,,,,,,,,,,,,,,,,,,,,,,,,,,,,,,,,,,,,,,,,,,,,,
1720159488,39,0,4252.179688,4200.512695,4202.307617,4250.128418,4231.794922,4240,4205.256348,4188.333496,4260.256348,4141.666504,4349.487305,4360.256348,4247.94873,4316.538574,,,,,,,,,,,,,,,,,,,,,,,,,,,,,,,,,,,,,,,,,,,,,,,,,,,,,,,,,,,,,,,,,,,,,,
1720159488,40,0,4251.922852,4201.410156,4201.538574,4249.615234,4229.871582,4250.897461,4227.436035,4203.846191,4265.769043,4139.743652,4346.922852,4365.384766,4247.94873,4316.282227,,,,,,,,,,,,,,,,,,,,,,,,,,,,,,,,,,,,,,,,,,,,,,,,,,,,,,,,,,,,,,,,,,,,,,
1720159488,41,0,4256.025879,4209.102539,4214.358887,4247.692383,4231.282227,4249.230957,4240.256348,4217.436035,4266.282227,4140.769043,4351.410156,4378.717773,4256.410156,4324.230957,,,,,,,,,,,,,,,,,,,,,,,,,,,,,,,,,,,,,,,,,,,,,,,,,,,,,,,,,,,,,,,,,,,,,,
1720159488,42,0,4260.641113,4217.563965,4223.846191,4248.461426,4230,4236.025879,4234.871582,4218.461426,4261.666504,4140,4360.512695,4385.128418,4262.05127,4327.179688,,,,,,,,,,,,,,,,,,,,,,,,,,,,,,,,,,,,,,,,,,,,,,,,,,,,,,,,,,,,,,,,,,,,,,
1720159488,43,0,4265.256348,4216.282227,4225.897461,4253.846191,4226.794922,4223.333496,4222.94873,4211.538574,4251.153809,4142.563965,4363.846191,4383.846191,4260.641113,4329.615234,,,,,,,,,,,,,,,,,,,,,,,,,,,,,,,,,,,,,,,,,,,,,,,,,,,,,,,,,,,,,,,,,,,,,,
1720159488,44,0,4267.05127,4217.05127,4225.897461,4264.102539,4228.333496,4216.410156,4215.128418,4207.94873,4245.128418,4146.538574,4360.128418,4383.846191,4264.487305,4332.436035,0.829624,1.78802,0.74258,0.227258,0.316906,1.126503,3.141158,0.71097,0.735969,0.143352,1.584996,7.625857,1.117996,1.084629,0.203938,0.619644,2.522491,1.102907,1.035375,0.219425,0.132784,0.10717,0.090766,0.031856,0.026469,0.475906,0.644232,0.654647,0.325305,0.102439,0.971112,2.722375,2.368733,1.122368,0.175404,0.458702,0.96851,1.210231,0.669483,0.157533,0.630286,3.348157,1.097359,0.702281,0.175467,0.416597,0.454158,0.190607,0.160333,0.098348,1.243182,2.692051,0.478645,0.555326,0.309574,2.379217,8.917543,0.969442,1.235615,0.321162,0.949026,3.787633,0.777618,0.72386,0.174523,0.688034,2.104158,0.439902,0.340028,1.015381
1720159488,45,0,4268.589844,4227.94873,4224.358887,4266.025879,4231.794922,4218.974121,4213.846191,4206.922852,4247.307617,4142.436035,4352.05127,4381.410156,4268.333496,4329.230957,,,,,,,,,,,,,,,,,,,,,,,,,,,,,,,,,,,,,,,,,,,,,,,,,,,,,,,,,,,,,,,,,,,,,,
1720159488,46,0,4271.538574,4233.461426,4227.94873,4262.563965,4231.922852,4228.717773,4215.256348,4201.153809,4246.922852,4141.538574,4350,4380.384766,4267.820313,4332.94873,,,,,,,,,,,,,,,,,,,,,,,,,,,,,,,,,,,,,,,,,,,,,,,,,,,,,,,,,,,,,,,,,,,,,,
1720159488,47,0,4267.692383,4230.128418,4235.769043,4266.794922,4233.077148,4232.692383,4213.974121,4191.025879,4245.128418,4149.743652,4356.153809,4383.717773,4269.358887,4328.333496,,,,,,,,,,,,,,,,,,,,,,,,,,,,,,,,,,,,,,,,,,,,,,,,,,,,,,,,,,,,,,,,,,,,,,
1720159488,48,0,4271.538574,4232.692383,4245.897461,4266.922852,4235.769043,4233.846191,4210.128418,4186.666504,4251.025879,4157.94873,4362.563965,4390.384766,4273.077148,4333.077148,,,,,,,,,,,,,,,,,,,,,,,,,,,,,,,,,,,,,,,,,,,,,,,,,,,,,,,,,,,,,,,,,,,,,,
1720159488,49,0,4279.743652,4233.717773,4250.641113,4262.307617,4235.641113,4240.128418,4212.05127,4192.94873,4262.436035,4163.077148,4366.410156,4398.333496,4276.538574,4349.871582,,,,,,,,,,,,,,,,,,,,,,,,,,,,,,,,,,,,,,,,,,,,,,,,,,,,,,,,,,,,,,,,,,,,,,
1720159488,50,0,4259.743652,4223.589844,4235.769043,4264.743652,4232.436035,4247.436035,4218.589844,4198.077148,4267.692383,4161.794922,4360.384766,4393.333496,4272.820313,4325.512695,,,,,,,,,,,,,,,,,,,,,,,,,,,,,,,,,,,,,,,,,,,,,,,,,,,,,,,,,,,,,,,,,,,,,,
1720159488,51,0,4250.256348,4212.563965,4224.871582,4263.333496,4230.512695,4250.897461,4237.820313,4213.205078,4272.563965,4160.128418,4357.307617,4392.563965,4267.05127,4321.282227,,,,,,,,,,,,,,,,,,,,,,,,,,,,,,,,,,,,,,,,,,,,,,,,,,,,,,,,,,,,,,,,,,,,,,
1720159488,52,0,4259.358887,4211.666504,4228.589844,4256.666504,4231.025879,4251.538574,4259.615234,4235.256348,4278.717773,4162.179688,4367.179688,4402.05127,4260,4337.436035,,,,,,,,,,,,,,,,,,,,,,,,,,,,,,,,,,,,,,,,,,,,,,,,,,,,,,,,,,,,,,,,,,,,,,
1720159488,53,0,4256.282227,4214.358887,4227.179688,4258.461426,4228.589844,4250.897461,4258.589844,4233.461426,4271.922852,4156.922852,4366.282227,4397.692383,4252.436035,4322.94873,,,,,,,,,,,,,,,,,,,,,,,,,,,,,,,,,,,,,,,,,,,,,,,,,,,,,,,,,,,,,,,,,,,,,,
1720159488,54,0,4260.128418,4216.025879,4226.025879,4263.333496,4227.179688,4244.743652,4246.666504,4221.922852,4259.102539,4150.897461,4355.641113,4391.922852,4260.384766,4326.922852,,,,,,,,,,,,,,,,,,,,,,,,,,,,,,,,,,,,,,,,,,,,,,,,,,,,,,,,,,,,,,,,,,,,,,
1720159488,55,0,4269.615234,4225,4235.897461,4265.128418,4229.487305,4232.94873,4237.820313,4219.102539,4256.153809,4155.384766,4360.256348,4401.410156,4278.974121,4339.230957,,,,,,,,,,,,,,,,,,,,,,,,,,,,,,,,,,,,,,,,,,,,,,,,,,,,,,,,,,,,,,,,,,,,,,
1720159488,56,0,4275.384766,4240.641113,4251.153809,4272.05127,4230.384766,4230.512695,4236.282227,4216.025879,4261.538574,4162.436035,4374.487305,4417.692383,4285.897461,4338.717773,,,,,,,,,,,,,,,,,,,,,,,,,,,,,,,,,,,,,,,,,,,,,,,,,,,,,,,,,,,,,,,,,,,,,,
1720159488,57,0,4277.94873,4248.717773,4260.769043,4282.307617,4236.410156,4241.025879,4237.436035,4215.128418,4264.871582,4163.974121,4377.436035,4424.102539,4282.05127,4341.794922,,,,,,,,,,,,,,,,,,,,,,,,,,,,,,,,,,,,,,,,,,,,,,,,,,,,,,,,,,,,,,,,,,,,,,
1720159488,58,0,4275.769043,4247.563965,4257.563965,4283.717773,4241.794922,4248.461426,4235.384766,4216.025879,4265.769043,4163.461426,4369.487305,4416.922852,4284.743652,4338.846191,,,,,,,,,,,,,,,,,,,,,,,,,,,,,,,,,,,,,,,,,,,,,,,,,,,,,,,,,,,,,,,,,,,,,,
1720159488,59,0,4278.461426,4245.256348,4252.692383,4281.153809,4238.717773,4247.307617,4239.743652,4214.871582,4268.333496,4166.153809,4369.358887,4414.102539,4284.615234,4338.846191,,,,,,,,,,,,,,,,,,,,,,,,,,,,,,,,,,,,,,,,,,,,,,,,,,,,,,,,,,,,,,,,,,,,,,
1720159488,60,0,4280,4240.256348,4250.256348,4277.436035,4236.922852,4247.94873,4245.897461,4213.205078,4267.820313,4166.538574,4369.230957,4409.615234,4280,4337.307617,0.451106,1.63581,0.710249,0.236923,0.315265,1.096965,2.983283,0.695026,0.796801,0.147462,1.25652,6.656932,1.234887,1.21886,0.195446,0.423279,2.327907,0.975363,1.129241,0.222388,0.154141,0.137078,0.164011,0.040816,0.034235,0.491599,0.447723,0.730406,0.325143,0.095219,0.986679,2.152302,2.469445,1.013508,0.156832,0.435532,0.850539,1.242938,0.567243,0.137806,0.631318,3.059571,1.042707,0.783209,0.170606,0.423513,0.3945,0.234227,0.178248,0.099915,1.138272,2.305154,0.522547,0.540137,0.288537,1.971609,7.908263,1.123984,1.255934,0.291497,0.939265,3.30078,0.770102,0.694382,0.188062,0.735339,1.901025,0.452513,0.356717,0.942436
1720159488,61,0,4268.974121,4232.94873,4238.717773,4272.307617,4238.974121,4250.384766,4238.077148,4206.794922,4262.436035,4162.820313,4361.538574,4391.922852,4279.743652,4324.102539,,,,,,,,,,,,,,,,,,,,,,,,,,,,,,,,,,,,,,,,,,,,,,,,,,,,,,,,,,,,,,,,,,,,,,
1720159488,62,0,4266.153809,4231.538574,4232.820313,4275.769043,4235,4251.538574,4230.641113,4204.102539,4261.922852,4162.179688,4366.794922,4391.922852,4276.025879,4327.820313,,,,,,,,,,,,,,,,,,,,,,,,,,,,,,,,,,,,,,,,,,,,,,,,,,,,,,,,,,,,,,,,,,,,,,
1720159488,63,0,4278.717773,4233.717773,4248.461426,4279.230957,4233.077148,4252.307617,4243.461426,4212.94873,4269.358887,4167.307617,4375.769043,4416.922852,4275.769043,4341.538574,,,,,,,,,,,,,,,,,,,,,,,,,,,,,,,,,,,,,,,,,,,,,,,,,,,,,,,,,,,,,,,,,,,,,,
1720159488,64,0,4275.256348,4235,4255.512695,4273.461426,4236.922852,4251.794922,4250.128418,4216.538574,4273.717773,4166.666504,4370,4421.025879,4285.384766,4333.205078,,,,,,,,,,,,,,,,,,,,,,,,,,,,,,,,,,,,,,,,,,,,,,,,,,,,,,,,,,,,,,,,,,,,,,
1720159488,65,0,4269.743652,4234.230957,4245.256348,4272.692383,4235.641113,4249.358887,4245.128418,4217.179688,4274.871582,4161.666504,4366.282227,4408.974121,4287.692383,4330.641113,,,,,,,,,,,,,,,,,,,,,,,,,,,,,,,,,,,,,,,,,,,,,,,,,,,,,,,,,,,,,,,,,,,,,,
1720159488,66,0,4270,4229.871582,4238.589844,4279.743652,4232.179688,4248.077148,4248.846191,4225.641113,4281.025879,4163.333496,4374.358887,4410.128418,4278.333496,4338.461426,,,,,,,,,,,,,,,,,,,,,,,,,,,,,,,,,,,,,,,,,,,,,,,,,,,,,,,,,,,,,,,,,,,,,,
1720159488,67,0,4263.589844,4231.922852,4237.94873,4279.102539,4231.153809,4248.205078,4250.128418,4225.256348,4279.487305,4164.358887,4374.615234,4408.077148,4277.820313,4334.615234,,,,,,,,,,,,,,,,,,,,,,,,,,,,,,,,,,,,,,,,,,,,,,,,,,,,,,,,,,,,,,,,,,,,,,
1720159488,68,0,4268.333496,4242.179688,4239.871582,4272.307617,4231.410156,4246.153809,4241.666504,4218.205078,4267.820313,4160,4370.769043,4403.589844,4285.256348,4335.897461,,,,,,,,,,,,,,,,,,,,,,,,,,,,,,,,,,,,,,,,,,,,,,,,,,,,,,,,,,,,,,,,,,,,,,
1720159488,69,0,4275.256348,4248.846191,4246.666504,4278.974121,4232.692383,4244.871582,4232.436035,4214.230957,4264.230957,4161.153809,4371.666504,4407.563965,4285.256348,4337.94873,,,,,,,,,,,,,,,,,,,,,,,,,,,,,,,,,,,,,,,,,,,,,,,,,,,,,,,,,,,,,,,,,,,,,,
1720159488,70,0,4275.384766,4249.743652,4255.641113,4292.563965,4233.205078,4247.179688,4231.282227,4210.128418,4267.692383,4163.974121,4369.102539,4413.205078,4286.410156,4335.769043,,,,,,,,,,,,,,,,,,,,,,,,,,,,,,,,,,,,,,,,,,,,,,,,,,,,,,,,,,,,,,,,,,,,,,
1720159488,71,0,4278.077148,4250.512695,4260.128418,4290.512695,4233.589844,4248.589844,4234.230957,4207.563965,4264.615234,4161.666504,4369.871582,4416.794922,4297.820313,4341.922852,,,,,,,,,,,,,,,,,,,,,,,,,,,,,,,,,,,,,,,,,,,,,,,,,,,,,,,,,,,,,,,,,,,,,,
1720159488,72,0,4278.205078,4251.410156,4256.794922,4278.333496,4235,4246.794922,4237.179688,4208.333496,4263.461426,4161.794922,4377.436035,4417.179688,4298.717773,4347.179688,,,,,,,,,,,,,,,,,,,,,,,,,,,,,,,,,,,,,,,,,,,,,,,,,,,,,,,,,,,,,,,,,,,,,,
1720159488,73,0,4267.692383,4248.205078,4243.974121,4275.384766,4234.102539,4245.256348,4238.974121,4211.025879,4270.256348,4163.717773,4376.282227,4408.846191,4282.05127,4336.282227,,,,,,,,,,,,,,,,,,,,,,,,,,,,,,,,,,,,,,,,,,,,,,,,,,,,,,,,,,,,,,,,,,,,,,
1720159488,74,0,4270,4242.179688,4239.743652,4280.641113,4233.974121,4246.153809,4237.307617,4218.205078,4279.871582,4164.230957,4373.974121,4406.025879,4286.794922,4340.512695,,,,,,,,,,,,,,,,,,,,,,,,,,,,,,,,,,,,,,,,,,,,,,,,,,,,,,,,,,,,,,,,,,,,,,
1720159488,75,0,4278.077148,4245.641113,4251.025879,4285.897461,4238.717773,4246.025879,4231.794922,4222.94873,4287.563965,4169.102539,4383.846191,4417.179688,4306.410156,4344.871582,,,,,,,,,,,,,,,,,,,,,,,,,,,,,,,,,,,,,,,,,,,,,,,,,,,,,,,,,,,,,,,,,,,,,,
1720159488,76,0,4274.487305,4256.666504,4261.410156,4293.717773,4239.743652,4249.358887,4230.512695,4219.615234,4290.384766,4173.974121,4387.94873,4424.102539,4304.487305,4331.666504,0.326596,1.717361,0.726096,0.254586,0.307786,1.100619,3.145649,0.733875,0.868745,0.152979,1.01422,6.518643,1.391242,1.391101,0.189898,0.296598,2.388416,0.826459,1.214932,0.228142,0.160338,0.189563,0.265361,0.052295,0.042826,0.519434,0.35969,0.829649,0.33131,0.088498,1.131041,2.37644,2.853561,0.938438,0.144632,0.485018,1.157622,1.381346,0.487792,0.123681,0.589334,3.028474,1.009554,0.901285,0.165587,0.465542,0.376495,0.318412,0.207367,0.104374,1.013054,2.215422,0.577234,0.501441,0.263991,1.700815,7.933187,1.33941,1.26067,0.268091,1.013108,3.16513,0.790045,0.710636,0.206807,0.758949,1.840055,0.45621,0.354211,0.860163
1720159488,77,0,4280.897461,4255.384766,4265.897461,4293.461426,4241.153809,4255,4240.769043,4220.512695,4290.512695,4176.922852,4389.230957,4434.615234,4302.820313,4347.820313,,,,,,,,,,,,,,,,,,,,,,,,,,,,,,,,,,,,,,,,,,,,,,,,,,,,,,,,,,,,,,,,,,,,,,
1720159488,78,0,4277.820313,4247.179688,4261.282227,4284.230957,4242.94873,4253.333496,4246.025879,4218.974121,4289.615234,4175.128418,4396.794922,4437.692383,4313.461426,4351.922852,,,,,,,,,,,,,,,,,,,,,,,,,,,,,,,,,,,,,,,,,,,,,,,,,,,,,,,,,,,,,,,,,,,,,,
1720159488,79,0,4271.410156,4249.871582,4254.743652,4281.025879,4237.179688,4249.871582,4244.230957,4213.846191,4283.077148,4168.846191,4390.769043,4422.05127,4307.820313,4338.846191,,,,,,,,,,,,,,,,,,,,,,,,,,,,,,,,,,,,,,,,,,,,,,,,,,,,,,,,,,,,,,,,,,,,,,
1720159488,80,0,4278.077148,4249.871582,4252.307617,4276.025879,4237.179688,4254.743652,4253.205078,4218.077148,4275.512695,4165.256348,4376.538574,4415.128418,4299.102539,4342.94873,,,,,,,,,,,,,,,,,,,,,,,,,,,,,,,,,,,,,,,,,,,,,,,,,,,,,,,,,,,,,,,,,,,,,,
1720159488,81,0,4273.974121,4249.230957,4252.563965,4278.974121,4243.461426,4262.94873,4265.897461,4223.974121,4278.205078,4164.102539,4380.769043,4421.410156,4311.794922,4339.743652,,,,,,,,,,,,,,,,,,,,,,,,,,,,,,,,,,,,,,,,,,,,,,,,,,,,,,,,,,,,,,,,,,,,,,
1720159488,82,0,4277.94873,4262.179688,4264.743652,4303.205078,4240.641113,4260.256348,4269.358887,4229.743652,4287.179688,4162.563965,4400.641113,4434.743652,4317.05127,4346.410156,,,,,,,,,,,,,,,,,,,,,,,,,,,,,,,,,,,,,,,,,,,,,,,,,,,,,,,,,,,,,,,,,,,,,,
1720159488,83,0,4288.846191,4271.922852,4275.769043,4312.692383,4238.077148,4250.769043,4265.384766,4233.974121,4288.077148,4162.179688,4404.487305,4442.436035,4308.589844,4352.436035,,,,,,,,,,,,,,,,,,,,,,,,,,,,,,,,,,,,,,,,,,,,,,,,,,,,,,,,,,,,,,,,,,,,,,
1720159488,84,0,4283.333496,4267.436035,4272.692383,4293.333496,4245,4245.512695,4257.307617,4231.282227,4286.410156,4162.563965,4392.94873,4442.307617,4313.589844,4346.922852,,,,,,,,,,,,,,,,,,,,,,,,,,,,,,,,,,,,,,,,,,,,,,,,,,,,,,,,,,,,,,,,,,,,,,
1720159488,85,0,4276.025879,4264.230957,4268.205078,4287.563965,4246.410156,4247.05127,4249.102539,4226.153809,4290.128418,4165.256348,4386.794922,4440.641113,4321.922852,4350,,,,,,,,,,,,,,,,,,,,,,,,,,,,,,,,,,,,,,,,,,,,,,,,,,,,,,,,,,,,,,,,,,,,,,
1720159488,86,0,4275.897461,4263.717773,4261.282227,4293.461426,4242.820313,4247.563965,4242.179688,4220.769043,4292.692383,4172.179688,4390.384766,4431.025879,4318.205078,4346.538574,,,,,,,,,,,,,,,,,,,,,,,,,,,,,,,,,,,,,,,,,,,,,,,,,,,,,,,,,,,,,,,,,,,,,,
1720159488,87,0,4276.922852,4261.025879,4257.563965,4281.922852,4245.256348,4245.512695,4234.743652,4214.102539,4291.666504,4178.205078,4399.615234,4428.077148,4312.820313,4345.384766,,,,,,,,,,,,,,,,,,,,,,,,,,,,,,,,,,,,,,,,,,,,,,,,,,,,,,,,,,,,,,,,,,,,,,
1720159488,88,0,4278.846191,4260.641113,4266.410156,4278.461426,4247.563965,4249.615234,4234.358887,4210.512695,4293.846191,4179.615234,4403.846191,4439.743652,4314.743652,4355,,,,,,,,,,,,,,,,,,,,,,,,,,,,,,,,,,,,,,,,,,,,,,,,,,,,,,,,,,,,,,,,,,,,,,
1720159488,89,0,4277.820313,4263.077148,4267.94873,4293.589844,4246.666504,4260.512695,4243.589844,4210.384766,4294.102539,4175.897461,4399.615234,4441.794922,4314.487305,4347.94873,,,,,,,,,,,,,,,,,,,,,,,,,,,,,,,,,,,,,,,,,,,,,,,,,,,,,,,,,,,,,,,,,,,,,,
1720159488,90,0,4280.769043,4262.94873,4262.179688,4298.461426,4245.769043,4270.128418,4258.846191,4215,4292.436035,4166.538574,4392.307617,4432.94873,4313.589844,4341.794922,,,,,,,,,,,,,,,,,,,,,,,,,,,,,,,,,,,,,,,,,,,,,,,,,,,,,,,,,,,,,,,,,,,,,,
1720159488,91,0,4288.205078,4260,4268.846191,4291.025879,4247.179688,4272.563965,4270.897461,4230.512695,4296.153809,4158.589844,4386.922852,4436.666504,4308.717773,4353.717773,,,,,,,,,,,,,,,,,,,,,,,,,,,,,,,,,,,,,,,,,,,,,,,,,,,,,,,,,,,,,,,,,,,,,,
1720159488,92,0,4273.333496,4257.05127,4265.512695,4289.102539,4245.128418,4264.230957,4269.871582,4235.512695,4299.102539,4157.563965,4382.563965,4432.179688,4296.538574,4342.436035,0.286359,2.055172,0.764117,0.271128,0.292009,1.105738,3.734126,0.820038,0.913343,0.157233,0.878894,7.493485,1.560117,1.539188,0.18827,0.235562,2.784363,0.693037,1.237504,0.234394,0.158134,0.261554,0.372856,0.064933,0.050587,0.542406,0.406139,0.935309,0.344738,0.084426,1.376912,3.515297,3.56602,0.911607,0.140353,0.591113,1.990747,1.668452,0.450029,0.116942,0.548127,3.425685,1.032479,1.029597,0.160428,0.514358,0.418222,0.43119,0.241641,0.110002,0.926686,2.494923,0.636307,0.443359,0.243528,1.651662,9.333138,1.585805,1.238735,0.253702,1.163729,3.47888,0.824515,0.757476,0.227211,0.771724,1.992841,0.447589,0.333334,0.770634
1720159488,93,0,4265,4253.589844,4251.794922,4289.487305,4237.179688,4254.230957,4270.384766,4235,4301.410156,4160.641113,4381.666504,4422.05127,4295,4333.589844,,,,,,,,,,,,,,,,,,,,,,,,,,,,,,,,,,,,,,,,,,,,,,,,,,,,,,,,,,,,,,,,,,,,,,
1720159488,94,0,4278.717773,4249.487305,4256.922852,4277.436035,4233.461426,4250.128418,4278.461426,4249.102539,4310.256348,4166.282227,4384.871582,4433.205078,4302.307617,4345.512695,,,,,,,,,,,,,,,,,,,,,,,,,,,,,,,,,,,,,,,,,,,,,,,,,,,,,,,,,,,,,,,,,,,,,,
1720159488,95,0,4272.692383,4243.846191,4257.436035,4267.05127,4234.230957,4248.717773,4270.641113,4251.410156,4313.077148,4170.128418,4385.128418,4434.615234,4299.743652,4345.256348,,,,,,,,,,,,,,,,,,,,,,,,,,,,,,,,,,,,,,,,,,,,,,,,,,,,,,,,,,,,,,,,,,,,,,
1720159488,96,0,4269.615234,4243.974121,4251.922852,4276.153809,4239.102539,4251.153809,4258.077148,4237.436035,4305.897461,4171.666504,4385.641113,4425,4298.461426,4344.230957,,,,,,,,,,,,,,,,,,,,,,,,,,,,,,,,,,,,,,,,,,,,,,,,,,,,,,,,,,,,,,,,,,,,,,
1720159488,97,0,4282.94873,4255.384766,4261.922852,4292.563965,4245.641113,4257.692383,4256.153809,4226.025879,4297.05127,4173.333496,4385.897461,4425.641113,4309.230957,4345.512695,,,,,,,,,,,,,,,,,,,,,,,,,,,,,,,,,,,,,,,,,,,,,,,,,,,,,,,,,,,,,,,,,,,,,,
1720159488,98,0,4287.94873,4260.512695,4273.077148,4295.641113,4247.94873,4260.512695,4250.128418,4216.538574,4288.846191,4172.692383,4384.871582,4428.846191,4311.538574,4344.358887,,,,,,,,,,,,,,,,,,,,,,,,,,,,,,,,,,,,,,,,,,,,,,,,,,,,,,,,,,,,,,,,,,,,,,
1720159488,99,0,4286.794922,4256.538574,4277.05127,4291.538574,4248.333496,4261.410156,4243.333496,4207.307617,4280.769043,4168.846191,4389.358887,4433.077148,4304.487305,4346.794922,,,,,,,,,,,,,,,,,,,,,,,,,,,,,,,,,,,,,,,,,,,,,,,,,,,,,,,,,,,,,,,,,,,,,,
1720159488,100,0,4285.128418,4261.538574,4278.717773,4299.358887,4251.025879,4263.717773,4241.410156,4203.077148,4273.077148,4169.230957,4391.025879,4441.282227,4308.974121,4354.487305,,,,,,,,,,,,,,,,,,,,,,,,,,,,,,,,,,,,,,,,,,,,,,,,,,,,,,,,,,,,,,,,,,,,,,
1720159488,101,0,4283.589844,4266.666504,4278.333496,4306.922852,4252.307617,4263.205078,4245.512695,4206.794922,4271.410156,4174.358887,4387.563965,4445.256348,4316.410156,4352.820313,,,,,,,,,,,,,,,,,,,,,,,,,,,,,,,,,,,,,,,,,,,,,,,,,,,,,,,,,,,,,,,,,,,,,,
1720159488,102,0,4286.666504,4262.179688,4278.077148,4298.333496,4251.153809,4264.230957,4261.025879,4219.615234,4285.769043,4181.153809,4393.846191,4443.846191,4316.153809,4351.153809,,,,,,,,,,,,,,,,,,,,,,,,,,,,,,,,,,,,,,,,,,,,,,,,,,,,,,,,,,,,,,,,,,,,,,
1720159488,103,0,4282.94873,4260.128418,4275,4290.256348,4250.128418,4268.846191,4275,4232.05127,4305.641113,4192.179688,4402.820313,4444.743652,4317.94873,4351.666504,,,,,,,,,,,,,,,,,,,,,,,,,,,,,,,,,,,,,,,,,,,,,,,,,,,,,,,,,,,,,,,,,,,,,,
1720159488,104,0,4268.205078,4257.05127,4259.358887,4294.102539,4248.077148,4267.05127,4268.846191,4227.563965,4304.358887,4196.666504,4392.307617,4433.846191,4320.512695,4338.846191,,,,,,,,,,,,,,,,,,,,,,,,,,,,,,,,,,,,,,,,,,,,,,,,,,,,,,,,,,,,,,,,,,,,,,
1720159488,105,0,4272.436035,4247.692383,4253.589844,4292.94873,4246.666504,4261.538574,4263.333496,4226.025879,4291.922852,4192.94873,4381.922852,4426.538574,4315.128418,4352.05127,,,,,,,,,,,,,,,,,,,,,,,,,,,,,,,,,,,,,,,,,,,,,,,,,,,,,,,,,,,,,,,,,,,,,,
1720159488,106,0,4266.794922,4247.563965,4261.153809,4283.205078,4247.05127,4259.743652,4269.743652,4233.717773,4291.153809,4190.641113,4387.179688,4434.615234,4310,4357.05127,,,,,,,,,,,,,,,,,,,,,,,,,,,,,,,,,,,,,,,,,,,,,,,,,,,,,,,,,,,,,,,,,,,,,,
1720159488,107,0,4241.794922,4252.05127,4264.487305,4286.794922,4246.538574,4258.974121,4269.615234,4235.128418,4296.282227,4188.846191,4391.666504,4438.333496,4315,4339.743652,,,,,,,,,,,,,,,,,,,,,,,,,,,,,,,,,,,,,,,,,,,,,,,,,,,,,,,,,,,,,,,,,,,,,,
1720159488,108,0,4237.05127,4250.128418,4269.102539,4296.282227,4245.384766,4258.461426,4263.717773,4235.384766,4297.179688,4190.897461,4395.641113,4438.974121,4318.589844,4349.615234,0.254542,2.560131,0.794939,0.28294,0.269803,1.076921,4.625851,0.91392,0.90143,0.157156,0.860707,9.214271,1.689222,1.619417,0.189947,0.217989,3.389894,0.587629,1.166298,0.237301,0.14575,0.33948,0.457297,0.07654,0.055901,0.558945,0.577788,1.025562,0.362647,0.083253,1.665112,5.324508,4.513069,0.928671,0.142151,0.729217,3.262598,2.098207,0.455787,0.115904,0.496325,4.175332,1.122413,1.121617,0.153494,0.562102,0.51024,0.544518,0.270474,0.113584,0.90476,3.007008,0.682974,0.378488,0.232583,1.831465,11.656151,1.807966,1.196093,0.247875,1.345694,4.064734,0.848526,0.806171,0.242899,0.768163,2.296884,0.424207,0.303727,0.677125
1720159488,109,0,4233.717773,4250.897461,4267.692383,4291.282227,4248.846191,4262.94873,4256.153809,4232.05127,4296.282227,4194.487305,4396.410156,4434.487305,4310.256348,4343.846191,,,,,,,,,,,,,,,,,,,,,,,,,,,,,,,,,,,,,,,,,,,,,,,,,,,,,,,,,,,,,,,,,,,,,,
1720159488,110,0,4230.897461,4258.333496,4261.666504,4288.974121,4257.179688,4266.025879,4252.179688,4226.153809,4299.615234,4195.384766,4388.717773,4428.461426,4303.846191,4332.692383,,,,,,,,,,,,,,,,,,,,,,,,,,,,,,,,,,,,,,,,,,,,,,,,,,,,,,,,,,,,,,,,,,,,,,
1720159488,111,0,4236.025879,4261.153809,4266.153809,4300.256348,4259.230957,4265.512695,4251.282227,4222.179688,4295.641113,4190.641113,4380.512695,4424.230957,4307.436035,4340.128418,,,,,,,,,,,,,,,,,,,,,,,,,,,,,,,,,,,,,,,,,,,,,,,,,,,,,,,,,,,,,,,,,,,,,,
1720159488,112,0,4233.589844,4255.512695,4273.589844,4304.102539,4252.307617,4267.307617,4250,4211.410156,4277.94873,4180.512695,4376.153809,4419.230957,4303.077148,4339.615234,,,,,,,,,,,,,,,,,,,,,,,,,,,,,,,,,,,,,,,,,,,,,,,,,,,,,,,,,,,,,,,,,,,,,,
1720159488,113,0,4231.025879,4247.820313,4271.794922,4290.128418,4248.846191,4267.307617,4249.230957,4201.666504,4267.820313,4171.025879,4370.256348,4419.743652,4291.282227,4342.94873,,,,,,,,,,,,,,,,,,,,,,,,,,,,,,,,,,,,,,,,,,,,,,,,,,,,,,,,,,,,,,,,,,,,,,
1720159488,114,0,4229.102539,4243.333496,4261.794922,4277.692383,4250.512695,4266.794922,4247.94873,4204.487305,4273.461426,4168.333496,4367.179688,4421.666504,4290,4340.641113,,,,,,,,,,,,,,,,,,,,,,,,,,,,,,,,,,,,,,,,,,,,,,,,,,,,,,,,,,,,,,,,,,,,,,
1720159488,115,0,4221.153809,4245,4252.179688,4281.282227,4251.538574,4273.077148,4253.077148,4210.769043,4286.153809,4176.410156,4375.769043,4417.94873,4293.205078,4326.025879,,,,,,,,,,,,,,,,,,,,,,,,,,,,,,,,,,,,,,,,,,,,,,,,,,,,,,,,,,,,,,,,,,,,,,
1720159488,116,0,4229.871582,4255.128418,4256.025879,4293.333496,4255.897461,4282.820313,4273.589844,4227.563965,4305.641113,4192.436035,4388.077148,4426.666504,4302.05127,4341.282227,,,,,,,,,,,,,,,,,,,,,,,,,,,,,,,,,,,,,,,,,,,,,,,,,,,,,,,,,,,,,,,,,,,,,,
1720159488,117,0,4242.307617,4261.410156,4263.589844,4294.871582,4257.692383,4283.077148,4292.436035,4253.846191,4320.897461,4201.794922,4392.820313,4442.94873,4315,4358.589844,,,,,,,,,,,,,,,,,,,,,,,,,,,,,,,,,,,,,,,,,,,,,,,,,,,,,,,,,,,,,,,,,,,,,,
1720159488,118,0,4231.025879,4259.871582,4255.897461,4289.743652,4249.743652,4272.05127,4287.179688,4255,4311.922852,4196.410156,4389.358887,4434.871582,4314.487305,4340.769043,,,,,,,,,,,,,,,,,,,,,,,,,,,,,,,,,,,,,,,,,,,,,,,,,,,,,,,,,,,,,,,,,,,,,,
1720159488,119,0,4232.94873,4260.512695,4251.922852,4293.974121,4244.615234,4259.743652,4277.94873,4242.692383,4294.230957,4191.025879,4390.384766,4424.230957,4309.230957,4336.794922,,,,,,,,,,,,,,,,,,,,,,,,,,,,,,,,,,,,,,,,,,,,,,,,,,,,,,,,,,,,,,,,,,,,,,
1720159488,120,0,4241.282227,4263.589844,4257.820313,4290.128418,4248.717773,4256.025879,4270,4240.897461,4291.922852,4191.538574,4395.256348,4429.615234,4315.384766,4348.077148,,,,,,,,,,,,,,,,,,,,,,,,,,,,,,,,,,,,,,,,,,,,,,,,,,,,,,,,,,,,,,,,,,,,,,
1720159488,121,0,4233.205078,4261.025879,4256.025879,4276.410156,4252.307617,4259.358887,4251.794922,4231.794922,4293.717773,4189.615234,4389.615234,4424.871582,4316.153809,4341.025879,,,,,,,,,,,,,,,,,,,,,,,,,,,,,,,,,,,,,,,,,,,,,,,,,,,,,,,,,,,,,,,,,,,,,,
1720159488,122,0,4234.230957,4258.205078,4249.871582,4280.897461,4255.512695,4264.487305,4241.538574,4212.436035,4284.743652,4183.717773,4374.743652,4408.974121,4303.205078,4332.05127,,,,,,,,,,,,,,,,,,,,,,,,,,,,,,,,,,,,,,,,,,,,,,,,,,,,,,,,,,,,,,,,,,,,,,
1720159488,123,0,4242.307617,4262.820313,4253.974121,4295.512695,4262.692383,4274.358887,4245.769043,4202.563965,4273.589844,4178.205078,4366.538574,4404.102539,4298.846191,4333.846191,,,,,,,,,,,,,,,,,,,,,,,,,,,,,,,,,,,,,,,,,,,,,,,,,,,,,,,,,,,,,,,,,,,,,,
1720159488,124,0,4245.128418,4267.563965,4269.487305,4294.230957,4265.256348,4281.282227,4255.128418,4208.589844,4270.512695,4177.94873,4375.512695,4415.897461,4299.871582,4339.358887,0.235676,3.039976,0.791967,0.29029,0.245638,0.994494,5.50926,0.977838,0.827558,0.15084,0.935394,10.858209,1.741652,1.61954,0.192681,0.221821,3.936243,0.517867,1.016496,0.235826,0.140956,0.406811,0.496587,0.084467,0.057771,0.562939,0.832312,1.091583,0.380473,0.083758,1.941344,7.305952,5.483025,0.967805,0.146566,0.861725,4.713186,2.628074,0.487829,0.116712,0.489207,4.978631,1.272427,1.133606,0.143176,0.604245,0.623933,0.631773,0.284704,0.112092,0.962924,3.480751,0.698646,0.325076,0.232267,2.153785,13.869192,1.946047,1.149734,0.247108,1.519961,4.580858,0.843464,0.828196,0.249029,0.762208,2.590386,0.389932,0.276263,0.585217
1720159488,125,0,4247.820313,4272.179688,4283.205078,4293.205078,4260.641113,4280.256348,4262.307617,4216.410156,4277.563965,4184.615234,4388.974121,4435.128418,4310.256348,4343.077148,,,,,,,,,,,,,,,,,,,,,,,,,,,,,,,,,,,,,,,,,,,,,,,,,,,,,,,,,,,,,,,,,,,,,,
1720159488,126,0,4258.589844,4280.384766,4294.615234,4309.358887,4260.512695,4279.358887,4269.743652,4223.589844,4287.820313,4197.05127,4407.436035,4461.025879,4332.692383,4354.615234,,,,,,,,,,,,,,,,,,,,,,,,,,,,,,,,,,,,,,,,,,,,,,,,,,,,,,,,,,,,,,,,,,,,,,
1720159488,127,0,4268.205078,4285.641113,4306.538574,4311.794922,4259.743652,4278.589844,4286.794922,4239.102539,4296.538574,4207.179688,4427.820313,4487.692383,4341.025879,4362.94873,,,,,,,,,,,,,,,,,,,,,,,,,,,,,,,,,,,,,,,,,,,,,,,,,,,,,,,,,,,,,,,,,,,,,,
1720159488,0,0,4262.436035,4283.461426,4307.307617,4296.282227,4253.846191,4276.794922,4307.563965,4258.846191,4312.692383,4209.743652,4429.358887,4494.871582,4337.436035,4363.589844,,,,,,,,,,,,,,,,,,,,,,,,,,,,,,,,,,,,,,,,,,,,,,,,,,,,,,,,,,,,,,,,,,,,,,
1720159488,1,0,4246.025879,4273.333496,4293.717773,4293.333496,4254.358887,4278.205078,4312.05127,4263.077148,4325.512695,4210.641113,4413.077148,4473.974121,4336.153809,4354.230957,,,,,,,,,,,,,,,,,,,,,,,,,,,,,,,,,,,,,,,,,,,,,,,,,,,,,,,,,,,,,,,,,,,,,,
1720159488,2,0,4245,4266.794922,4279.358887,4298.974121,4258.717773,4278.461426,4297.94873,4252.94873,4314.358887,4210.256348,4398.717773,4447.820313,4330.512695,4346.538574,,,,,,,,,,,,,,,,,,,,,,,,,,,,,,,,,,,,,,,,,,,,,,,,,,,,,,,,,,,,,,,,,,,,,,
1720159488,3,0,4251.666504,4270.256348,4269.102539,4292.563965,4259.102539,4272.05127,4282.05127,4244.358887,4295,4202.563965,4398.846191,4438.333496,4319.487305,4346.538574,,,,,,,,,,,,,,,,,,,,,,,,,,,,,,,,,,,,,,,,,,,,,,,,,,,,,,,,,,,,,,,,,,,,,,
1720159488,4,0,4241.922852,4275.769043,4264.102539,4289.871582,4260.384766,4265.128418,4273.077148,4234.230957,4285.641113,4193.717773,4402.692383,4433.974121,4315.897461,4332.692383,,,,,,,,,,,,,,,,,,,,,,,,,,,,,,,,,,,,,,,,,,,,,,,,,,,,,,,,,,,,,,,,,,,,,,
1720159488,5,0,4253.333496,4283.333496,4280,4300,4263.846191,4261.538574,4274.871582,4232.692383,4287.05127,4193.974121,4407.05127,4442.692383,4326.666504,4349.615234,,,,,,,,,,,,,,,,,,,,,,,,,,,,,,,,,,,,,,,,,,,,,,,,,,,,,,,,,,,,,,,,,,,,,,
1720159488,6,0,4265.641113,4290.256348,4292.563965,4297.563965,4262.436035,4264.743652,4281.153809,4238.333496,4291.153809,4194.358887,4413.333496,4454.358887,4334.230957,4368.077148,,,,,,,,,,,,,,,,,,,,,,,,,,,,,,,,,,,,,,,,,,,,,,,,,,,,,,,,,,,,,,,,,,,,,,
1720159488,7,0,4249.487305,4285.641113,4278.461426,4289.487305,4260.512695,4274.358887,4278.077148,4230.256348,4285.384766,4188.974121,4409.743652,4437.563965,4323.077148,4344.743652,,,,,,,,,,,,,,,,,,,,,,,,,,,,,,,,,,,,,,,,,,,,,,,,,,,,,,,,,,,,,,,,,,,,,,
1720159488,8,0,4249.615234,4273.974121,4272.563965,4293.717773,4264.102539,4281.153809,4270.512695,4221.153809,4277.436035,4189.487305,4397.179688,4423.461426,4309.230957,4345,,,,,,,,,,,,,,,,,,,,,,,,,,,,,,,,,,,,,,,,,,,,,,,,,,,,,,,,,,,,,,,,,,,,,,
1720159488,9,0,4250.512695,4268.461426,4275.641113,4295.769043,4265.384766,4281.538574,4260.512695,4214.743652,4276.666504,4193.461426,4389.615234,4424.743652,4308.589844,4346.282227,,,,,,,,,,,,,,,,,,,,,,,,,,,,,,,,,,,,,,,,,,,,,,,,,,,,,,,,,,,,,,,,,,,,,,
1720159488,10,0,4244.358887,4266.153809,4272.307617,4289.743652,4264.871582,4280.641113,4253.333496,4204.102539,4270.128418,4193.205078,4400.769043,4429.743652,4312.692383,4344.487305,,,,,,,,,,,,,,,,,,,,,,,,,,,,,,,,,,,,,,,,,,,,,,,,,,,,,,,,,,,,,,,,,,,,,,
1720159488,11,0,4259.615234,4270.769043,4280.128418,4290,4265.641113,4280.128418,4252.94873,4201.538574,4262.307617,4196.922852,4415.256348,4444.615234,4323.974121,4363.974121,,,,,,,,,,,,,,,,,,,,,,,,,,,,,,,,,,,,,,,,,,,,,,,,,,,,,,,,,,,,,,,,,,,,,,
1720159488,12,0,4280.384766,4289.230957,4300.128418,4306.025879,4265.897461,4277.820313,4257.436035,4212.436035,4271.153809,4205.256348,4418.077148,4462.94873,4341.153809,4363.077148,0.271578,3.290819,0.734255,0.298052,0.223915,0.849782,6.02768,0.995588,0.713004,0.139079,1.024497,11.590774,1.703183,1.556283,0.194574,0.233463,4.148197,0.493533,0.839446,0.233374,0.142471,0.451483,0.483163,0.087212,0.056304,0.543035,1.111767,1.138142,0.393164,0.084231,2.13362,8.953987,6.215367,0.997669,0.15088,0.946767,6.05672,3.175492,0.519334,0.115866,0.501976,5.4977,1.466411,1.055148,0.130237,0.620048,0.728908,0.685349,0.283784,0.104193,1.033049,3.663053,0.674189,0.298211,0.239167,2.444222,14.898758,1.959289,1.119437,0.246437,1.625448,4.704272,0.801935,0.807235,0.245469,0.718553,2.697877,0.349848,0.258064,0.501938
1720159488,13,0,4286.153809,4296.794922,4319.487305,4315.512695,4264.102539,4277.563965,4278.846191,4233.077148,4289.871582,4212.436035,4428.461426,4484.871582,4346.410156,4363.205078,,,,,,,,,,,,,,,,,,,,,,,,,,,,,,,,,,,,,,,,,,,,,,,,,,,,,,,,,,,,,,,,,,,,,,
1720159488,14,0,4272.820313,4285.128418,4328.077148,4302.179688,4261.153809,4280.769043,4309.743652,4257.436035,4304.615234,4212.692383,4439.615234,4495.641113,4337.820313,4368.717773,,,,,,,,,,,,,,,,,,,,,,,,,,,,,,,,,,,,,,,,,,,,,,,,,,,,,,,,,,,,,,,,,,,,,,
1720159488,15,0,4278.077148,4276.538574,4310.384766,4291.794922,4257.94873,4281.410156,4313.077148,4262.307617,4305,4200.384766,4424.230957,4472.179688,4323.333496,4348.333496,,,,,,,,,,,,,,,,,,,,,,,,,,,,,,,,,,,,,,,,,,,,,,,,,,,,,,,,,,,,,,,,,,,,,,
1720159488,16,0,4257.307617,4273.846191,4283.846191,4294.102539,4258.461426,4277.05127,4291.282227,4244.358887,4292.94873,4188.461426,4402.94873,4440.769043,4312.179688,4345,,,,,,,,,,,,,,,,,,,,,,,,,,,,,,,,,,,,,,,,,,,,,,,,,,,,,,,,,,,,,,,,,,,,,,
1720159488,17,0,4104.871582,4266.282227,4276.666504,4286.025879,4262.692383,4274.358887,4275.384766,4234.615234,4281.153809,4189.230957,4399.358887,4436.282227,4311.538574,4358.846191,,,,,,,,,,,,,,,,,,,,,,,,,,,,,,,,,,,,,,,,,,,,,,,,,,,,,,,,,,,,,,,,,,,,,,
1720159488,18,0,3930.641113,4262.05127,4273.717773,4275.256348,4263.717773,4276.538574,4269.102539,4230.384766,4273.461426,4191.282227,4398.846191,4435.769043,4315.897461,4343.205078,,,,,,,,,,,,,,,,,,,,,,,,,,,,,,,,,,,,,,,,,,,,,,,,,,,,,,,,,,,,,,,,,,,,,,
1720159488,19,0,3925.128174,4272.307617,4279.487305,4284.102539,4265.512695,4279.487305,4268.846191,4225.128418,4272.436035,4193.589844,4404.615234,4434.615234,4314.615234,4343.461426,,,,,,,,,,,,,,,,,,,,,,,,,,,,,,,,,,,,,,,,,,,,,,,,,,,,,,,,,,,,,,,,,,,,,,
1720159488,20,0,3980.128174,4281.666504,4295.641113,4298.077148,4268.717773,4281.538574,4275.769043,4228.589844,4280.769043,4206.538574,4416.794922,4443.077148,4313.205078,4357.94873,,,,,,,,,,,,,,,,,,,,,,,,,,,,,,,,,,,,,,,,,,,,,,,,,,,,,,,,,,,,,,,,,,,,,,
1720159489,21,0,3957.692383,4274.743652,4293.974121,4296.794922,4266.794922,4287.820313,4283.846191,4231.922852,4287.179688,4220.256348,4414.871582,4442.692383,4324.358887,4346.666504,,,,,,,,,,,,,,,,,,,,,,,,,,,,,,,,,,,,,,,,,,,,,,,,,,,,,,,,,,,,,,,,,,,,,,
1720159489,22,0,3946.794922,4266.410156,4282.563965,4282.563965,4266.282227,4292.179688,4289.871582,4229.871582,4284.358887,4222.692383,4410.897461,4438.717773,4334.358887,4345.384766,,,,,,,,,,,,,,,,,,,,,,,,,,,,,,,,,,,,,,,,,,,,,,,,,,,,,,,,,,,,,,,,,,,,,,
1720159489,23,0,3968.718018,4271.410156,4278.205078,4276.410156,4265.769043,4285.256348,4280.384766,4226.282227,4285.512695,4226.153809,4421.538574,4443.717773,4337.307617,4358.846191,,,,,,,,,,,,,,,,,,,,,,,,,,,,,,,,,,,,,,,,,,,,,,,,,,,,,,,,,,,,,,,,,,,,,,
1720159489,24,0,3977.820557,4281.666504,4284.230957,4292.94873,4260.897461,4275.512695,4263.077148,4227.179688,4295.384766,4238.333496,4433.333496,4457.307617,4350,4360.897461,,,,,,,,,,,,,,,,,,,,,,,,,,,,,,,,,,,,,,,,,,,,,,,,,,,,,,,,,,,,,,,,,,,,,,
1720159489,25,0,3986.153809,4286.538574,4300.384766,4306.538574,4262.820313,4273.077148,4259.871582,4231.025879,4300.128418,4246.282227,4443.205078,4477.179688,4366.538574,4360.769043,,,,,,,,,,,,,,,,,,,,,,,,,,,,,,,,,,,,,,,,,,,,,,,,,,,,,,,,,,,,,,,,,,,,,,
1720159489,26,0,3996.410156,4293.077148,4320,4305.256348,4267.563965,4276.666504,4275.897461,4241.153809,4301.538574,4245.256348,4459.230957,4498.333496,4376.410156,4375.769043,,,,,,,,,,,,,,,,,,,,,,,,,,,,,,,,,,,,,,,,,,,,,,,,,,,,,,,,,,,,,,,,,,,,,,
1720159489,27,0,4006.538574,4299.487305,4327.436035,4310.897461,4265.641113,4286.025879,4310.897461,4264.615234,4307.307617,4237.179688,4461.666504,4510.256348,4376.410156,4378.974121,,,,,,,,,,,,,,,,,,,,,,,,,,,,,,,,,,,,,,,,,,,,,,,,,,,,,,,,,,,,,,,,,,,,,,
1720159489,28,0,4009.102539,4289.743652,4319.230957,4312.94873,4265.512695,4295.256348,4340,4285.769043,4306.922852,4223.461426,4442.563965,4499.230957,4361.538574,4370.641113,0.463525,3.235073,0.63631,0.314896,0.207423,0.676457,5.959957,0.967854,0.589413,0.125108,1.113499,11.028975,1.566366,1.454563,0.194454,0.258742,3.9027,0.523675,0.692206,0.236109,0.156936,0.47302,0.42696,0.086606,0.05271,0.494727,1.367036,1.168673,0.399156,0.08327,2.185022,9.968541,6.495489,0.991717,0.154638,0.965989,7.106158,3.627368,0.529082,0.112471,0.539068,5.56192,1.673498,0.921788,0.119025,0.663651,0.821888,0.731198,0.279537,0.090963,1.091144,3.459914,0.642308,0.306566,0.2477,2.587472,14.238935,1.873889,1.114667,0.242278,1.676301,4.315341,0.737477,0.746771,0.237311,0.65056,2.536504,0.30983,0.251169,0.433411
1720159489,29,0,3999.358887,4270.897461,4304.871582,4296.410156,4266.922852,4297.05127,4335.512695,4279.871582,4297.563965,4212.563965,4428.461426,4475.256348,4337.94873,4357.820313,,,,,,,,,,,,,,,,,,,,,,,,,,,,,,,,,,,,,,,,,,,,,,,,,,,,,,,,,,,,,,,,,,,,,,
1720159489,30,0,3995,4264.102539,4293.589844,4286.538574,4264.871582,4295.769043,4323.717773,4260.769043,4295.769043,4212.307617,4425.897461,4460,4329.102539,4347.563965,,,,,,,,,,,,,,,,,,,,,,,,,,,,,,,,,,,,,,,,,,,,,,,,,,,,,,,,,,,,,,,,,,,,,,
1720159489,31,0,4011.153809,4267.05127,4293.461426,4293.717773,4266.282227,4296.922852,4328.461426,4261.153809,4299.102539,4222.05127,4421.666504,4460,4335.512695,4366.794922,,,,,,,,,,,,,,,,,,,,,,,,,,,,,,,,,,,,,,,,,,,,,,,,,,,,,,,,,,,,,,,,,,,,,,
1720159489,32,0,4009.615479,4265.769043,4285.641113,4293.717773,4268.205078,4296.538574,4318.974121,4260.256348,4297.307617,4230.897461,4411.282227,4447.94873,4338.974121,4356.282227,,,,,,,,,,,,,,,,,,,,,,,,,,,,,,,,,,,,,,,,,,,,,,,,,,,,,,,,,,,,,,,,,,,,,,
1720159489,33,0,4003.974365,4259.230957,4278.333496,4285.641113,4264.102539,4293.333496,4296.922852,4244.743652,4298.205078,4237.05127,4412.436035,4434.871582,4338.333496,4338.974121,,,,,,,,,,,,,,,,,,,,,,,,,,,,,,,,,,,,,,,,,,,,,,,,,,,,,,,,,,,,,,,,,,,,,,
1720159489,34,0,4020.128174,4258.589844,4287.307617,4282.820313,4262.692383,4292.94873,4288.333496,4238.974121,4301.025879,4247.563965,4425.641113,4449.615234,4339.230957,4361.153809,,,,,,,,,,,,,,,,,,,,,,,,,,,,,,,,,,,,,,,,,,,,,,,,,,,,,,,,,,,,,,,,,,,,,,
1720159489,35,0,4018.718018,4263.717773,4288.974121,4285,4264.358887,4292.179688,4280.641113,4234.871582,4295.769043,4256.153809,4427.179688,4455.769043,4343.589844,4356.666504,,,,,,,,,,,,,,,,,,,,,,,,,,,,,,,,,,,,,,,,,,,,,,,,,,,,,,,,,,,,,,,,,,,,,,
1720159489,36,0,4019.743652,4266.922852,4290.384766,4283.846191,4263.461426,4284.230957,4275.128418,4227.307617,4288.974121,4258.205078,4425.769043,4451.282227,4350.256348,4353.333496,,,,,,,,,,,,,,,,,,,,,,,,,,,,,,,,,,,,,,,,,,,,,,,,,,,,,,,,,,,,,,,,,,,,,,
1720159489,37,0,4038.205078,4270.769043,4304.743652,4290.128418,4266.282227,4278.461426,4278.077148,4229.615234,4282.179688,4257.692383,4434.487305,4465.256348,4361.794922,4368.717773,,,,,,,,,,,,,,,,,,,,,,,,,,,,,,,,,,,,,,,,,,,,,,,,,,,,,,,,,,,,,,,,,,,,,,
1720159489,38,0,4048.461426,4286.153809,4322.179688,4311.025879,4272.692383,4283.461426,4281.666504,4236.666504,4280.256348,4259.230957,4445.384766,4487.820313,4376.153809,4374.615234,,,,,,,,,,,,,,,,,,,,,,,,,,,,,,,,,,,,,,,,,,,,,,,,,,,,,,,,,,,,,,,,,,,,,,
1720159489,39,0,4055.128174,4299.358887,4335,4324.102539,4275.641113,4291.025879,4295.512695,4247.692383,4295.128418,4265.128418,4456.410156,4505.384766,4382.563965,4383.333496,,,,,,,,,,,,,,,,,,,,,,,,,,,,,,,,,,,,,,,,,,,,,,,,,,,,,,,,,,,,,,,,,,,,,,
1720159489,40,0,4057.179443,4291.666504,4331.538574,4313.205078,4273.077148,4297.94873,4321.025879,4262.05127,4308.205078,4266.410156,4458.205078,4507.436035,4377.94873,4372.820313,,,,,,,,,,,,,,,,,,,,,,,,,,,,,,,,,,,,,,,,,,,,,,,,,,,,,,,,,,,,,,,,,,,,,,
1720159489,41,0,4054.487061,4279.358887,4314.102539,4300.384766,4267.820313,4302.563965,4334.230957,4267.820313,4300.384766,4253.461426,4445.512695,4493.846191,4365,4362.820313,,,,,,,,,,,,,,,,,,,,,,,,,,,,,,,,,,,,,,,,,,,,,,,,,,,,,,,,,,,,,,,,,,,,,,
1720159489,42,0,4057.820557,4278.333496,4304.230957,4296.153809,4265.897461,4298.717773,4328.077148,4263.205078,4286.153809,4238.717773,4437.05127,4480.256348,4356.922852,4375.128418,,,,,,,,,,,,,,,,,,,,,,,,,,,,,,,,,,,,,,,,,,,,,,,,,,,,,,,,,,,,,,,,,,,,,,
