Timestamp,EEG.Counter,EEG.Interpolated,EEG.AF3,EEG.F7,EEG.F3,EEG.FC5,EEG.T7,EEG.P7,EEG.O1,EEG.O2,EEG.P8,EEG.T8,EEG.FC6,EEG.F4,EEG.F8,EEG.AF4,POW.AF3.Theta,POW.AF3.Alpha,POW.AF3.BetaL,POW.AF3.BetaH,POW.AF3.Gamma,POW.F7.Theta,POW.F7.Alpha,POW.F7.BetaL,POW.F7.BetaH,POW.F7.Gamma,POW.F3.Theta,POW.F3.Alpha,POW.F3.BetaL,POW.F3.BetaH,POW.F3.Gamma,POW.FC5.Theta,POW.FC5.Alpha,POW.FC5.BetaL,POW.FC5.BetaH,POW.FC5.Gamma,POW.T7.Theta,POW.T7.Alpha,POW.T7.BetaL,POW.T7.BetaH,POW.T7.Gamma,POW.P7.Theta,POW.P7.Alpha,POW.P7.BetaL,POW.P7.BetaH,POW.P7.Gamma,POW.O1.Theta,POW.O1.Alpha,POW.O1.BetaL,POW.O1.BetaH,POW.O1.Gamma,POW.O2.Theta,POW.O2.Alpha,POW.O2.BetaL,POW.O2.BetaH,POW.O2.Gamma,POW.P8.Theta,POW.P8.Alpha,POW.P8.BetaL,POW.P8.BetaH,POW.P8.Gamma,POW.T8.Theta,POW.T8.Alpha,POW.T8.BetaL,POW.T8.BetaH,POW.T8.Gamma,POW.FC6.Theta,POW.FC6.Alpha,POW.FC6.BetaL,POW.FC6.BetaH,POW.FC6.Gamma,POW.F4.Theta,POW.F4.Alpha,POW.F4.BetaL,POW.F4.BetaH,POW.F4.Gamma,POW.F8.Theta,POW.F8.Alpha,POW.F8.BetaL,POW.F8.BetaH,POW.F8.Gamma,POW.AF4.Theta,POW.AF4.Alpha,POW.AF4.BetaL,POW.AF4.BetaH,POW.AF4.Gamma
1720513303,67,0,4261.025879,4353.717773,4295.512695,4314.230957,4313.974121,4292.820313,4267.820313,4279.871582,4268.077148,4262.94873,4441.538574,4438.846191,4363.717773,4488.974121,,,,,,,,,,,,,,,,,,,,,,,,,,,,,,,,,,,,,,,,,,,,,,,,,,,,,,,,,,,,,,,,,,,,,,
1720513303,68,0,4267.563965,4357.179688,4303.077148,4309.358887,4314.102539,4283.077148,4261.282227,4272.820313,4251.666504,4255.128418,4442.94873,4432.436035,4365.769043,4493.974121,,,,,,,,,,,,,,,,,,,,,,,,,,,,,,,,,,,,,,,,,,,,,,,,,,,,,,,,,,,,,,,,,,,,,,
1720513303,69,0,4293.461426,4359.615234,4324.487305,4313.461426,4321.153809,4278.846191,4260.897461,4265.384766,4244.871582,4245.128418,4450.384766,4455.512695,4373.205078,4500.256348,,,,,,,,,,,,,,,,,,,,,,,,,,,,,,,,,,,,,,,,,,,,,,,,,,,,,,,,,,,,,,,,,,,,,,
1720513303,70,0,4311.666504,4370.384766,4344.615234,4335.384766,4325.897461,4281.794922,4260.512695,4263.974121,4246.538574,4244.871582,4466.666504,4488.589844,4386.794922,4525,,,,,,,,,,,,,,,,,,,,,,,,,,,,,,,,,,,,,,,,,,,,,,,,,,,,,,,,,,,,,,,,,,,,,,
1720513303,71,0,4318.461426,4377.05127,4356.410156,4346.153809,4319.487305,4279.487305,4260.769043,4264.487305,4245.769043,4252.563965,4483.589844,4496.922852,4397.820313,4552.820313,3.104372,8.248608,4.244188,0.420573,0.364149,1.620345,3.957541,1.70744,0.265406,0.167229,3.47009,9.17829,4.119323,0.479292,0.404843,2.061104,4.527135,2.285458,0.539242,0.218231,0.69103,0.413317,0.26139,0.163182,0.096694,2.075708,1.64781,0.641443,0.185715,0.070807,1.91935,1.261137,0.573643,0.180721,0.170633,3.453167,4.186581,1.809876,0.402644,0.134877,2.8304,5.78492,3.212394,0.401587,0.109332,2.312119,3.104887,1.927968,0.433554,0.219394,3.303417,5.813841,3.74938,0.522592,0.357113,4.683623,10.319674,5.579843,0.511656,0.38757,4.986489,5.549848,4.128247,0.541939,0.306235,3.006607,8.293914,5.10431,0.503784,0.295023
1720513303,72,0,4317.820313,4375.769043,4349.615234,4340.128418,4311.666504,4275.897461,4262.05127,4266.666504,4247.436035,4261.025879,4487.05127,4491.794922,4402.692383,4555.128418,,,,,,,,,,,,,,,,,,,,,,,,,,,,,,,,,,,,,,,,,,,,,,,,,,,,,,,,,,,,,,,,,,,,,,
1720513303,73,0,4310.641113,4368.077148,4333.077148,4332.820313,4308.077148,4280.512695,4264.102539,4272.820313,4256.922852,4260.641113,4480.512695,4485.256348,4399.487305,4539.615234,,,,,,,,,,,,,,,,,,,,,,,,,,,,,,,,,,,,,,,,,,,,,,,,,,,,,,,,,,,,,,,,,,,,,,
1720513303,74,0,4309.615234,4358.077148,4327.179688,4326.666504,4306.410156,4289.743652,4271.666504,4277.692383,4264.743652,4252.692383,4478.589844,4480,4389.487305,4533.717773,,,,,,,,,,,,,,,,,,,,,,,,,,,,,,,,,,,,,,,,,,,,,,,,,,,,,,,,,,,,,,,,,,,,,,
1720513303,75,0,4303.077148,4352.820313,4325.128418,4315,4308.717773,4298.589844,4281.410156,4282.307617,4265.769043,4249.230957,4480.384766,4476.025879,4381.282227,4530.641113,,,,,,,,,,,,,,,,,,,,,,,,,,,,,,,,,,,,,,,,,,,,,,,,,,,,,,,,,,,,,,,,,,,,,,
1720513303,76,0,4280.384766,4348.205078,4311.922852,4303.717773,4309.230957,4303.333496,4284.487305,4282.436035,4265.769043,4252.307617,4476.410156,4461.025879,4373.077148,4513.461426,,,,,,,,,,,,,,,,,,,,,,,,,,,,,,,,,,,,,,,,,,,,,,,,,,,,,,,,,,,,,,,,,,,,,,
1720513303,77,0,4268.077148,4341.025879,4300.256348,4301.922852,4311.282227,4306.794922,4280.128418,4272.94873,4266.922852,4248.846191,4464.615234,4445.512695,4360.256348,4497.820313,,,,,,,,,,,,,,,,,,,,,,,,,,,,,,,,,,,,,,,,,,,,,,,,,,,,,,,,,,,,,,,,,,,,,,
1720513303,78,0,4273.974121,4341.410156,4303.077148,4311.282227,4316.410156,4311.410156,4279.615234,4261.666504,4265.512695,4245.512695,4454.358887,4443.717773,4353.974121,4501.410156,,,,,,,,,,,,,,,,,,,,,,,,,,,,,,,,,,,,,,,,,,,,,,,,,,,,,,,,,,,,,,,,,,,,,,
1720513303,79,0,4281.153809,4350.641113,4310.769043,4321.922852,4319.102539,4308.846191,4282.436035,4254.487305,4260.384766,4248.846191,4462.307617,4446.153809,4366.025879,4515.384766,,,,,,,,,,,,,,,,,,,,,,,,,,,,,,,,,,,,,,,,,,,,,,,,,,,,,,,,,,,,,,,,,,,,,,
1720513303,80,0,4287.820313,4355.128418,4310.256348,4325.512695,4316.922852,4295.256348,4278.333496,4246.794922,4254.230957,4246.666504,4476.410156,4450.256348,4380.256348,4524.487305,,,,,,,,,,,,,,,,,,,,,,,,,,,,,,,,,,,,,,,,,,,,,,,,,,,,,,,,,,,,,,,,,,,,,,
1720513303,81,0,4293.077148,4354.358887,4309.615234,4328.461426,4315.769043,4282.436035,4267.179688,4245.897461,4252.179688,4248.205078,4475.897461,4462.436035,4381.538574,4528.461426,,,,,,,,,,,,,,,,,,,,,,,,,,,,,,,,,,,,,,,,,,,,,,,,,,,,,,,,,,,,,,,,,,,,,,
1720513303,82,0,4293.461426,4354.871582,4321.410156,4328.077148,4311.922852,4277.820313,4260.769043,4256.282227,4250.256348,4258.205078,4472.436035,4474.743652,4381.153809,4535.897461,,,,,,,,,,,,,,,,,,,,,,,,,,,,,,,,,,,,,,,,,,,,,,,,,,,,,,,,,,,,,,,,,,,,,,
1720513303,83,0,4300,4355.256348,4328.333496,4331.025879,4306.153809,4280.256348,4263.077148,4257.436035,4244.487305,4255.641113,4477.307617,4483.205078,4389.871582,4546.153809,,,,,,,,,,,,,,,,,,,,,,,,,,,,,,,,,,,,,,,,,,,,,,,,,,,,,,,,,,,,,,,,,,,,,,
1720513303,84,0,4303.846191,4352.179688,4317.436035,4334.871582,4310.641113,4288.974121,4265.384766,4250.897461,4246.666504,4242.436035,4479.487305,4487.179688,4393.461426,4548.717773,,,,,,,,,,,,,,,,,,,,,,,,,,,,,,,,,,,,,,,,,,,,,,,,,,,,,,,,,,,,,,,,,,,,,,
1720513303,85,0,4286.794922,4339.615234,4309.871582,4320.769043,4312.436035,4296.794922,4265.641113,4251.922852,4255.897461,4242.436035,4467.563965,4473.589844,4376.538574,4533.589844,,,,,,,,,,,,,,,,,,,,,,,,,,,,,,,,,,,,,,,,,,,,,,,,,,,,,,,,,,,,,,,,,,,,,,
1720513303,86,0,4269.743652,4325.128418,4309.102539,4303.333496,4298.717773,4295.384766,4264.743652,4261.410156,4266.282227,4252.692383,4451.922852,4464.487305,4358.205078,4517.05127,,,,,,,,,,,,,,,,,,,,,,,,,,,,,,,,,,,,,,,,,,,,,,,,,,,,,,,,,,,,,,,,,,,,,,
1720513303,87,0,4275.512695,4327.820313,4300.384766,4313.077148,4289.487305,4293.077148,4268.461426,4273.077148,4277.436035,4258.717773,4457.820313,4472.05127,4366.538574,4520,2.954948,7.576235,3.530351,0.445916,0.358033,1.612555,3.58288,1.379172,0.254394,0.199059,3.295587,7.833619,3.352083,0.436873,0.374304,2.080675,4.128046,1.760318,0.563044,0.238123,0.670565,0.505054,0.26299,0.182759,0.106137,1.744838,1.789384,0.548735,0.150279,0.07189,1.819866,1.394882,0.522939,0.172778,0.154311,2.653901,3.43108,1.781013,0.420695,0.133735,2.238655,5.230148,3.275009,0.391482,0.10531,1.947628,2.987105,1.855166,0.443344,0.208308,2.65868,5.675638,3.436366,0.576572,0.327151,3.697748,8.873851,4.432975,0.528183,0.359974,4.722948,5.480335,3.663392,0.583721,0.307061,2.8347,8.051416,4.229161,0.504076,0.284744
1720513303,88,0,4285.769043,4342.307617,4286.794922,4329.230957,4293.974121,4293.717773,4272.692383,4277.05127,4280.641113,4259.487305,4478.974121,4468.717773,4381.410156,4529.487305,,,,,,,,,,,,,,,,,,,,,,,,,,,,,,,,,,,,,,,,,,,,,,,,,,,,,,,,,,,,,,,,,,,,,,
1720513303,89,0,4282.563965,4340.128418,4278.333496,4321.282227,4297.436035,4287.820313,4271.025879,4275.256348,4278.077148,4257.94873,4477.94873,4453.589844,4379.102539,4526.794922,,,,,,,,,,,,,,,,,,,,,,,,,,,,,,,,,,,,,,,,,,,,,,,,,,,,,,,,,,,,,,,,,,,,,,
1720513303,90,0,4273.717773,4322.94873,4276.025879,4307.179688,4292.820313,4281.922852,4270.769043,4277.05127,4280.384766,4258.333496,4459.871582,4456.922852,4373.205078,4521.922852,,,,,,,,,,,,,,,,,,,,,,,,,,,,,,,,,,,,,,,,,,,,,,,,,,,,,,,,,,,,,,,,,,,,,,
1720513303,91,0,4272.179688,4322.05127,4276.922852,4308.461426,4293.205078,4290.128418,4272.563965,4277.692383,4280.256348,4255.897461,4457.563965,4461.794922,4373.077148,4519.871582,,,,,,,,,,,,,,,,,,,,,,,,,,,,,,,,,,,,,,,,,,,,,,,,,,,,,,,,,,,,,,,,,,,,,,
1720513303,92,0,4283.717773,4333.974121,4274.230957,4313.717773,4297.436035,4295.769043,4270.256348,4267.94873,4272.307617,4247.820313,4458.077148,4445.128418,4372.436035,4520.512695,,,,,,,,,,,,,,,,,,,,,,,,,,,,,,,,,,,,,,,,,,,,,,,,,,,,,,,,,,,,,,,,,,,,,,
1720513304,93,0,4290.897461,4333.846191,4274.487305,4309.615234,4293.077148,4288.589844,4270,4266.025879,4270.641113,4245.512695,4448.205078,4440.256348,4365.512695,4520.384766,,,,,,,,,,,,,,,,,,,,,,,,,,,,,,,,,,,,,,,,,,,,,,,,,,,,,,,,,,,,,,,,,,,,,,
1720513304,94,0,4277.05127,4327.94873,4286.410156,4307.94873,4289.230957,4289.358887,4280.256348,4280.384766,4277.820313,4246.025879,4455.256348,4461.153809,4367.436035,4520.897461,,,,,,,,,,,,,,,,,,,,,,,,,,,,,,,,,,,,,,,,,,,,,,,,,,,,,,,,,,,,,,,,,,,,,,
1720513304,95,0,4273.205078,4333.077148,4302.307617,4316.025879,4297.692383,4297.436035,4287.179688,4284.358887,4280.128418,4248.333496,4476.410156,4482.563965,4385.128418,4532.179688,,,,,,,,,,,,,,,,,,,,,,,,,,,,,,,,,,,,,,,,,,,,,,,,,,,,,,,,,,,,,,,,,,,,,,
1720513304,96,0,4296.666504,4348.333496,4311.666504,4323.974121,4304.743652,4296.922852,4281.794922,4276.538574,4278.717773,4258.589844,4480.641113,4491.666504,4385.128418,4540.384766,,,,,,,,,,,,,,,,,,,,,,,,,,,,,,,,,,,,,,,,,,,,,,,,,,,,,,,,,,,,,,,,,,,,,,
1720513304,97,0,4315.641113,4362.179688,4309.743652,4332.179688,4299.615234,4294.358887,4276.666504,4281.153809,4282.436035,4265.128418,4472.94873,4492.563965,4371.794922,4537.05127,,,,,,,,,,,,,,,,,,,,,,,,,,,,,,,,,,,,,,,,,,,,,,,,,,,,,,,,,,,,,,,,,,,,,,
1720513304,98,0,4315,4359.615234,4304.615234,4336.025879,4298.077148,4295.897461,4277.436035,4294.102539,4294.743652,4262.436035,4477.692383,4491.794922,4387.436035,4539.358887,,,,,,,,,,,,,,,,,,,,,,,,,,,,,,,,,,,,,,,,,,,,,,,,,,,,,,,,,,,,,,,,,,,,,,
1720513304,99,0,4310,4345.641113,4306.922852,4328.205078,4303.846191,4295.769043,4276.153809,4296.282227,4307.436035,4265.256348,4485,4491.153809,4403.461426,4543.205078,,,,,,,,,,,,,,,,,,,,,,,,,,,,,,,,,,,,,,,,,,,,,,,,,,,,,,,,,,,,,,,,,,,,,,
1720513304,100,0,4316.282227,4346.794922,4311.922852,4327.05127,4301.025879,4292.307617,4272.563965,4292.563965,4308.589844,4269.358887,4478.461426,4492.94873,4381.282227,4534.102539,,,,,,,,,,,,,,,,,,,,,,,,,,,,,,,,,,,,,,,,,,,,,,,,,,,,,,,,,,,,,,,,,,,,,,
1720513304,101,0,4325.769043,4359.871582,4314.230957,4338.717773,4294.102539,4289.871582,4273.974121,4292.563965,4301.025879,4265.769043,4474.230957,4494.615234,4374.871582,4531.410156,,,,,,,,,,,,,,,,,,,,,,,,,,,,,,,,,,,,,,,,,,,,,,,,,,,,,,,,,,,,,,,,,,,,,,
1720513304,102,0,4320.512695,4358.077148,4313.077148,4334.358887,4296.922852,4290.512695,4277.05127,4293.205078,4294.871582,4262.692383,4477.94873,4494.487305,4395,4540.512695,,,,,,,,,,,,,,,,,,,,,,,,,,,,,,,,,,,,,,,,,,,,,,,,,,,,,,,,,,,,,,,,,,,,,,
1720513304,103,0,4307.692383,4350.256348,4313.974121,4321.666504,4304.615234,4291.153809,4283.077148,4293.461426,4291.282227,4263.717773,4478.589844,4492.05127,4389.743652,4537.692383,2.757273,7.006967,2.723626,0.468285,0.354627,1.497767,3.269757,1.034053,0.23983,0.229094,2.964445,6.87701,2.598408,0.389743,0.335629,2.018515,3.886498,1.244993,0.543445,0.261894,0.640008,0.622104,0.242747,0.208515,0.119388,1.443039,2.106296,0.486268,0.121367,0.073736,1.874749,1.779725,0.524283,0.1658,0.134099,2.037001,2.911659,1.675444,0.414231,0.128924,1.643948,4.752134,3.082069,0.368376,0.105021,1.465519,2.79381,1.749297,0.428772,0.204477,2.021746,5.673025,3.088498,0.618618,0.325865,2.861571,7.766042,3.262752,0.534524,0.326406,3.965489,5.376691,3.083108,0.589804,0.299184,2.62678,7.704105,3.204701,0.48017,0.266634
1720513304,104,0,4308.205078,4350.256348,4326.538574,4323.077148,4305.256348,4292.179688,4290.769043,4295.769043,4287.94873,4256.410156,4482.436035,4497.820313,4383.974121,4533.974121,,,,,,,,,,,,,,,,,,,,,,,,,,,,,,,,,,,,,,,,,,,,,,,,,,,,,,,,,,,,,,,,,,,,,,
1720513304,105,0,4324.102539,4346.410156,4342.436035,4326.025879,4298.077148,4295.384766,4294.102539,4297.436035,4289.487305,4248.205078,4489.871582,4521.538574,4399.487305,4543.974121,,,,,,,,,,,,,,,,,,,,,,,,,,,,,,,,,,,,,,,,,,,,,,,,,,,,,,,,,,,,,,,,,,,,,,
1720513304,106,0,4329.743652,4342.692383,4340.128418,4331.153809,4291.794922,4293.589844,4289.358887,4294.743652,4293.461426,4256.410156,4490.384766,4529.743652,4402.692383,4548.205078,,,,,,,,,,,,,,,,,,,,,,,,,,,,,,,,,,,,,,,,,,,,,,,,,,,,,,,,,,,,,,,,,,,,,,
1720513304,107,0,4316.025879,4342.179688,4329.102539,4336.538574,4296.410156,4289.871582,4281.794922,4288.974121,4291.666504,4268.205078,4491.153809,4511.410156,4397.436035,4537.436035,,,,,,,,,,,,,,,,,,,,,,,,,,,,,,,,,,,,,,,,,,,,,,,,,,,,,,,,,,,,,,,,,,,,,,
1720513304,108,0,4305.769043,4338.461426,4325.512695,4331.410156,4303.974121,4293.974121,4284.230957,4290.512695,4289.230957,4269.871582,4498.717773,4502.307617,4403.333496,4526.410156,,,,,,,,,,,,,,,,,,,,,,,,,,,,,,,,,,,,,,,,,,,,,,,,,,,,,,,,,,,,,,,,,,,,,,
1720513304,109,0,4311.538574,4337.94873,4321.410156,4327.179688,4301.282227,4298.077148,4291.025879,4293.077148,4290.384766,4265.128418,4494.102539,4508.846191,4402.179688,4520.256348,,,,,,,,,,,,,,,,,,,,,,,,,,,,,,,,,,,,,,,,,,,,,,,,,,,,,,,,,,,,,,,,,,,,,,
1720513304,110,0,4310.897461,4339.102539,4317.94873,4326.666504,4294.102539,4296.025879,4286.666504,4286.410156,4290.384766,4254.102539,4477.307617,4503.333496,4382.94873,4506.410156,,,,,,,,,,,,,,,,,,,,,,,,,,,,,,,,,,,,,,,,,,,,,,,,,,,,,,,,,,,,,,,,,,,,,,
1720513304,111,0,4305.384766,4333.717773,4314.230957,4322.563965,4291.025879,4292.436035,4277.179688,4283.846191,4290.256348,4243.717773,4470.641113,4492.307617,4370.641113,4491.282227,,,,,,,,,,,,,,,,,,,,,,,,,,,,,,,,,,,,,,,,,,,,,,,,,,,,,,,,,,,,,,,,,,,,,,
1720513304,112,0,4305.897461,4331.025879,4301.153809,4322.436035,4291.153809,4288.974121,4277.307617,4291.794922,4292.179688,4247.05127,4475.384766,4494.487305,4374.871582,4489.615234,,,,,,,,,,,,,,,,,,,,,,,,,,,,,,,,,,,,,,,,,,,,,,,,,,,,,,,,,,,,,,,,,,,,,,
1720513304,113,0,4299.743652,4335.641113,4296.666504,4327.179688,4294.230957,4288.974121,4286.282227,4298.333496,4295.384766,4253.589844,4478.205078,4492.307617,4383.461426,4492.563965,,,,,,,,,,,,,,,,,,,,,,,,,,,,,,,,,,,,,,,,,,,,,,,,,,,,,,,,,,,,,,,,,,,,,,
1720513304,114,0,4297.307617,4333.589844,4308.205078,4324.615234,4296.538574,4293.461426,4293.077148,4296.922852,4298.846191,4250,4475.512695,4486.410156,4382.692383,4486.410156,,,,,,,,,,,,,,,,,,,,,,,,,,,,,,,,,,,,,,,,,,,,,,,,,,,,,,,,,,,,,,,,,,,,,,
1720513304,115,0,4309.102539,4332.179688,4314.743652,4324.102539,4296.282227,4291.794922,4290.128418,4292.307617,4294.358887,4244.230957,4472.692383,4496.025879,4379.230957,4486.794922,,,,,,,,,,,,,,,,,,,,,,,,,,,,,,,,,,,,,,,,,,,,,,,,,,,,,,,,,,,,,,,,,,,,,,
1720513304,116,0,4324.102539,4338.717773,4314.615234,4332.692383,4294.615234,4283.974121,4282.94873,4286.538574,4283.077148,4242.820313,4476.794922,4506.153809,4389.230957,4501.666504,,,,,,,,,,,,,,,,,,,,,,,,,,,,,,,,,,,,,,,,,,,,,,,,,,,,,,,,,,,,,,,,,,,,,,
1720513304,117,0,4325,4340,4314.615234,4338.974121,4292.436035,4278.974121,4276.153809,4276.922852,4278.974121,4248.077148,4484.102539,4498.205078,4398.974121,4504.615234,,,,,,,,,,,,,,,,,,,,,,,,,,,,,,,,,,,,,,,,,,,,,,,,,,,,,,,,,,,,,,,,,,,,,,
1720513304,118,0,4315.769043,4335.769043,4308.077148,4339.102539,4296.922852,4280.384766,4265.512695,4264.871582,4276.922852,4252.436035,4480.769043,4482.692383,4392.05127,4490.641113,,,,,,,,,,,,,,,,,,,,,,,,,,,,,,,,,,,,,,,,,,,,,,,,,,,,,,,,,,,,,,,,,,,,,,
1720513304,119,0,4311.538574,4337.436035,4307.820313,4338.077148,4303.461426,4288.461426,4262.179688,4260.128418,4272.563965,4248.333496,4477.307617,4483.717773,4389.487305,4486.666504,2.609617,6.909706,2.035404,0.497001,0.359814,1.341544,3.134056,0.77736,0.231167,0.255039,2.64083,6.701475,2.035702,0.348829,0.29957,1.887183,3.897137,0.867391,0.492757,0.29242,0.599763,0.74652,0.205573,0.236819,0.137317,1.322279,2.658702,0.468727,0.104388,0.077307,2.125719,2.347567,0.601178,0.155779,0.114788,1.850232,2.818655,1.524395,0.383747,0.118416,1.213292,4.660187,2.671569,0.335056,0.10569,1.009524,2.579175,1.637921,0.390955,0.206955,1.569195,5.705509,2.793472,0.641101,0.346427,2.487037,7.213497,2.317813,0.532189,0.294036,2.954375,5.258762,2.540759,0.559319,0.287687,2.516363,7.373167,2.280148,0.44626,0.249146
1720513304,120,0,4314.487305,4338.077148,4311.922852,4342.692383,4298.974121,4293.589844,4266.410156,4266.538574,4278.974121,4246.282227,4482.94873,4490.897461,4395.897461,4495.897461,,,,,,,,,,,,,,,,,,,,,,,,,,,,,,,,,,,,,,,,,,,,,,,,,,,,,,,,,,,,,,,,,,,,,,
1720513304,121,0,4311.538574,4330,4310.769043,4336.153809,4293.077148,4286.410156,4265.897461,4274.743652,4292.94873,4251.282227,4480.897461,4489.871582,4387.692383,4492.692383,,,,,,,,,,,,,,,,,,,,,,,,,,,,,,,,,,,,,,,,,,,,,,,,,,,,,,,,,,,,,,,,,,,,,,
1720513304,122,0,4298.974121,4321.153809,4306.282227,4315.641113,4295.128418,4278.974121,4267.179688,4281.922852,4297.692383,4252.436035,4472.05127,4482.820313,4378.205078,4478.846191,,,,,,,,,,,,,,,,,,,,,,,,,,,,,,,,,,,,,,,,,,,,,,,,,,,,,,,,,,,,,,,,,,,,,,
1720513304,123,0,4292.307617,4314.230957,4289.230957,4311.410156,4295.256348,4279.358887,4272.94873,4283.333496,4293.333496,4249.230957,4469.487305,4470.769043,4383.077148,4467.820313,,,,,,,,,,,,,,,,,,,,,,,,,,,,,,,,,,,,,,,,,,,,,,,,,,,,,,,,,,,,,,,,,,,,,,
1720513304,124,0,4291.153809,4312.307617,4271.794922,4320.256348,4288.846191,4279.230957,4273.205078,4278.717773,4291.153809,4248.974121,4463.333496,4461.666504,4377.179688,4460.256348,,,,,,,,,,,,,,,,,,,,,,,,,,,,,,,,,,,,,,,,,,,,,,,,,,,,,,,,,,,,,,,,,,,,,,
1720513304,125,0,4286.282227,4316.794922,4274.615234,4322.05127,4288.205078,4279.743652,4274.743652,4278.589844,4293.205078,4246.794922,4451.922852,4461.282227,4364.871582,4456.922852,,,,,,,,,,,,,,,,,,,,,,,,,,,,,,,,,,,,,,,,,,,,,,,,,,,,,,,,,,,,,,,,,,,,,,
1720513304,126,0,4282.563965,4321.538574,4285.641113,4329.230957,4295,4281.666504,4279.358887,4281.153809,4289.487305,4244.487305,4458.077148,4463.717773,4372.05127,4458.077148,,,,,,,,,,,,,,,,,,,,,,,,,,,,,,,,,,,,,,,,,,,,,,,,,,,,,,,,,,,,,,,,,,,,,,
1720513304,127,0,4292.05127,4322.692383,4295.256348,4344.358887,4298.333496,4281.410156,4278.717773,4279.358887,4280,4247.307617,4475.384766,4468.974121,4384.358887,4466.922852,,,,,,,,,,,,,,,,,,,,,,,,,,,,,,,,,,,,,,,,,,,,,,,,,,,,,,,,,,,,,,,,,,,,,,
1720513304,0,0,4297.307617,4319.230957,4298.461426,4344.102539,4293.846191,4277.563965,4275.769043,4277.05127,4277.692383,4248.589844,4480.641113,4478.974121,4384.230957,4471.538574,,,,,,,,,,,,,,,,,,,,,,,,,,,,,,,,,,,,,,,,,,,,,,,,,,,,,,,,,,,,,,,,,,,,,,
1720513304,1,0,4286.666504,4316.153809,4296.282227,4332.436035,4291.794922,4278.846191,4276.666504,4276.666504,4280.769043,4246.922852,4478.077148,4482.179688,4380.384766,4463.974121,,,,,,,,,,,,,,,,,,,,,,,,,,,,,,,,,,,,,,,,,,,,,,,,,,,,,,,,,,,,,,,,,,,,,,
1720513304,2,0,4284.358887,4317.563965,4304.102539,4329.743652,4296.282227,4286.666504,4278.974121,4275.641113,4278.461426,4248.846191,4479.743652,4473.846191,4382.307617,4452.820313,,,,,,,,,,,,,,,,,,,,,,,,,,,,,,,,,,,,,,,,,,,,,,,,,,,,,,,,,,,,,,,,,,,,,,
1720513304,3,0,4286.410156,4315.256348,4308.717773,4332.563965,4295.128418,4288.846191,4280.384766,4271.153809,4274.871582,4242.436035,4475.128418,4471.025879,4380.641113,4448.077148,,,,,,,,,,,,,,,,,,,,,,,,,,,,,,,,,,,,,,,,,,,,,,,,,,,,,,,,,,,,,,,,,,,,,,
1720513304,4,0,4279.615234,4310.512695,4294.743652,4329.871582,4292.179688,4284.230957,4275.256348,4266.410156,4274.487305,4231.666504,4465.384766,4479.358887,4372.820313,4447.563965,,,,,,,,,,,,,,,,,,,,,,,,,,,,,,,,,,,,,,,,,,,,,,,,,,,,,,,,,,,,,,,,,,,,,,
1720513304,5,0,4279.102539,4312.436035,4288.077148,4324.871582,4293.077148,4283.077148,4267.436035,4268.461426,4278.333496,4239.615234,4471.922852,4476.794922,4375.128418,4448.333496,,,,,,,,,,,,,,,,,,,,,,,,,,,,,,,,,,,,,,,,,,,,,,,,,,,,,,,,,,,,,,,,,,,,,,
1720513304,6,0,4278.077148,4315,4288.333496,4325.384766,4290,4283.846191,4265.641113,4275.897461,4290.256348,4253.333496,4476.922852,4455.128418,4377.820313,4447.307617,,,,,,,,,,,,,,,,,,,,,,,,,,,,,,,,,,,,,,,,,,,,,,,,,,,,,,,,,,,,,,,,,,,,,,
1720513304,7,0,4263.461426,4308.846191,4277.563965,4323.846191,4284.615234,4278.846191,4266.410156,4281.282227,4294.743652,4251.410156,4462.179688,4444.615234,4367.692383,4435.769043,2.604132,7.542442,1.581109,0.527889,0.379153,1.179224,3.231879,0.647058,0.233392,0.276989,2.552367,7.482408,1.695141,0.322188,0.276562,1.730682,4.156755,0.678631,0.431129,0.330961,0.605848,0.857743,0.163122,0.261577,0.158552,1.440021,3.41487,0.504826,0.101864,0.083161,2.5245,2.99628,0.766226,0.139512,0.100422,2.11556,3.127083,1.384519,0.337765,0.103964,1.034433,5.094476,2.161151,0.297826,0.105442,0.687948,2.397192,1.548739,0.338924,0.215091,1.402631,5.734854,2.577513,0.644573,0.37684,2.68976,7.367558,1.693845,0.527208,0.274215,1.992795,5.228118,2.129169,0.504048,0.28258,2.636329,7.293357,1.615505,0.416414,0.241548
1720513304,8,0,4257.05127,4298.461426,4275,4312.05127,4283.333496,4277.436035,4265.512695,4279.743652,4285.897461,4240.641113,4448.974121,4452.820313,4361.666504,4427.05127,,,,,,,,,,,,,,,,,,,,,,,,,,,,,,,,,,,,,,,,,,,,,,,,,,,,,,,,,,,,,,,,,,,,,,
1720513304,9,0,4263.974121,4295.512695,4282.436035,4305.512695,4280.897461,4281.282227,4265.256348,4271.025879,4277.179688,4238.589844,4448.205078,4452.94873,4365.512695,4429.358887,,,,,,,,,,,,,,,,,,,,,,,,,,,,,,,,,,,,,,,,,,,,,,,,,,,,,,,,,,,,,,,,,,,,,,
1720513304,10,0,4266.410156,4304.102539,4277.820313,4313.077148,4282.692383,4274.871582,4264.102539,4263.717773,4270.384766,4248.974121,4450.384766,4451.282227,4368.205078,4430.512695,,,,,,,,,,,,,,,,,,,,,,,,,,,,,,,,,,,,,,,,,,,,,,,,,,,,,,,,,,,,,,,,,,,,,,
1720513304,11,0,4274.743652,4315.897461,4282.94873,4325.384766,4289.487305,4265.897461,4262.820313,4265.769043,4264.230957,4247.820313,4457.179688,4463.333496,4373.974121,4433.205078,,,,,,,,,,,,,,,,,,,,,,,,,,,,,,,,,,,,,,,,,,,,,,,,,,,,,,,,,,,,,,,,,,,,,,
1720513304,12,0,4291.922852,4323.077148,4307.05127,4335.769043,4288.077148,4270.512695,4266.794922,4273.461426,4268.846191,4233.333496,4468.461426,4472.563965,4382.820313,4444.487305,,,,,,,,,,,,,,,,,,,,,,,,,,,,,,,,,,,,,,,,,,,,,,,,,,,,,,,,,,,,,,,,,,,,,,
1720513304,13,0,4301.666504,4330,4319.230957,4341.666504,4284.871582,4277.692383,4268.461426,4278.846191,4275.769043,4237.94873,4473.205078,4485.897461,4383.333496,4448.077148,,,,,,,,,,,,,,,,,,,,,,,,,,,,,,,,,,,,,,,,,,,,,,,,,,,,,,,,,,,,,,,,,,,,,,
1720513304,14,0,4295.897461,4327.307617,4310.641113,4336.794922,4290.641113,4281.794922,4264.743652,4273.717773,4268.461426,4248.974121,4468.589844,4496.794922,4380,4436.666504,,,,,,,,,,,,,,,,,,,,,,,,,,,,,,,,,,,,,,,,,,,,,,,,,,,,,,,,,,,,,,,,,,,,,,
1720513304,15,0,4278.461426,4314.615234,4294.230957,4324.615234,4291.922852,4291.410156,4266.282227,4264.358887,4261.153809,4237.692383,4458.974121,4474.230957,4372.05127,4426.410156,,,,,,,,,,,,,,,,,,,,,,,,,,,,,,,,,,,,,,,,,,,,,,,,,,,,,,,,,,,,,,,,,,,,,,
1720513304,16,0,4260.384766,4310.256348,4280.256348,4322.179688,4282.692383,4292.563965,4266.794922,4262.436035,4261.410156,4230.897461,4458.077148,4443.846191,4362.307617,4417.05127,,,,,,,,,,,,,,,,,,,,,,,,,,,,,,,,,,,,,,,,,,,,,,,,,,,,,,,,,,,,,,,,,,,,,,
1720513304,17,0,4257.307617,4310.641113,4272.179688,4325.641113,4280,4282.307617,4262.179688,4262.692383,4259.871582,4235.128418,4458.974121,4439.743652,4361.922852,4403.589844,,,,,,,,,,,,,,,,,,,,,,,,,,,,,,,,,,,,,,,,,,,,,,,,,,,,,,,,,,,,,,,,,,,,,,
1720513304,18,0,4261.666504,4308.205078,4275.641113,4320.769043,4283.846191,4279.871582,4263.589844,4266.538574,4265,4232.692383,4446.794922,4446.538574,4364.743652,4396.794922,,,,,,,,,,,,,,,,,,,,,,,,,,,,,,,,,,,,,,,,,,,,,,,,,,,,,,,,,,,,,,,,,,,,,,
1720513304,19,0,4264.358887,4309.230957,4279.358887,4318.846191,4284.230957,4283.974121,4267.05127,4274.102539,4273.846191,4236.538574,4440.384766,4443.333496,4361.666504,4397.563965,,,,,,,,,,,,,,,,,,,,,,,,,,,,,,,,,,,,,,,,,,,,,,,,,,,,,,,,,,,,,,,,,,,,,,
1720513304,20,0,4263.333496,4312.436035,4273.589844,4319.871582,4278.461426,4276.666504,4262.820313,4270,4269.871582,4242.436035,4441.794922,4433.846191,4355,4388.846191,,,,,,,,,,,,,,,,,,,,,,,,,,,,,,,,,,,,,,,,,,,,,,,,,,,,,,,,,,,,,,,,,,,,,,
1720513304,21,0,4252.179688,4308.461426,4269.230957,4312.05127,4272.436035,4265,4258.974121,4260.384766,4260.769043,4231.025879,4431.025879,4424.871582,4352.307617,4374.871582,,,,,,,,,,,,,,,,,,,,,,,,,,,,,,,,,,,,,,,,,,,,,,,,,,,,,,,,,,,,,,,,,,,,,,
1720513304,22,0,4247.307617,4310.256348,4273.589844,4312.563965,4275.769043,4262.05127,4259.615234,4261.538574,4262.307617,4225,4427.436035,4438.589844,4361.282227,4381.410156,,,,,,,,,,,,,,,,,,,,,,,,,,,,,,,,,,,,,,,,,,,,,,,,,,,,,,,,,,,,,,,,,,,,,,
1720513304,23,0,4260,4316.666504,4285.512695,4325.769043,4279.487305,4265.641113,4259.615234,4266.794922,4265.769043,4238.717773,4452.820313,4467.563965,4377.179688,4405.384766,2.782444,8.784283,1.361281,0.551084,0.414535,1.153243,3.498649,0.619812,0.247422,0.295649,2.874719,8.978564,1.49458,0.314576,0.271895,1.57369,4.534021,0.657158,0.379762,0.373617,0.648439,0.934849,0.128493,0.276976,0.17937,1.720915,4.206795,0.582175,0.114128,0.091014,2.946671,3.581521,0.99399,0.119268,0.093282,2.629615,3.621197,1.306854,0.289947,0.090563,1.052005,5.934281,1.683646,0.265393,0.103988,0.529224,2.250434,1.489655,0.288641,0.22712,1.517311,5.686594,2.409591,0.636731,0.406147,3.322839,8.096029,1.363225,0.529039,0.275777,1.322886,5.317539,1.875497,0.442653,0.294734,3.029853,7.557855,1.257648,0.400856,0.249246
1720513304,24,0,4269.871582,4315.256348,4298.974121,4328.205078,4278.077148,4264.871582,4261.666504,4269.871582,4263.974121,4248.589844,4474.743652,4477.563965,4385.512695,4417.179688,,,,,,,,,,,,,,,,,,,,,,,,,,,,,,,,,,,,,,,,,,,,,,,,,,,,,,,,,,,,,,,,,,,,,,
1720513304,25,0,4273.205078,4314.487305,4310,4326.153809,4278.461426,4265.256348,4269.102539,4279.102539,4268.333496,4249.102539,4476.538574,4484.743652,4388.205078,4415.641113,,,,,,,,,,,,,,,,,,,,,,,,,,,,,,,,,,,,,,,,,,,,,,,,,,,,,,,,,,,,,,,,,,,,,,
1720513304,26,0,4277.94873,4317.05127,4311.922852,4332.692383,4280.512695,4273.333496,4277.563965,4279.743652,4271.538574,4250,4477.820313,4495.769043,4389.743652,4415.897461,,,,,,,,,,,,,,,,,,,,,,,,,,,,,,,,,,,,,,,,,,,,,,,,,,,,,,,,,,,,,,,,,,,,,,
1720513304,27,0,4280.128418,4315.256348,4313.974121,4337.820313,4278.205078,4276.410156,4281.666504,4270,4269.358887,4251.794922,4479.871582,4492.563965,4383.077148,4413.461426,,,,,,,,,,,,,,,,,,,,,,,,,,,,,,,,,,,,,,,,,,,,,,,,,,,,,,,,,,,,,,,,,,,,,,
1720513304,28,0,4273.333496,4303.333496,4314.102539,4335.256348,4276.153809,4274.871582,4276.794922,4267.179688,4273.461426,4252.05127,4466.538574,4480.384766,4367.820313,4399.871582,,,,,,,,,,,,,,,,,,,,,,,,,,,,,,,,,,,,,,,,,,,,,,,,,,,,,,,,,,,,,,,,,,,,,,
1720513304,29,0,4253.461426,4285.641113,4297.820313,4316.666504,4276.922852,4277.692383,4266.538574,4269.358887,4281.153809,4242.436035,4435.769043,4461.410156,4344.102539,4372.436035,,,,,,,,,,,,,,,,,,,,,,,,,,,,,,,,,,,,,,,,,,,,,,,,,,,,,,,,,,,,,,,,,,,,,,
1720513304,30,0,4227.563965,4272.436035,4276.538574,4294.743652,4271.666504,4281.282227,4262.94873,4268.589844,4282.563965,4233.974121,4410.769043,4431.794922,4322.179688,4343.846191,,,,,,,,,,,,,,,,,,,,,,,,,,,,,,,,,,,,,,,,,,,,,,,,,,,,,,,,,,,,,,,,,,,,,,
1720513304,31,0,4219.230957,4272.563965,4256.922852,4301.282227,4269.358887,4277.179688,4261.666504,4265,4278.461426,4236.410156,4407.563965,4406.922852,4319.102539,4334.487305,,,,,,,,,,,,,,,,,,,,,,,,,,,,,,,,,,,,,,,,,,,,,,,,,,,,,,,,,,,,,,,,,,,,,,
1720513304,32,0,4227.692383,4282.820313,4248.846191,4320,4275.897461,4267.692383,4254.871582,4263.461426,4276.922852,4242.563965,4417.179688,4408.589844,4328.205078,4338.717773,,,,,,,,,,,,,,,,,,,,,,,,,,,,,,,,,,,,,,,,,,,,,,,,,,,,,,,,,,,,,,,,,,,,,,
1720513304,33,0,4240.641113,4288.461426,4265,4321.282227,4277.94873,4263.461426,4249.871582,4265,4274.615234,4244.358887,4422.563965,4431.025879,4337.05127,4346.794922,,,,,,,,,,,,,,,,,,,,,,,,,,,,,,,,,,,,,,,,,,,,,,,,,,,,,,,,,,,,,,,,,,,,,,
1720513304,34,0,4251.410156,4292.94873,4282.563965,4318.717773,4270.512695,4263.846191,4249.230957,4266.410156,4271.153809,4238.846191,4427.179688,4442.179688,4346.153809,4359.615234,,,,,,,,,,,,,,,,,,,,,,,,,,,,,,,,,,,,,,,,,,,,,,,,,,,,,,,,,,,,,,,,,,,,,,
1720513304,35,0,4252.307617,4300.256348,4275.384766,4323.077148,4264.615234,4259.358887,4247.436035,4263.589844,4260.641113,4233.333496,4440.128418,4433.333496,4354.871582,4367.563965,,,,,,,,,,,,,,,,,,,,,,,,,,,,,,,,,,,,,,,,,,,,,,,,,,,,,,,,,,,,,,,,,,,,,,
1720513304,36,0,4252.563965,4301.410156,4281.922852,4322.820313,4266.538574,4259.358887,4255,4261.538574,4248.077148,4236.282227,4451.410156,4440.256348,4360.256348,4370,,,,,,,,,,,,,,,,,,,,,,,,,,,,,,,,,,,,,,,,,,,,,,,,,,,,,,,,,,,,,,,,,,,,,,
1720513304,37,0,4254.871582,4293.461426,4304.230957,4319.487305,4271.410156,4273.717773,4275.256348,4265.897461,4250.769043,4246.410156,4449.871582,4463.077148,4362.05127,4370.512695,,,,,,,,,,,,,,,,,,,,,,,,,,,,,,,,,,,,,,,,,,,,,,,,,,,,,,,,,,,,,,,,,,,,,,
1720513304,38,0,4251.153809,4292.179688,4295,4320.769043,4277.94873,4285.384766,4282.179688,4265.256348,4261.153809,4247.692383,4443.461426,4467.436035,4359.230957,4363.077148,,,,,,,,,,,,,,,,,,,,,,,,,,,,,,,,,,,,,,,,,,,,,,,,,,,,,,,,,,,,,,,,,,,,,,
1720513304,39,0,4239.230957,4295.641113,4277.820313,4313.589844,4277.436035,4284.102539,4275.512695,4265.384766,4264.615234,4243.846191,4445.641113,4460.128418,4360.256348,4358.077148,3.061831,10.143218,1.314171,0.557875,0.460133,1.27248,3.779508,0.644923,0.27134,0.309621,3.565631,10.644034,1.325116,0.32664,0.283302,1.418951,4.848981,0.753244,0.353736,0.410609,0.733226,0.968182,0.110008,0.278813,0.194946,2.015731,4.777869,0.666112,0.138945,0.099161,3.229886,3.937606,1.226534,0.100838,0.092423,3.094327,4.035209,1.308114,0.255107,0.082704,1.137263,6.849602,1.333095,0.245218,0.101896,0.494231,2.092263,1.450521,0.255027,0.239722,1.777083,5.495772,2.236405,0.626833,0.425915,4.038389,9.040359,1.226778,0.546553,0.302015,0.996366,5.456951,1.748615,0.391484,0.327646,3.570705,8.037356,1.152114,0.40381,0.268918
1720513304,40,0,4230,4287.307617,4280.897461,4297.563965,4264.102539,4278.846191,4274.871582,4272.692383,4268.589844,4246.794922,4446.666504,4452.94873,4361.666504,4359.487305,,,,,,,,,,,,,,,,,,,,,,,,,,,,,,,,,,,,,,,,,,,,,,,,,,,,,,,,,,,,,,,,,,,,,,
1720513304,41,0,4229.615234,4278.205078,4285,4297.94873,4260.897461,4282.179688,4280.641113,4279.871582,4285.256348,4249.230957,4442.563965,4445.256348,4349.743652,4349.743652,,,,,,,,,,,,,,,,,,,,,,,,,,,,,,,,,,,,,,,,,,,,,,,,,,,,,,,,,,,,,,,,,,,,,,
1720513304,42,0,4228.717773,4281.410156,4273.589844,4305,4272.307617,4293.333496,4287.05127,4283.589844,4296.794922,4250.769043,4438.717773,4446.666504,4339.615234,4337.692383,,,,,,,,,,,,,,,,,,,,,,,,,,,,,,,,,,,,,,,,,,,,,,,,,,,,,,,,,,,,,,,,,,,,,,
1720513304,43,0,4218.589844,4280,4267.692383,4288.205078,4271.794922,4292.94873,4287.94873,4282.820313,4288.461426,4250,4436.922852,4440.769043,4340.512695,4337.307617,,,,,,,,,,,,,,,,,,,,,,,,,,,,,,,,,,,,,,,,,,,,,,,,,,,,,,,,,,,,,,,,,,,,,,
1720513304,44,0,4211.025879,4266.794922,4273.333496,4275.769043,4260.384766,4282.179688,4285,4278.717773,4275.897461,4244.230957,4428.974121,4421.922852,4335.897461,4332.436035,,,,,,,,,,,,,,,,,,,,,,,,,,,,,,,,,,,,,,,,,,,,,,,,,,,,,,,,,,,,,,,,,,,,,,
1720513304,45,0,4220.384766,4261.666504,4272.563965,4291.794922,4258.717773,4278.974121,4280.128418,4273.846191,4264.615234,4231.410156,4412.179688,4412.307617,4326.282227,4320.256348,,,,,,,,,,,,,,,,,,,,,,,,,,,,,,,,,,,,,,,,,,,,,,,,,,,,,,,,,,,,,,,,,,,,,,
1720513304,46,0,4231.538574,4267.563965,4267.307617,4298.333496,4260.128418,4277.436035,4270.769043,4262.563965,4252.563965,4217.820313,4409.615234,4408.974121,4324.871582,4317.563965,,,,,,,,,,,,,,,,,,,,,,,,,,,,,,,,,,,,,,,,,,,,,,,,,,,,,,,,,,,,,,,,,,,,,,
1720513304,47,0,4230,4271.794922,4264.230957,4289.102539,4259.487305,4272.94873,4261.282227,4248.589844,4241.153809,4215,4425.384766,4407.692383,4330.512695,4325.128418,,,,,,,,,,,,,,,,,,,,,,,,,,,,,,,,,,,,,,,,,,,,,,,,,,,,,,,,,,,,,,,,,,,,,,
1720513304,48,0,4225.769043,4279.871582,4265.897461,4293.589844,4265.897461,4280.256348,4263.461426,4246.794922,4233.717773,4214.743652,4433.077148,4416.538574,4336.153809,4333.205078,,,,,,,,,,,,,,,,,,,,,,,,,,,,,,,,,,,,,,,,,,,,,,,,,,,,,,,,,,,,,,,,,,,,,,
1720513304,49,0,4234.615234,4290.897461,4271.410156,4301.666504,4266.410156,4292.94873,4273.077148,4247.436035,4230,4214.615234,4429.230957,4424.743652,4344.743652,4338.461426,,,,,,,,,,,,,,,,,,,,,,,,,,,,,,,,,,,,,,,,,,,,,,,,,,,,,,,,,,,,,,,,,,,,,,
1720513304,50,0,4251.922852,4292.94873,4276.538574,4305.256348,4264.743652,4293.846191,4277.179688,4247.05127,4234.615234,4221.410156,4431.794922,4434.487305,4353.974121,4343.974121,,,,,,,,,,,,,,,,,,,,,,,,,,,,,,,,,,,,,,,,,,,,,,,,,,,,,,,,,,,,,,,,,,,,,,
1720513304,51,0,4246.666504,4293.461426,4267.820313,4305.769043,4270.641113,4290.384766,4280.769043,4256.282227,4249.230957,4223.077148,4432.820313,4445.641113,4351.538574,4344.487305,,,,,,,,,,,,,,,,,,,,,,,,,,,,,,,,,,,,,,,,,,,,,,,,,,,,,,,,,,,,,,,,,,,,,,
1720513304,52,0,4232.820313,4294.615234,4257.94873,4296.666504,4268.461426,4292.179688,4280.128418,4258.717773,4258.333496,4216.666504,4425.897461,4434.230957,4341.025879,4332.692383,,,,,,,,,,,,,,,,,,,,,,,,,,,,,,,,,,,,,,,,,,,,,,,,,,,,,,,,,,,,,,,,,,,,,,
1720513304,53,0,4240.769043,4290.512695,4255.897461,4293.589844,4261.666504,4289.743652,4269.358887,4251.666504,4260.512695,4227.820313,4425.897461,4412.05127,4342.05127,4323.589844,,,,,,,,,,,,,,,,,,,,,,,,,,,,,,,,,,,,,,,,,,,,,,,,,,,,,,,,,,,,,,,,,,,,,,
1720513304,54,0,4244.743652,4291.153809,4248.461426,4298.205078,4265.641113,4281.153809,4262.307617,4257.307617,4270.128418,4251.153809,4432.563965,4408.974121,4351.922852,4325,,,,,,,,,,,,,,,,,,,,,,,,,,,,,,,,,,,,,,,,,,,,,,,,,,,,,,,,,,,,,,,,,,,,,,
1720513304,55,0,4231.922852,4295.384766,4250.256348,4293.461426,4267.94873,4277.94873,4266.794922,4276.153809,4283.846191,4254.358887,4440.769043,4419.230957,4351.794922,4326.538574,3.334969,11.055323,1.360084,0.551517,0.502761,1.502259,3.924929,0.677824,0.30244,0.315289,4.423323,11.939446,1.12816,0.357826,0.30188,1.262731,4.978565,0.908896,0.35898,0.430641,0.808495,0.956539,0.107239,0.265267,0.201167,2.16447,4.917921,0.723472,0.169741,0.105279,3.273752,3.94211,1.388179,0.090349,0.095006,3.299488,4.181335,1.340848,0.247191,0.081778,1.191711,7.44331,1.109083,0.243091,0.099844,0.521935,1.878711,1.39003,0.244499,0.249725,2.007905,5.235545,2.042534,0.620381,0.430989,4.551467,9.942794,1.176853,0.578972,0.349686,0.930696,5.575034,1.6784,0.357674,0.373376,4.137797,8.536201,1.17003,0.420655,0.290985
1720513304,56,0,4235.384766,4299.615234,4262.05127,4296.794922,4260.641113,4279.102539,4268.846191,4284.615234,4283.461426,4245,4453.461426,4432.179688,4352.94873,4331.282227,,,,,,,,,,,,,,,,,,,,,,,,,,,,,,,,,,,,,,,,,,,,,,,,,,,,,,,,,,,,,,,,,,,,,,
1720513304,57,0,4257.94873,4304.871582,4274.487305,4311.666504,4259.743652,4276.794922,4264.230957,4281.538574,4278.846191,4245.256348,4461.282227,4445.512695,4363.846191,4342.436035,,,,,,,,,,,,,,,,,,,,,,,,,,,,,,,,,,,,,,,,,,,,,,,,,,,,,,,,,,,,,,,,,,,,,,
1720513304,58,0,4268.846191,4311.025879,4291.153809,4314.102539,4266.410156,4275.256348,4268.589844,4281.538574,4282.436035,4251.153809,4461.410156,4447.692383,4367.179688,4349.871582,,,,,,,,,,,,,,,,,,,,,,,,,,,,,,,,,,,,,,,,,,,,,,,,,,,,,,,,,,,,,,,,,,,,,,
1720513304,59,0,4274.230957,4320.128418,4299.871582,4316.922852,4267.436035,4279.487305,4278.077148,4280.256348,4277.05127,4252.05127,4458.846191,4445.256348,4361.794922,4349.102539,,,,,,,,,,,,,,,,,,,,,,,,,,,,,,,,,,,,,,,,,,,,,,,,,,,,,,,,,,,,,,,,,,,,,,
1720513304,60,0,4285.384766,4324.487305,4305.641113,4327.436035,4262.94873,4282.436035,4282.307617,4268.333496,4259.743652,4233.461426,4443.589844,4453.589844,4354.102539,4344.230957,,,,,,,,,,,,,,,,,,,,,,,,,,,,,,,,,,,,,,,,,,,,,,,,,,,,,,,,,,,,,,,,,,,,,,
1720513304,61,0,4287.436035,4323.077148,4311.153809,4328.589844,4267.179688,4281.922852,4277.436035,4251.282227,4245.128418,4213.077148,4432.94873,4448.846191,4353.846191,4340,,,,,,,,,,,,,,,,,,,,,,,,,,,,,,,,,,,,,,,,,,,,,,,,,,,,,,,,,,,,,,,,,,,,,,
1720513304,62,0,4281.282227,4326.538574,4296.410156,4321.666504,4281.153809,4281.922852,4265.897461,4242.307617,4239.743652,4218.077148,4445.769043,4428.589844,4360.128418,4340.384766,,,,,,,,,,,,,,,,,,,,,,,,,,,,,,,,,,,,,,,,,,,,,,,,,,,,,,,,,,,,,,,,,,,,,,
1720513304,63,0,4271.282227,4326.794922,4275.256348,4314.615234,4278.333496,4281.666504,4261.025879,4243.461426,4247.05127,4235.897461,4455,4428.461426,4360.128418,4341.025879,,,,,,,,,,,,,,,,,,,,,,,,,,,,,,,,,,,,,,,,,,,,,,,,,,,,,,,,,,,,,,,,,,,,,,
1720513304,64,0,4260.641113,4313.717773,4275.641113,4309.487305,4263.589844,4281.666504,4271.025879,4256.410156,4263.333496,4241.410156,4445.769043,4443.717773,4358.717773,4337.436035,,,,,,,,,,,,,,,,,,,,,,,,,,,,,,,,,,,,,,,,,,,,,,,,,,,,,,,,,,,,,,,,,,,,,,
1720513304,65,0,4260.128418,4307.179688,4279.743652,4306.153809,4262.307617,4279.230957,4279.102539,4272.94873,4277.179688,4240.897461,4446.666504,4449.102539,4363.461426,4338.205078,,,,,,,,,,,,,,,,,,,,,,,,,,,,,,,,,,,,,,,,,,,,,,,,,,,,,,,,,,,,,,,,,,,,,,
1720513304,66,0,4270.769043,4311.538574,4278.846191,4299.102539,4265.769043,4276.410156,4270.384766,4277.307617,4282.307617,4248.589844,4459.743652,4451.794922,4366.025879,4346.794922,,,,,,,,,,,,,,,,,,,,,,,,,,,,,,,,,,,,,,,,,,,,,,,,,,,,,,,,,,,,,,,,,,,,,,
1720513304,67,0,4274.615234,4309.358887,4287.692383,4297.820313,4260,4275.384766,4263.461426,4276.922852,4283.205078,4255,4464.358887,4458.846191,4368.974121,4353.461426,,,,,,,,,,,,,,,,,,,,,,,,,,,,,,,,,,,,,,,,,,,,,,,,,,,,,,,,,,,,,,,,,,,,,,
1720513304,68,0,4272.179688,4312.307617,4296.666504,4309.230957,4257.94873,4270.384766,4265.128418,4282.05127,4285.512695,4252.563965,4463.846191,4467.307617,4375.256348,4355.897461,,,,,,,,,,,,,,,,,,,,,,,,,,,,,,,,,,,,,,,,,,,,,,,,,,,,,,,,,,,,,,,,,,,,,,
1720513304,69,0,4284.615234,4321.666504,4304.487305,4311.153809,4262.692383,4263.333496,4262.94873,4282.179688,4283.461426,4250,4463.461426,4477.563965,4376.538574,4360.769043,,,,,,,,,,,,,,,,,,,,,,,,,,,,,,,,,,,,,,,,,,,,,,,,,,,,,,,,,,,,,,,,,,,,,,
1720513304,70,0,4300.769043,4323.589844,4312.436035,4305.384766,4265.897461,4265.897461,4260.769043,4273.077148,4270.256348,4250.384766,4467.820313,4473.717773,4375.512695,4364.615234,,,,,,,,,,,,,,,,,,,,,,,,,,,,,,,,,,,,,,,,,,,,,,,,,,,,,,,,,,,,,,,,,,,,,,
1720513304,71,0,4295.512695,4322.820313,4299.230957,4313.205078,4264.358887,4276.153809,4264.871582,4260.384766,4253.589844,4244.871582,4464.102539,4447.820313,4372.05127,4353.077148,3.431916,11.154696,1.424618,0.553857,0.527522,1.725387,3.861856,0.68541,0.339904,0.308342,5.118742,12.541921,0.936061,0.410722,0.318414,1.095034,4.877223,1.052527,0.395524,0.428117,0.840986,0.900224,0.110902,0.239351,0.197158,2.08866,4.579462,0.733001,0.199862,0.108463,3.069551,3.600374,1.43396,0.093421,0.098624,3.163172,3.974819,1.341358,0.273663,0.085643,1.193408,7.445097,0.958139,0.260455,0.098668,0.584231,1.608875,1.274763,0.255335,0.255136,2.08944,5.102183,1.865998,0.627277,0.420128,4.685334,10.788235,1.152488,0.625484,0.411582,0.979634,5.686694,1.608877,0.346076,0.414777,4.43729,8.947539,1.213413,0.449366,0.305395
1720513304,72,0,4274.358887,4320,4274.615234,4313.461426,4258.589844,4279.871582,4266.153809,4248.461426,4240.769043,4227.820313,4439.615234,4427.179688,4356.153809,4329.102539,,,,,,,,,,,,,,,,,,,,,,,,,,,,,,,,,,,,,,,,,,,,,,,,,,,,,,,,,,,,,,,,,,,,,,
1720513304,73,0,4264.743652,4310.512695,4265.897461,4296.922852,4259.358887,4278.974121,4264.487305,4242.692383,4235.769043,4216.025879,4424.487305,4423.589844,4343.205078,4318.589844,,,,,,,,,,,,,,,,,,,,,,,,,,,,,,,,,,,,,,,,,,,,,,,,,,,,,,,,,,,,,,,,,,,,,,
1720513304,74,0,4265.897461,4301.538574,4266.538574,4290.641113,4264.230957,4282.307617,4267.307617,4244.871582,4244.487305,4218.077148,4433.205078,4430.897461,4342.179688,4324.615234,,,,,,,,,,,,,,,,,,,,,,,,,,,,,,,,,,,,,,,,,,,,,,,,,,,,,,,,,,,,,,,,,,,,,,
1720513304,75,0,4260.384766,4303.589844,4259.615234,4297.179688,4257.05127,4284.230957,4266.538574,4250.128418,4258.333496,4219.487305,4434.871582,4433.846191,4339.871582,4317.94873,,,,,,,,,,,,,,,,,,,,,,,,,,,,,,,,,,,,,,,,,,,,,,,,,,,,,,,,,,,,,,,,,,,,,,
1720513304,76,0,4255,4306.410156,4260.256348,4297.179688,4247.563965,4279.358887,4261.666504,4255.256348,4262.307617,4214.743652,4430.897461,4430,4337.563965,4307.563965,,,,,,,,,,,,,,,,,,,,,,,,,,,,,,,,,,,,,,,,,,,,,,,,,,,,,,,,,,,,,,,,,,,,,,
1720513304,77,0,4263.461426,4301.282227,4275.769043,4292.436035,4248.205078,4272.94873,4260.128418,4260.256348,4262.436035,4222.94873,4440.128418,4442.436035,4341.153809,4316.410156,,,,,,,,,,,,,,,,,,,,,,,,,,,,,,,,,,,,,,,,,,,,,,,,,,,,,,,,,,,,,,,,,,,,,,
1720513304,78,0,4275.512695,4301.538574,4282.436035,4296.538574,4250,4275.641113,4263.077148,4264.487305,4270.384766,4236.666504,4448.077148,4463.717773,4343.333496,4321.282227,,,,,,,,,,,,,,,,,,,,,,,,,,,,,,,,,,,,,,,,,,,,,,,,,,,,,,,,,,,,,,,,,,,,,,
1720513304,79,0,4282.94873,4310.128418,4281.666504,4305.641113,4250.769043,4278.846191,4270.512695,4269.358887,4275.384766,4235.128418,4446.153809,4464.743652,4343.974121,4314.871582,,,,,,,,,,,,,,,,,,,,,,,,,,,,,,,,,,,,,,,,,,,,,,,,,,,,,,,,,,,,,,,,,,,,,,
1720513304,80,0,4282.436035,4313.846191,4286.410156,4307.307617,4254.871582,4260.641113,4275.256348,4267.179688,4267.820313,4229.615234,4436.410156,4446.794922,4341.282227,4312.307617,,,,,,,,,,,,,,,,,,,,,,,,,,,,,,,,,,,,,,,,,,,,,,,,,,,,,,,,,,,,,,,,,,,,,,
1720513304,81,0,4271.282227,4309.871582,4283.205078,4301.922852,4262.436035,4234.487305,4272.05127,4256.922852,4257.820313,4230.641113,4422.563965,4436.538574,4332.692383,4305.128418,,,,,,,,,,,,,,,,,,,,,,,,,,,,,,,,,,,,,,,,,,,,,,,,,,,,,,,,,,,,,,,,,,,,,,
1720513304,82,0,4263.205078,4309.230957,4266.410156,4301.410156,4262.307617,4230,4267.436035,4248.333496,4249.230957,4226.410156,4415.512695,4430.128418,4324.615234,4294.743652,,,,,,,,,,,,,,,,,,,,,,,,,,,,,,,,,,,,,,,,,,,,,,,,,,,,,,,,,,,,,,,,,,,,,,
1720513304,83,0,4261.922852,4314.487305,4260,4307.05127,4252.436035,4235.384766,4264.487305,4240.897461,4237.05127,4218.589844,4414.230957,4412.179688,4324.871582,4290.641113,,,,,,,,,,,,,,,,,,,,,,,,,,,,,,,,,,,,,,,,,,,,,,,,,,,,,,,,,,,,,,,,,,,,,,
1720513304,84,0,4262.05127,4319.487305,4263.717773,4305.256348,4251.666504,4233.333496,4261.666504,4237.692383,4232.692383,4211.794922,4409.743652,4406.153809,4327.179688,4286.794922,,,,,,,,,,,,,,,,,,,,,,,,,,,,,,,,,,,,,,,,,,,,,,,,,,,,,,,,,,,,,,,,,,,,,,
1720513304,85,0,4270.769043,4324.102539,4265.128418,4302.307617,4263.974121,4232.692383,4261.282227,4244.358887,4243.333496,4210.384766,4405.384766,4423.077148,4327.820313,4288.205078,,,,,,,,,,,,,,,,,,,,,,,,,,,,,,,,,,,,,,,,,,,,,,,,,,,,,,,,,,,,,,,,,,,,,,
1720513304,86,0,4281.153809,4327.436035,4268.974121,4308.846191,4268.205078,4234.358887,4262.05127,4253.589844,4256.025879,4225,4415,4434.358887,4333.589844,4301.410156,,,,,,,,,,,,,,,,,,,,,,,,,,,,,,,,,,,,,,,,,,,,,,,,,,,,,,,,,,,,,,,,,,,,,,
1720513304,87,0,4280.512695,4326.282227,4279.102539,4309.102539,4262.05127,4231.666504,4262.179688,4258.461426,4261.794922,4237.307617,4427.94873,4438.589844,4339.615234,4309.230957,3.29994,10.453797,1.479068,0.58558,0.526493,1.858284,3.633432,0.658613,0.382951,0.28683,5.426504,12.43734,0.827954,0.486846,0.329684,0.934985,4.590285,1.122164,0.452369,0.406756,0.792316,0.806718,0.109337,0.20837,0.186409,1.810559,3.908093,0.681362,0.224978,0.109703,2.70459,3.051771,1.358089,0.11702,0.101298,2.77067,3.509262,1.271603,0.330302,0.090434,1.197954,6.961836,0.829072,0.292978,0.09956,0.701217,1.388014,1.108608,0.280484,0.256694,2.05767,5.317653,1.778752,0.654118,0.396082,4.506475,11.714812,1.167227,0.684848,0.478892,1.084373,5.876207,1.526783,0.355485,0.43396,4.509717,9.283969,1.265339,0.4866,0.306023
1720513304,88,0,4277.563965,4325.512695,4285.769043,4300.897461,4262.820313,4230.256348,4266.153809,4261.153809,4264.615234,4231.794922,4427.05127,4455.512695,4340.384766,4309.615234,,,,,,,,,,,,,,,,,,,,,,,,,,,,,,,,,,,,,,,,,,,,,,,,,,,,,,,,,,,,,,,,,,,,,,
1720513304,89,0,4281.666504,4332.563965,4283.974121,4308.461426,4264.102539,4227.563965,4271.410156,4264.871582,4272.436035,4236.410156,4432.94873,4465,4348.461426,4318.077148,,,,,,,,,,,,,,,,,,,,,,,,,,,,,,,,,,,,,,,,,,,,,,,,,,,,,,,,,,,,,,,,,,,,,,
1720513304,90,0,4289.487305,4340.512695,4289.487305,4327.179688,4260.256348,4222.05127,4274.358887,4276.666504,4285.897461,4262.94873,4459.871582,4467.436035,4369.615234,4334.487305,,,,,,,,,,,,,,,,,,,,,,,,,,,,,,,,,,,,,,,,,,,,,,,,,,,,,,,,,,,,,,,,,,,,,,
1720513304,91,0,4298.717773,4338.717773,4304.743652,4329.487305,4260.897461,4217.563965,4273.205078,4288.974121,4291.410156,4270.769043,4469.487305,4482.94873,4382.94873,4345.897461,,,,,,,,,,,,,,,,,,,,,,,,,,,,,,,,,,,,,,,,,,,,,,,,,,,,,,,,,,,,,,,,,,,,,,
1720513304,92,0,4308.461426,4339.871582,4319.102539,4324.102539,4262.436035,4215.512695,4267.692383,4286.666504,4282.05127,4251.794922,4457.436035,4496.025879,4379.871582,4347.94873,,,,,,,,,,,,,,,,,,,,,,,,,,,,,,,,,,,,,,,,,,,,,,,,,,,,,,,,,,,,,,,,,,,,,,
1720513305,93,0,4318.205078,4347.94873,4325.769043,4332.05127,4263.974121,4223.717773,4267.692383,4278.205078,4270.512695,4246.666504,4463.461426,4500.641113,4378.846191,4350.641113,,,,,,,,,,,,,,,,,,,,,,,,,,,,,,,,,,,,,,,,,,,,,,,,,,,,,,,,,,,,,,,,,,,,,,
1720513305,94,0,4321.538574,4347.692383,4320.128418,4336.410156,4268.461426,4232.436035,4264.743652,4266.025879,4257.563965,4254.871582,4468.077148,4494.230957,4378.974121,4348.717773,,,,,,,,,,,,,,,,,,,,,,,,,,,,,,,,,,,,,,,,,,,,,,,,,,,,,,,,,,,,,,,,,,,,,,
1720513305,95,0,4312.307617,4341.025879,4312.692383,4326.153809,4272.692383,4232.05127,4253.077148,4251.153809,4246.410156,4246.922852,4447.05127,4479.743652,4371.538574,4336.410156,,,,,,,,,,,,,,,,,,,,,,,,,,,,,,,,,,,,,,,,,,,,,,,,,,,,,,,,,,,,,,,,,,,,,,
1720513305,96,0,4303.589844,4339.743652,4310.641113,4320,4274.615234,4237.307617,4251.410156,4243.589844,4241.282227,4230.641113,4431.666504,4470.641113,4360.641113,4325.512695,,,,,,,,,,,,,,,,,,,,,,,,,,,,,,,,,,,,,,,,,,,,,,,,,,,,,,,,,,,,,,,,,,,,,,
1720513305,97,0,4305.512695,4341.538574,4302.94873,4325.256348,4273.205078,4248.589844,4265.512695,4247.05127,4245.128418,4230.512695,4432.820313,4474.871582,4355.128418,4322.05127,,,,,,,,,,,,,,,,,,,,,,,,,,,,,,,,,,,,,,,,,,,,,,,,,,,,,,,,,,,,,,,,,,,,,,
1720513305,98,0,4304.102539,4343.589844,4296.153809,4330,4267.94873,4249.102539,4274.615234,4255.897461,4255,4234.487305,4433.077148,4475.512695,4357.94873,4319.102539,,,,,,,,,,,,,,,,,,,,,,,,,,,,,,,,,,,,,,,,,,,,,,,,,,,,,,,,,,,,,,,,,,,,,,
1720513305,99,0,4294.871582,4337.692383,4300.769043,4326.666504,4262.436035,4241.025879,4269.230957,4259.358887,4263.077148,4229.871582,4427.563965,4463.589844,4348.589844,4309.102539,,,,,,,,,,,,,,,,,,,,,,,,,,,,,,,,,,,,,,,,,,,,,,,,,,,,,,,,,,,,,,,,,,,,,,
1720513305,100,0,4290.384766,4328.333496,4302.307617,4323.589844,4263.717773,4238.589844,4264.358887,4259.102539,4270.897461,4236.666504,4428.846191,4463.205078,4342.563965,4303.974121,,,,,,,,,,,,,,,,,,,,,,,,,,,,,,,,,,,,,,,,,,,,,,,,,,,,,,,,,,,,,,,,,,,,,,
1720513305,101,0,4292.179688,4330.641113,4300.769043,4326.666504,4265.897461,4243.077148,4270.256348,4267.820313,4279.615234,4258.205078,4440.641113,4473.461426,4358.589844,4310.769043,,,,,,,,,,,,,,,,,,,,,,,,,,,,,,,,,,,,,,,,,,,,,,,,,,,,,,,,,,,,,,,,,,,,,,
1720513305,102,0,4295.641113,4337.820313,4314.358887,4327.563965,4263.461426,4243.589844,4277.94873,4280,4283.461426,4262.436035,4450.641113,4479.102539,4364.487305,4316.666504,,,,,,,,,,,,,,,,,,,,,,,,,,,,,,,,,,,,,,,,,,,,,,,,,,,,,,,,,,,,,,,,,,,,,,
1720513305,103,0,4313.974121,4343.077148,4331.794922,4324.871582,4264.102539,4235.384766,4276.410156,4280.641113,4280.128418,4247.820313,4455.256348,4485,4362.692383,4327.307617,2.940286,9.333106,1.527904,0.650664,0.501479,1.863475,3.383494,0.606678,0.4258,0.252453,5.270627,11.893806,0.888668,0.576433,0.335934,0.858044,4.245636,1.086419,0.509587,0.377161,0.670434,0.692758,0.101059,0.180291,0.174763,1.427074,3.172693,0.578359,0.244026,0.110784,2.293303,2.492652,1.197638,0.167988,0.102298,2.269164,3.036771,1.152929,0.402188,0.093687,1.280297,6.439593,0.723257,0.333759,0.10355,0.910215,1.390535,0.921471,0.314324,0.258624,1.99437,5.98646,1.834267,0.704832,0.365526,4.140105,12.855789,1.308834,0.7558,0.542148,1.245313,6.251343,1.43584,0.384214,0.419707,4.241792,9.643635,1.350382,0.533051,0.292325
1720513305,104,0,4338.461426,4342.05127,4332.692383,4325.384766,4265.256348,4234.230957,4274.615234,4278.974121,4278.461426,4247.94873,4466.025879,4493.461426,4382.05127,4348.717773,,,,,,,,,,,,,,,,,,,,,,,,,,,,,,,,,,,,,,,,,,,,,,,,,,,,,,,,,,,,,,,,,,,,,,
1720513305,105,0,4332.820313,4329.487305,4324.871582,4319.871582,4263.717773,4248.717773,4280.641113,4279.871582,4279.487305,4257.94873,4480.384766,4500.512695,4394.487305,4360.769043,,,,,,,,,,,,,,,,,,,,,,,,,,,,,,,,,,,,,,,,,,,,,,,,,,,,,,,,,,,,,,,,,,,,,,
1720513305,106,0,4320,4328.846191,4322.563965,4319.230957,4270.256348,4258.974121,4280,4270.384766,4269.358887,4253.333496,4475.769043,4493.846191,4373.333496,4348.077148,,,,,,,,,,,,,,,,,,,,,,,,,,,,,,,,,,,,,,,,,,,,,,,,,,,,,,,,,,,,,,,,,,,,,,
1720513305,107,0,4338.717773,4347.436035,4323.333496,4331.666504,4282.436035,4260.897461,4271.794922,4249.743652,4248.333496,4236.922852,4458.205078,4474.230957,4356.025879,4336.410156,,,,,,,,,,,,,,,,,,,,,,,,,,,,,,,,,,,,,,,,,,,,,,,,,,,,,,,,,,,,,,,,,,,,,,
1720513305,108,0,4352.436035,4354.871582,4316.025879,4338.589844,4284.487305,4263.846191,4270.897461,4241.538574,4236.538574,4224.487305,4457.05127,4473.077148,4360.897461,4345.897461,,,,,,,,,,,,,,,,,,,,,,,,,,,,,,,,,,,,,,,,,,,,,,,,,,,,,,,,,,,,,,,,,,,,,,
1720513305,109,0,4337.436035,4349.102539,4307.05127,4336.794922,4279.743652,4264.487305,4278.589844,4251.538574,4242.436035,4230,4465,4485.384766,4367.179688,4353.846191,,,,,,,,,,,,,,,,,,,,,,,,,,,,,,,,,,,,,,,,,,,,,,,,,,,,,,,,,,,,,,,,,,,,,,
1720513305,110,0,4331.282227,4352.05127,4311.666504,4336.025879,4279.871582,4261.666504,4282.307617,4260.128418,4248.461426,4242.179688,4460.512695,4482.179688,4367.692383,4351.666504,,,,,,,,,,,,,,,,,,,,,,,,,,,,,,,,,,,,,,,,,,,,,,,,,,,,,,,,,,,,,,,,,,,,,,
1720513305,111,0,4349.102539,4354.615234,4326.538574,4337.563965,4280.641113,4261.538574,4280.641113,4267.436035,4254.230957,4245.641113,4462.563965,4484.871582,4373.717773,4361.025879,,,,,,,,,,,,,,,,,,,,,,,,,,,,,,,,,,,,,,,,,,,,,,,,,,,,,,,,,,,,,,,,,,,,,,
1720513305,112,0,4359.871582,4350,4334.615234,4335.128418,4277.692383,4262.820313,4280,4278.846191,4271.538574,4257.436035,4484.615234,4507.563965,4398.974121,4382.820313,,,,,,,,,,,,,,,,,,,,,,,,,,,,,,,,,,,,,,,,,,,,,,,,,,,,,,,,,,,,,,,,,,,,,,
1720513305,113,0,4348.461426,4345.769043,4328.846191,4330,4276.922852,4261.153809,4282.820313,4287.307617,4286.538574,4275.769043,4502.179688,4520.256348,4417.307617,4388.589844,,,,,,,,,,,,,,,,,,,,,,,,,,,,,,,,,,,,,,,,,,,,,,,,,,,,,,,,,,,,,,,,,,,,,,
1720513305,114,0,4343.717773,4342.436035,4332.692383,4328.205078,4275.769043,4260.769043,4286.282227,4290.512695,4287.94873,4276.153809,4503.461426,4518.974121,4413.974121,4378.717773,,,,,,,,,,,,,,,,,,,,,,,,,,,,,,,,,,,,,,,,,,,,,,,,,,,,,,,,,,,,,,,,,,,,,,
1720513305,115,0,4354.487305,4343.333496,4337.820313,4330.897461,4267.820313,4262.179688,4284.358887,4288.205078,4283.974121,4265,4486.410156,4515.256348,4399.487305,4368.461426,,,,,,,,,,,,,,,,,,,,,,,,,,,,,,,,,,,,,,,,,,,,,,,,,,,,,,,,,,,,,,,,,,,,,,
1720513305,116,0,4347.820313,4343.846191,4318.461426,4332.563965,4265.641113,4262.563965,4278.589844,4281.025879,4277.563965,4258.205078,4464.743652,4496.922852,4384.871582,4357.820313,,,,,,,,,,,,,,,,,,,,,,,,,,,,,,,,,,,,,,,,,,,,,,,,,,,,,,,,,,,,,,,,,,,,,,
1720513305,117,0,4324.487305,4341.410156,4300.256348,4324.743652,4274.871582,4264.743652,4276.922852,4271.153809,4269.358887,4252.563965,4454.102539,4473.717773,4375.384766,4344.230957,,,,,,,,,,,,,,,,,,,,,,,,,,,,,,,,,,,,,,,,,,,,,,,,,,,,,,,,,,,,,,,,,,,,,,
1720513305,118,0,4320.256348,4340.641113,4305.512695,4316.282227,4278.717773,4267.307617,4276.538574,4258.846191,4259.102539,4242.820313,4441.282227,4469.358887,4358.846191,4330,,,,,,,,,,,,,,,,,,,,,,,,,,,,,,,,,,,,,,,,,,,,,,,,,,,,,,,,,,,,,,,,,,,,,,
1720513305,119,0,4331.538574,4341.922852,4310.897461,4316.794922,4275.384766,4268.205078,4274.230957,4246.794922,4241.410156,4235.384766,4425,4469.871582,4347.820313,4327.563965,2.452514,8.24559,1.594877,0.729762,0.460898,1.822249,3.228455,0.550787,0.458369,0.211393,4.809814,11.236141,1.182139,0.655341,0.337617,0.920738,3.955956,0.964527,0.545998,0.351349,0.517023,0.582608,0.093229,0.161199,0.167199,1.158693,2.631729,0.451107,0.258042,0.113897,1.945127,2.079716,1.014014,0.24607,0.102471,1.834364,2.890788,1.048184,0.469228,0.09499,1.479635,6.446436,0.671339,0.372415,0.110503,1.254093,1.772297,0.744414,0.34829,0.266099,2.049224,7.004972,2.019526,0.772281,0.337262,3.811655,14.1377,1.688583,0.829648,0.591926,1.531941,6.793734,1.338451,0.424169,0.3727,3.933731,10.029867,1.492661,0.581452,0.26877
1720513305,120,0,4335.641113,4344.743652,4310.512695,4322.563965,4276.153809,4267.179688,4274.487305,4243.205078,4228.589844,4229.487305,4425.256348,4458.205078,4355.256348,4333.205078,,,,,,,,,,,,,,,,,,,,,,,,,,,,,,,,,,,,,,,,,,,,,,,,,,,,,,,,,,,,,,,,,,,,,,
1720513305,121,0,4333.974121,4343.974121,4313.205078,4327.820313,4278.589844,4265.512695,4279.102539,4249.871582,4234.487305,4228.077148,4438.333496,4455.384766,4365,4331.538574,,,,,,,,,,,,,,,,,,,,,,,,,,,,,,,,,,,,,,,,,,,,,,,,,,,,,,,,,,,,,,,,,,,,,,
1720513305,122,0,4319.102539,4339.743652,4310.641113,4322.436035,4280.128418,4264.487305,4278.205078,4258.333496,4248.205078,4238.974121,4441.538574,4464.871582,4360.384766,4322.436035,,,,,,,,,,,,,,,,,,,,,,,,,,,,,,,,,,,,,,,,,,,,,,,,,,,,,,,,,,,,,,,,,,,,,,
1720513305,123,0,4310,4338.461426,4307.94873,4316.922852,4277.692383,4261.153809,4270.384766,4266.153809,4258.589844,4257.05127,4445.256348,4469.358887,4362.94873,4324.487305,,,,,,,,,,,,,,,,,,,,,,,,,,,,,,,,,,,,,,,,,,,,,,,,,,,,,,,,,,,,,,,,,,,,,,
1720513305,124,0,4326.282227,4340.769043,4310.256348,4322.307617,4267.179688,4249.230957,4269.487305,4276.410156,4276.922852,4268.461426,4460,4479.487305,4383.205078,4340.384766,,,,,,,,,,,,,,,,,,,,,,,,,,,,,,,,,,,,,,,,,,,,,,,,,,,,,,,,,,,,,,,,,,,,,,
1720513305,125,0,4330.256348,4339.615234,4309.102539,4322.563965,4261.922852,4234.487305,4271.922852,4283.333496,4290.384766,4272.692383,4474.871582,4488.205078,4396.666504,4347.820313,,,,,,,,,,,,,,,,,,,,,,,,,,,,,,,,,,,,,,,,,,,,,,,,,,,,,,,,,,,,,,,,,,,,,,
1720513305,126,0,4312.307617,4336.922852,4309.871582,4313.077148,4266.538574,4230.512695,4277.820313,4290.897461,4288.717773,4280.384766,4483.717773,4499.743652,4395,4344.743652,,,,,,,,,,,,,,,,,,,,,,,,,,,,,,,,,,,,,,,,,,,,,,,,,,,,,,,,,,,,,,,,,,,,,,
1720513305,127,0,4303.461426,4327.820313,4310.641113,4310.512695,4266.538574,4234.871582,4288.077148,4297.436035,4285.256348,4280,4479.230957,4513.589844,4384.358887,4337.94873,,,,,,,,,,,,,,,,,,,,,,,,,,,,,,,,,,,,,,,,,,,,,,,,,,,,,,,,,,,,,,,,,,,,,,
1720513305,0,0,4300.512695,4313.333496,4298.589844,4308.205078,4263.589844,4239.743652,4287.436035,4288.589844,4276.025879,4268.205078,4463.846191,4491.153809,4378.333496,4328.461426,,,,,,,,,,,,,,,,,,,,,,,,,,,,,,,,,,,,,,,,,,,,,,,,,,,,,,,,,,,,,,,,,,,,,,
1720513305,1,0,4290.641113,4314.871582,4289.230957,4301.922852,4263.974121,4245.128418,4285.384766,4276.666504,4263.974121,4259.615234,4451.794922,4464.871582,4377.436035,4325.128418,,,,,,,,,,,,,,,,,,,,,,,,,,,,,,,,,,,,,,,,,,,,,,,,,,,,,,,,,,,,,,,,,,,,,,
1720513305,2,0,4289.615234,4325.256348,4302.179688,4309.230957,4265.512695,4250.512695,4292.05127,4275.384766,4262.692383,4254.487305,4447.563965,4473.974121,4368.589844,4326.025879,,,,,,,,,,,,,,,,,,,,,,,,,,,,,,,,,,,,,,,,,,,,,,,,,,,,,,,,,,,,,,,,,,,,,,
1720513305,3,0,4298.846191,4327.692383,4313.333496,4317.436035,4266.410156,4247.436035,4288.461426,4268.717773,4257.307617,4246.666504,4441.538574,4476.410156,4357.05127,4319.358887,,,,,,,,,,,,,,,,,,,,,,,,,,,,,,,,,,,,,,,,,,,,,,,,,,,,,,,,,,,,,,,,,,,,,,
1720513305,4,0,4308.717773,4336.794922,4305.769043,4320,4266.538574,4236.922852,4273.717773,4258.846191,4246.538574,4242.563965,4441.282227,4463.077148,4354.871582,4313.717773,,,,,,,,,,,,,,,,,,,,,,,,,,,,,,,,,,,,,,,,,,,,,,,,,,,,,,,,,,,,,,,,,,,,,,
1720513305,5,0,4324.615234,4351.282227,4308.461426,4330.897461,4265.769043,4228.717773,4268.589844,4261.666504,4250.384766,4252.692383,4454.358887,4470.641113,4362.820313,4322.179688,,,,,,,,,,,,,,,,,,,,,,,,,,,,,,,,,,,,,,,,,,,,,,,,,,,,,,,,,,,,,,,,,,,,,,
1720513305,6,0,4340.256348,4354.102539,4329.615234,4340.128418,4263.717773,4227.307617,4266.282227,4263.205078,4259.487305,4264.230957,4465.128418,4489.102539,4371.538574,4334.487305,,,,,,,,,,,,,,,,,,,,,,,,,,,,,,,,,,,,,,,,,,,,,,,,,,,,,,,,,,,,,,,,,,,,,,
1720513305,7,0,4347.563965,4353.846191,4338.333496,4342.436035,4262.179688,4230.128418,4260.769043,4258.846191,4263.077148,4266.282227,4472.820313,4499.871582,4384.743652,4346.025879,2.02666,7.487258,1.735734,0.789445,0.41746,1.839303,3.174665,0.524304,0.469305,0.172184,4.352264,10.700259,1.725435,0.696019,0.335114,1.129045,3.744111,0.824642,0.546163,0.336189,0.386423,0.504682,0.096226,0.153951,0.165384,1.161792,2.40378,0.33636,0.268412,0.120545,1.699616,1.86281,0.864328,0.340394,0.10425,1.585727,3.355035,1.00391,0.515797,0.095769,1.766389,7.403413,0.673907,0.401752,0.119223,1.729354,2.614615,0.585671,0.377633,0.284356,2.323289,8.135321,2.256092,0.838615,0.319858,3.763784,15.301828,2.343111,0.888055,0.620273,2.029224,7.381896,1.243698,0.465624,0.307038,3.780107,10.351084,1.704044,0.618778,0.242606
1720513305,8,0,4340.897461,4355,4328.461426,4338.846191,4264.743652,4230.128418,4262.179688,4265.128418,4274.743652,4274.615234,4485,4504.102539,4398.077148,4355.641113,,,,,,,,,,,,,,,,,,,,,,,,,,,,,,,,,,,,,,,,,,,,,,,,,,,,,,,,,,,,,,,,,,,,,,
1720513305,9,0,4323.589844,4344.487305,4321.025879,4317.692383,4266.794922,4228.461426,4263.589844,4271.922852,4279.358887,4284.102539,4483.461426,4492.05127,4394.615234,4348.205078,,,,,,,,,,,,,,,,,,,,,,,,,,,,,,,,,,,,,,,,,,,,,,,,,,,,,,,,,,,,,,,,,,,,,,
1720513305,10,0,4307.307617,4328.846191,4309.230957,4294.871582,4260.384766,4229.102539,4262.179688,4267.563965,4266.922852,4269.358887,4458.846191,4474.102539,4375.128418,4327.307617,,,,,,,,,,,,,,,,,,,,,,,,,,,,,,,,,,,,,,,,,,,,,,,,,,,,,,,,,,,,,,,,,,,,,,
1720513305,11,0,4295.512695,4315.769043,4285.769043,4292.179688,4250.769043,4234.358887,4265.897461,4262.692383,4261.666504,4246.922852,4435.641113,4458.589844,4353.589844,4307.692383,,,,,,,,,,,,,,,,,,,,,,,,,,,,,,,,,,,,,,,,,,,,,,,,,,,,,,,,,,,,,,,,,,,,,,
1720513305,12,0,4289.487305,4306.794922,4269.102539,4294.230957,4248.333496,4241.282227,4273.461426,4263.205078,4262.563965,4247.692383,4428.333496,4443.717773,4342.436035,4294.615234,,,,,,,,,,,,,,,,,,,,,,,,,,,,,,,,,,,,,,,,,,,,,,,,,,,,,,,,,,,,,,,,,,,,,,
1720513305,13,0,4290.384766,4308.974121,4269.487305,4290,4248.974121,4244.230957,4275.897461,4261.922852,4252.94873,4253.461426,4428.461426,4441.410156,4341.410156,4291.410156,,,,,,,,,,,,,,,,,,,,,,,,,,,,,,,,,,,,,,,,,,,,,,,,,,,,,,,,,,,,,,,,,,,,,,
1720513305,14,0,4292.179688,4315.384766,4279.615234,4290,4250.384766,4247.05127,4277.436035,4260,4247.436035,4249.230957,4430.769043,4452.05127,4342.692383,4292.307617,,,,,,,,,,,,,,,,,,,,,,,,,,,,,,,,,,,,,,,,,,,,,,,,,,,,,,,,,,,,,,,,,,,,,,
1720513305,15,0,4288.717773,4320,4288.589844,4301.666504,4254.615234,4246.794922,4280.641113,4263.333496,4255.512695,4251.794922,4435.897461,4458.846191,4345.128418,4293.461426,,,,,,,,,,,,,,,,,,,,,,,,,,,,,,,,,,,,,,,,,,,,,,,,,,,,,,,,,,,,,,,,,,,,,,
1720513305,16,0,4293.461426,4329.871582,4302.563965,4317.94873,4258.077148,4240.256348,4278.077148,4264.871582,4260.769043,4263.461426,4448.333496,4464.230957,4355.512695,4299.615234,,,,,,,,,,,,,,,,,,,,,,,,,,,,,,,,,,,,,,,,,,,,,,,,,,,,,,,,,,,,,,,,,,,,,,
1720513305,17,0,4308.077148,4342.436035,4328.205078,4324.743652,4266.282227,4239.615234,4272.307617,4261.538574,4257.307617,4259.743652,4460,4483.717773,4360.128418,4311.153809,,,,,,,,,,,,,,,,,,,,,,,,,,,,,,,,,,,,,,,,,,,,,,,,,,,,,,,,,,,,,,,,,,,,,,
1720513305,18,0,4316.666504,4346.282227,4341.666504,4323.205078,4275.384766,4247.436035,4272.692383,4262.307617,4256.153809,4247.436035,4456.282227,4497.179688,4349.358887,4312.563965,,,,,,,,,,,,,,,,,,,,,,,,,,,,,,,,,,,,,,,,,,,,,,,,,,,,,,,,,,,,,,,,,,,,,,
1720513305,19,0,4309.743652,4340.256348,4320.512695,4321.922852,4270.384766,4247.820313,4272.563965,4263.717773,4260.128418,4253.333496,4443.461426,4481.538574,4341.666504,4298.461426,,,,,,,,,,,,,,,,,,,,,,,,,,,,,,,,,,,,,,,,,,,,,,,,,,,,,,,,,,,,,,,,,,,,,,
1720513305,20,0,4299.871582,4340.512695,4293.846191,4327.563965,4261.025879,4243.589844,4268.974121,4264.743652,4263.846191,4263.717773,4438.461426,4465.384766,4341.410156,4288.974121,,,,,,,,,,,,,,,,,,,,,,,,,,,,,,,,,,,,,,,,,,,,,,,,,,,,,,,,,,,,,,,,,,,,,,
1720513305,21,0,4309.230957,4342.820313,4301.794922,4326.410156,4261.538574,4247.692383,4273.333496,4271.025879,4267.436035,4261.794922,4441.666504,4473.077148,4340.641113,4294.743652,,,,,,,,,,,,,,,,,,,,,,,,,,,,,,,,,,,,,,,,,,,,,,,,,,,,,,,,,,,,,,,,,,,,,,
1720513305,22,0,4315.128418,4337.692383,4310.512695,4314.358887,4262.05127,4249.743652,4278.333496,4277.692383,4271.794922,4261.922852,4447.94873,4476.282227,4344.487305,4298.846191,,,,,,,,,,,,,,,,,,,,,,,,,,,,,,,,,,,,,,,,,,,,,,,,,,,,,,,,,,,,,,,,,,,,,,
1720513305,23,0,4301.666504,4338.589844,4296.025879,4311.025879,4256.666504,4246.538574,4276.025879,4278.333496,4274.871582,4268.333496,4452.307617,4470.769043,4351.410156,4298.461426,1.868582,7.089108,1.979185,0.796499,0.386237,1.997605,3.137502,0.548378,0.452299,0.14258,4.079987,10.3112,2.475326,0.679227,0.328956,1.44059,3.544274,0.745368,0.504554,0.329962,0.320346,0.48341,0.114778,0.157452,0.167365,1.475767,2.431292,0.268925,0.275281,0.130385,1.524446,1.767338,0.76826,0.430726,0.109457,1.539549,4.51454,1.026729,0.533463,0.09778,2.049413,9.346156,0.715206,0.417868,0.127826,2.261149,3.872682,0.456257,0.398563,0.314632,2.883215,9.106483,2.428513,0.87599,0.31763,4.121914,16.011469,3.15266,0.908473,0.624113,2.786067,7.83393,1.181587,0.4966,0.244865,4.149637,10.449416,1.946952,0.631567,0.221258
1720513305,24,0,4300.128418,4340.512695,4296.282227,4312.179688,4255.897461,4246.282227,4274.230957,4279.102539,4278.846191,4268.333496,4444.102539,4478.846191,4351.794922,4303.717773,,,,,,,,,,,,,,,,,,,,,,,,,,,,,,,,,,,,,,,,,,,,,,,,,,,,,,,,,,,,,,,,,,,,,,
1720513305,25,0,4312.436035,4329.615234,4311.794922,4304.230957,4261.025879,4251.794922,4275.769043,4281.025879,4279.102539,4265,4441.025879,4482.563965,4348.589844,4306.282227,,,,,,,,,,,,,,,,,,,,,,,,,,,,,,,,,,,,,,,,,,,,,,,,,,,,,,,,,,,,,,,,,,,,,,
1720513305,26,0,4311.922852,4322.820313,4312.179688,4302.563965,4262.692383,4260.769043,4277.179688,4279.487305,4273.589844,4265.769043,4461.922852,4473.205078,4351.538574,4302.563965,,,,,,,,,,,,,,,,,,,,,,,,,,,,,,,,,,,,,,,,,,,,,,,,,,,,,,,,,,,,,,,,,,,,,,
1720513305,27,0,4308.589844,4334.230957,4308.461426,4314.743652,4260.256348,4261.282227,4277.436035,4277.820313,4265.128418,4264.487305,4486.922852,4480.769043,4352.820313,4305.769043,,,,,,,,,,,,,,,,,,,,,,,,,,,,,,,,,,,,,,,,,,,,,,,,,,,,,,,,,,,,,,,,,,,,,,
1720513305,28,0,4322.05127,4343.974121,4318.205078,4328.077148,4263.846191,4257.692383,4279.871582,4273.846191,4255.769043,4259.615234,4493.077148,4493.846191,4350.641113,4310.384766,,,,,,,,,,,,,,,,,,,,,,,,,,,,,,,,,,,,,,,,,,,,,,,,,,,,,,,,,,,,,,,,,,,,,,
1720513305,29,0,4328.717773,4337.436035,4331.538574,4327.436035,4261.794922,4257.820313,4282.307617,4268.077148,4247.692383,4244.230957,4481.794922,4487.692383,4342.05127,4301.282227,,,,,,,,,,,,,,,,,,,,,,,,,,,,,,,,,,,,,,,,,,,,,,,,,,,,,,,,,,,,,,,,,,,,,,
1720513305,30,0,4314.102539,4327.692383,4327.692383,4313.974121,4248.333496,4251.410156,4280.512695,4264.487305,4243.077148,4229.871582,4470.897461,4475.256348,4326.410156,4284.871582,,,,,,,,,,,,,,,,,,,,,,,,,,,,,,,,,,,,,,,,,,,,,,,,,,,,,,,,,,,,,,,,,,,,,,
1720513305,31,0,4302.05127,4329.102539,4316.025879,4309.871582,4250.128418,4243.333496,4275.256348,4264.615234,4243.717773,4237.436035,4475.769043,4467.820313,4323.589844,4278.205078,,,,,,,,,,,,,,,,,,,,,,,,,,,,,,,,,,,,,,,,,,,,,,,,,,,,,,,,,,,,,,,,,,,,,,
1720513305,32,0,4305.256348,4338.974121,4317.05127,4322.94873,4266.282227,4250.128418,4273.974121,4266.282227,4251.666504,4249.230957,4487.436035,4466.794922,4337.692383,4283.333496,,,,,,,,,,,,,,,,,,,,,,,,,,,,,,,,,,,,,,,,,,,,,,,,,,,,,,,,,,,,,,,,,,,,,,
1720513305,33,0,4313.461426,4341.794922,4321.794922,4323.589844,4266.794922,4260.256348,4276.666504,4266.410156,4264.102539,4251.153809,4490.769043,4474.871582,4345.641113,4288.205078,,,,,,,,,,,,,,,,,,,,,,,,,,,,,,,,,,,,,,,,,,,,,,,,,,,,,,,,,,,,,,,,,,,,,,
1720513305,34,0,4310.128418,4337.179688,4314.743652,4317.179688,4261.538574,4259.871582,4277.820313,4272.692383,4266.922852,4258.333496,4494.230957,4480.897461,4341.794922,4286.538574,,,,,,,,,,,,,,,,,,,,,,,,,,,,,,,,,,,,,,,,,,,,,,,,,,,,,,,,,,,,,,,,,,,,,,
1720513305,35,0,4302.179688,4336.922852,4303.974121,4327.05127,4265,4256.410156,4273.846191,4277.179688,4262.820313,4268.077148,4492.692383,4475.128418,4341.794922,4282.179688,,,,,,,,,,,,,,,,,,,,,,,,,,,,,,,,,,,,,,,,,,,,,,,,,,,,,,,,,,,,,,,,,,,,,,
1720513305,36,0,4299.230957,4339.871582,4300.384766,4326.025879,4263.461426,4255,4268.846191,4271.153809,4265.897461,4261.025879,4479.615234,4467.307617,4340.897461,4272.436035,,,,,,,,,,,,,,,,,,,,,,,,,,,,,,,,,,,,,,,,,,,,,,,,,,,,,,,,,,,,,,,,,,,,,,
1720513305,37,0,4292.94873,4341.153809,4298.974121,4308.077148,4259.615234,4258.717773,4271.153809,4269.871582,4265.897461,4245.512695,4470.512695,4459.230957,4332.05127,4262.692383,,,,,,,,,,,,,,,,,,,,,,,,,,,,,,,,,,,,,,,,,,,,,,,,,,,,,,,,,,,,,,,,,,,,,,
1720513305,38,0,4289.871582,4343.974121,4297.94873,4309.487305,4264.358887,4271.025879,4279.487305,4278.461426,4263.205078,4247.436035,4467.94873,4459.487305,4333.974121,4269.358887,,,,,,,,,,,,,,,,,,,,,,,,,,,,,,,,,,,,,,,,,,,,,,,,,,,,,,,,,,,,,,,,,,,,,,
1720513305,39,0,4296.282227,4345.256348,4294.871582,4318.717773,4268.077148,4279.743652,4281.538574,4273.333496,4260.769043,4258.077148,4458.077148,4471.794922,4341.666504,4276.922852,2.06445,6.871441,2.312883,0.745578,0.378575,2.29727,3.050579,0.623013,0.409739,0.127456,4.017955,9.935032,3.327468,0.604762,0.319482,1.758549,3.306362,0.773622,0.428954,0.325482,0.330003,0.526439,0.146027,0.166519,0.168862,1.921878,2.551065,0.270327,0.27961,0.14076,1.377322,1.673351,0.712514,0.493259,0.117959,1.623291,6.214175,1.088817,0.524499,0.101444,2.209702,11.914259,0.787373,0.422146,0.134299,2.735398,5.409066,0.407948,0.409399,0.352164,3.750631,9.802878,2.550381,0.872696,0.329608,4.86942,16.03183,3.960921,0.886405,0.605421,3.775644,8.076299,1.25289,0.516906,0.206308,5.172729,10.195903,2.205662,0.622526,0.209319
1720513305,40,0,4291.922852,4341.538574,4293.974121,4310.897461,4263.333496,4277.94873,4282.563965,4259.871582,4253.846191,4260.897461,4446.410156,4471.794922,4341.794922,4268.974121,,,,,,,,,,,,,,,,,,,,,,,,,,,,,,,,,,,,,,,,,,,,,,,,,,,,,,,,,,,,,,,,,,,,,,
1720513305,41,0,4277.94873,4339.615234,4297.692383,4305.769043,4260.897461,4278.717773,4292.563965,4266.538574,4251.922852,4258.717773,4444.871582,4469.743652,4342.05127,4265,,,,,,,,,,,,,,,,,,,,,,,,,,,,,,,,,,,,,,,,,,,,,,,,,,,,,,,,,,,,,,,,,,,,,,
1720513305,42,0,4278.333496,4344.230957,4295.641113,4313.589844,4263.077148,4283.333496,4297.563965,4277.179688,4256.025879,4262.179688,4445.641113,4470.897461,4342.692383,4266.666504,,,,,,,,,,,,,,,,,,,,,,,,,,,,,,,,,,,,,,,,,,,,,,,,,,,,,,,,,,,,,,,,,,,,,,
1720513305,43,0,4283.333496,4344.358887,4291.025879,4310.769043,4262.307617,4282.05127,4296.666504,4275.384766,4259.102539,4265.256348,4442.05127,4468.205078,4340,4261.922852,,,,,,,,,,,,,,,,,,,,,,,,,,,,,,,,,,,,,,,,,,,,,,,,,,,,,,,,,,,,,,,,,,,,,,
1720513305,44,0,4272.563965,4333.717773,4288.589844,4300.512695,4263.461426,4278.589844,4296.794922,4275.512695,4269.102539,4264.871582,4436.922852,4465,4335.128418,4261.922852,,,,,,,,,,,,,,,,,,,,,,,,,,,,,,,,,,,,,,,,,,,,,,,,,,,,,,,,,,,,,,,,,,,,,,
1720513305,45,0,4264.102539,4325.641113,4278.461426,4294.358887,4264.230957,4279.230957,4289.230957,4280.512695,4278.077148,4267.692383,4432.307617,4460.769043,4330.641113,4263.333496,,,,,,,,,,,,,,,,,,,,,,,,,,,,,,,,,,,,,,,,,,,,,,,,,,,,,,,,,,,,,,,,,,,,,,
1720513305,46,0,4263.205078,4319.487305,4267.94873,4286.153809,4258.077148,4278.717773,4278.589844,4278.077148,4272.563965,4261.410156,4428.717773,4453.077148,4325.897461,4252.179688,,,,,,,,,,,,,,,,,,,,,,,,,,,,,,,,,,,,,,,,,,,,,,,,,,,,,,,,,,,,,,,,,,,,,,
1720513305,47,0,4258.077148,4310.897461,4272.692383,4281.922852,4254.743652,4277.820313,4278.077148,4271.025879,4266.410156,4256.025879,4426.153809,4444.615234,4325.384766,4243.077148,,,,,,,,,,,,,,,,,,,,,,,,,,,,,,,,,,,,,,,,,,,,,,,,,,,,,,,,,,,,,,,,,,,,,,
1720513305,48,0,4262.692383,4307.436035,4278.846191,4289.487305,4258.205078,4277.820313,4280,4266.922852,4268.717773,4260.641113,4423.974121,4444.743652,4326.922852,4246.410156,,,,,,,,,,,,,,,,,,,,,,,,,,,,,,,,,,,,,,,,,,,,,,,,,,,,,,,,,,,,,,,,,,,,,,
1720513305,49,0,4274.615234,4316.538574,4274.871582,4297.436035,4260.769043,4274.102539,4273.717773,4265,4263.974121,4256.025879,4416.538574,4444.743652,4323.461426,4247.692383,,,,,,,,,,,,,,,,,,,,,,,,,,,,,,,,,,,,,,,,,,,,,,,,,,,,,,,,,,,,,,,,,,,,,,
1720513305,50,0,4282.307617,4330.384766,4271.538574,4296.410156,4262.179688,4273.333496,4271.922852,4261.538574,4252.94873,4246.794922,4410.769043,4441.410156,4321.025879,4248.333496,,,,,,,,,,,,,,,,,,,,,,,,,,,,,,,,,,,,,,,,,,,,,,,,,,,,,,,,,,,,,,,,,,,,,,
1720513305,51,0,4290.512695,4336.282227,4281.794922,4295.256348,4259.358887,4278.589844,4276.922852,4254.102539,4245.128418,4250.897461,4413.589844,4446.794922,4323.461426,4255.769043,,,,,,,,,,,,,,,,,,,,,,,,,,,,,,,,,,,,,,,,,,,,,,,,,,,,,,,,,,,,,,,,,,,,,,
1720513305,52,0,4297.820313,4335.769043,4301.282227,4305,4254.871582,4281.922852,4281.794922,4253.589844,4243.846191,4251.153809,4416.922852,4465.384766,4329.615234,4266.922852,,,,,,,,,,,,,,,,,,,,,,,,,,,,,,,,,,,,,,,,,,,,,,,,,,,,,,,,,,,,,,,,,,,,,,
1720513305,53,0,4301.538574,4338.461426,4306.282227,4318.589844,4258.974121,4279.487305,4281.922852,4258.205078,4245.128418,4238.717773,4417.692383,4476.153809,4332.563965,4276.794922,,,,,,,,,,,,,,,,,,,,,,,,,,,,,,,,,,,,,,,,,,,,,,,,,,,,,,,,,,,,,,,,,,,,,,
1720513305,54,0,4310.512695,4344.358887,4297.05127,4320.256348,4264.871582,4279.230957,4278.077148,4256.025879,4244.743652,4242.820313,4420.769043,4468.974121,4334.487305,4281.794922,,,,,,,,,,,,,,,,,,,,,,,,,,,,,,,,,,,,,,,,,,,,,,,,,,,,,,,,,,,,,,,,,,,,,,
1720513305,55,0,4314.230957,4334.871582,4300.769043,4306.666504,4263.974121,4288.461426,4282.820313,4260.769043,4245.256348,4251.922852,4422.563965,4467.307617,4333.461426,4277.563965,2.606888,6.645391,2.704915,0.665168,0.396005,2.635833,2.942706,0.739557,0.352766,0.126493,4.07864,9.472398,4.158484,0.499683,0.311108,2.014344,3.08686,0.909271,0.340156,0.315437,0.381931,0.623802,0.183821,0.174783,0.166117,2.344394,2.603248,0.343455,0.282967,0.147709,1.221831,1.510602,0.669975,0.511285,0.127269,1.745091,8.067089,1.134309,0.495017,0.105188,2.168168,14.447856,0.88219,0.416791,0.137423,3.027107,6.974686,0.504942,0.410448,0.387638,4.891568,10.219458,2.77173,0.833141,0.349592,5.839583,15.3077,4.67292,0.830653,0.570946,4.816207,8.135933,1.59973,0.535782,0.199735,6.725382,9.551924,2.514652,0.606113,0.206863
1720513305,56,0,4299.358887,4316.282227,4305,4297.436035,4258.846191,4295.512695,4292.94873,4275.641113,4249.871582,4246.282227,4418.077148,4465.256348,4321.922852,4263.589844,,,,,,,,,,,,,,,,,,,,,,,,,,,,,,,,,,,,,,,,,,,,,,,,,,,,,,,,,,,,,,,,,,,,,,
1720513305,57,0,4291.025879,4309.871582,4285.769043,4297.692383,4252.179688,4292.820313,4295.256348,4279.743652,4255.769043,4244.615234,4405.384766,4457.563965,4309.358887,4247.563965,,,,,,,,,,,,,,,,,,,,,,,,,,,,,,,,,,,,,,,,,,,,,,,,,,,,,,,,,,,,,,,,,,,,,,
1720513305,58,0,4296.794922,4308.333496,4277.436035,4295,4250.769043,4293.205078,4294.358887,4277.94873,4261.794922,4248.077148,4398.333496,4458.974121,4308.333496,4244.358887,,,,,,,,,,,,,,,,,,,,,,,,,,,,,,,,,,,,,,,,,,,,,,,,,,,,,,,,,,,,,,,,,,,,,,
1720513305,59,0,4295,4308.717773,4288.846191,4291.538574,4252.307617,4294.102539,4291.282227,4284.230957,4267.05127,4244.230957,4407.436035,4463.846191,4309.871582,4255.384766,,,,,,,,,,,,,,,,,,,,,,,,,,,,,,,,,,,,,,,,,,,,,,,,,,,,,,,,,,,,,,,,,,,,,,
1720513305,60,0,4294.230957,4318.589844,4287.563965,4303.974121,4248.717773,4286.410156,4283.589844,4289.615234,4268.589844,4243.589844,4414.743652,4475.769043,4308.589844,4263.333496,,,,,,,,,,,,,,,,,,,,,,,,,,,,,,,,,,,,,,,,,,,,,,,,,,,,,,,,,,,,,,,,,,,,,,
1720513305,61,0,4304.102539,4329.230957,4281.282227,4322.820313,4253.974121,4277.820313,4277.94873,4288.077148,4266.153809,4257.05127,4413.974121,4486.410156,4315.512695,4263.205078,,,,,,,,,,,,,,,,,,,,,,,,,,,,,,,,,,,,,,,,,,,,,,,,,,,,,,,,,,,,,,,,,,,,,,
1720513305,62,0,4318.205078,4329.487305,4299.615234,4322.94873,4260.769043,4271.538574,4272.436035,4282.94873,4266.282227,4259.102539,4419.487305,4475.512695,4326.538574,4267.05127,,,,,,,,,,,,,,,,,,,,,,,,,,,,,,,,,,,,,,,,,,,,,,,,,,,,,,,,,,,,,,,,,,,,,,
1720513305,63,0,4329.230957,4338.333496,4320.641113,4324.487305,4252.820313,4261.410156,4262.820313,4275.512695,4266.666504,4250.512695,4429.487305,4468.205078,4334.230957,4278.717773,,,,,,,,,,,,,,,,,,,,,,,,,,,,,,,,,,,,,,,,,,,,,,,,,,,,,,,,,,,,,,,,,,,,,,
1720513305,64,0,4339.871582,4352.307617,4316.538574,4341.538574,4252.820313,4257.820313,4255,4268.333496,4257.820313,4252.05127,4432.05127,4486.153809,4341.922852,4288.974121,,,,,,,,,,,,,,,,,,,,,,,,,,,,,,,,,,,,,,,,,,,,,,,,,,,,,,,,,,,,,,,,,,,,,,
1720513305,65,0,4353.589844,4349.102539,4319.102539,4340.512695,4265.512695,4266.153809,4257.820313,4258.461426,4245.641113,4249.615234,4431.538574,4494.615234,4347.436035,4291.794922,,,,,,,,,,,,,,,,,,,,,,,,,,,,,,,,,,,,,,,,,,,,,,,,,,,,,,,,,,,,,,,,,,,,,,
1720513305,66,0,4351.922852,4340.769043,4328.077148,4326.025879,4267.179688,4277.307617,4266.538574,4246.538574,4241.666504,4247.307617,4439.487305,4481.666504,4342.94873,4283.974121,,,,,,,,,,,,,,,,,,,,,,,,,,,,,,,,,,,,,,,,,,,,,,,,,,,,,,,,,,,,,,,,,,,,,,
1720513305,67,0,4329.102539,4340.256348,4310.128418,4327.179688,4263.974121,4286.794922,4275.769043,4249.102539,4246.922852,4256.153809,4444.743652,4470.769043,4333.333496,4268.333496,,,,,,,,,,,,,,,,,,,,,,,,,,,,,,,,,,,,,,,,,,,,,,,,,,,,,,,,,,,,,,,,,,,,,,
1720513305,68,0,4308.589844,4338.205078,4289.615234,4329.743652,4266.153809,4294.358887,4284.487305,4266.922852,4256.794922,4255.512695,4431.282227,4463.846191,4323.974121,4260.384766,,,,,,,,,,,,,,,,,,,,,,,,,,,,,,,,,,,,,,,,,,,,,,,,,,,,,,,,,,,,,,,,,,,,,,
1720513305,69,0,4308.846191,4331.025879,4292.692383,4321.153809,4262.820313,4296.153809,4287.820313,4277.05127,4262.179688,4246.794922,4411.922852,4457.94873,4311.025879,4258.717773,,,,,,,,,,,,,,,,,,,,,,,,,,,,,,,,,,,,,,,,,,,,,,,,,,,,,,,,,,,,,,,,,,,,,,
1720513305,70,0,4320.384766,4332.307617,4297.692383,4320,4260,4294.743652,4290.769043,4279.743652,4262.94873,4251.025879,4410.256348,4466.153809,4306.538574,4252.436035,,,,,,,,,,,,,,,,,,,,,,,,,,,,,,,,,,,,,,,,,,,,,,,,,,,,,,,,,,,,,,,,,,,,,,
1720513305,71,0,4323.589844,4340.512695,4296.922852,4321.153809,4265.641113,4293.333496,4293.461426,4284.743652,4265.769043,4254.230957,4420.897461,4471.666504,4315.384766,4247.179688,3.363097,6.36444,3.059191,0.596002,0.428184,2.894493,2.945277,0.865397,0.297994,0.134691,4.123613,8.94236,4.828223,0.407193,0.310831,2.172627,3.015904,1.095265,0.265364,0.298126,0.447423,0.749538,0.22461,0.178425,0.158433,2.574136,2.533653,0.463632,0.287929,0.148081,1.063634,1.315504,0.624238,0.481563,0.133504,1.853016,9.594996,1.126119,0.450797,0.106875,1.958776,16.258797,1.00563,0.40272,0.137041,3.065012,8.257435,0.774152,0.40446,0.410796,6.260705,10.426943,3.218839,0.778847,0.3689,6.76146,14.005043,5.206389,0.765081,0.529064,5.66003,8.10325,2.243252,0.565983,0.218838,8.376403,8.616973,2.872253,0.602977,0.21019
1720513305,72,0,4318.461426,4342.692383,4292.563965,4319.487305,4268.333496,4288.461426,4287.436035,4285.897461,4268.846191,4253.077148,4422.179688,4460.641113,4323.205078,4250.128418,,,,,,,,,,,,,,,,,,,,,,,,,,,,,,,,,,,,,,,,,,,,,,,,,,,,,,,,,,,,,,,,,,,,,,
1720513305,73,0,4321.666504,4345.128418,4295.384766,4328.333496,4264.871582,4281.922852,4279.487305,4289.358887,4268.589844,4263.205078,4426.282227,4463.589844,4327.307617,4260.769043,,,,,,,,,,,,,,,,,,,,,,,,,,,,,,,,,,,,,,,,,,,,,,,,,,,,,,,,,,,,,,,,,,,,,,
1720513305,74,0,4331.666504,4348.589844,4307.692383,4325,4265.384766,4280.641113,4276.922852,4294.230957,4267.563965,4268.974121,4436.410156,4482.05127,4339.487305,4273.205078,,,,,,,,,,,,,,,,,,,,,,,,,,,,,,,,,,,,,,,,,,,,,,,,,,,,,,,,,,,,,,,,,,,,,,
1720513305,75,0,4324.743652,4350.384766,4303.461426,4314.487305,4267.05127,4278.974121,4272.307617,4286.538574,4264.743652,4264.743652,4436.538574,4485.256348,4346.666504,4277.307617,,,,,,,,,,,,,,,,,,,,,,,,,,,,,,,,,,,,,,,,,,,,,,,,,,,,,,,,,,,,,,,,,,,,,,
1720513305,76,0,4319.487305,4354.487305,4294.871582,4324.358887,4270.384766,4275.256348,4268.461426,4279.487305,4259.358887,4264.615234,4436.538574,4482.692383,4343.077148,4276.794922,,,,,,,,,,,,,,,,,,,,,,,,,,,,,,,,,,,,,,,,,,,,,,,,,,,,,,,,,,,,,,,,,,,,,,
1720513305,77,0,4332.179688,4359.743652,4310.641113,4334.102539,4272.563965,4281.538574,4275.512695,4286.410156,4262.179688,4270.384766,4447.307617,4493.846191,4346.410156,4281.410156,,,,,,,,,,,,,,,,,,,,,,,,,,,,,,,,,,,,,,,,,,,,,,,,,,,,,,,,,,,,,,,,,,,,,,
1720513305,78,0,4336.410156,4355.641113,4323.589844,4327.307617,4266.538574,4293.205078,4288.077148,4296.666504,4274.230957,4280.769043,4452.307617,4500,4348.589844,4282.820313,,,,,,,,,,,,,,,,,,,,,,,,,,,,,,,,,,,,,,,,,,,,,,,,,,,,,,,,,,,,,,,,,,,,,,
1720513305,79,0,4324.615234,4346.282227,4309.487305,4320.256348,4269.615234,4297.563965,4296.794922,4300.897461,4282.436035,4282.563965,4441.282227,4487.94873,4337.05127,4272.307617,,,,,,,,,,,,,,,,,,,,,,,,,,,,,,,,,,,,,,,,,,,,,,,,,,,,,,,,,,,,,,,,,,,,,,
1720513305,80,0,4311.538574,4337.820313,4289.487305,4315.384766,4281.538574,4300.256348,4296.538574,4299.358887,4279.358887,4265.512695,4421.153809,4472.563965,4317.692383,4252.563965,,,,,,,,,,,,,,,,,,,,,,,,,,,,,,,,,,,,,,,,,,,,,,,,,,,,,,,,,,,,,,,,,,,,,,
1720513305,81,0,4299.358887,4325.897461,4277.820313,4306.282227,4274.871582,4308.077148,4293.205078,4295.769043,4275.128418,4256.794922,4402.179688,4457.563965,4303.846191,4232.820313,,,,,,,,,,,,,,,,,,,,,,,,,,,,,,,,,,,,,,,,,,,,,,,,,,,,,,,,,,,,,,,,,,,,,,
1720513305,82,0,4288.077148,4316.410156,4274.102539,4300,4262.179688,4311.282227,4296.153809,4295.384766,4276.538574,4268.205078,4400,4448.333496,4302.436035,4226.410156,,,,,,,,,,,,,,,,,,,,,,,,,,,,,,,,,,,,,,,,,,,,,,,,,,,,,,,,,,,,,,,,,,,,,,
1720513305,83,0,4291.538574,4320.769043,4286.153809,4302.436035,4270,4304.743652,4298.333496,4294.487305,4279.871582,4269.871582,4409.230957,4457.692383,4309.230957,4235.897461,,,,,,,,,,,,,,,,,,,,,,,,,,,,,,,,,,,,,,,,,,,,,,,,,,,,,,,,,,,,,,,,,,,,,,
1720513305,84,0,4311.025879,4335.897461,4308.077148,4318.974121,4283.461426,4300.128418,4294.615234,4292.05127,4278.589844,4261.410156,4412.307617,4472.563965,4311.794922,4245,,,,,,,,,,,,,,,,,,,,,,,,,,,,,,,,,,,,,,,,,,,,,,,,,,,,,,,,,,,,,,,,,,,,,,
1720513305,85,0,4326.282227,4347.05127,4327.820313,4336.794922,4285.128418,4298.461426,4293.846191,4293.077148,4269.743652,4267.94873,4421.282227,4483.717773,4315,4254.743652,,,,,,,,,,,,,,,,,,,,,,,,,,,,,,,,,,,,,,,,,,,,,,,,,,,,,,,,,,,,,,,,,,,,,,
1720513305,86,0,4335.256348,4353.205078,4344.230957,4341.153809,4281.410156,4289.871582,4293.205078,4293.846191,4264.102539,4275.641113,4437.05127,4507.05127,4332.563965,4278.846191,,,,,,,,,,,,,,,,,,,,,,,,,,,,,,,,,,,,,,,,,,,,,,,,,,,,,,,,,,,,,,,,,,,,,,
1720513305,87,0,4348.974121,4360.769043,4354.487305,4345.641113,4277.563965,4280.512695,4285.512695,4288.717773,4266.538574,4271.282227,4448.205078,4528.461426,4352.436035,4303.461426,4.139975,6.126318,3.218767,0.561825,0.458637,2.931415,3.193949,0.960699,0.258671,0.145937,4.048749,8.459246,5.13949,0.360799,0.325364,2.247086,3.217292,1.24184,0.2264,0.279112,0.4793,0.87309,0.267118,0.177187,0.147699,2.564507,2.391847,0.584018,0.294302,0.141232,0.921073,1.224683,0.577878,0.413469,0.133732,1.936281,10.406588,1.081592,0.394679,0.105697,1.697173,16.881554,1.182775,0.379878,0.133849,2.860681,8.951031,1.191929,0.395256,0.41499,7.670376,10.38778,3.880728,0.736839,0.379496,7.335415,12.413026,5.503325,0.713067,0.487785,6.001177,8.003971,3.036864,0.615035,0.24663,9.510061,7.589942,3.205681,0.628346,0.214776
1720513305,88,0,4362.820313,4364.871582,4354.871582,4348.974121,4276.666504,4276.025879,4277.179688,4287.05127,4266.538574,4276.153809,4460.128418,4523.974121,4365.256348,4311.410156,,,,,,,,,,,,,,,,,,,,,,,,,,,,,,,,,,,,,,,,,,,,,,,,,,,,,,,,,,,,,,,,,,,,,,
1720513305,89,0,4361.410156,4354.743652,4351.410156,4343.077148,4273.717773,4275.641113,4277.563965,4292.436035,4266.922852,4284.615234,4463.846191,4514.487305,4372.436035,4312.436035,,,,,,,,,,,,,,,,,,,,,,,,,,,,,,,,,,,,,,,,,,,,,,,,,,,,,,,,,,,,,,,,,,,,,,
1720513305,90,0,4351.410156,4344.358887,4346.794922,4336.025879,4274.358887,4283.461426,4279.230957,4295.897461,4275.641113,4281.794922,4453.077148,4519.871582,4372.692383,4316.410156,,,,,,,,,,,,,,,,,,,,,,,,,,,,,,,,,,,,,,,,,,,,,,,,,,,,,,,,,,,,,,,,,,,,,,
1720513305,91,0,4340.769043,4346.410156,4338.205078,4330.384766,4283.077148,4295,4276.794922,4291.410156,4274.743652,4278.846191,4445.769043,4514.871582,4362.05127,4310.769043,,,,,,,,,,,,,,,,,,,,,,,,,,,,,,,,,,,,,,,,,,,,,,,,,,,,,,,,,,,,,,,,,,,,,,
1720513305,92,0,4332.563965,4342.820313,4328.461426,4323.846191,4283.846191,4301.025879,4277.307617,4288.205078,4265.512695,4272.692383,4441.153809,4489.230957,4347.05127,4293.717773,,,,,,,,,,,,,,,,,,,,,,,,,,,,,,,,,,,,,,,,,,,,,,,,,,,,,,,,,,,,,,,,,,,,,,
1720513306,93,0,4325.256348,4331.025879,4310,4322.94873,4276.666504,4302.179688,4282.436035,4292.563965,4271.153809,4261.410156,4427.05127,4475,4338.846191,4281.282227,,,,,,,,,,,,,,,,,,,,,,,,,,,,,,,,,,,,,,,,,,,,,,,,,,,,,,,,,,,,,,,,,,,,,,
1720513306,94,0,4313.077148,4322.94873,4292.94873,4322.179688,4277.692383,4301.282227,4288.974121,4295,4274.487305,4264.615234,4418.589844,4483.205078,4332.05127,4277.179688,,,,,,,,,,,,,,,,,,,,,,,,,,,,,,,,,,,,,,,,,,,,,,,,,,,,,,,,,,,,,,,,,,,,,,
1720513306,95,0,4310,4322.563965,4298.077148,4314.102539,4280.897461,4297.179688,4293.461426,4296.282227,4265.897461,4274.743652,4428.077148,4488.717773,4332.436035,4277.307617,,,,,,,,,,,,,,,,,,,,,,,,,,,,,,,,,,,,,,,,,,,,,,,,,,,,,,,,,,,,,,,,,,,,,,
1720513306,96,0,4320.256348,4325.897461,4310,4309.615234,4281.025879,4295,4293.205078,4302.436035,4269.871582,4272.05127,4439.102539,4490.641113,4343.589844,4284.230957,,,,,,,,,,,,,,,,,,,,,,,,,,,,,,,,,,,,,,,,,,,,,,,,,,,,,,,,,,,,,,,,,,,,,,
1720513306,97,0,4327.94873,4331.538574,4318.717773,4320,4280.897461,4296.410156,4291.666504,4306.153809,4277.94873,4272.05127,4446.538574,4506.666504,4353.333496,4298.974121,,,,,,,,,,,,,,,,,,,,,,,,,,,,,,,,,,,,,,,,,,,,,,,,,,,,,,,,,,,,,,,,,,,,,,
1720513306,98,0,4331.025879,4338.717773,4327.436035,4334.358887,4278.333496,4291.794922,4291.282227,4300.256348,4268.974121,4280.769043,4450.256348,4514.615234,4351.538574,4305.512695,,,,,,,,,,,,,,,,,,,,,,,,,,,,,,,,,,,,,,,,,,,,,,,,,,,,,,,,,,,,,,,,,,,,,,
1720513306,99,0,4336.282227,4342.436035,4328.846191,4333.974121,4277.94873,4287.05127,4288.589844,4297.563965,4263.333496,4280.769043,4450.128418,4504.102539,4351.153809,4300.256348,,,,,,,,,,,,,,,,,,,,,,,,,,,,,,,,,,,,,,,,,,,,,,,,,,,,,,,,,,,,,,,,,,,,,,
1720513306,100,0,4335.897461,4341.922852,4328.333496,4324.358887,4280.384766,4288.461426,4283.974121,4298.846191,4268.077148,4276.666504,4450.256348,4504.743652,4354.230957,4296.410156,,,,,,,,,,,,,,,,,,,,,,,,,,,,,,,,,,,,,,,,,,,,,,,,,,,,,,,,,,,,,,,,,,,,,,
1720513306,101,0,4329.871582,4336.153809,4328.077148,4323.205078,4277.692383,4294.358887,4284.615234,4291.410156,4263.717773,4277.820313,4444.615234,4511.153809,4346.153809,4296.666504,,,,,,,,,,,,,,,,,,,,,,,,,,,,,,,,,,,,,,,,,,,,,,,,,,,,,,,,,,,,,,,,,,,,,,
1720513306,102,0,4327.436035,4329.487305,4322.94873,4322.94873,4277.307617,4304.102539,4289.358887,4288.846191,4259.743652,4270.641113,4434.615234,4496.282227,4337.94873,4292.179688,,,,,,,,,,,,,,,,,,,,,,,,,,,,,,,,,,,,,,,,,,,,,,,,,,,,,,,,,,,,,,,,,,,,,,
1720513306,103,0,4320.256348,4325.769043,4314.615234,4315.128418,4284.230957,4308.974121,4293.077148,4295.897461,4261.153809,4258.717773,4427.820313,4474.230957,4337.692383,4283.717773,4.741139,6.061939,3.099909,0.570842,0.473097,2.752439,3.741906,1.002719,0.240641,0.155739,3.872763,8.145417,4.983301,0.374652,0.357036,2.285916,3.692176,1.282541,0.229765,0.266778,0.478539,0.960404,0.308176,0.173801,0.137201,2.334265,2.268563,0.666254,0.300873,0.128919,0.819322,1.340325,0.538234,0.324928,0.127705,1.979895,10.300917,1.031598,0.33017,0.103291,1.473697,16.166245,1.402782,0.346338,0.1288,2.490982,8.849456,1.647714,0.386745,0.398868,8.889298,9.993341,4.562704,0.720554,0.377225,7.355967,10.812026,5.501875,0.687107,0.45234,5.748336,7.813694,3.722609,0.67199,0.264517,9.767353,6.72632,3.415952,0.675129,0.217097
1720513306,104,0,4307.307617,4324.871582,4297.436035,4309.743652,4282.563965,4302.307617,4292.692383,4294.102539,4263.077148,4262.436035,4429.102539,4470.641113,4338.205078,4279.487305,,,,,,,,,,,,,,,,,,,,,,,,,,,,,,,,,,,,,,,,,,,,,,,,,,,,,,,,,,,,,,,,,,,,,,
1720513306,105,0,4295.769043,4325.384766,4281.666504,4308.974121,4275.384766,4294.743652,4286.538574,4282.692383,4260.641113,4264.743652,4429.102539,4472.94873,4332.436035,4279.358887,,,,,,,,,,,,,,,,,,,,,,,,,,,,,,,,,,,,,,,,,,,,,,,,,,,,,,,,,,,,,,,,,,,,,,
1720513306,106,0,4290.897461,4321.282227,4287.692383,4303.846191,4277.436035,4295,4283.333496,4277.563965,4252.94873,4254.743652,4420.897461,4465.641113,4325.641113,4277.05127,,,,,,,,,,,,,,,,,,,,,,,,,,,,,,,,,,,,,,,,,,,,,,,,,,,,,,,,,,,,,,,,,,,,,,
1720513306,107,0,4298.333496,4316.538574,4296.922852,4302.94873,4273.846191,4293.461426,4283.205078,4280.897461,4250.128418,4258.333496,4420.256348,4465,4327.820313,4277.05127,,,,,,,,,,,,,,,,,,,,,,,,,,,,,,,,,,,,,,,,,,,,,,,,,,,,,,,,,,,,,,,,,,,,,,
1720513306,108,0,4311.666504,4318.333496,4303.077148,4310,4262.94873,4292.05127,4284.230957,4282.820313,4259.102539,4272.692383,4437.436035,4482.179688,4337.05127,4289.487305,,,,,,,,,,,,,,,,,,,,,,,,,,,,,,,,,,,,,,,,,,,,,,,,,,,,,,,,,,,,,,,,,,,,,,
1720513306,109,0,4315.641113,4325.384766,4313.717773,4312.692383,4267.05127,4297.692383,4285.897461,4279.615234,4265,4273.077148,4451.410156,4492.307617,4341.538574,4300,,,,,,,,,,,,,,,,,,,,,,,,,,,,,,,,,,,,,,,,,,,,,,,,,,,,,,,,,,,,,,,,,,,,,,
1720513306,110,0,4323.333496,4330.512695,4324.358887,4308.717773,4279.615234,4303.846191,4281.410156,4273.461426,4261.153809,4274.871582,4455.128418,4490.128418,4342.436035,4298.205078,,,,,,,,,,,,,,,,,,,,,,,,,,,,,,,,,,,,,,,,,,,,,,,,,,,,,,,,,,,,,,,,,,,,,,
1720513306,111,0,4333.846191,4335.256348,4324.358887,4312.307617,4281.153809,4309.358887,4281.282227,4279.487305,4263.974121,4279.743652,4461.282227,4495.641113,4345.512695,4299.230957,,,,,,,,,,,,,,,,,,,,,,,,,,,,,,,,,,,,,,,,,,,,,,,,,,,,,,,,,,,,,,,,,,,,,,
1720513306,112,0,4317.179688,4339.487305,4308.077148,4317.563965,4278.717773,4311.025879,4288.461426,4290.128418,4270,4266.666504,4451.666504,4490.641113,4337.179688,4296.282227,,,,,,,,,,,,,,,,,,,,,,,,,,,,,,,,,,,,,,,,,,,,,,,,,,,,,,,,,,,,,,,,,,,,,,
1720513306,113,0,4293.461426,4333.333496,4281.538574,4316.794922,4281.025879,4308.077148,4287.820313,4286.410156,4267.94873,4257.05127,4429.743652,4463.333496,4321.282227,4280.897461,,,,,,,,,,,,,,,,,,,,,,,,,,,,,,,,,,,,,,,,,,,,,,,,,,,,,,,,,,,,,,,,,,,,,,
1720513306,114,0,4291.666504,4326.153809,4270.897461,4309.871582,4282.94873,4307.05127,4283.461426,4284.358887,4263.333496,4267.563965,4424.358887,4446.538574,4318.846191,4271.025879,,,,,,,,,,,,,,,,,,,,,,,,,,,,,,,,,,,,,,,,,,,,,,,,,,,,,,,,,,,,,,,,,,,,,,
1720513306,115,0,4292.94873,4323.589844,4277.307617,4301.025879,4280.128418,4309.871582,4286.922852,4291.025879,4259.615234,4267.05127,4424.871582,4454.358887,4323.333496,4273.205078,,,,,,,,,,,,,,,,,,,,,,,,,,,,,,,,,,,,,,,,,,,,,,,,,,,,,,,,,,,,,,,,,,,,,,
1720513306,116,0,4294.358887,4313.846191,4280.897461,4299.487305,4277.307617,4309.615234,4290.384766,4292.820313,4263.205078,4258.461426,4428.333496,4465.641113,4325.512695,4280.128418,,,,,,,,,,,,,,,,,,,,,,,,,,,,,,,,,,,,,,,,,,,,,,,,,,,,,,,,,,,,,,,,,,,,,,
1720513306,117,0,4300.128418,4310.769043,4281.794922,4300.512695,4279.743652,4301.025879,4288.077148,4294.358887,4271.410156,4268.846191,4442.692383,4473.205078,4331.410156,4290.512695,,,,,,,,,,,,,,,,,,,,,,,,,,,,,,,,,,,,,,,,,,,,,,,,,,,,,,,,,,,,,,,,,,,,,,
1720513306,118,0,4300.641113,4319.102539,4289.743652,4296.282227,4281.410156,4292.563965,4286.282227,4299.743652,4276.538574,4275.769043,4447.94873,4480.128418,4338.846191,4297.563965,,,,,,,,,,,,,,,,,,,,,,,,,,,,,,,,,,,,,,,,,,,,,,,,,,,,,,,,,,,,,,,,,,,,,,
1720513306,119,0,4306.922852,4319.871582,4306.538574,4295.897461,4276.025879,4293.974121,4284.358887,4298.333496,4278.846191,4271.153809,4446.410156,4485.897461,4342.563965,4301.025879,5.123367,6.250093,2.73212,0.610385,0.465259,2.455622,4.528433,0.997456,0.240287,0.162333,3.750833,8.059171,4.423434,0.435182,0.400302,2.359773,4.321179,1.21406,0.264171,0.266772,0.450255,0.981274,0.340339,0.173206,0.130615,2.001633,2.277698,0.687879,0.302323,0.114202,0.770992,1.701165,0.510916,0.238139,0.117512,2.021137,9.352483,0.992089,0.264809,0.102941,1.346971,14.313375,1.610542,0.30321,0.123198,2.091199,7.950349,1.996583,0.382465,0.366607,9.616737,9.179406,5.009396,0.727908,0.361445,6.810136,9.358467,5.205441,0.686267,0.424314,4.987206,7.546028,4.078901,0.715628,0.26181,9.03681,6.262005,3.446936,0.720679,0.214866
1720513306,120,0,4318.205078,4320.128418,4309.358887,4307.563965,4274.358887,4292.692383,4280.256348,4294.102539,4280.256348,4279.871582,4460.384766,4493.974121,4346.794922,4308.974121,,,,,,,,,,,,,,,,,,,,,,,,,,,,,,,,,,,,,,,,,,,,,,,,,,,,,,,,,,,,,,,,,,,,,,
1720513306,121,0,4314.615234,4332.05127,4296.538574,4318.846191,4277.563965,4285.641113,4277.179688,4294.358887,4276.666504,4282.307617,4464.102539,4497.94873,4347.436035,4310.512695,,,,,,,,,,,,,,,,,,,,,,,,,,,,,,,,,,,,,,,,,,,,,,,,,,,,,,,,,,,,,,,,,,,,,,
1720513306,122,0,4309.358887,4338.846191,4304.358887,4321.153809,4278.077148,4286.538574,4282.94873,4295.384766,4277.307617,4268.205078,4445.512695,4491.794922,4340.769043,4300,,,,,,,,,,,,,,,,,,,,,,,,,,,,,,,,,,,,,,,,,,,,,,,,,,,,,,,,,,,,,,,,,,,,,,
1720513306,123,0,4318.077148,4337.563965,4318.205078,4324.871582,4277.05127,4292.563965,4291.922852,4297.307617,4278.077148,4266.794922,4440.256348,4485.384766,4335.769043,4295.769043,,,,,,,,,,,,,,,,,,,,,,,,,,,,,,,,,,,,,,,,,,,,,,,,,,,,,,,,,,,,,,,,,,,,,,
1720513306,124,0,4325,4332.820313,4309.871582,4327.05127,4278.205078,4302.692383,4294.358887,4295.128418,4268.077148,4270.512695,4444.871582,4481.794922,4328.205078,4295.512695,,,,,,,,,,,,,,,,,,,,,,,,,,,,,,,,,,,,,,,,,,,,,,,,,,,,,,,,,,,,,,,,,,,,,,
1720513306,125,0,4308.717773,4323.461426,4300.256348,4314.487305,4282.692383,4312.307617,4300.128418,4296.666504,4270.256348,4260.769043,4438.589844,4480.512695,4315.256348,4285.256348,,,,,,,,,,,,,,,,,,,,,,,,,,,,,,,,,,,,,,,,,,,,,,,,,,,,,,,,,,,,,,,,,,,,,,
1720513306,126,0,4289.487305,4321.794922,4302.94873,4295.897461,4280.641113,4303.589844,4300.512695,4296.538574,4278.077148,4258.974121,4435.512695,4476.025879,4315.769043,4279.871582,,,,,,,,,,,,,,,,,,,,,,,,,,,,,,,,,,,,,,,,,,,,,,,,,,,,,,,,,,,,,,,,,,,,,,
1720513306,127,0,4300,4323.846191,4297.820313,4297.179688,4269.487305,4291.794922,4285.256348,4283.589844,4267.563965,4265.256348,4438.717773,4469.743652,4327.692383,4290.512695,,,,,,,,,,,,,,,,,,,,,,,,,,,,,,,,,,,,,,,,,,,,,,,,,,,,,,,,,,,,,,,,,,,,,,
1720513306,0,0,4318.589844,4314.487305,4296.153809,4301.538574,4263.717773,4292.94873,4276.153809,4276.666504,4259.615234,4266.282227,4442.05127,4475.384766,4341.794922,4307.436035,,,,,,,,,,,,,,,,,,,,,,,,,,,,,,,,,,,,,,,,,,,,,,,,,,,,,,,,,,,,,,,,,,,,,,
1720513306,1,0,4310.897461,4305.384766,4307.436035,4293.077148,4267.563965,4289.102539,4277.05127,4281.794922,4266.538574,4264.102539,4451.153809,4488.846191,4354.871582,4316.538574,,,,,,,,,,,,,,,,,,,,,,,,,,,,,,,,,,,,,,,,,,,,,,,,,,,,,,,,,,,,,,,,,,,,,,
1720513306,2,0,4310.128418,4312.436035,4310,4298.461426,4267.692383,4280.641113,4270.641113,4281.794922,4266.922852,4264.743652,4459.487305,4492.563965,4361.282227,4316.794922,,,,,,,,,,,,,,,,,,,,,,,,,,,,,,,,,,,,,,,,,,,,,,,,,,,,,,,,,,,,,,,,,,,,,,
1720513306,3,0,4327.563965,4328.077148,4308.846191,4315.769043,4264.487305,4283.461426,4263.077148,4277.307617,4261.794922,4271.538574,4465.384766,4492.05127,4371.025879,4324.358887,,,,,,,,,,,,,,,,,,,,,,,,,,,,,,,,,,,,,,,,,,,,,,,,,,,,,,,,,,,,,,,,,,,,,,
1720513306,4,0,4323.333496,4326.794922,4318.717773,4312.820313,4265.769043,4287.436035,4263.974121,4279.487305,4265.641113,4279.615234,4478.205078,4499.743652,4383.974121,4338.333496,,,,,,,,,,,,,,,,,,,,,,,,,,,,,,,,,,,,,,,,,,,,,,,,,,,,,,,,,,,,,,,,,,,,,,
1720513306,5,0,4309.358887,4315.641113,4321.794922,4304.871582,4266.794922,4288.974121,4264.230957,4281.922852,4267.436035,4280.769043,4476.153809,4501.153809,4379.230957,4331.794922,,,,,,,,,,,,,,,,,,,,,,,,,,,,,,,,,,,,,,,,,,,,,,,,,,,,,,,,,,,,,,,,,,,,,,
1720513306,6,0,4308.589844,4318.717773,4312.179688,4309.358887,4267.436035,4292.94873,4263.974121,4279.487305,4264.358887,4276.538574,4461.410156,4490.641113,4364.743652,4313.205078,,,,,,,,,,,,,,,,,,,,,,,,,,,,,,,,,,,,,,,,,,,,,,,,,,,,,,,,,,,,,,,,,,,,,,
1720513306,7,0,4303.717773,4322.692383,4306.538574,4304.743652,4274.230957,4302.307617,4271.153809,4278.717773,4262.307617,4269.358887,4458.974121,4484.358887,4362.692383,4311.922852,5.334117,6.732999,2.220643,0.659453,0.436492,2.139243,5.404806,0.958594,0.24802,0.164601,3.854038,8.257886,3.607994,0.520842,0.442013,2.529008,4.941376,1.083982,0.307623,0.277638,0.411516,0.925607,0.355185,0.180054,0.130117,1.696665,2.502251,0.658973,0.293441,0.100072,0.773711,2.259417,0.500732,0.169753,0.106116,2.107856,7.858581,0.960728,0.207498,0.106694,1.343952,11.75649,1.729029,0.25641,0.118715,1.764574,6.469602,2.123073,0.383065,0.326822,9.687248,8.086608,5.018622,0.742468,0.334934,5.920192,8.182009,4.651616,0.697848,0.403495,4.018007,7.325813,3.995554,0.726314,0.238506,7.711353,6.39575,3.278162,0.737969,0.208426
1720513306,8,0,4290.512695,4306.922852,4300.128418,4291.410156,4279.358887,4319.743652,4281.794922,4279.743652,4261.538574,4261.153809,4450.384766,4475,4349.871582,4307.94873,,,,,,,,,,,,,,,,,,,,,,,,,,,,,,,,,,,,,,,,,,,,,,,,,,,,,,,,,,,,,,,,,,,,,,
1720513306,9,0,4286.153809,4289.743652,4291.666504,4289.871582,4277.179688,4332.94873,4288.589844,4280.384766,4262.05127,4257.692383,4428.846191,4459.615234,4325.128418,4289.102539,,,,,,,,,,,,,,,,,,,,,,,,,,,,,,,,,,,,,,,,,,,,,,,,,,,,,,,,,,,,,,,,,,,,,,
1720513306,10,0,4288.717773,4297.307617,4293.077148,4294.358887,4275.512695,4328.077148,4289.102539,4278.077148,4262.307617,4255.769043,4422.179688,4452.563965,4323.333496,4285.512695,,,,,,,,,,,,,,,,,,,,,,,,,,,,,,,,,,,,,,,,,,,,,,,,,,,,,,,,,,,,,,,,,,,,,,
1720513306,11,0,4291.666504,4312.179688,4294.487305,4293.717773,4275.384766,4315.641113,4286.153809,4281.666504,4263.333496,4256.410156,4430.128418,4462.436035,4333.717773,4294.615234,,,,,,,,,,,,,,,,,,,,,,,,,,,,,,,,,,,,,,,,,,,,,,,,,,,,,,,,,,,,,,,,,,,,,,
1720513306,12,0,4299.615234,4318.589844,4290.769043,4299.358887,4277.820313,4311.153809,4283.717773,4291.153809,4267.692383,4263.974121,4434.871582,4480.256348,4336.153809,4298.077148,,,,,,,,,,,,,,,,,,,,,,,,,,,,,,,,,,,,,,,,,,,,,,,,,,,,,,,,,,,,,,,,,,,,,,
1720513306,13,0,4302.436035,4320.512695,4294.102539,4306.794922,4280.384766,4309.871582,4282.307617,4288.461426,4271.538574,4268.205078,4438.461426,4479.871582,4341.410156,4302.179688,,,,,,,,,,,,,,,,,,,,,,,,,,,,,,,,,,,,,,,,,,,,,,,,,,,,,,,,,,,,,,,,,,,,,,
1720513306,14,0,4296.666504,4323.333496,4302.05127,4307.179688,4271.410156,4300.256348,4277.563965,4285.256348,4274.487305,4271.922852,4449.230957,4470.769043,4355,4313.974121,,,,,,,,,,,,,,,,,,,,,,,,,,,,,,,,,,,,,,,,,,,,,,,,,,,,,,,,,,,,,,,,,,,,,,
1720513306,15,0,4303.077148,4327.692383,4310.769043,4309.871582,4265.128418,4291.153809,4272.05127,4292.94873,4279.358887,4278.461426,4461.025879,4485.256348,4362.820313,4326.410156,,,,,,,,,,,,,,,,,,,,,,,,,,,,,,,,,,,,,,,,,,,,,,,,,,,,,,,,,,,,,,,,,,,,,,
1720513306,16,0,4321.282227,4326.666504,4316.922852,4310.897461,4274.871582,4292.179688,4265.897461,4288.461426,4275,4282.94873,4462.692383,4499.487305,4363.846191,4331.538574,,,,,,,,,,,,,,,,,,,,,,,,,,,,,,,,,,,,,,,,,,,,,,,,,,,,,,,,,,,,,,,,,,,,,,
1720513306,17,0,4324.871582,4324.358887,4309.615234,4307.692383,4273.077148,4291.666504,4255.512695,4273.461426,4261.922852,4279.743652,4458.461426,4486.538574,4368.077148,4327.179688,,,,,,,,,,,,,,,,,,,,,,,,,,,,,,,,,,,,,,,,,,,,,,,,,,,,,,,,,,,,,,,,,,,,,,
1720513306,18,0,4318.974121,4325.769043,4302.436035,4310.641113,4263.589844,4294.615234,4255.641113,4274.743652,4260.128418,4270.256348,4460.256348,4481.025879,4369.487305,4326.410156,,,,,,,,,,,,,,,,,,,,,,,,,,,,,,,,,,,,,,,,,,,,,,,,,,,,,,,,,,,,,,,,,,,,,,
1720513306,19,0,4322.05127,4326.282227,4313.717773,4312.692383,4273.077148,4306.666504,4265.384766,4281.922852,4266.794922,4271.410156,4457.563965,4489.487305,4363.077148,4328.333496,,,,,,,,,,,,,,,,,,,,,,,,,,,,,,,,,,,,,,,,,,,,,,,,,,,,,,,,,,,,,,,,,,,,,,
1720513306,20,0,4319.230957,4321.794922,4321.538574,4308.589844,4278.974121,4309.615234,4265.641113,4278.461426,4265.384766,4278.333496,4448.077148,4485.641113,4352.94873,4320.256348,,,,,,,,,,,,,,,,,,,,,,,,,,,,,,,,,,,,,,,,,,,,,,,,,,,,,,,,,,,,,,,,,,,,,,
1720513306,21,0,4309.871582,4320.512695,4301.666504,4311.922852,4273.589844,4307.563965,4264.102539,4279.102539,4264.102539,4273.077148,4441.282227,4476.282227,4346.410156,4310.512695,,,,,,,,,,,,,,,,,,,,,,,,,,,,,,,,,,,,,,,,,,,,,,,,,,,,,,,,,,,,,,,,,,,,,,
1720513306,22,0,4305.128418,4320.384766,4290.256348,4307.05127,4276.922852,4310.256348,4270.256348,4282.820313,4265.641113,4260.384766,4434.871582,4470.384766,4339.871582,4304.743652,,,,,,,,,,,,,,,,,,,,,,,,,,,,,,,,,,,,,,,,,,,,,,,,,,,,,,,,,,,,,,,,,,,,,,
1720513306,23,0,4298.077148,4313.077148,4304.615234,4297.692383,4279.487305,4313.461426,4272.05127,4276.538574,4259.487305,4256.025879,4426.666504,4467.436035,4330.512695,4296.538574,5.482389,7.501416,1.720154,0.698281,0.394601,1.876535,6.193129,0.891844,0.256358,0.161922,4.241294,8.797529,2.789816,0.608597,0.468023,2.751033,5.398687,0.936252,0.342146,0.291604,0.369751,0.803595,0.349041,0.193491,0.135052,1.483568,2.951674,0.613943,0.272911,0.088763,0.809656,2.880854,0.507647,0.127244,0.095815,2.253016,6.203073,0.923245,0.167539,0.114295,1.414721,8.992,1.695238,0.21645,0.117076,1.536046,4.777774,1.993383,0.38212,0.289918,9.064336,7.08539,4.581233,0.747122,0.302456,4.986407,7.4998,3.983081,0.705254,0.390649,3.150779,7.365359,3.534478,0.693657,0.202344,6.247941,7.231453,2.981217,0.709791,0.200014
1720513306,24,0,4292.307617,4311.282227,4302.94873,4307.563965,4274.871582,4310.256348,4262.307617,4264.871582,4244.487305,4248.846191,4415.128418,4454.102539,4319.487305,4288.974121,,,,,,,,,,,,,,,,,,,,,,,,,,,,,,,,,,,,,,,,,,,,,,,,,,,,,,,,,,,,,,,,,,,,,,
1720513306,25,0,4297.820313,4312.436035,4288.333496,4307.820313,4275.641113,4301.282227,4255,4256.282227,4232.820313,4239.230957,4406.794922,4437.820313,4310.512695,4289.358887,,,,,,,,,,,,,,,,,,,,,,,,,,,,,,,,,,,,,,,,,,,,,,,,,,,,,,,,,,,,,,,,,,,,,,
1720513306,26,0,4299.102539,4307.563965,4294.358887,4294.743652,4278.846191,4297.179688,4258.589844,4260,4236.922852,4248.077148,4411.410156,4448.846191,4313.589844,4292.179688,,,,,,,,,,,,,,,,,,,,,,,,,,,,,,,,,,,,,,,,,,,,,,,,,,,,,,,,,,,,,,,,,,,,,,
1720513306,27,0,4303.205078,4315.512695,4319.230957,4304.102539,4280.641113,4299.615234,4263.461426,4271.282227,4247.436035,4266.025879,4430.128418,4481.666504,4331.410156,4305.128418,,,,,,,,,,,,,,,,,,,,,,,,,,,,,,,,,,,,,,,,,,,,,,,,,,,,,,,,,,,,,,,,,,,,,,
1720513306,28,0,4329.871582,4337.94873,4334.102539,4326.666504,4282.94873,4297.436035,4264.743652,4276.538574,4254.230957,4276.666504,4453.461426,4498.974121,4357.436035,4331.282227,,,,,,,,,,,,,,,,,,,,,,,,,,,,,,,,,,,,,,,,,,,,,,,,,,,,,,,,,,,,,,,,,,,,,,
1720513306,29,0,4342.436035,4340.256348,4323.846191,4327.94873,4280.256348,4294.871582,4270.897461,4281.282227,4261.666504,4274.102539,4457.692383,4492.436035,4368.077148,4339.230957,,,,,,,,,,,,,,,,,,,,,,,,,,,,,,,,,,,,,,,,,,,,,,,,,,,,,,,,,,,,,,,,,,,,,,
1720513306,30,0,4321.922852,4326.282227,4306.025879,4316.025879,4278.077148,4307.692383,4281.153809,4289.871582,4267.307617,4267.692383,4444.615234,4491.794922,4353.461426,4326.282227,,,,,,,,,,,,,,,,,,,,,,,,,,,,,,,,,,,,,,,,,,,,,,,,,,,,,,,,,,,,,,,,,,,,,,
1720513306,31,0,4311.794922,4324.743652,4305.256348,4311.794922,4280,4318.589844,4281.410156,4288.333496,4263.717773,4265.641113,4442.94873,4491.282227,4344.230957,4322.436035,,,,,,,,,,,,,,,,,,,,,,,,,,,,,,,,,,,,,,,,,,,,,,,,,,,,,,,,,,,,,,,,,,,,,,
1720513306,32,0,4324.743652,4322.179688,4318.974121,4310.128418,4279.743652,4315.128418,4276.922852,4284.230957,4267.179688,4264.871582,4451.794922,4485,4350.897461,4330.897461,,,,,,,,,,,,,,,,,,,,,,,,,,,,,,,,,,,,,,,,,,,,,,,,,,,,,,,,,,,,,,,,,,,,,,
1720513306,33,0,4320.897461,4309.487305,4315,4306.153809,4278.461426,4311.410156,4272.692383,4285,4277.436035,4271.153809,4442.563965,4480.769043,4344.615234,4325.256348,,,,,,,,,,,,,,,,,,,,,,,,,,,,,,,,,,,,,,,,,,,,,,,,,,,,,,,,,,,,,,,,,,,,,,
1720513306,34,0,4309.615234,4311.538574,4302.94873,4305,4280.384766,4309.487305,4266.538574,4283.974121,4272.820313,4280,4431.410156,4478.333496,4332.563965,4318.333496,,,,,,,,,,,,,,,,,,,,,,,,,,,,,,,,,,,,,,,,,,,,,,,,,,,,,,,,,,,,,,,,,,,,,,
1720513306,35,0,4320.384766,4324.487305,4304.358887,4309.230957,4281.666504,4308.846191,4271.025879,4285,4265.897461,4276.410156,4435.512695,4477.179688,4338.461426,4325.384766,,,,,,,,,,,,,,,,,,,,,,,,,,,,,,,,,,,,,,,,,,,,,,,,,,,,,,,,,,,,,,,,,,,,,,
1720513306,36,0,4322.820313,4323.077148,4310.384766,4311.153809,4278.974121,4309.102539,4281.410156,4287.692383,4265.256348,4254.743652,4425.384766,4472.820313,4329.102539,4315.384766,,,,,,,,,,,,,,,,,,,,,,,,,,,,,,,,,,,,,,,,,,,,,,,,,,,,,,,,,,,,,,,,,,,,,,
1720513306,37,0,4309.102539,4319.230957,4319.487305,4313.461426,4275.512695,4308.077148,4284.487305,4286.025879,4259.102539,4246.410156,4412.692383,4475.128418,4311.153809,4302.563965,,,,,,,,,,,,,,,,,,,,,,,,,,,,,,,,,,,,,,,,,,,,,,,,,,,,,,,,,,,,,,,,,,,,,,
1720513306,38,0,4319.743652,4327.820313,4323.333496,4321.794922,4277.820313,4302.94873,4282.307617,4277.563965,4246.922852,4259.102539,4428.589844,4480,4326.922852,4320,,,,,,,,,,,,,,,,,,,,,,,,,,,,,,,,,,,,,,,,,,,,,,,,,,,,,,,,,,,,,,,,,,,,,,
1720513306,39,0,4345.897461,4337.436035,4326.794922,4322.05127,4285.384766,4298.846191,4280.512695,4270.128418,4243.589844,4263.717773,4443.589844,4488.846191,4352.94873,4345.256348,5.560709,8.477754,1.383589,0.721549,0.352156,1.667091,6.74315,0.815068,0.263158,0.156176,4.761711,9.693402,2.182595,0.687576,0.469815,2.964609,5.61338,0.811381,0.357909,0.299543,0.338632,0.647449,0.325018,0.207821,0.142768,1.398219,3.577184,0.588491,0.245957,0.081825,0.864359,3.413378,0.521663,0.10984,0.087634,2.430501,4.683369,0.861226,0.149212,0.123505,1.485558,6.426039,1.501011,0.191227,0.119213,1.36344,3.27152,1.680769,0.371035,0.263418,7.851729,6.657341,3.903436,0.73053,0.269962,4.179064,7.584817,3.394157,0.694596,0.386615,2.551234,7.912861,2.92563,0.621668,0.164929,5.107567,8.736888,2.695046,0.634738,0.192646
1720513306,40,0,4351.666504,4337.307617,4343.205078,4320.769043,4291.025879,4300,4281.794922,4272.05127,4254.358887,4266.666504,4446.410156,4503.717773,4357.307617,4356.153809,,,,,,,,,,,,,,,,,,,,,,,,,,,,,,,,,,,,,,,,,,,,,,,,,,,,,,,,,,,,,,,,,,,,,,
1720513306,41,0,4354.615234,4329.102539,4350.128418,4324.743652,4291.410156,4298.846191,4277.436035,4272.436035,4261.922852,4272.820313,4459.102539,4510,4357.692383,4362.436035,,,,,,,,,,,,,,,,,,,,,,,,,,,,,,,,,,,,,,,,,,,,,,,,,,,,,,,,,,,,,,,,,,,,,,
1720513306,42,0,4357.820313,4325.384766,4333.717773,4321.538574,4292.436035,4295.512695,4269.615234,4268.717773,4260.512695,4272.94873,4462.179688,4510,4358.461426,4362.307617,,,,,,,,,,,,,,,,,,,,,,,,,,,,,,,,,,,,,,,,,,,,,,,,,,,,,,,,,,,,,,,,,,,,,,
1720513306,43,0,4338.974121,4330.897461,4321.410156,4318.333496,4291.922852,4297.436035,4266.538574,4273.974121,4267.820313,4271.922852,4447.436035,4499.615234,4349.487305,4348.077148,,,,,,,,,,,,,,,,,,,,,,,,,,,,,,,,,,,,,,,,,,,,,,,,,,,,,,,,,,,,,,,,,,,,,,
1720513306,44,0,4322.94873,4328.461426,4318.333496,4320.256348,4288.717773,4305.256348,4266.538574,4280.384766,4278.589844,4272.563965,4439.102539,4478.333496,4338.717773,4333.974121,,,,,,,,,,,,,,,,,,,,,,,,,,,,,,,,,,,,,,,,,,,,,,,,,,,,,,,,,,,,,,,,,,,,,,
1720513306,45,0,4325,4315.897461,4308.461426,4313.846191,4289.102539,4306.153809,4268.974121,4276.410156,4272.307617,4266.410156,4433.333496,4466.025879,4332.05127,4326.282227,,,,,,,,,,,,,,,,,,,,,,,,,,,,,,,,,,,,,,,,,,,,,,,,,,,,,,,,,,,,,,,,,,,,,,
1720513306,46,0,4325.128418,4314.102539,4304.102539,4306.025879,4287.05127,4300.641113,4274.743652,4274.615234,4263.717773,4263.077148,4426.025879,4470.128418,4331.282227,4323.461426,,,,,,,,,,,,,,,,,,,,,,,,,,,,,,,,,,,,,,,,,,,,,,,,,,,,,,,,,,,,,,,,,,,,,,
1720513306,47,0,4324.102539,4321.922852,4316.410156,4313.077148,4282.436035,4297.94873,4278.205078,4278.077148,4261.794922,4266.666504,4435,4479.358887,4339.102539,4331.538574,,,,,,,,,,,,,,,,,,,,,,,,,,,,,,,,,,,,,,,,,,,,,,,,,,,,,,,,,,,,,,,,,,,,,,
1720513306,48,0,4339.743652,4322.05127,4335.769043,4317.05127,4276.153809,4289.487305,4274.102539,4275.512695,4253.461426,4261.025879,4452.94873,4493.974121,4351.794922,4349.230957,,,,,,,,,,,,,,,,,,,,,,,,,,,,,,,,,,,,,,,,,,,,,,,,,,,,,,,,,,,,,,,,,,,,,,
1720513306,49,0,4355,4319.358887,4343.717773,4315.897461,4267.94873,4278.461426,4266.666504,4272.692383,4247.563965,4257.692383,4465,4513.205078,4361.153809,4363.077148,,,,,,,,,,,,,,,,,,,,,,,,,,,,,,,,,,,,,,,,,,,,,,,,,,,,,,,,,,,,,,,,,,,,,,
1720513306,50,0,4348.974121,4321.538574,4331.794922,4325,4270.512695,4275.512695,4265.641113,4272.94873,4249.230957,4266.410156,4467.563965,4512.692383,4358.461426,4358.205078,,,,,,,,,,,,,,,,,,,,,,,,,,,,,,,,,,,,,,,,,,,,,,,,,,,,,,,,,,,,,,,,,,,,,,
1720513306,51,0,4334.871582,4318.461426,4329.102539,4322.179688,4278.846191,4278.974121,4272.307617,4270.897461,4248.974121,4264.358887,4453.333496,4496.025879,4345.512695,4341.794922,,,,,,,,,,,,,,,,,,,,,,,,,,,,,,,,,,,,,,,,,,,,,,,,,,,,,,,,,,,,,,,,,,,,,,
1720513306,52,0,4329.358887,4312.05127,4335.769043,4308.461426,4280.512695,4283.205078,4272.307617,4260,4241.025879,4250,4432.692383,4485.641113,4330.641113,4326.538574,,,,,,,,,,,,,,,,,,,,,,,,,,,,,,,,,,,,,,,,,,,,,,,,,,,,,,,,,,,,,,,,,,,,,,
1720513306,53,0,4323.461426,4311.410156,4316.025879,4313.846191,4281.794922,4287.820313,4261.153809,4244.871582,4231.794922,4243.461426,4426.794922,4477.436035,4316.153809,4314.230957,,,,,,,,,,,,,,,,,,,,,,,,,,,,,,,,,,,,,,,,,,,,,,,,,,,,,,,,,,,,,,,,,,,,,,
1720513306,54,0,4317.436035,4311.025879,4295.384766,4325.641113,4287.436035,4293.974121,4260,4244.871582,4234.615234,4249.230957,4426.794922,4464.615234,4307.436035,4307.820313,,,,,,,,,,,,,,,,,,,,,,,,,,,,,,,,,,,,,,,,,,,,,,,,,,,,,,,,,,,,,,,,,,,,,,
1720513306,55,0,4315.769043,4307.820313,4301.922852,4315.128418,4291.538574,4302.692383,4273.205078,4258.589844,4250.769043,4247.820313,4413.077148,4455.897461,4307.692383,4304.487305,5.626085,9.448707,1.269182,0.73228,0.322134,1.485612,6.958558,0.751342,0.271606,0.151772,5.20717,10.758593,1.87021,0.754437,0.450885,3.068625,5.577301,0.74295,0.353444,0.296731,0.323133,0.501586,0.290042,0.216135,0.150378,1.368299,4.276461,0.602506,0.220578,0.080017,0.929338,3.758789,0.536579,0.112886,0.081628,2.602537,3.442,0.767516,0.151189,0.131758,1.518915,4.317861,1.201418,0.184313,0.125151,1.179112,2.24506,1.314859,0.350898,0.248513,6.352035,7.075861,3.266166,0.696094,0.243309,3.605907,8.460557,3.019332,0.669403,0.391109,2.269516,9.057727,2.417083,0.532375,0.137022,4.409636,10.627966,2.543156,0.532345,0.189423
1720513306,56,0,4309.743652,4301.410156,4305.641113,4296.538574,4289.487305,4310,4278.077148,4264.871582,4261.666504,4244.743652,4400.512695,4452.436035,4304.743652,4300.769043,,,,,,,,,,,,,,,,,,,,,,,,,,,,,,,,,,,,,,,,,,,,,,,,,,,,,,,,,,,,,,,,,,,,,,
1720513306,57,0,4307.436035,4293.717773,4293.589844,4291.794922,4281.153809,4304.230957,4272.692383,4262.563965,4260.128418,4253.077148,4409.230957,4446.025879,4301.410156,4300.897461,,,,,,,,,,,,,,,,,,,,,,,,,,,,,,,,,,,,,,,,,,,,,,,,,,,,,,,,,,,,,,,,,,,,,,
1720513306,58,0,4311.410156,4294.358887,4286.666504,4299.487305,4276.922852,4296.666504,4270.256348,4265.897461,4259.230957,4259.743652,4422.179688,4444.358887,4305.769043,4304.358887,,,,,,,,,,,,,,,,,,,,,,,,,,,,,,,,,,,,,,,,,,,,,,,,,,,,,,,,,,,,,,,,,,,,,,
1720513306,59,0,4310.384766,4303.589844,4292.94873,4302.94873,4281.922852,4294.487305,4268.589844,4276.282227,4263.205078,4261.153809,4426.025879,4460.512695,4317.94873,4309.230957,,,,,,,,,,,,,,,,,,,,,,,,,,,,,,,,,,,,,,,,,,,,,,,,,,,,,,,,,,,,,,,,,,,,,,
1720513306,60,0,4318.846191,4308.205078,4301.025879,4301.410156,4278.077148,4285.128418,4265.256348,4279.230957,4265.128418,4264.358887,4434.230957,4482.692383,4331.153809,4319.358887,,,,,,,,,,,,,,,,,,,,,,,,,,,,,,,,,,,,,,,,,,,,,,,,,,,,,,,,,,,,,,,,,,,,,,
1720513306,61,0,4339.358887,4313.461426,4306.282227,4312.94873,4273.717773,4281.922852,4271.153809,4276.922852,4259.743652,4266.153809,4447.94873,4490,4336.666504,4332.307617,,,,,,,,,,,,,,,,,,,,,,,,,,,,,,,,,,,,,,,,,,,,,,,,,,,,,,,,,,,,,,,,,,,,,,
1720513306,62,0,4343.589844,4325.769043,4318.205078,4322.692383,4281.282227,4287.436035,4279.358887,4279.230957,4252.563965,4263.589844,4450.128418,4489.487305,4337.307617,4340,,,,,,,,,,,,,,,,,,,,,,,,,,,,,,,,,,,,,,,,,,,,,,,,,,,,,,,,,,,,,,,,,,,,,,
1720513306,63,0,4337.94873,4327.05127,4337.563965,4313.077148,4280.897461,4286.922852,4279.615234,4285.641113,4251.025879,4265,4450.641113,4502.692383,4343.589844,4344.615234,,,,,,,,,,,,,,,,,,,,,,,,,,,,,,,,,,,,,,,,,,,,,,,,,,,,,,,,,,,,,,,,,,,,,,
1720513306,64,0,4346.282227,4320.128418,4340.128418,4315.384766,4278.974121,4286.025879,4283.846191,4286.922852,4250.769043,4263.333496,4454.102539,4511.538574,4348.077148,4348.077148,,,,,,,,,,,,,,,,,,,,,,,,,,,,,,,,,,,,,,,,,,,,,,,,,,,,,,,,,,,,,,,,,,,,,,
1720513306,65,0,4348.205078,4321.282227,4323.846191,4327.692383,4288.846191,4293.717773,4291.794922,4282.05127,4247.179688,4248.077148,4448.077148,4496.410156,4336.410156,4343.717773,,,,,,,,,,,,,,,,,,,,,,,,,,,,,,,,,,,,,,,,,,,,,,,,,,,,,,,,,,,,,,,,,,,,,,
1720513306,66,0,4331.538574,4320.384766,4317.820313,4319.358887,4292.307617,4302.563965,4294.871582,4281.538574,4244.358887,4241.666504,4438.846191,4487.820313,4326.410156,4335.128418,,,,,,,,,,,,,,,,,,,,,,,,,,,,,,,,,,,,,,,,,,,,,,,,,,,,,,,,,,,,,,,,,,,,,,
1720513306,67,0,4321.794922,4313.461426,4315.512695,4309.615234,4288.077148,4309.358887,4297.820313,4283.461426,4247.179688,4255.769043,4441.794922,4491.538574,4326.922852,4329.230957,,,,,,,,,,,,,,,,,,,,,,,,,,,,,,,,,,,,,,,,,,,,,,,,,,,,,,,,,,,,,,,,,,,,,,
1720513306,68,0,4320.897461,4307.692383,4298.589844,4309.487305,4292.179688,4313.717773,4295.128418,4281.922852,4250.641113,4261.794922,4440.641113,4476.794922,4321.922852,4319.358887,,,,,,,,,,,,,,,,,,,,,,,,,,,,,,,,,,,,,,,,,,,,,,,,,,,,,,,,,,,,,,,,,,,,,,
1720513306,69,0,4303.461426,4299.487305,4278.461426,4296.794922,4295.897461,4312.179688,4286.282227,4275.641113,4248.717773,4247.179688,4420.897461,4457.820313,4306.922852,4304.230957,,,,,,,,,,,,,,,,,,,,,,,,,,,,,,,,,,,,,,,,,,,,,,,,,,,,,,,,,,,,,,,,,,,,,,
1720513306,70,0,4284.102539,4291.538574,4273.205078,4285.512695,4288.077148,4308.205078,4277.563965,4268.717773,4246.025879,4245.384766,4413.461426,4453.589844,4301.538574,4298.077148,,,,,,,,,,,,,,,,,,,,,,,,,,,,,,,,,,,,,,,,,,,,,,,,,,,,,,,,,,,,,,,,,,,,,,
1720513306,71,0,4294.230957,4294.743652,4288.589844,4291.922852,4280.512695,4303.077148,4275.384766,4272.179688,4251.922852,4265.512695,4431.794922,4458.461426,4314.615234,4306.538574,5.415333,10.127379,1.313596,0.730893,0.313821,1.311391,6.815759,0.710661,0.283435,0.153946,5.271932,11.626638,1.793256,0.801311,0.42547,2.969376,5.339405,0.734561,0.331502,0.284689,0.32531,0.405658,0.251867,0.213171,0.155269,1.361966,4.907672,0.632639,0.204451,0.083056,1.015996,3.862285,0.565193,0.131821,0.07782,2.720981,2.503486,0.663715,0.168492,0.137408,1.535002,2.828135,0.902396,0.196311,0.133284,0.978509,1.83246,1.008484,0.337966,0.240968,4.838764,8.234262,2.810822,0.659041,0.226368,3.127058,9.767633,2.86596,0.649396,0.401522,2.187997,10.64206,2.095464,0.462405,0.125029,4.009366,12.424194,2.504102,0.436497,0.192155
1720513306,72,0,4314.615234,4307.05127,4305.512695,4297.563965,4279.102539,4291.025879,4275,4282.307617,4266.410156,4279.871582,4447.94873,4476.666504,4327.436035,4319.615234,,,,,,,,,,,,,,,,,,,,,,,,,,,,,,,,,,,,,,,,,,,,,,,,,,,,,,,,,,,,,,,,,,,,,,
1720513306,73,0,4321.153809,4314.487305,4305.384766,4298.846191,4280.769043,4279.230957,4268.717773,4284.102539,4267.94873,4277.307617,4452.436035,4491.794922,4330.128418,4333.589844,,,,,,,,,,,,,,,,,,,,,,,,,,,,,,,,,,,,,,,,,,,,,,,,,,,,,,,,,,,,,,,,,,,,,,
1720513306,74,0,4333.717773,4314.871582,4307.692383,4305.897461,4282.179688,4274.230957,4262.05127,4278.589844,4254.871582,4268.717773,4445.897461,4494.871582,4328.717773,4346.922852,,,,,,,,,,,,,,,,,,,,,,,,,,,,,,,,,,,,,,,,,,,,,,,,,,,,,,,,,,,,,,,,,,,,,,
1720513306,75,0,4347.179688,4317.436035,4326.538574,4310.897461,4280.256348,4275.256348,4261.794922,4277.563965,4245.897461,4262.179688,4436.282227,4498.461426,4331.282227,4349.487305,,,,,,,,,,,,,,,,,,,,,,,,,,,,,,,,,,,,,,,,,,,,,,,,,,,,,,,,,,,,,,,,,,,,,,
1720513306,76,0,4340.641113,4325,4335.128418,4308.333496,4281.666504,4283.333496,4269.743652,4275.128418,4236.538574,4253.974121,4433.717773,4495.384766,4328.077148,4342.307617,,,,,,,,,,,,,,,,,,,,,,,,,,,,,,,,,,,,,,,,,,,,,,,,,,,,,,,,,,,,,,,,,,,,,,
1720513306,77,0,4336.410156,4330.641113,4330,4313.846191,4291.538574,4297.692383,4276.922852,4267.307617,4228.205078,4243.717773,4441.153809,4491.282227,4323.333496,4344.230957,,,,,,,,,,,,,,,,,,,,,,,,,,,,,,,,,,,,,,,,,,,,,,,,,,,,,,,,,,,,,,,,,,,,,,
1720513306,78,0,4349.102539,4329.230957,4337.307617,4323.589844,4296.794922,4308.077148,4280,4266.410156,4234.487305,4245.897461,4453.461426,4501.410156,4335.769043,4359.615234,,,,,,,,,,,,,,,,,,,,,,,,,,,,,,,,,,,,,,,,,,,,,,,,,,,,,,,,,,,,,,,,,,,,,,
1720513306,79,0,4350.384766,4326.025879,4337.563965,4319.743652,4288.974121,4309.743652,4283.077148,4273.461426,4247.05127,4256.153809,4457.820313,4510.384766,4344.615234,4364.487305,,,,,,,,,,,,,,,,,,,,,,,,,,,,,,,,,,,,,,,,,,,,,,,,,,,,,,,,,,,,,,,,,,,,,,
1720513306,80,0,4337.692383,4320.769043,4318.077148,4307.179688,4281.538574,4306.153809,4283.333496,4278.717773,4257.820313,4257.307617,4451.153809,4505.512695,4334.230957,4356.666504,,,,,,,,,,,,,,,,,,,,,,,,,,,,,,,,,,,,,,,,,,,,,,,,,,,,,,,,,,,,,,,,,,,,,,
1720513306,81,0,4339.358887,4310.384766,4308.589844,4296.410156,4278.333496,4299.615234,4284.102539,4283.461426,4266.538574,4257.05127,4441.410156,4494.615234,4324.871582,4348.205078,,,,,,,,,,,,,,,,,,,,,,,,,,,,,,,,,,,,,,,,,,,,,,,,,,,,,,,,,,,,,,,,,,,,,,
1720513306,82,0,4340.897461,4303.205078,4304.230957,4293.846191,4276.025879,4295.897461,4285.641113,4293.333496,4268.205078,4264.230957,4434.487305,4478.589844,4322.307617,4336.153809,,,,,,,,,,,,,,,,,,,,,,,,,,,,,,,,,,,,,,,,,,,,,,,,,,,,,,,,,,,,,,,,,,,,,,
1720513306,83,0,4328.461426,4306.025879,4295,4300.384766,4276.794922,4294.102539,4284.743652,4296.282227,4265.641113,4264.743652,4427.436035,4469.102539,4318.333496,4326.282227,,,,,,,,,,,,,,,,,,,,,,,,,,,,,,,,,,,,,,,,,,,,,,,,,,,,,,,,,,,,,,,,,,,,,,
1720513306,84,0,4322.05127,4309.871582,4299.487305,4303.461426,4279.358887,4285.128418,4280.897461,4294.358887,4266.025879,4262.563965,4433.461426,4472.307617,4326.794922,4334.358887,,,,,,,,,,,,,,,,,,,,,,,,,,,,,,,,,,,,,,,,,,,,,,,,,,,,,,,,,,,,,,,,,,,,,,
1720513306,85,0,4330.897461,4313.077148,4311.025879,4303.589844,4281.025879,4278.333496,4274.871582,4294.230957,4267.05127,4274.743652,4454.615234,4482.820313,4342.436035,4350.128418,,,,,,,,,,,,,,,,,,,,,,,,,,,,,,,,,,,,,,,,,,,,,,,,,,,,,,,,,,,,,,,,,,,,,,
1720513306,86,0,4340.128418,4323.846191,4318.589844,4321.025879,4281.282227,4279.358887,4266.410156,4289.358887,4266.410156,4283.077148,4462.94873,4496.538574,4342.94873,4352.692383,,,,,,,,,,,,,,,,,,,,,,,,,,,,,,,,,,,,,,,,,,,,,,,,,,,,,,,,,,,,,,,,,,,,,,
1720513306,87,0,4343.974121,4332.179688,4334.487305,4331.282227,4280.769043,4276.794922,4260.128418,4277.436035,4259.615234,4271.153809,4459.487305,4499.743652,4343.717773,4351.922852,4.931391,10.280156,1.439961,0.721534,0.327636,1.162733,6.351554,0.709626,0.296336,0.165536,4.870195,11.914914,1.852133,0.817899,0.411205,2.658195,4.962874,0.778233,0.298305,0.269071,0.349329,0.39232,0.215779,0.198484,0.155681,1.377769,5.350109,0.630243,0.203078,0.089527,1.132568,3.710198,0.616113,0.160583,0.077032,2.770472,1.824135,0.580393,0.195535,0.140242,1.575897,1.989436,0.692335,0.2273,0.141328,0.782403,1.944386,0.798986,0.352751,0.235162,3.543367,9.669435,2.536957,0.637848,0.221086,2.701329,10.939659,2.885866,0.656008,0.411376,2.153749,12.27052,1.940875,0.441197,0.129435,3.677228,13.626778,2.524446,0.383547,0.200048
1720513306,88,0,4348.077148,4327.94873,4339.230957,4315.769043,4279.615234,4274.743652,4261.666504,4267.94873,4250.256348,4265.128418,4461.666504,4492.692383,4351.538574,4358.717773,,,,,,,,,,,,,,,,,,,,,,,,,,,,,,,,,,,,,,,,,,,,,,,,,,,,,,,,,,,,,,,,,,,,,,
1720513306,89,0,4339.743652,4320.256348,4313.205078,4313.461426,4280,4286.153809,4263.461426,4270.256348,4246.666504,4264.615234,4460.128418,4487.563965,4348.846191,4360.512695,,,,,,,,,,,,,,,,,,,,,,,,,,,,,,,,,,,,,,,,,,,,,,,,,,,,,,,,,,,,,,,,,,,,,,
1720513306,90,0,4318.461426,4315.512695,4293.077148,4320.769043,4285.512695,4295.512695,4264.615234,4276.153809,4248.974121,4252.820313,4444.615234,4478.205078,4336.282227,4344.102539,,,,,,,,,,,,,,,,,,,,,,,,,,,,,,,,,,,,,,,,,,,,,,,,,,,,,,,,,,,,,,,,,,,,,,
1720513306,91,0,4305.641113,4309.615234,4295.256348,4305.769043,4288.333496,4289.871582,4268.077148,4277.94873,4255.769043,4252.94873,4434.871582,4464.230957,4327.94873,4326.025879,,,,,,,,,,,,,,,,,,,,,,,,,,,,,,,,,,,,,,,,,,,,,,,,,,,,,,,,,,,,,,,,,,,,,,
1720513306,92,0,4304.230957,4306.282227,4287.563965,4292.436035,4280.512695,4281.410156,4267.563965,4279.615234,4261.410156,4261.410156,4440,4458.077148,4325.769043,4326.922852,,,,,,,,,,,,,,,,,,,,,,,,,,,,,,,,,,,,,,,,,,,,,,,,,,,,,,,,,,,,,,,,,,,,,,
1720513307,93,0,4304.871582,4307.820313,4278.461426,4301.794922,4274.102539,4278.846191,4264.487305,4281.666504,4259.615234,4251.410156,4442.692383,4461.025879,4325.897461,4334.871582,,,,,,,,,,,,,,,,,,,,,,,,,,,,,,,,,,,,,,,,,,,,,,,,,,,,,,,,,,,,,,,,,,,,,,
1720513307,94,0,4316.922852,4307.307617,4306.025879,4310.256348,4281.922852,4284.487305,4268.461426,4281.153809,4257.307617,4247.692383,4441.153809,4475.256348,4330.897461,4341.410156,,,,,,,,,,,,,,,,,,,,,,,,,,,,,,,,,,,,,,,,,,,,,,,,,,,,,,,,,,,,,,,,,,,,,,
1720513307,95,0,4333.077148,4310.641113,4329.230957,4312.820313,4288.461426,4290.897461,4276.794922,4278.974121,4259.615234,4261.025879,4447.307617,4486.410156,4337.436035,4350.897461,,,,,,,,,,,,,,,,,,,,,,,,,,,,,,,,,,,,,,,,,,,,,,,,,,,,,,,,,,,,,,,,,,,,,,
1720513307,96,0,4338.717773,4322.94873,4320.128418,4324.615234,4281.922852,4287.94873,4278.077148,4282.436035,4260.641113,4264.615234,4455.384766,4496.282227,4341.794922,4362.179688,,,,,,,,,,,,,,,,,,,,,,,,,,,,,,,,,,,,,,,,,,,,,,,,,,,,,,,,,,,,,,,,,,,,,,
1720513307,97,0,4341.922852,4328.974121,4324.871582,4330.384766,4278.717773,4278.974121,4275.256348,4285.384766,4255,4262.307617,4456.282227,4511.410156,4341.666504,4368.846191,,,,,,,,,,,,,,,,,,,,,,,,,,,,,,,,,,,,,,,,,,,,,,,,,,,,,,,,,,,,,,,,,,,,,,
1720513307,98,0,4340.769043,4320.897461,4340.256348,4324.487305,4288.333496,4283.717773,4279.615234,4283.333496,4249.615234,4264.871582,4458.589844,4508.846191,4337.179688,4366.282227,,,,,,,,,,,,,,,,,,,,,,,,,,,,,,,,,,,,,,,,,,,,,,,,,,,,,,,,,,,,,,,,,,,,,,
1720513307,99,0,4342.307617,4319.102539,4337.179688,4323.589844,4292.563965,4299.487305,4286.025879,4276.410156,4247.436035,4261.922852,4464.230957,4499.871582,4337.436035,4362.94873,,,,,,,,,,,,,,,,,,,,,,,,,,,,,,,,,,,,,,,,,,,,,,,,,,,,,,,,,,,,,,,,,,,,,,
