Timestamp,EEG.Counter,EEG.Interpolated,EEG.AF3,EEG.F7,EEG.F3,EEG.FC5,EEG.T7,EEG.P7,EEG.O1,EEG.O2,EEG.P8,EEG.T8,EEG.FC6,EEG.F4,EEG.F8,EEG.AF4,POW.AF3.Theta,POW.AF3.Alpha,POW.AF3.BetaL,POW.AF3.BetaH,POW.AF3.Gamma,POW.F7.Theta,POW.F7.Alpha,POW.F7.BetaL,POW.F7.BetaH,POW.F7.Gamma,POW.F3.Theta,POW.F3.Alpha,POW.F3.BetaL,POW.F3.BetaH,POW.F3.Gamma,POW.FC5.Theta,POW.FC5.Alpha,POW.FC5.BetaL,POW.FC5.BetaH,POW.FC5.Gamma,POW.T7.Theta,POW.T7.Alpha,POW.T7.BetaL,POW.T7.BetaH,POW.T7.Gamma,POW.P7.Theta,POW.P7.Alpha,POW.P7.BetaL,POW.P7.BetaH,POW.P7.Gamma,POW.O1.Theta,POW.O1.Alpha,POW.O1.BetaL,POW.O1.BetaH,POW.O1.Gamma,POW.O2.Theta,POW.O2.Alpha,POW.O2.BetaL,POW.O2.BetaH,POW.O2.Gamma,POW.P8.Theta,POW.P8.Alpha,POW.P8.BetaL,POW.P8.BetaH,POW.P8.Gamma,POW.T8.Theta,POW.T8.Alpha,POW.T8.BetaL,POW.T8.BetaH,POW.T8.Gamma,POW.FC6.Theta,POW.FC6.Alpha,POW.FC6.BetaL,POW.FC6.BetaH,POW.FC6.Gamma,POW.F4.Theta,POW.F4.Alpha,POW.F4.BetaL,POW.F4.BetaH,POW.F4.Gamma,POW.F8.Theta,POW.F8.Alpha,POW.F8.BetaL,POW.F8.BetaH,POW.F8.Gamma,POW.AF4.Theta,POW.AF4.Alpha,POW.AF4.BetaL,POW.AF4.BetaH,POW.AF4.Gamma
1720077581,38,0,4437.820313,4377.692383,4327.820313,4333.461426,4397.05127,4399.615234,4408.205078,4368.589844,4372.307617,4348.333496,4273.333496,4462.05127,4296.153809,4285.128418,,,,,,,,,,,,,,,,,,,,,,,,,,,,,,,,,,,,,,,,,,,,,,,,,,,,,,,,,,,,,,,,,,,,,,
1720077581,39,0,4442.05127,4367.307617,4315.641113,4325.641113,4396.025879,4403.589844,4417.563965,4375,4378.846191,4353.717773,4272.94873,4452.820313,4291.282227,4280.641113,,,,,,,,,,,,,,,,,,,,,,,,,,,,,,,,,,,,,,,,,,,,,,,,,,,,,,,,,,,,,,,,,,,,,,
1720077581,40,0,4443.205078,4376.666504,4327.94873,4354.871582,4381.025879,4401.922852,4425.384766,4383.461426,4383.974121,4353.589844,4272.820313,4463.205078,4293.077148,4295.128418,,,,,,,,,,,,,,,,,,,,,,,,,,,,,,,,,,,,,,,,,,,,,,,,,,,,,,,,,,,,,,,,,,,,,,
1720077581,41,0,4446.410156,4383.846191,4335.641113,4360.897461,4388.461426,4400.256348,4428.717773,4383.589844,4378.205078,4342.820313,4266.538574,4466.794922,4294.743652,4292.307617,,,,,,,,,,,,,,,,,,,,,,,,,,,,,,,,,,,,,,,,,,,,,,,,,,,,,,,,,,,,,,,,,,,,,,
1720077581,42,0,4455.897461,4374.743652,4323.846191,4330.128418,4402.05127,4404.358887,4427.307617,4382.179688,4375.384766,4342.05127,4259.871582,4457.179688,4291.922852,4276.538574,,,,,,,,,,,,,,,,,,,,,,,,,,,,,,,,,,,,,,,,,,,,,,,,,,,,,,,,,,,,,,,,,,,,,,
1720077581,43,0,4458.077148,4370.769043,4321.025879,4324.230957,4394.743652,4405,4422.179688,4386.538574,4385.384766,4351.282227,4266.025879,4462.820313,4293.461426,4284.358887,,,,,,,,,,,,,,,,,,,,,,,,,,,,,,,,,,,,,,,,,,,,,,,,,,,,,,,,,,,,,,,,,,,,,,
1720077581,44,0,4463.205078,4377.436035,4330.641113,4343.846191,4393.717773,4398.974121,4417.692383,4387.692383,4388.077148,4353.846191,4274.230957,4476.922852,4297.436035,4298.461426,,,,,,,,,,,,,,,,,,,,,,,,,,,,,,,,,,,,,,,,,,,,,,,,,,,,,,,,,,,,,,,,,,,,,,
1720077581,45,0,4476.282227,4382.563965,4335.897461,4353.077148,4399.487305,4395.641113,4413.333496,4382.563965,4379.871582,4354.230957,4270.769043,4473.205078,4297.820313,4292.820313,,,,,,,,,,,,,,,,,,,,,,,,,,,,,,,,,,,,,,,,,,,,,,,,,,,,,,,,,,,,,,,,,,,,,,
1720077581,46,0,4481.025879,4385.128418,4339.102539,4357.563965,4392.05127,4397.563965,4411.666504,4380.769043,4378.461426,4358.589844,4274.615234,4466.282227,4301.538574,4291.922852,,,,,,,,,,,,,,,,,,,,,,,,,,,,,,,,,,,,,,,,,,,,,,,,,,,,,,,,,,,,,,,,,,,,,,
1720077581,47,0,4478.717773,4388.333496,4338.717773,4360.128418,4392.692383,4398.205078,4411.794922,4377.820313,4377.436035,4356.666504,4282.820313,4466.794922,4307.436035,4304.615234,,,,,,,,,,,,,,,,,,,,,,,,,,,,,,,,,,,,,,,,,,,,,,,,,,,,,,,,,,,,,,,,,,,,,,
1720077581,48,0,4473.974121,4383.974121,4326.794922,4349.230957,4404.358887,4396.794922,4408.846191,4371.025879,4371.025879,4350.641113,4270.128418,4456.282227,4299.230957,4301.282227,,,,,,,,,,,,,,,,,,,,,,,,,,,,,,,,,,,,,,,,,,,,,,,,,,,,,,,,,,,,,,,,,,,,,,
1720077581,49,0,4467.179688,4377.179688,4326.025879,4345.897461,4397.94873,4395.897461,4408.205078,4373.974121,4375,4353.333496,4267.563965,4454.102539,4293.717773,4291.410156,,,,,,,,,,,,,,,,,,,,,,,,,,,,,,,,,,,,,,,,,,,,,,,,,,,,,,,,,,,,,,,,,,,,,,
1720077581,50,0,4471.922852,4382.179688,4340.256348,4357.820313,4386.025879,4397.05127,4412.563965,4385.256348,4387.436035,4357.820313,4280.384766,4473.333496,4302.820313,4299.487305,,,,,,,,,,,,,,,,,,,,,,,,,,,,,,,,,,,,,,,,,,,,,,,,,,,,,,,,,,,,,,,,,,,,,,
1720077581,51,0,4476.538574,4389.615234,4339.743652,4356.410156,4396.282227,4401.666504,4415,4388.333496,4389.487305,4353.846191,4276.666504,4474.487305,4305.384766,4304.102539,,,,,,,,,,,,,,,,,,,,,,,,,,,,,,,,,,,,,,,,,,,,,,,,,,,,,,,,,,,,,,,,,,,,,,
1720077581,52,0,4462.05127,4381.410156,4326.410156,4347.563965,4402.563965,4402.563965,4415.512695,4385.128418,4380.769043,4352.05127,4272.179688,4456.666504,4290.256348,4282.05127,13.446229,12.81944,5.164127,0.630623,0.505699,2.840285,5.769135,0.63038,0.288721,0.483185,2.557654,9.955953,1.023221,0.474152,0.438843,2.28111,4.91608,0.684733,0.913561,0.928914,1.383923,1.848754,0.4213,0.48378,0.42253,0.205441,8.10887,0.443191,0.183681,0.128008,0.296891,1.894406,0.909169,0.346789,0.149622,1.554269,16.230848,3.567651,0.466295,0.123059,1.274346,21.949726,3.272089,0.403347,0.149841,0.139169,1.630339,0.558266,0.216773,0.204215,1.012019,4.879285,0.531654,0.22451,0.142946,6.319845,15.474279,2.51439,0.73388,0.260111,3.164716,8.666856,1.469525,0.556979,0.234202,4.004957,9.731512,1.901978,0.451204,0.39518
1720077581,53,0,4460.641113,4371.025879,4323.717773,4353.717773,4389.743652,4396.153809,4416.666504,4384.487305,4376.153809,4354.487305,4274.743652,4454.358887,4280.128418,4262.307617,,,,,,,,,,,,,,,,,,,,,,,,,,,,,,,,,,,,,,,,,,,,,,,,,,,,,,,,,,,,,,,,,,,,,,
1720077581,54,0,4475.512695,4380.512695,4327.692383,4360.641113,4386.538574,4393.974121,4415,4385.512695,4379.230957,4351.282227,4275.641113,4461.153809,4289.871582,4273.461426,,,,,,,,,,,,,,,,,,,,,,,,,,,,,,,,,,,,,,,,,,,,,,,,,,,,,,,,,,,,,,,,,,,,,,
1720077581,55,0,4481.025879,4396.025879,4329.615234,4356.922852,4397.05127,4395.769043,4410.641113,4379.615234,4377.179688,4348.589844,4278.205078,4460.128418,4298.589844,4287.692383,,,,,,,,,,,,,,,,,,,,,,,,,,,,,,,,,,,,,,,,,,,,,,,,,,,,,,,,,,,,,,,,,,,,,,
1720077581,56,0,4488.717773,4396.153809,4335.512695,4357.692383,4403.589844,4391.410156,4407.179688,4366.282227,4369.743652,4350.256348,4277.563965,4458.333496,4296.282227,4284.871582,,,,,,,,,,,,,,,,,,,,,,,,,,,,,,,,,,,,,,,,,,,,,,,,,,,,,,,,,,,,,,,,,,,,,,
1720077581,57,0,4496.282227,4387.94873,4335.128418,4358.333496,4398.717773,4386.922852,4402.307617,4363.974121,4369.230957,4351.282227,4272.563965,4459.358887,4294.487305,4283.717773,,,,,,,,,,,,,,,,,,,,,,,,,,,,,,,,,,,,,,,,,,,,,,,,,,,,,,,,,,,,,,,,,,,,,,
1720077581,58,0,4480.641113,4384.102539,4326.794922,4352.820313,4390.897461,4392.05127,4402.179688,4375.897461,4373.717773,4349.871582,4275.769043,4457.563965,4296.025879,4288.974121,,,,,,,,,,,,,,,,,,,,,,,,,,,,,,,,,,,,,,,,,,,,,,,,,,,,,,,,,,,,,,,,,,,,,,
1720077581,59,0,4461.666504,4387.307617,4325.384766,4359.871582,4391.282227,4397.692383,4408.333496,4382.436035,4376.282227,4346.410156,4282.820313,4456.410156,4294.102539,4290.897461,,,,,,,,,,,,,,,,,,,,,,,,,,,,,,,,,,,,,,,,,,,,,,,,,,,,,,,,,,,,,,,,,,,,,,
1720077581,60,0,4460.897461,4387.307617,4324.102539,4361.538574,4392.436035,4399.743652,4411.922852,4380,4374.487305,4340.128418,4278.333496,4458.205078,4291.794922,4289.230957,,,,,,,,,,,,,,,,,,,,,,,,,,,,,,,,,,,,,,,,,,,,,,,,,,,,,,,,,,,,,,,,,,,,,,
1720077581,61,0,4462.436035,4379.487305,4320.769043,4342.692383,4386.666504,4400.512695,4415.128418,4383.205078,4372.563965,4340,4275.641113,4460.769043,4293.589844,4282.820313,,,,,,,,,,,,,,,,,,,,,,,,,,,,,,,,,,,,,,,,,,,,,,,,,,,,,,,,,,,,,,,,,,,,,,
1720077581,62,0,4467.563965,4382.94873,4325.384766,4342.307617,4388.846191,4401.153809,4420.641113,4389.230957,4383.205078,4352.05127,4277.820313,4461.794922,4294.871582,4280.384766,,,,,,,,,,,,,,,,,,,,,,,,,,,,,,,,,,,,,,,,,,,,,,,,,,,,,,,,,,,,,,,,,,,,,,
1720077581,63,0,4482.692383,4398.205078,4328.974121,4364.487305,4399.615234,4398.333496,4416.666504,4381.025879,4391.666504,4360,4278.205078,4458.717773,4298.717773,4294.487305,,,,,,,,,,,,,,,,,,,,,,,,,,,,,,,,,,,,,,,,,,,,,,,,,,,,,,,,,,,,,,,,,,,,,,
1720077581,64,0,4494.358887,4400.769043,4326.794922,4366.794922,4397.307617,4392.94873,4403.589844,4369.487305,4382.692383,4350.897461,4277.436035,4455.384766,4298.461426,4298.461426,,,,,,,,,,,,,,,,,,,,,,,,,,,,,,,,,,,,,,,,,,,,,,,,,,,,,,,,,,,,,,,,,,,,,,
1720077581,65,0,4495.897461,4400.128418,4332.692383,4359.102539,4396.922852,4390.769043,4403.589844,4373.717773,4375.512695,4342.307617,4277.05127,4457.692383,4295.769043,4288.333496,,,,,,,,,,,,,,,,,,,,,,,,,,,,,,,,,,,,,,,,,,,,,,,,,,,,,,,,,,,,,,,,,,,,,,
1720077581,66,0,4495.769043,4409.743652,4345.256348,4369.743652,4412.307617,4389.615234,4411.410156,4383.461426,4380,4348.333496,4281.922852,4465,4303.589844,4295.641113,,,,,,,,,,,,,,,,,,,,,,,,,,,,,,,,,,,,,,,,,,,,,,,,,,,,,,,,,,,,,,,,,,,,,,
1720077581,67,0,4503.846191,4411.538574,4348.589844,4377.692383,4418.974121,4389.230957,4407.179688,4385.512695,4383.974121,4352.563965,4286.282227,4470.769043,4312.05127,4310.897461,,,,,,,,,,,,,,,,,,,,,,,,,,,,,,,,,,,,,,,,,,,,,,,,,,,,,,,,,,,,,,,,,,,,,,
1720077581,68,0,4509.358887,4399.487305,4335.512695,4366.666504,4403.717773,4386.922852,4397.563965,4379.358887,4375.384766,4347.05127,4278.717773,4462.436035,4297.563965,4293.205078,12.916196,15.863186,5.194649,0.598609,0.470402,3.225902,8.149401,0.74443,0.296196,0.437358,2.156601,12.504014,1.083227,0.402977,0.385308,2.417177,6.576512,0.724136,0.806513,0.96846,1.376239,1.744003,0.35856,0.483638,0.442131,0.264445,10.297319,0.555207,0.189106,0.124085,0.341759,2.36075,0.935684,0.297999,0.13833,1.497511,15.303987,3.256395,0.413298,0.120642,1.269147,21.243101,2.753071,0.425293,0.151334,0.171567,1.817176,0.596374,0.194528,0.211003,1.088353,5.870627,0.529618,0.219429,0.132431,6.137353,18.791525,2.982901,0.624039,0.259826,3.031838,11.378311,1.597818,0.530616,0.229545,3.922233,12.87324,1.905908,0.419873,0.368273
1720077581,69,0,4500.641113,4383.333496,4315.641113,4356.794922,4378.077148,4380.641113,4393.846191,4366.538574,4363.589844,4339.358887,4266.282227,4439.487305,4274.230957,4263.333496,,,,,,,,,,,,,,,,,,,,,,,,,,,,,,,,,,,,,,,,,,,,,,,,,,,,,,,,,,,,,,,,,,,,,,
1720077581,70,0,4486.282227,4368.974121,4303.205078,4348.205078,4370.384766,4381.410156,4396.153809,4361.025879,4366.794922,4336.410156,4261.666504,4419.615234,4267.692383,4259.871582,,,,,,,,,,,,,,,,,,,,,,,,,,,,,,,,,,,,,,,,,,,,,,,,,,,,,,,,,,,,,,,,,,,,,,
1720077581,71,0,4485.641113,4372.436035,4305.384766,4349.102539,4383.077148,4391.538574,4405,4371.282227,4381.794922,4342.307617,4267.179688,4426.666504,4277.179688,4273.974121,,,,,,,,,,,,,,,,,,,,,,,,,,,,,,,,,,,,,,,,,,,,,,,,,,,,,,,,,,,,,,,,,,,,,,
1720077581,72,0,4501.538574,4392.307617,4319.487305,4363.717773,4399.487305,4403.461426,4420.128418,4380.769043,4390.512695,4344.615234,4275.512695,4448.717773,4291.282227,4285.512695,,,,,,,,,,,,,,,,,,,,,,,,,,,,,,,,,,,,,,,,,,,,,,,,,,,,,,,,,,,,,,,,,,,,,,
1720077581,73,0,4512.436035,4399.743652,4327.05127,4363.333496,4407.692383,4412.179688,4428.461426,4379.743652,4386.666504,4338.717773,4276.282227,4450.128418,4295.128418,4285.769043,,,,,,,,,,,,,,,,,,,,,,,,,,,,,,,,,,,,,,,,,,,,,,,,,,,,,,,,,,,,,,,,,,,,,,
1720077581,74,0,4508.205078,4396.153809,4321.538574,4357.820313,4400.769043,4413.077148,4429.743652,4383.974121,4386.922852,4339.230957,4274.487305,4441.794922,4292.05127,4285,,,,,,,,,,,,,,,,,,,,,,,,,,,,,,,,,,,,,,,,,,,,,,,,,,,,,,,,,,,,,,,,,,,,,,
1720077581,75,0,4505.256348,4398.717773,4320.641113,4367.692383,4397.692383,4403.333496,4427.179688,4393.205078,4394.102539,4343.077148,4281.794922,4450.769043,4293.974121,4292.436035,,,,,,,,,,,,,,,,,,,,,,,,,,,,,,,,,,,,,,,,,,,,,,,,,,,,,,,,,,,,,,,,,,,,,,
1720077581,76,0,4518.077148,4404.230957,4330.897461,4373.333496,4410.384766,4396.282227,4418.717773,4390.769043,4394.230957,4339.743652,4284.487305,4460,4295.384766,4296.922852,,,,,,,,,,,,,,,,,,,,,,,,,,,,,,,,,,,,,,,,,,,,,,,,,,,,,,,,,,,,,,,,,,,,,,
1720077581,77,0,4538.205078,4413.205078,4338.333496,4371.922852,4414.871582,4393.333496,4411.282227,4381.794922,4383.205078,4340.256348,4288.974121,4463.974121,4298.461426,4300.512695,,,,,,,,,,,,,,,,,,,,,,,,,,,,,,,,,,,,,,,,,,,,,,,,,,,,,,,,,,,,,,,,,,,,,,
1720077581,78,0,4542.820313,4421.153809,4336.794922,4383.974121,4405.769043,4387.179688,4408.461426,4380.641113,4378.846191,4345.769043,4299.487305,4473.589844,4308.461426,4306.794922,,,,,,,,,,,,,,,,,,,,,,,,,,,,,,,,,,,,,,,,,,,,,,,,,,,,,,,,,,,,,,,,,,,,,,
1720077581,79,0,4517.820313,4416.025879,4329.743652,4391.025879,4401.153809,4385.512695,4403.846191,4387.179688,4390.769043,4348.589844,4292.436035,4473.974121,4309.487305,4306.025879,,,,,,,,,,,,,,,,,,,,,,,,,,,,,,,,,,,,,,,,,,,,,,,,,,,,,,,,,,,,,,,,,,,,,,
1720077581,80,0,4489.615234,4407.692383,4324.743652,4378.461426,4400.897461,4388.717773,4401.538574,4391.666504,4398.589844,4346.922852,4284.871582,4467.692383,4297.563965,4296.794922,,,,,,,,,,,,,,,,,,,,,,,,,,,,,,,,,,,,,,,,,,,,,,,,,,,,,,,,,,,,,,,,,,,,,,
1720077581,81,0,4487.692383,4406.666504,4330,4371.410156,4402.307617,4391.666504,4408.461426,4392.820313,4396.666504,4342.05127,4291.794922,4474.102539,4295.256348,4296.025879,,,,,,,,,,,,,,,,,,,,,,,,,,,,,,,,,,,,,,,,,,,,,,,,,,,,,,,,,,,,,,,,,,,,,,
1720077581,82,0,4489.615234,4404.102539,4331.794922,4376.410156,4411.025879,4394.743652,4412.94873,4389.615234,4390.641113,4343.589844,4288.846191,4480.897461,4296.153809,4298.461426,,,,,,,,,,,,,,,,,,,,,,,,,,,,,,,,,,,,,,,,,,,,,,,,,,,,,,,,,,,,,,,,,,,,,,
1720077581,83,0,4477.05127,4398.205078,4318.717773,4373.974121,4413.461426,4401.282227,4412.05127,4382.307617,4382.05127,4348.589844,4279.871582,4475,4284.102539,4290.641113,,,,,,,,,,,,,,,,,,,,,,,,,,,,,,,,,,,,,,,,,,,,,,,,,,,,,,,,,,,,,,,,,,,,,,
1720077581,84,0,4466.666504,4393.461426,4307.563965,4360.256348,4409.615234,4410.897461,4413.333496,4377.692383,4374.230957,4342.05127,4283.461426,4462.692383,4271.922852,4274.743652,12.238769,18.002825,4.804825,0.556707,0.426694,3.275373,10.140079,0.896675,0.307046,0.3903,1.718263,14.09341,1.213681,0.341847,0.328458,2.342349,7.909916,0.814373,0.678221,0.961694,1.228554,1.508448,0.30647,0.48381,0.444659,0.339004,11.840973,0.659242,0.193252,0.121514,0.398781,2.839563,0.889941,0.268547,0.127527,1.391554,12.611203,2.658091,0.355421,0.119854,1.147604,17.886089,2.137774,0.421718,0.150826,0.209876,1.847706,0.585841,0.183486,0.207788,1.076869,6.265337,0.537567,0.208099,0.12455,5.448184,20.617268,3.475492,0.522928,0.255851,2.65371,13.302888,1.689403,0.495975,0.218791,3.468225,15.122411,1.9125,0.40157,0.34533
1720077581,85,0,4477.436035,4391.794922,4313.846191,4364.487305,4409.358887,4413.589844,4414.102539,4381.025879,4376.794922,4334.871582,4288.589844,4460,4279.230957,4275.641113,,,,,,,,,,,,,,,,,,,,,,,,,,,,,,,,,,,,,,,,,,,,,,,,,,,,,,,,,,,,,,,,,,,,,,
1720077581,86,0,4498.846191,4395.512695,4325,4379.358887,4413.205078,4410.641113,4415.256348,4389.487305,4390.384766,4339.358887,4290.512695,4470.641113,4295,4299.871582,,,,,,,,,,,,,,,,,,,,,,,,,,,,,,,,,,,,,,,,,,,,,,,,,,,,,,,,,,,,,,,,,,,,,,
1720077581,87,0,4509.487305,4399.871582,4325.641113,4373.589844,4411.025879,4410.641113,4412.820313,4389.871582,4391.282227,4342.436035,4298.333496,4474.615234,4297.94873,4315.128418,,,,,,,,,,,,,,,,,,,,,,,,,,,,,,,,,,,,,,,,,,,,,,,,,,,,,,,,,,,,,,,,,,,,,,
1720077581,88,0,4512.05127,4403.589844,4322.563965,4366.666504,4402.692383,4407.692383,4404.487305,4379.230957,4383.717773,4343.205078,4296.153809,4461.282227,4297.692383,4309.487305,,,,,,,,,,,,,,,,,,,,,,,,,,,,,,,,,,,,,,,,,,,,,,,,,,,,,,,,,,,,,,,,,,,,,,
1720077582,89,0,4518.461426,4408.077148,4323.333496,4376.153809,4403.974121,4398.333496,4401.282227,4378.205078,4389.615234,4352.179688,4291.153809,4456.794922,4311.922852,4306.538574,,,,,,,,,,,,,,,,,,,,,,,,,,,,,,,,,,,,,,,,,,,,,,,,,,,,,,,,,,,,,,,,,,,,,,
1720077582,90,0,4526.666504,4406.922852,4329.615234,4388.846191,4413.589844,4395.512695,4403.717773,4390.256348,4399.487305,4351.794922,4300,4470.256348,4327.179688,4319.487305,,,,,,,,,,,,,,,,,,,,,,,,,,,,,,,,,,,,,,,,,,,,,,,,,,,,,,,,,,,,,,,,,,,,,,
1720077582,91,0,4531.153809,4402.436035,4334.615234,4386.922852,4416.922852,4396.282227,4404.487305,4388.461426,4392.563965,4342.563965,4302.436035,4473.077148,4321.153809,4327.692383,,,,,,,,,,,,,,,,,,,,,,,,,,,,,,,,,,,,,,,,,,,,,,,,,,,,,,,,,,,,,,,,,,,,,,
1720077582,92,0,4536.153809,4408.077148,4331.666504,4376.282227,4408.974121,4393.077148,4403.846191,4372.563965,4377.692383,4341.153809,4297.307617,4462.94873,4308.461426,4312.820313,,,,,,,,,,,,,,,,,,,,,,,,,,,,,,,,,,,,,,,,,,,,,,,,,,,,,,,,,,,,,,,,,,,,,,
1720077582,93,0,4541.410156,4416.538574,4332.307617,4384.871582,4400.128418,4399.102539,4411.922852,4372.307617,4372.307617,4342.307617,4297.820313,4459.230957,4312.05127,4301.025879,,,,,,,,,,,,,,,,,,,,,,,,,,,,,,,,,,,,,,,,,,,,,,,,,,,,,,,,,,,,,,,,,,,,,,
1720077582,94,0,4532.692383,4410.128418,4328.974121,4393.846191,4411.025879,4412.436035,4425.384766,4378.846191,4371.538574,4339.743652,4296.410156,4452.820313,4312.179688,4304.743652,,,,,,,,,,,,,,,,,,,,,,,,,,,,,,,,,,,,,,,,,,,,,,,,,,,,,,,,,,,,,,,,,,,,,,
1720077582,95,0,4509.743652,4397.179688,4312.436035,4370.384766,4429.230957,4415.512695,4428.333496,4372.692383,4370,4339.358887,4287.307617,4434.102539,4295.256348,4296.025879,,,,,,,,,,,,,,,,,,,,,,,,,,,,,,,,,,,,,,,,,,,,,,,,,,,,,,,,,,,,,,,,,,,,,,
1720077582,96,0,4502.05127,4392.692383,4309.743652,4350.384766,4423.717773,4412.307617,4420.128418,4367.436035,4365.384766,4334.358887,4283.846191,4427.820313,4291.922852,4287.179688,,,,,,,,,,,,,,,,,,,,,,,,,,,,,,,,,,,,,,,,,,,,,,,,,,,,,,,,,,,,,,,,,,,,,,
1720077582,97,0,4521.410156,4395,4329.358887,4372.436035,4404.871582,4412.820313,4414.230957,4374.358887,4366.538574,4329.743652,4293.589844,4444.358887,4309.615234,4302.436035,,,,,,,,,,,,,,,,,,,,,,,,,,,,,,,,,,,,,,,,,,,,,,,,,,,,,,,,,,,,,,,,,,,,,,
1720077582,98,0,4531.794922,4398.205078,4329.615234,4390.384766,4407.307617,4411.410156,4413.717773,4381.025879,4381.538574,4336.025879,4299.230957,4453.589844,4312.692383,4313.589844,,,,,,,,,,,,,,,,,,,,,,,,,,,,,,,,,,,,,,,,,,,,,,,,,,,,,,,,,,,,,,,,,,,,,,
1720077582,99,0,4511.538574,4398.846191,4308.589844,4369.615234,4416.794922,4407.563965,4411.282227,4382.820313,4397.692383,4342.563965,4292.436035,4445.384766,4305.256348,4308.205078,,,,,,,,,,,,,,,,,,,,,,,,,,,,,,,,,,,,,,,,,,,,,,,,,,,,,,,,,,,,,,,,,,,,,,
1720077582,100,0,4491.153809,4396.666504,4312.179688,4364.487305,4410.897461,4410.256348,4410,4382.94873,4397.820313,4341.282227,4286.922852,4443.333496,4311.794922,4306.922852,11.302272,18.447989,4.094515,0.519665,0.383259,2.978619,11.124453,1.050002,0.321224,0.351413,1.317487,14.159274,1.374643,0.3107,0.281457,2.134061,8.497073,0.920252,0.568854,0.920856,1.003071,1.215672,0.274336,0.471544,0.43774,0.402488,12.320209,0.716131,0.193729,0.119564,0.447987,3.281445,0.80216,0.263761,0.11771,1.217515,9.013175,1.952123,0.313154,0.121265,0.930228,12.98078,1.601761,0.399846,0.15047,0.247407,1.718858,0.519596,0.184533,0.19762,1.001897,5.943922,0.541077,0.19821,0.120615,4.475554,20.345346,3.823105,0.464054,0.247009,2.127666,13.829774,1.709542,0.466314,0.201604,2.741804,15.761308,1.891631,0.402003,0.334517
1720077582,101,0,4492.436035,4398.589844,4332.692383,4386.538574,4406.666504,4410.256348,4413.077148,4383.974121,4390.384766,4337.436035,4295.128418,4455.512695,4323.717773,4310.128418,,,,,,,,,,,,,,,,,,,,,,,,,,,,,,,,,,,,,,,,,,,,,,,,,,,,,,,,,,,,,,,,,,,,,,
1720077582,102,0,4492.307617,4408.846191,4334.743652,4386.922852,4414.358887,4402.436035,4410,4387.436035,4394.358887,4337.436035,4305.128418,4463.461426,4328.846191,4316.538574,,,,,,,,,,,,,,,,,,,,,,,,,,,,,,,,,,,,,,,,,,,,,,,,,,,,,,,,,,,,,,,,,,,,,,
1720077582,103,0,4476.794922,4413.461426,4323.974121,4373.077148,4414.615234,4399.743652,4404.487305,4386.538574,4393.717773,4342.179688,4301.666504,4452.179688,4321.666504,4321.538574,,,,,,,,,,,,,,,,,,,,,,,,,,,,,,,,,,,,,,,,,,,,,,,,,,,,,,,,,,,,,,,,,,,,,,
1720077582,104,0,4467.307617,4407.179688,4319.871582,4382.692383,4411.025879,4412.692383,4405,4374.358887,4378.077148,4340.256348,4283.717773,4428.461426,4304.487305,4312.563965,,,,,,,,,,,,,,,,,,,,,,,,,,,,,,,,,,,,,,,,,,,,,,,,,,,,,,,,,,,,,,,,,,,,,,
1720077582,105,0,4472.94873,4402.307617,4318.077148,4391.410156,4426.153809,4427.436035,4411.666504,4359.102539,4368.974121,4329.615234,4274.743652,4410.897461,4291.922852,4293.077148,,,,,,,,,,,,,,,,,,,,,,,,,,,,,,,,,,,,,,,,,,,,,,,,,,,,,,,,,,,,,,,,,,,,,,
1720077582,106,0,4473.717773,4400.769043,4311.538574,4380.256348,4435.512695,4430,4420.128418,4357.179688,4372.692383,4323.077148,4283.846191,4407.436035,4288.974121,4281.794922,,,,,,,,,,,,,,,,,,,,,,,,,,,,,,,,,,,,,,,,,,,,,,,,,,,,,,,,,,,,,,,,,,,,,,
1720077582,107,0,4470.897461,4398.077148,4308.589844,4381.282227,4420.512695,4428.333496,4427.563965,4371.282227,4379.358887,4328.205078,4286.794922,4413.333496,4288.846191,4284.230957,,,,,,,,,,,,,,,,,,,,,,,,,,,,,,,,,,,,,,,,,,,,,,,,,,,,,,,,,,,,,,,,,,,,,,
1720077582,108,0,4472.563965,4398.333496,4315.128418,4390.384766,4410.128418,4427.692383,4429.102539,4391.794922,4390.128418,4336.153809,4294.487305,4430.641113,4298.717773,4296.794922,,,,,,,,,,,,,,,,,,,,,,,,,,,,,,,,,,,,,,,,,,,,,,,,,,,,,,,,,,,,,,,,,,,,,,
1720077582,109,0,4476.666504,4405.384766,4325.512695,4389.487305,4413.333496,4422.179688,4422.436035,4406.922852,4402.563965,4341.922852,4310.128418,4450.384766,4317.179688,4308.846191,,,,,,,,,,,,,,,,,,,,,,,,,,,,,,,,,,,,,,,,,,,,,,,,,,,,,,,,,,,,,,,,,,,,,,
1720077582,110,0,4484.230957,4410.641113,4329.487305,4384.358887,4414.871582,4410.256348,4409.102539,4400.641113,4397.179688,4346.282227,4305,4451.282227,4322.94873,4309.871582,,,,,,,,,,,,,,,,,,,,,,,,,,,,,,,,,,,,,,,,,,,,,,,,,,,,,,,,,,,,,,,,,,,,,,
1720077582,111,0,4490.769043,4408.717773,4332.307617,4382.436035,4416.922852,4402.05127,4395.641113,4377.05127,4381.794922,4348.717773,4296.794922,4441.410156,4317.307617,4308.077148,,,,,,,,,,,,,,,,,,,,,,,,,,,,,,,,,,,,,,,,,,,,,,,,,,,,,,,,,,,,,,,,,,,,,,
1720077582,112,0,4499.102539,4414.358887,4341.794922,4397.179688,4423.974121,4404.487305,4397.307617,4363.077148,4378.461426,4346.410156,4304.102539,4443.717773,4321.538574,4313.077148,,,,,,,,,,,,,,,,,,,,,,,,,,,,,,,,,,,,,,,,,,,,,,,,,,,,,,,,,,,,,,,,,,,,,,
1720077582,113,0,4511.922852,4429.487305,4344.230957,4407.436035,4431.794922,4411.282227,4409.871582,4370.641113,4384.358887,4344.615234,4305.641113,4450.897461,4329.487305,4320.897461,,,,,,,,,,,,,,,,,,,,,,,,,,,,,,,,,,,,,,,,,,,,,,,,,,,,,,,,,,,,,,,,,,,,,,
1720077582,114,0,4512.94873,4431.025879,4338.717773,4398.077148,4430.769043,4414.230957,4413.589844,4379.358887,4387.94873,4347.563965,4301.922852,4451.538574,4327.94873,4326.153809,,,,,,,,,,,,,,,,,,,,,,,,,,,,,,,,,,,,,,,,,,,,,,,,,,,,,,,,,,,,,,,,,,,,,,
1720077582,115,0,4500.769043,4416.410156,4342.05127,4400.512695,4422.307617,4414.102539,4412.05127,4377.820313,4390.512695,4349.871582,4308.077148,4453.717773,4323.589844,4323.846191,,,,,,,,,,,,,,,,,,,,,,,,,,,,,,,,,,,,,,,,,,,,,,,,,,,,,,,,,,,,,,,,,,,,,,
1720077582,116,0,4490.256348,4407.94873,4339.615234,4404.358887,4422.179688,4418.717773,4412.436035,4371.282227,4390.256348,4347.563965,4305.641113,4446.410156,4315.128418,4313.974121,10.174784,17.030352,3.267035,0.504913,0.350169,2.417604,10.813198,1.178899,0.341602,0.32722,1.040936,12.644521,1.512779,0.323202,0.254278,1.799626,8.148437,1.005149,0.508044,0.866597,0.752418,0.948678,0.28986,0.451516,0.432952,0.422295,11.61718,0.704948,0.192059,0.116906,0.481326,3.625565,0.724822,0.282433,0.109473,0.978181,5.549511,1.343343,0.300751,0.127549,0.685367,8.016949,1.273601,0.371825,0.155331,0.284087,1.472601,0.418933,0.196437,0.185248,0.918236,5.037102,0.522865,0.195215,0.1223,3.565637,17.991169,3.887864,0.468744,0.23985,1.592126,12.831655,1.649723,0.455924,0.184196,1.975529,14.633293,1.825632,0.426801,0.344797
1720077582,117,0,4479.615234,4410.384766,4315.641113,4383.846191,4430.256348,4427.563965,4413.974121,4365.128418,4384.358887,4344.743652,4292.563965,4420,4299.871582,4298.205078,,,,,,,,,,,,,,,,,,,,,,,,,,,,,,,,,,,,,,,,,,,,,,,,,,,,,,,,,,,,,,,,,,,,,,
1720077582,118,0,4462.05127,4405.384766,4291.922852,4366.538574,4429.487305,4433.846191,4415.641113,4363.461426,4379.743652,4341.025879,4285.384766,4402.307617,4290,4281.410156,,,,,,,,,,,,,,,,,,,,,,,,,,,,,,,,,,,,,,,,,,,,,,,,,,,,,,,,,,,,,,,,,,,,,,
1720077582,119,0,4442.307617,4391.410156,4291.025879,4371.666504,4428.461426,4435.512695,4419.358887,4367.563965,4379.487305,4337.05127,4286.153809,4410.641113,4287.94873,4274.743652,,,,,,,,,,,,,,,,,,,,,,,,,,,,,,,,,,,,,,,,,,,,,,,,,,,,,,,,,,,,,,,,,,,,,,
1720077582,120,0,4431.666504,4398.077148,4311.794922,4387.692383,4434.358887,4434.358887,4422.820313,4376.666504,4386.538574,4338.461426,4294.871582,4430.897461,4294.615234,4293.077148,,,,,,,,,,,,,,,,,,,,,,,,,,,,,,,,,,,,,,,,,,,,,,,,,,,,,,,,,,,,,,,,,,,,,,
1720077582,121,0,4439.230957,4432.179688,4338.974121,4411.153809,4427.94873,4431.025879,4422.692383,4385.769043,4397.820313,4342.179688,4306.410156,4450.897461,4315.769043,4320.641113,,,,,,,,,,,,,,,,,,,,,,,,,,,,,,,,,,,,,,,,,,,,,,,,,,,,,,,,,,,,,,,,,,,,,,
1720077582,122,0,4442.94873,4450,4351.538574,4420.641113,4423.461426,4425.897461,4416.025879,4387.692383,4396.922852,4340.769043,4313.846191,4461.153809,4331.538574,4327.05127,,,,,,,,,,,,,,,,,,,,,,,,,,,,,,,,,,,,,,,,,,,,,,,,,,,,,,,,,,,,,,,,,,,,,,
1720077582,123,0,4429.102539,4432.436035,4343.974121,4402.692383,4438.974121,4425.128418,4407.94873,4382.05127,4390,4341.282227,4313.717773,4456.922852,4328.205078,4322.179688,,,,,,,,,,,,,,,,,,,,,,,,,,,,,,,,,,,,,,,,,,,,,,,,,,,,,,,,,,,,,,,,,,,,,,
1720077582,124,0,4428.077148,4422.179688,4332.820313,4399.102539,4448.333496,4426.794922,4406.666504,4380.128418,4392.820313,4347.436035,4308.333496,4448.333496,4324.871582,4325.128418,,,,,,,,,,,,,,,,,,,,,,,,,,,,,,,,,,,,,,,,,,,,,,,,,,,,,,,,,,,,,,,,,,,,,,
1720077582,125,0,4450.512695,4436.282227,4328.205078,4412.05127,4441.794922,4426.025879,4411.794922,4386.794922,4398.589844,4352.179688,4308.077148,4446.410156,4327.436035,4329.487305,,,,,,,,,,,,,,,,,,,,,,,,,,,,,,,,,,,,,,,,,,,,,,,,,,,,,,,,,,,,,,,,,,,,,,
1720077582,126,0,4465.128418,4446.153809,4331.025879,4411.025879,4436.922852,4425.512695,4420.384766,4392.436035,4401.538574,4349.871582,4311.538574,4452.692383,4329.615234,4332.692383,,,,,,,,,,,,,,,,,,,,,,,,,,,,,,,,,,,,,,,,,,,,,,,,,,,,,,,,,,,,,,,,,,,,,,
1720077582,127,0,4465.641113,4443.077148,4336.666504,4414.615234,4432.563965,4427.563965,4423.974121,4391.538574,4403.974121,4345.512695,4310.256348,4460.256348,4327.820313,4340.256348,,,,,,,,,,,,,,,,,,,,,,,,,,,,,,,,,,,,,,,,,,,,,,,,,,,,,,,,,,,,,,,,,,,,,,
1720077582,0,0,4457.94873,4429.743652,4330.897461,4417.563965,4423.846191,4429.615234,4421.282227,4388.205078,4403.461426,4341.025879,4303.205078,4454.487305,4316.794922,4331.794922,,,,,,,,,,,,,,,,,,,,,,,,,,,,,,,,,,,,,,,,,,,,,,,,,,,,,,,,,,,,,,,,,,,,,,
1720077582,1,0,4447.820313,4414.743652,4319.615234,4398.717773,4426.922852,4435.384766,4419.615234,4386.410156,4403.846191,4341.922852,4299.871582,4442.820313,4310,4311.153809,,,,,,,,,,,,,,,,,,,,,,,,,,,,,,,,,,,,,,,,,,,,,,,,,,,,,,,,,,,,,,,,,,,,,,
1720077582,2,0,4447.820313,4416.025879,4319.102539,4382.820313,4436.282227,4441.410156,4418.205078,4383.589844,4402.179688,4342.05127,4303.717773,4445.641113,4319.871582,4316.538574,,,,,,,,,,,,,,,,,,,,,,,,,,,,,,,,,,,,,,,,,,,,,,,,,,,,,,,,,,,,,,,,,,,,,,
1720077582,3,0,4460.384766,4428.974121,4326.410156,4397.05127,4436.794922,4443.974121,4414.102539,4382.94873,4392.436035,4336.282227,4310.256348,4452.820313,4326.410156,4331.794922,,,,,,,,,,,,,,,,,,,,,,,,,,,,,,,,,,,,,,,,,,,,,,,,,,,,,,,,,,,,,,,,,,,,,,
1720077582,4,0,4469.358887,4433.461426,4330.769043,4416.666504,4435.384766,4442.179688,4410.641113,4381.025879,4388.333496,4335.641113,4303.974121,4444.615234,4315.384766,4320.128418,8.957228,14.283977,2.53013,0.525564,0.338101,1.752457,9.375478,1.25875,0.371456,0.317777,0.841696,10.045268,1.583031,0.378819,0.251754,1.439737,6.996672,1.029249,0.499204,0.819316,0.540583,0.750532,0.382,0.438524,0.43894,0.401826,9.984694,0.638657,0.192222,0.112048,0.503113,3.831779,0.704867,0.316283,0.10251,0.740039,2.986929,0.964391,0.320997,0.140288,0.469233,4.209985,1.168757,0.34584,0.17029,0.314293,1.177888,0.313226,0.215473,0.174559,0.882773,3.860018,0.473714,0.201959,0.130351,2.908708,14.232773,3.622533,0.537056,0.243813,1.174562,10.722697,1.51448,0.471624,0.176417,1.371049,12.223243,1.704215,0.478619,0.379426
1720077582,5,0,4466.282227,4428.974121,4327.94873,4408.461426,4438.205078,4435.128418,4411.666504,4373.461426,4395.384766,4340.769043,4287.307617,4433.717773,4306.794922,4310.512695,,,,,,,,,,,,,,,,,,,,,,,,,,,,,,,,,,,,,,,,,,,,,,,,,,,,,,,,,,,,,,,,,,,,,,
1720077582,6,0,4470.128418,4431.153809,4327.692383,4398.205078,4444.615234,4427.563965,4412.563965,4379.358887,4399.102539,4343.077148,4296.153809,4446.538574,4317.94873,4330.769043,,,,,,,,,,,,,,,,,,,,,,,,,,,,,,,,,,,,,,,,,,,,,,,,,,,,,,,,,,,,,,,,,,,,,,
1720077582,7,0,4477.563965,4437.179688,4331.410156,4403.717773,4447.563965,4427.436035,4412.563965,4394.487305,4395.897461,4339.487305,4315.641113,4464.487305,4327.05127,4345,,,,,,,,,,,,,,,,,,,,,,,,,,,,,,,,,,,,,,,,,,,,,,,,,,,,,,,,,,,,,,,,,,,,,,
1720077582,8,0,4464.358887,4433.846191,4329.358887,4411.538574,4436.538574,4429.102539,4412.307617,4392.307617,4394.102539,4335.769043,4307.94873,4454.615234,4316.025879,4331.410156,,,,,,,,,,,,,,,,,,,,,,,,,,,,,,,,,,,,,,,,,,,,,,,,,,,,,,,,,,,,,,,,,,,,,,
1720077582,9,0,4445.769043,4425.641113,4324.743652,4409.615234,4427.563965,4426.794922,4411.666504,4382.94873,4394.743652,4341.282227,4301.794922,4442.820313,4307.05127,4322.820313,,,,,,,,,,,,,,,,,,,,,,,,,,,,,,,,,,,,,,,,,,,,,,,,,,,,,,,,,,,,,,,,,,,,,,
1720077582,10,0,4433.974121,4424.871582,4319.871582,4396.666504,4439.743652,4425,4411.025879,4380.384766,4389.871582,4343.077148,4304.743652,4447.820313,4312.94873,4330.384766,,,,,,,,,,,,,,,,,,,,,,,,,,,,,,,,,,,,,,,,,,,,,,,,,,,,,,,,,,,,,,,,,,,,,,
1720077582,11,0,4416.794922,4428.077148,4310.384766,4387.436035,4443.461426,4427.436035,4410.512695,4377.820313,4384.615234,4334.102539,4297.94873,4444.871582,4310.384766,4326.666504,,,,,,,,,,,,,,,,,,,,,,,,,,,,,,,,,,,,,,,,,,,,,,,,,,,,,,,,,,,,,,,,,,,,,,
1720077582,12,0,4402.692383,4426.025879,4309.102539,4389.230957,4433.846191,4436.025879,4412.05127,4381.922852,4388.974121,4330.128418,4299.743652,4440.512695,4304.871582,4311.282227,,,,,,,,,,,,,,,,,,,,,,,,,,,,,,,,,,,,,,,,,,,,,,,,,,,,,,,,,,,,,,,,,,,,,,
1720077582,13,0,4407.436035,4425.512695,4320.256348,4402.179688,4439.615234,4443.077148,4415.512695,4392.692383,4399.230957,4335.128418,4308.717773,4449.871582,4313.077148,4311.794922,,,,,,,,,,,,,,,,,,,,,,,,,,,,,,,,,,,,,,,,,,,,,,,,,,,,,,,,,,,,,,,,,,,,,,
1720077582,14,0,4417.692383,4428.589844,4318.717773,4414.487305,4442.307617,4442.563965,4417.307617,4390.256348,4400.641113,4337.179688,4307.436035,4447.179688,4316.666504,4323.717773,,,,,,,,,,,,,,,,,,,,,,,,,,,,,,,,,,,,,,,,,,,,,,,,,,,,,,,,,,,,,,,,,,,,,,
1720077582,15,0,4425.256348,4427.05127,4309.487305,4410,4435.769043,4444.871582,4415,4382.436035,4392.179688,4341.666504,4309.487305,4433.717773,4311.666504,4326.410156,,,,,,,,,,,,,,,,,,,,,,,,,,,,,,,,,,,,,,,,,,,,,,,,,,,,,,,,,,,,,,,,,,,,,,
1720077582,16,0,4426.794922,4417.05127,4309.615234,4394.615234,4445.256348,4448.589844,4411.538574,4381.025879,4388.974121,4349.102539,4312.179688,4433.461426,4309.871582,4322.307617,,,,,,,,,,,,,,,,,,,,,,,,,,,,,,,,,,,,,,,,,,,,,,,,,,,,,,,,,,,,,,,,,,,,,,
1720077582,17,0,4428.589844,4414.743652,4309.615234,4394.487305,4449.743652,4445.128418,4410.897461,4377.436035,4395.128418,4349.615234,4311.538574,4442.692383,4309.871582,4324.102539,,,,,,,,,,,,,,,,,,,,,,,,,,,,,,,,,,,,,,,,,,,,,,,,,,,,,,,,,,,,,,,,,,,,,,
1720077582,18,0,4452.436035,4433.974121,4316.794922,4412.563965,4437.563965,4442.05127,4411.922852,4380.641113,4400.769043,4344.615234,4315.256348,4453.333496,4316.282227,4335.128418,,,,,,,,,,,,,,,,,,,,,,,,,,,,,,,,,,,,,,,,,,,,,,,,,,,,,,,,,,,,,,,,,,,,,,
1720077582,19,0,4472.436035,4445.384766,4326.538574,4413.461426,4440.128418,4438.205078,4412.179688,4393.846191,4401.282227,4341.025879,4323.205078,4464.615234,4320.897461,4342.563965,,,,,,,,,,,,,,,,,,,,,,,,,,,,,,,,,,,,,,,,,,,,,,,,,,,,,,,,,,,,,,,,,,,,,,
1720077582,20,0,4465,4431.538574,4320.384766,4397.692383,4445.769043,4428.846191,4411.666504,4397.179688,4403.589844,4342.05127,4330.641113,4466.410156,4313.974121,4335,8.218387,11.117333,2.003168,0.576332,0.354203,1.177762,7.366554,1.280067,0.408111,0.318489,0.736793,7.203772,1.559102,0.466304,0.274373,1.091144,5.447424,0.975446,0.523689,0.792067,0.380029,0.623903,0.565452,0.444467,0.45652,0.340791,7.942017,0.559533,0.19801,0.104464,0.519799,3.89116,0.75934,0.357747,0.095982,0.556335,1.574326,0.812294,0.380584,0.159475,0.335424,2.02722,1.199239,0.330891,0.196564,0.342423,0.907335,0.226504,0.23587,0.166749,0.911255,2.766803,0.394335,0.22196,0.144112,2.568923,10.151353,3.090321,0.664304,0.264362,0.940966,8.292884,1.332015,0.512716,0.185996,1.036765,9.436019,1.526096,0.55983,0.431872
1720077582,21,0,4460,4421.922852,4314.487305,4388.461426,4432.94873,4426.794922,4410.128418,4388.205078,4405.128418,4343.333496,4328.461426,4460,4312.436035,4329.615234,,,,,,,,,,,,,,,,,,,,,,,,,,,,,,,,,,,,,,,,,,,,,,,,,,,,,,,,,,,,,,,,,,,,,,
1720077582,22,0,4475.128418,4428.589844,4326.666504,4400.256348,4425.256348,4430,4409.871582,4388.717773,4400.769043,4342.692383,4322.307617,4465.128418,4325,4345.897461,,,,,,,,,,,,,,,,,,,,,,,,,,,,,,,,,,,,,,,,,,,,,,,,,,,,,,,,,,,,,,,,,,,,,,
1720077582,23,0,4490,4432.179688,4335.897461,4419.871582,4430.512695,4426.282227,4410.897461,4392.436035,4395,4341.025879,4323.717773,4473.461426,4331.025879,4357.05127,,,,,,,,,,,,,,,,,,,,,,,,,,,,,,,,,,,,,,,,,,,,,,,,,,,,,,,,,,,,,,,,,,,,,,
1720077582,24,0,4486.410156,4428.846191,4330.128418,4412.94873,4442.436035,4428.846191,4410.897461,4383.974121,4391.538574,4339.102539,4319.615234,4466.282227,4323.974121,4344.615234,,,,,,,,,,,,,,,,,,,,,,,,,,,,,,,,,,,,,,,,,,,,,,,,,,,,,,,,,,,,,,,,,,,,,,
1720077582,25,0,4475.641113,4425.897461,4313.974121,4387.179688,4456.282227,4441.666504,4410.641113,4378.077148,4393.461426,4342.820313,4306.153809,4452.179688,4313.461426,4337.692383,,,,,,,,,,,,,,,,,,,,,,,,,,,,,,,,,,,,,,,,,,,,,,,,,,,,,,,,,,,,,,,,,,,,,,
1720077582,26,0,4476.666504,4426.794922,4297.94873,4382.179688,4446.666504,4442.179688,4411.794922,4380.769043,4397.436035,4350.641113,4303.589844,4446.538574,4308.717773,4344.102539,,,,,,,,,,,,,,,,,,,,,,,,,,,,,,,,,,,,,,,,,,,,,,,,,,,,,,,,,,,,,,,,,,,,,,
1720077582,27,0,4482.307617,4429.358887,4300.256348,4397.05127,4419.871582,4436.538574,4415.512695,4382.179688,4401.410156,4353.333496,4309.102539,4448.589844,4310.641113,4340.384766,,,,,,,,,,,,,,,,,,,,,,,,,,,,,,,,,,,,,,,,,,,,,,,,,,,,,,,,,,,,,,,,,,,,,,
1720077582,28,0,4475.384766,4425.256348,4306.666504,4397.307617,4425.512695,4439.230957,4415.897461,4381.282227,4403.205078,4349.358887,4308.333496,4446.794922,4308.974121,4334.102539,,,,,,,,,,,,,,,,,,,,,,,,,,,,,,,,,,,,,,,,,,,,,,,,,,,,,,,,,,,,,,,,,,,,,,
1720077582,29,0,4476.538574,4428.717773,4305.897461,4391.922852,4451.794922,4441.666504,4411.410156,4380.897461,4401.922852,4349.487305,4309.102539,4448.333496,4310.897461,4341.794922,,,,,,,,,,,,,,,,,,,,,,,,,,,,,,,,,,,,,,,,,,,,,,,,,,,,,,,,,,,,,,,,,,,,,,
1720077582,30,0,4488.333496,4443.717773,4317.436035,4410.384766,4449.358887,4441.538574,4409.358887,4382.563965,4403.717773,4351.794922,4316.282227,4461.410156,4324.487305,4347.307617,,,,,,,,,,,,,,,,,,,,,,,,,,,,,,,,,,,,,,,,,,,,,,,,,,,,,,,,,,,,,,,,,,,,,,
1720077582,31,0,4479.743652,4445.769043,4324.743652,4419.743652,4438.461426,4438.717773,4410.897461,4385.128418,4406.666504,4352.307617,4323.717773,4465.897461,4331.153809,4341.666504,,,,,,,,,,,,,,,,,,,,,,,,,,,,,,,,,,,,,,,,,,,,,,,,,,,,,,,,,,,,,,,,,,,,,,
1720077582,32,0,4469.230957,4442.436035,4311.794922,4405.128418,4444.487305,4434.358887,4411.538574,4384.871582,4403.205078,4356.025879,4319.871582,4452.05127,4325.512695,4340.384766,,,,,,,,,,,,,,,,,,,,,,,,,,,,,,,,,,,,,,,,,,,,,,,,,,,,,,,,,,,,,,,,,,,,,,
1720077582,33,0,4480.512695,4444.743652,4307.692383,4408.077148,4444.487305,4431.153809,4411.538574,4382.692383,4397.820313,4359.615234,4313.846191,4450.897461,4323.846191,4343.589844,,,,,,,,,,,,,,,,,,,,,,,,,,,,,,,,,,,,,,,,,,,,,,,,,,,,,,,,,,,,,,,,,,,,,,
1720077582,34,0,4486.410156,4440.384766,4313.846191,4415.256348,4444.358887,4428.846191,4412.563965,4383.205078,4394.743652,4357.307617,4320,4465.384766,4326.025879,4345.769043,,,,,,,,,,,,,,,,,,,,,,,,,,,,,,,,,,,,,,,,,,,,,,,,,,,,,,,,,,,,,,,,,,,,,,
1720077582,35,0,4478.974121,4434.358887,4309.743652,4397.94873,4446.282227,4430.128418,4412.820313,4384.358887,4394.230957,4353.461426,4317.436035,4463.974121,4322.820313,4341.410156,,,,,,,,,,,,,,,,,,,,,,,,,,,,,,,,,,,,,,,,,,,,,,,,,,,,,,,,,,,,,,,,,,,,,,
1720077582,36,0,4485.512695,4441.410156,4317.436035,4410,4432.05127,4438.974121,4414.102539,4389.102539,4404.102539,4351.538574,4312.563965,4463.333496,4321.025879,4336.282227,8.426592,8.442058,1.718608,0.640928,0.398755,0.793915,5.461406,1.243424,0.443587,0.326031,0.659032,4.929255,1.470252,0.572064,0.316741,0.831565,3.980017,0.860533,0.564223,0.787787,0.282658,0.545168,0.812639,0.47224,0.478166,0.279548,6.051178,0.511329,0.210669,0.095183,0.534976,3.817921,0.869623,0.401898,0.088986,0.480446,1.059213,0.814534,0.487806,0.181629,0.290704,1.187792,1.268148,0.334721,0.229154,0.364698,0.720211,0.172567,0.25081,0.160797,0.986172,2.00598,0.298079,0.258511,0.162099,2.489231,6.798084,2.450001,0.84198,0.298216,0.89735,6.334671,1.154292,0.569201,0.213183,0.933671,7.179698,1.328091,0.669512,0.488546
1720077582,37,0,4495.897461,4442.692383,4328.974121,4430.769043,4433.205078,4444.615234,4415.384766,4394.487305,4412.692383,4346.538574,4321.025879,4473.461426,4319.743652,4336.794922,,,,,,,,,,,,,,,,,,,,,,,,,,,,,,,,,,,,,,,,,,,,,,,,,,,,,,,,,,,,,,,,,,,,,,
1720077582,38,0,4475.128418,4428.077148,4316.025879,4401.666504,4453.974121,4443.077148,4416.025879,4394.743652,4406.922852,4345.128418,4319.358887,4468.717773,4313.846191,4333.077148,,,,,,,,,,,,,,,,,,,,,,,,,,,,,,,,,,,,,,,,,,,,,,,,,,,,,,,,,,,,,,,,,,,,,,
1720077582,39,0,4434.871582,4424.487305,4303.717773,4380.512695,4455.897461,4445.897461,4420.641113,4397.563965,4402.436035,4351.538574,4310.641113,4462.179688,4308.974121,4326.025879,,,,,,,,,,,,,,,,,,,,,,,,,,,,,,,,,,,,,,,,,,,,,,,,,,,,,,,,,,,,,,,,,,,,,,
1720077582,40,0,4411.666504,4435.641113,4307.563965,4400.769043,4443.589844,4448.077148,4427.94873,4402.563965,4405.512695,4353.846191,4314.743652,4468.974121,4309.615234,4322.05127,,,,,,,,,,,,,,,,,,,,,,,,,,,,,,,,,,,,,,,,,,,,,,,,,,,,,,,,,,,,,,,,,,,,,,
1720077582,41,0,4410.769043,4444.230957,4314.743652,4417.05127,4441.538574,4443.717773,4429.358887,4400.897461,4403.846191,4350.384766,4316.410156,4471.794922,4314.743652,4322.692383,,,,,,,,,,,,,,,,,,,,,,,,,,,,,,,,,,,,,,,,,,,,,,,,,,,,,,,,,,,,,,,,,,,,,,
1720077582,42,0,4411.025879,4450.512695,4321.922852,4419.871582,4449.615234,4443.205078,4424.230957,4393.461426,4399.102539,4352.05127,4312.05127,4469.743652,4321.153809,4325.769043,,,,,,,,,,,,,,,,,,,,,,,,,,,,,,,,,,,,,,,,,,,,,,,,,,,,,,,,,,,,,,,,,,,,,,
1720077582,43,0,4407.94873,4458.589844,4326.922852,4427.436035,4460.641113,4446.282227,4418.846191,4387.94873,4400.384766,4357.563965,4319.743652,4476.794922,4326.282227,4331.666504,,,,,,,,,,,,,,,,,,,,,,,,,,,,,,,,,,,,,,,,,,,,,,,,,,,,,,,,,,,,,,,,,,,,,,
1720077582,44,0,4400,4452.179688,4312.692383,4417.179688,4462.307617,4442.05127,4412.563965,4385.128418,4399.743652,4361.282227,4321.153809,4474.230957,4324.871582,4330,,,,,,,,,,,,,,,,,,,,,,,,,,,,,,,,,,,,,,,,,,,,,,,,,,,,,,,,,,,,,,,,,,,,,,
1720077582,45,0,4383.589844,4436.153809,4295.384766,4395.128418,4447.307617,4432.820313,4410.512695,4386.794922,4397.563965,4361.538574,4311.922852,4459.230957,4316.282227,4316.794922,,,,,,,,,,,,,,,,,,,,,,,,,,,,,,,,,,,,,,,,,,,,,,,,,,,,,,,,,,,,,,,,,,,,,,
1720077582,46,0,4383.589844,4437.820313,4301.666504,4397.179688,4440.641113,4431.282227,4412.820313,4390.128418,4405,4362.820313,4319.871582,4464.358887,4315.256348,4315.897461,,,,,,,,,,,,,,,,,,,,,,,,,,,,,,,,,,,,,,,,,,,,,,,,,,,,,,,,,,,,,,,,,,,,,,
1720077582,47,0,4403.589844,4447.436035,4314.358887,4414.358887,4443.461426,4432.94873,4412.05127,4389.102539,4413.333496,4367.563965,4331.666504,4481.922852,4329.871582,4331.025879,,,,,,,,,,,,,,,,,,,,,,,,,,,,,,,,,,,,,,,,,,,,,,,,,,,,,,,,,,,,,,,,,,,,,,
1720077582,48,0,4417.179688,4450.256348,4313.974121,4417.820313,4441.282227,4435.384766,4417.820313,4389.487305,4408.333496,4362.692383,4331.153809,4485.512695,4338.846191,4341.282227,,,,,,,,,,,,,,,,,,,,,,,,,,,,,,,,,,,,,,,,,,,,,,,,,,,,,,,,,,,,,,,,,,,,,,
1720077582,49,0,4418.589844,4452.820313,4307.94873,4406.666504,4445.769043,4441.282227,4424.615234,4390.897461,4401.410156,4354.743652,4328.205078,4480.256348,4330.256348,4329.230957,,,,,,,,,,,,,,,,,,,,,,,,,,,,,,,,,,,,,,,,,,,,,,,,,,,,,,,,,,,,,,,,,,,,,,
1720077582,50,0,4413.717773,4451.025879,4306.025879,4411.410156,4446.922852,4443.846191,4418.077148,4388.333496,4404.102539,4361.025879,4327.307617,4476.153809,4321.410156,4314.871582,,,,,,,,,,,,,,,,,,,,,,,,,,,,,,,,,,,,,,,,,,,,,,,,,,,,,,,,,,,,,,,,,,,,,,
1720077582,51,0,4402.563965,4444.230957,4301.922852,4414.230957,4445.256348,4443.461426,4411.666504,4386.922852,4405.897461,4366.538574,4321.025879,4465.384766,4318.205078,4316.922852,,,,,,,,,,,,,,,,,,,,,,,,,,,,,,,,,,,,,,,,,,,,,,,,,,,,,,,,,,,,,,,,,,,,,,
1720077582,52,0,4390.128418,4442.820313,4296.538574,4395.512695,4452.307617,4445.128418,4415.512695,4388.717773,4401.666504,4358.717773,4313.461426,4454.743652,4311.794922,4315.256348,9.956163,6.74806,1.609624,0.696627,0.462303,0.622,4.141672,1.173892,0.472827,0.340797,0.65162,3.640503,1.383367,0.683381,0.367162,0.667745,2.934286,0.736116,0.61833,0.803405,0.218562,0.483239,1.061587,0.512357,0.493419,0.22899,4.69757,0.515046,0.226384,0.086209,0.547599,3.630023,1.000372,0.44502,0.081278,0.502508,0.982712,0.884479,0.644046,0.200656,0.325021,1.063541,1.328909,0.359684,0.258034,0.384081,0.640879,0.153806,0.255548,0.15449,1.076207,1.631819,0.215239,0.311757,0.182356,2.486908,4.813362,1.905357,1.053701,0.336303,0.993731,5.276732,1.054507,0.626012,0.250846,0.992562,5.964872,1.157388,0.795118,0.534722
1720077582,53,0,4392.436035,4442.307617,4291.025879,4390.256348,4448.974121,4444.102539,4415.512695,4380.256348,4391.794922,4348.974121,4304.743652,4450.256348,4296.410156,4296.025879,,,,,,,,,,,,,,,,,,,,,,,,,,,,,,,,,,,,,,,,,,,,,,,,,,,,,,,,,,,,,,,,,,,,,,
1720077582,54,0,4402.307617,4432.692383,4278.717773,4397.436035,4437.307617,4441.153809,4407.94873,4363.589844,4378.205078,4340.384766,4289.743652,4439.871582,4277.307617,4277.94873,,,,,,,,,,,,,,,,,,,,,,,,,,,,,,,,,,,,,,,,,,,,,,,,,,,,,,,,,,,,,,,,,,,,,,
1720077582,55,0,4407.436035,4429.743652,4279.102539,4393.974121,4441.922852,4443.461426,4410.128418,4363.333496,4380.128418,4340.641113,4290.512695,4437.05127,4275.641113,4281.922852,,,,,,,,,,,,,,,,,,,,,,,,,,,,,,,,,,,,,,,,,,,,,,,,,,,,,,,,,,,,,,,,,,,,,,
1720077582,56,0,4422.94873,4446.666504,4301.282227,4403.205078,4448.589844,4445.256348,4423.461426,4378.846191,4395.769043,4354.615234,4312.692383,4459.102539,4297.820313,4303.974121,,,,,,,,,,,,,,,,,,,,,,,,,,,,,,,,,,,,,,,,,,,,,,,,,,,,,,,,,,,,,,,,,,,,,,
1720077582,57,0,4454.358887,4463.205078,4317.563965,4430.769043,4446.153809,4443.589844,4428.717773,4387.820313,4404.102539,4360.384766,4328.205078,4484.743652,4320.512695,4325.769043,,,,,,,,,,,,,,,,,,,,,,,,,,,,,,,,,,,,,,,,,,,,,,,,,,,,,,,,,,,,,,,,,,,,,,
1720077582,58,0,4476.025879,4463.974121,4315.512695,4432.05127,4455.256348,4444.615234,4421.282227,4388.846191,4405.897461,4355.641113,4330.512695,4489.487305,4329.102539,4332.563965,,,,,,,,,,,,,,,,,,,,,,,,,,,,,,,,,,,,,,,,,,,,,,,,,,,,,,,,,,,,,,,,,,,,,,
1720077582,59,0,4476.410156,4456.666504,4308.846191,4407.563965,4461.282227,4440.128418,4417.307617,4390.897461,4408.846191,4358.974121,4335.256348,4478.717773,4329.871582,4326.666504,,,,,,,,,,,,,,,,,,,,,,,,,,,,,,,,,,,,,,,,,,,,,,,,,,,,,,,,,,,,,,,,,,,,,,
1720077582,60,0,4474.102539,4449.487305,4300.384766,4395.384766,4444.230957,4429.487305,4417.179688,4390,4411.538574,4359.358887,4333.589844,4471.538574,4325.384766,4321.538574,,,,,,,,,,,,,,,,,,,,,,,,,,,,,,,,,,,,,,,,,,,,,,,,,,,,,,,,,,,,,,,,,,,,,,
1720077582,61,0,4475,4445.897461,4295,4395.769043,4445.256348,4430.769043,4413.589844,4389.102539,4411.282227,4349.487305,4322.05127,4473.846191,4321.538574,4319.102539,,,,,,,,,,,,,,,,,,,,,,,,,,,,,,,,,,,,,,,,,,,,,,,,,,,,,,,,,,,,,,,,,,,,,,
1720077582,62,0,4482.05127,4450.897461,4302.179688,4408.589844,4456.538574,4441.410156,4418.974121,4396.666504,4411.922852,4350.256348,4324.615234,4479.102539,4319.871582,4313.589844,,,,,,,,,,,,,,,,,,,,,,,,,,,,,,,,,,,,,,,,,,,,,,,,,,,,,,,,,,,,,,,,,,,,,,
1720077582,63,0,4491.794922,4455.128418,4305.769043,4422.94873,4448.589844,4443.974121,4429.487305,4402.05127,4410.897461,4361.153809,4324.615234,4476.282227,4312.179688,4303.461426,,,,,,,,,,,,,,,,,,,,,,,,,,,,,,,,,,,,,,,,,,,,,,,,,,,,,,,,,,,,,,,,,,,,,,
1720077582,64,0,4490.897461,4447.692383,4295.512695,4408.846191,4451.025879,4442.692383,4429.487305,4396.666504,4406.666504,4361.538574,4311.025879,4470.128418,4305.128418,4303.461426,,,,,,,,,,,,,,,,,,,,,,,,,,,,,,,,,,,,,,,,,,,,,,,,,,,,,,,,,,,,,,,,,,,,,,
1720077582,65,0,4488.974121,4442.05127,4289.358887,4390.897461,4462.563965,4447.563965,4426.794922,4391.666504,4401.538574,4355.128418,4310.256348,4473.205078,4305.769043,4312.05127,,,,,,,,,,,,,,,,,,,,,,,,,,,,,,,,,,,,,,,,,,,,,,,,,,,,,,,,,,,,,,,,,,,,,,
1720077582,66,0,4493.717773,4446.410156,4295.128418,4400.128418,4452.820313,4445.769043,4420.512695,4390.384766,4401.282227,4355.384766,4312.820313,4474.102539,4301.025879,4304.487305,,,,,,,,,,,,,,,,,,,,,,,,,,,,,,,,,,,,,,,,,,,,,,,,,,,,,,,,,,,,,,,,,,,,,,
1720077582,67,0,4495.512695,4445.641113,4297.692383,4404.871582,4441.153809,4435.769043,4412.94873,4390.128418,4407.05127,4358.205078,4312.820313,4468.974121,4297.179688,4291.794922,,,,,,,,,,,,,,,,,,,,,,,,,,,,,,,,,,,,,,,,,,,,,,,,,,,,,,,,,,,,,,,,,,,,,,
1720077582,68,0,4492.94873,4442.179688,4293.846191,4396.025879,4450.384766,4431.153809,4418.333496,4394.615234,4411.153809,4357.307617,4324.102539,4474.230957,4307.563965,4302.05127,12.712414,5.98198,1.602085,0.730551,0.529701,0.59314,3.527445,1.10952,0.499901,0.36515,0.669423,3.285448,1.371086,0.793464,0.412468,0.607178,2.397191,0.661208,0.692414,0.836599,0.180067,0.426329,1.246965,0.551814,0.498201,0.225078,3.994701,0.563135,0.238483,0.079293,0.547523,3.340492,1.104507,0.479698,0.073274,0.590369,1.025468,0.957995,0.824526,0.210489,0.402599,1.163941,1.379307,0.40056,0.272741,0.397174,0.658844,0.168986,0.249054,0.145789,1.156919,1.560031,0.172902,0.375845,0.202472,2.55267,4.23606,1.59613,1.270653,0.368175,1.15798,5.091617,1.083824,0.668641,0.288423,1.111,5.75527,1.059086,0.915798,0.560762
1720077582,69,0,4485.769043,4451.922852,4297.692383,4406.538574,4453.846191,4432.436035,4426.666504,4397.94873,4410.641113,4358.717773,4329.615234,4482.05127,4316.153809,4316.538574,,,,,,,,,,,,,,,,,,,,,,,,,,,,,,,,,,,,,,,,,,,,,,,,,,,,,,,,,,,,,,,,,,,,,,
1720077582,70,0,4477.307617,4462.05127,4307.307617,4417.820313,4444.743652,4430.897461,4422.563965,4397.05127,4407.436035,4358.461426,4322.563965,4480.384766,4313.077148,4312.94873,,,,,,,,,,,,,,,,,,,,,,,,,,,,,,,,,,,,,,,,,,,,,,,,,,,,,,,,,,,,,,,,,,,,,,
1720077582,71,0,4477.307617,4454.230957,4300.128418,4399.487305,4442.563965,4425.769043,4415.128418,4396.794922,4403.333496,4346.922852,4321.922852,4474.230957,4310.512695,4301.922852,,,,,,,,,,,,,,,,,,,,,,,,,,,,,,,,,,,,,,,,,,,,,,,,,,,,,,,,,,,,,,,,,,,,,,
1720077582,72,0,4471.666504,4437.820313,4278.846191,4383.205078,4443.077148,4430.641113,4416.922852,4397.307617,4402.05127,4342.307617,4316.794922,4464.102539,4308.077148,4292.436035,,,,,,,,,,,,,,,,,,,,,,,,,,,,,,,,,,,,,,,,,,,,,,,,,,,,,,,,,,,,,,,,,,,,,,
1720077582,73,0,4461.025879,4429.743652,4269.871582,4385.256348,4450.769043,4443.333496,4424.358887,4397.179688,4404.358887,4351.153809,4309.871582,4457.692383,4305,4288.205078,,,,,,,,,,,,,,,,,,,,,,,,,,,,,,,,,,,,,,,,,,,,,,,,,,,,,,,,,,,,,,,,,,,,,,
1720077582,74,0,4468.846191,4433.077148,4280.384766,4390.384766,4459.358887,4447.05127,4430.512695,4398.077148,4405.256348,4352.94873,4317.820313,4465.384766,4309.743652,4293.846191,,,,,,,,,,,,,,,,,,,,,,,,,,,,,,,,,,,,,,,,,,,,,,,,,,,,,,,,,,,,,,,,,,,,,,
1720077582,75,0,4492.05127,4443.077148,4292.692383,4400.769043,4453.333496,4443.974121,4430.769043,4395.384766,4399.487305,4350.384766,4318.717773,4471.922852,4312.307617,4301.538574,,,,,,,,,,,,,,,,,,,,,,,,,,,,,,,,,,,,,,,,,,,,,,,,,,,,,,,,,,,,,,,,,,,,,,
1720077582,76,0,4504.487305,4450.769043,4295.512695,4409.743652,4445,4442.563965,4428.846191,4393.461426,4400.769043,4355.897461,4317.94873,4471.282227,4311.794922,4302.820313,,,,,,,,,,,,,,,,,,,,,,,,,,,,,,,,,,,,,,,,,,,,,,,,,,,,,,,,,,,,,,,,,,,,,,
1720077582,77,0,4500.897461,4451.922852,4293.846191,4407.05127,4444.358887,4438.461426,4427.179688,4396.538574,4411.153809,4362.692383,4330.256348,4475.769043,4318.077148,4307.179688,,,,,,,,,,,,,,,,,,,,,,,,,,,,,,,,,,,,,,,,,,,,,,,,,,,,,,,,,,,,,,,,,,,,,,
1720077582,78,0,4499.615234,4452.05127,4294.615234,4405.256348,4439.358887,4432.307617,4421.538574,4390.769043,4409.102539,4364.743652,4330.256348,4475.897461,4323.461426,4311.666504,,,,,,,,,,,,,,,,,,,,,,,,,,,,,,,,,,,,,,,,,,,,,,,,,,,,,,,,,,,,,,,,,,,,,,
1720077582,79,0,4507.436035,4451.922852,4296.025879,4404.230957,4442.94873,4429.358887,4420.769043,4384.487305,4398.333496,4363.333496,4320.384766,4469.358887,4323.333496,4303.846191,,,,,,,,,,,,,,,,,,,,,,,,,,,,,,,,,,,,,,,,,,,,,,,,,,,,,,,,,,,,,,,,,,,,,,
1720077582,80,0,4514.743652,4449.487305,4293.589844,4395.769043,4455.641113,4429.487305,4425.641113,4391.410156,4398.333496,4357.563965,4326.025879,4469.230957,4322.94873,4296.153809,,,,,,,,,,,,,,,,,,,,,,,,,,,,,,,,,,,,,,,,,,,,,,,,,,,,,,,,,,,,,,,,,,,,,,
1720077582,81,0,4508.333496,4446.025879,4294.358887,4399.743652,4451.153809,4431.025879,4426.410156,4397.820313,4403.461426,4358.846191,4335.384766,4474.102539,4320.897461,4298.333496,,,,,,,,,,,,,,,,,,,,,,,,,,,,,,,,,,,,,,,,,,,,,,,,,,,,,,,,,,,,,,,,,,,,,,
1720077582,82,0,4505.641113,4444.615234,4304.230957,4412.307617,4444.743652,4431.666504,4426.153809,4397.05127,4403.461426,4367.436035,4327.692383,4478.205078,4320.897461,4298.589844,,,,,,,,,,,,,,,,,,,,,,,,,,,,,,,,,,,,,,,,,,,,,,,,,,,,,,,,,,,,,,,,,,,,,,
1720077582,83,0,4519.230957,4447.436035,4313.717773,4409.615234,4456.282227,4435.897461,4429.871582,4397.563965,4400.769043,4367.692383,4317.692383,4479.615234,4324.230957,4297.94873,,,,,,,,,,,,,,,,,,,,,,,,,,,,,,,,,,,,,,,,,,,,,,,,,,,,,,,,,,,,,,,,,,,,,,
1720077582,84,0,4518.974121,4445,4305.128418,4397.820313,4461.538574,4444.615234,4432.94873,4393.846191,4395.897461,4357.436035,4320,4470,4316.922852,4288.974121,16.287386,5.840699,1.673971,0.750323,0.585354,0.624258,3.393051,1.065962,0.530453,0.39749,0.736071,3.457176,1.457937,0.903688,0.443254,0.618655,2.220655,0.668895,0.800356,0.884651,0.153773,0.373892,1.319775,0.578419,0.497951,0.246848,3.774088,0.612363,0.241693,0.075129,0.53019,2.951803,1.130736,0.498146,0.065597,0.714294,1.080401,1.001535,0.987194,0.207947,0.493757,1.269272,1.3994,0.447237,0.268114,0.419599,0.738786,0.209836,0.234517,0.134691,1.222052,1.656124,0.186573,0.43726,0.219909,2.509506,4.544343,1.524198,1.456641,0.387527,1.316273,5.412614,1.231367,0.684628,0.317311,1.251131,6.07502,1.051606,1.001344,0.566376
1720077582,85,0,4500.256348,4438.717773,4283.333496,4390.384766,4449.102539,4441.410156,4429.102539,4381.794922,4387.307617,4344.487305,4321.410156,4450.897461,4305,4266.538574,,,,,,,,,,,,,,,,,,,,,,,,,,,,,,,,,,,,,,,,,,,,,,,,,,,,,,,,,,,,,,,,,,,,,,
1720077582,86,0,4487.436035,4438.846191,4277.179688,4394.487305,4437.307617,4432.563965,4425.897461,4375.897461,4381.410156,4342.179688,4314.102539,4441.282227,4306.538574,4265.128418,,,,,,,,,,,,,,,,,,,,,,,,,,,,,,,,,,,,,,,,,,,,,,,,,,,,,,,,,,,,,,,,,,,,,,
1720077582,87,0,4482.94873,4444.871582,4289.487305,4401.410156,4445,4439.615234,4430.256348,4380,4380.512695,4349.743652,4317.179688,4452.436035,4312.563965,4286.153809,,,,,,,,,,,,,,,,,,,,,,,,,,,,,,,,,,,,,,,,,,,,,,,,,,,,,,,,,,,,,,,,,,,,,,
1720077582,88,0,4469.230957,4449.358887,4300.128418,4397.692383,4461.153809,4445.128418,4429.230957,4381.922852,4382.692383,4348.974121,4326.794922,4463.717773,4313.333496,4293.205078,,,,,,,,,,,,,,,,,,,,,,,,,,,,,,,,,,,,,,,,,,,,,,,,,,,,,,,,,,,,,,,,,,,,,,
1720077583,89,0,4447.179688,4445.384766,4292.307617,4390.897461,4454.358887,4433.846191,4415.256348,4375.641113,4386.410156,4342.820313,4315.384766,4445.641113,4310.256348,4280.384766,,,,,,,,,,,,,,,,,,,,,,,,,,,,,,,,,,,,,,,,,,,,,,,,,,,,,,,,,,,,,,,,,,,,,,
1720077583,90,0,4438.974121,4436.025879,4279.358887,4388.846191,4438.077148,4427.179688,4411.666504,4369.743652,4387.179688,4342.94873,4309.615234,4426.922852,4309.487305,4266.922852,,,,,,,,,,,,,,,,,,,,,,,,,,,,,,,,,,,,,,,,,,,,,,,,,,,,,,,,,,,,,,,,,,,,,,
1720077583,91,0,4449.230957,4436.153809,4283.717773,4387.05127,4442.307617,4433.077148,4423.205078,4375.256348,4385.769043,4347.94873,4323.205078,4441.666504,4315.769043,4270.128418,,,,,,,,,,,,,,,,,,,,,,,,,,,,,,,,,,,,,,,,,,,,,,,,,,,,,,,,,,,,,,,,,,,,,,
1720077583,92,0,4463.846191,4448.846191,4296.538574,4391.410156,4451.922852,4440.769043,4428.974121,4388.846191,4390.384766,4356.922852,4326.153809,4462.820313,4323.461426,4290.256348,,,,,,,,,,,,,,,,,,,,,,,,,,,,,,,,,,,,,,,,,,,,,,,,,,,,,,,,,,,,,,,,,,,,,,
1720077583,93,0,4458.589844,4453.717773,4298.077148,4400.897461,4453.589844,4442.179688,4428.974121,4398.333496,4399.871582,4366.282227,4328.205078,4468.974121,4330.256348,4300.512695,,,,,,,,,,,,,,,,,,,,,,,,,,,,,,,,,,,,,,,,,,,,,,,,,,,,,,,,,,,,,,,,,,,,,,
1720077583,94,0,4443.333496,4450.897461,4292.05127,4401.666504,4448.974121,4433.974121,4429.230957,4396.794922,4400,4367.307617,4337.179688,4466.794922,4337.05127,4293.461426,,,,,,,,,,,,,,,,,,,,,,,,,,,,,,,,,,,,,,,,,,,,,,,,,,,,,,,,,,,,,,,,,,,,,,
1720077583,95,0,4446.538574,4456.153809,4297.179688,4397.692383,4444.871582,4427.692383,4427.692383,4394.358887,4400.384766,4365.641113,4339.487305,4469.615234,4339.230957,4297.820313,,,,,,,,,,,,,,,,,,,,,,,,,,,,,,,,,,,,,,,,,,,,,,,,,,,,,,,,,,,,,,,,,,,,,,
1720077583,96,0,4460.256348,4465.256348,4311.922852,4401.025879,4446.153809,4434.358887,4428.717773,4400,4409.871582,4366.794922,4337.05127,4480.512695,4338.333496,4312.692383,,,,,,,,,,,,,,,,,,,,,,,,,,,,,,,,,,,,,,,,,,,,,,,,,,,,,,,,,,,,,,,,,,,,,,
1720077583,97,0,4464.487305,4465.512695,4317.307617,4404.487305,4452.307617,4441.922852,4431.794922,4402.05127,4409.358887,4364.230957,4335.769043,4484.743652,4338.333496,4312.307617,,,,,,,,,,,,,,,,,,,,,,,,,,,,,,,,,,,,,,,,,,,,,,,,,,,,,,,,,,,,,,,,,,,,,,
1720077583,98,0,4459.743652,4460.641113,4308.205078,4397.05127,4451.794922,4442.692383,4429.615234,4390.384766,4394.487305,4355.128418,4329.487305,4475.384766,4333.846191,4302.307617,,,,,,,,,,,,,,,,,,,,,,,,,,,,,,,,,,,,,,,,,,,,,,,,,,,,,,,,,,,,,,,,,,,,,,
1720077583,99,0,4460.897461,4467.436035,4308.205078,4398.461426,4442.307617,4441.282227,4429.102539,4379.871582,4386.666504,4351.153809,4325.641113,4469.487305,4332.179688,4303.846191,,,,,,,,,,,,,,,,,,,,,,,,,,,,,,,,,,,,,,,,,,,,,,,,,,,,,,,,,,,,,,,,,,,,,,
1720077583,100,0,4464.102539,4474.358887,4314.487305,4410.256348,4441.666504,4442.05127,4431.282227,4380.641113,4389.102539,4358.717773,4326.025879,4469.615234,4335.128418,4306.666504,19.867178,6.018762,1.867811,0.777405,0.616657,0.643861,3.363983,1.047965,0.568688,0.429281,0.815211,3.662983,1.608411,1.013927,0.454623,0.654621,2.152805,0.75337,0.9566,0.941313,0.14538,0.326898,1.267921,0.585924,0.502881,0.282648,3.719147,0.626371,0.235876,0.073451,0.487974,2.474215,1.06851,0.496681,0.059208,0.850398,1.092383,0.998045,1.083796,0.194072,0.574385,1.292486,1.363241,0.485329,0.246194,0.448574,0.835728,0.264617,0.219546,0.123094,1.255288,1.814536,0.280299,0.47995,0.232643,2.392335,5.012955,1.587665,1.569356,0.393301,1.414152,5.771541,1.452392,0.672139,0.332318,1.388887,6.350298,1.146595,1.027852,0.559311
1720077583,101,0,4455.512695,4463.974121,4299.743652,4399.871582,4455.256348,4443.846191,4428.589844,4381.410156,4390.769043,4363.461426,4320.769043,4461.538574,4328.974121,4296.922852,,,,,,,,,,,,,,,,,,,,,,,,,,,,,,,,,,,,,,,,,,,,,,,,,,,,,,,,,,,,,,,,,,,,,,
1720077583,102,0,4448.589844,4459.487305,4283.205078,4377.307617,4465.256348,4439.358887,4425.256348,4379.358887,4393.589844,4356.794922,4320.384766,4457.563965,4322.05127,4290.769043,,,,,,,,,,,,,,,,,,,,,,,,,,,,,,,,,,,,,,,,,,,,,,,,,,,,,,,,,,,,,,,,,,,,,,
1720077583,103,0,4449.487305,4470.384766,4289.615234,4377.94873,4453.717773,4435,4423.205078,4383.205078,4397.692383,4357.436035,4321.794922,4464.358887,4323.974121,4291.794922,,,,,,,,,,,,,,,,,,,,,,,,,,,,,,,,,,,,,,,,,,,,,,,,,,,,,,,,,,,,,,,,,,,,,,
1720077583,104,0,4444.615234,4475.769043,4304.358887,4402.179688,4440.769043,4438.846191,4431.922852,4389.358887,4398.205078,4364.615234,4326.410156,4474.358887,4327.563965,4293.846191,,,,,,,,,,,,,,,,,,,,,,,,,,,,,,,,,,,,,,,,,,,,,,,,,,,,,,,,,,,,,,,,,,,,,,
1720077583,105,0,4428.846191,4473.846191,4310.769043,4414.871582,4451.025879,4445,4442.820313,4391.153809,4398.974121,4361.410156,4334.358887,4478.974121,4328.846191,4304.871582,,,,,,,,,,,,,,,,,,,,,,,,,,,,,,,,,,,,,,,,,,,,,,,,,,,,,,,,,,,,,,,,,,,,,,
1720077583,106,0,4421.666504,4475.769043,4311.794922,4402.563965,4459.615234,4442.436035,4436.922852,4389.102539,4398.589844,4358.974121,4335,4474.743652,4326.922852,4310,,,,,,,,,,,,,,,,,,,,,,,,,,,,,,,,,,,,,,,,,,,,,,,,,,,,,,,,,,,,,,,,,,,,,,
1720077583,107,0,4432.94873,4478.333496,4307.94873,4392.820313,4450.128418,4434.743652,4425,4388.077148,4398.077148,4368.589844,4330.769043,4471.025879,4325.897461,4301.410156,,,,,,,,,,,,,,,,,,,,,,,,,,,,,,,,,,,,,,,,,,,,,,,,,,,,,,,,,,,,,,,,,,,,,,
1720077583,108,0,4443.717773,4482.563965,4307.94873,4405.384766,4440,4432.307617,4429.358887,4391.410156,4404.743652,4372.307617,4331.153809,4478.717773,4335,4302.436035,,,,,,,,,,,,,,,,,,,,,,,,,,,,,,,,,,,,,,,,,,,,,,,,,,,,,,,,,,,,,,,,,,,,,,
1720077583,109,0,4443.333496,4484.615234,4316.282227,4411.538574,4443.333496,4433.974121,4431.922852,4397.563965,4409.358887,4363.589844,4336.410156,4494.230957,4344.615234,4316.025879,,,,,,,,,,,,,,,,,,,,,,,,,,,,,,,,,,,,,,,,,,,,,,,,,,,,,,,,,,,,,,,,,,,,,,
1720077583,110,0,4440.256348,4478.333496,4316.666504,4395,4453.846191,4433.846191,4414.487305,4396.666504,4401.282227,4361.666504,4333.974121,4492.94873,4335.128418,4313.461426,,,,,,,,,,,,,,,,,,,,,,,,,,,,,,,,,,,,,,,,,,,,,,,,,,,,,,,,,,,,,,,,,,,,,,
1720077583,111,0,4441.922852,4474.487305,4310.128418,4394.102539,4457.05127,4433.589844,4403.333496,4389.743652,4394.358887,4367.820313,4332.179688,4481.282227,4322.692383,4295.641113,,,,,,,,,,,,,,,,,,,,,,,,,,,,,,,,,,,,,,,,,,,,,,,,,,,,,,,,,,,,,,,,,,,,,,
1720077583,112,0,4444.487305,4477.179688,4309.615234,4412.94873,4447.05127,4437.692383,4410.769043,4393.333496,4396.282227,4365.641113,4341.410156,4485,4328.461426,4294.743652,,,,,,,,,,,,,,,,,,,,,,,,,,,,,,,,,,,,,,,,,,,,,,,,,,,,,,,,,,,,,,,,,,,,,,
1720077583,113,0,4440.256348,4477.307617,4309.615234,4414.102539,4443.461426,4436.666504,4422.820313,4407.94873,4402.436035,4360.384766,4350,4494.102539,4338.974121,4309.487305,,,,,,,,,,,,,,,,,,,,,,,,,,,,,,,,,,,,,,,,,,,,,,,,,,,,,,,,,,,,,,,,,,,,,,
1720077583,114,0,4431.153809,4470.897461,4302.820313,4390.897461,4455.384766,4431.282227,4428.974121,4414.102539,4410.769043,4365.128418,4348.461426,4493.205078,4335.641113,4313.974121,,,,,,,,,,,,,,,,,,,,,,,,,,,,,,,,,,,,,,,,,,,,,,,,,,,,,,,,,,,,,,,,,,,,,,
1720077583,115,0,4431.282227,4469.487305,4300.384766,4377.94873,4455.641113,4433.205078,4423.589844,4406.153809,4412.05127,4369.871582,4345.384766,4488.077148,4327.179688,4309.358887,,,,,,,,,,,,,,,,,,,,,,,,,,,,,,,,,,,,,,,,,,,,,,,,,,,,,,,,,,,,,,,,,,,,,,
1720077583,116,0,4442.820313,4472.307617,4306.538574,4393.077148,4442.436035,4433.205078,4414.230957,4399.358887,4406.794922,4363.717773,4348.461426,4483.333496,4327.307617,4308.077148,23.072844,6.404041,2.181048,0.827987,0.619983,0.642664,3.173543,1.04476,0.618951,0.447724,0.902812,3.61037,1.73859,1.116745,0.448166,0.698553,2.008783,0.867482,1.160324,0.993659,0.157332,0.289213,1.113215,0.575165,0.51984,0.305013,3.572365,0.58993,0.223242,0.07408,0.433008,1.938459,0.937092,0.477147,0.055486,1.000066,1.057897,0.945199,1.082053,0.173099,0.64109,1.238078,1.268264,0.500506,0.214737,0.502477,0.922086,0.318352,0.212472,0.114122,1.264853,2.002941,0.468326,0.491379,0.239433,2.172034,5.182704,1.665297,1.578681,0.389967,1.47159,5.885482,1.685724,0.638467,0.331838,1.523114,6.239125,1.330873,0.993691,0.549585
1720077583,117,0,4441.538574,4464.615234,4303.077148,4396.410156,4444.230957,4433.589844,4414.230957,4397.307617,4403.461426,4357.179688,4338.974121,4475,4327.05127,4301.410156,,,,,,,,,,,,,,,,,,,,,,,,,,,,,,,,,,,,,,,,,,,,,,,,,,,,,,,,,,,,,,,,,,,,,,
1720077583,118,0,4420.128418,4456.025879,4284.615234,4372.94873,4447.692383,4440.384766,4421.025879,4391.922852,4397.563965,4355.512695,4323.077148,4463.077148,4314.743652,4284.487305,,,,,,,,,,,,,,,,,,,,,,,,,,,,,,,,,,,,,,,,,,,,,,,,,,,,,,,,,,,,,,,,,,,,,,
1720077583,119,0,4405,4456.666504,4272.820313,4363.846191,4440.641113,4443.717773,4419.871582,4385.897461,4392.820313,4357.05127,4320.256348,4456.410156,4303.589844,4274.743652,,,,,,,,,,,,,,,,,,,,,,,,,,,,,,,,,,,,,,,,,,,,,,,,,,,,,,,,,,,,,,,,,,,,,,
1720077583,120,0,4414.102539,4458.717773,4282.820313,4383.461426,4440.128418,4441.282227,4414.871582,4386.153809,4395,4358.846191,4326.025879,4464.358887,4311.794922,4280.384766,,,,,,,,,,,,,,,,,,,,,,,,,,,,,,,,,,,,,,,,,,,,,,,,,,,,,,,,,,,,,,,,,,,,,,
1720077583,121,0,4427.94873,4464.102539,4296.794922,4395.512695,4445.769043,4436.410156,4412.436035,4390.512695,4395.641113,4357.94873,4334.743652,4474.102539,4323.846191,4294.871582,,,,,,,,,,,,,,,,,,,,,,,,,,,,,,,,,,,,,,,,,,,,,,,,,,,,,,,,,,,,,,,,,,,,,,
1720077583,122,0,4428.333496,4473.205078,4303.333496,4384.487305,4442.692383,4427.563965,4415.256348,4399.871582,4398.717773,4357.94873,4339.871582,4478.461426,4325.641113,4306.794922,,,,,,,,,,,,,,,,,,,,,,,,,,,,,,,,,,,,,,,,,,,,,,,,,,,,,,,,,,,,,,,,,,,,,,
1720077583,123,0,4432.179688,4477.436035,4316.538574,4388.205078,4443.846191,4425.641113,4422.307617,4411.025879,4410.512695,4357.563965,4341.538574,4495,4331.794922,4312.692383,,,,,,,,,,,,,,,,,,,,,,,,,,,,,,,,,,,,,,,,,,,,,,,,,,,,,,,,,,,,,,,,,,,,,,
1720077583,124,0,4446.794922,4477.179688,4327.692383,4404.615234,4458.205078,4436.025879,4428.589844,4417.307617,4417.307617,4354.743652,4345,4509.230957,4337.94873,4315.128418,,,,,,,,,,,,,,,,,,,,,,,,,,,,,,,,,,,,,,,,,,,,,,,,,,,,,,,,,,,,,,,,,,,,,,
1720077583,125,0,4451.025879,4476.153809,4318.205078,4397.179688,4465,4441.538574,4426.282227,4413.333496,4409.487305,4355,4345.256348,4499.487305,4330.256348,4312.307617,,,,,,,,,,,,,,,,,,,,,,,,,,,,,,,,,,,,,,,,,,,,,,,,,,,,,,,,,,,,,,,,,,,,,,
1720077583,126,0,4445.769043,4474.230957,4307.179688,4388.461426,4458.077148,4441.410156,4423.077148,4405.897461,4401.410156,4358.333496,4336.538574,4487.563965,4324.871582,4308.077148,,,,,,,,,,,,,,,,,,,,,,,,,,,,,,,,,,,,,,,,,,,,,,,,,,,,,,,,,,,,,,,,,,,,,,
1720077583,127,0,4442.179688,4472.307617,4310.897461,4393.974121,4448.205078,4441.666504,4424.487305,4406.538574,4406.153809,4359.615234,4335,4492.307617,4327.436035,4308.717773,,,,,,,,,,,,,,,,,,,,,,,,,,,,,,,,,,,,,,,,,,,,,,,,,,,,,,,,,,,,,,,,,,,,,,
1720077583,0,0,4443.974121,4463.974121,4313.974121,4393.846191,4437.692383,4436.282227,4422.692383,4411.666504,4411.410156,4357.692383,4341.153809,4497.563965,4325.641113,4310.128418,,,,,,,,,,,,,,,,,,,,,,,,,,,,,,,,,,,,,,,,,,,,,,,,,,,,,,,,,,,,,,,,,,,,,,
1720077583,1,0,4456.538574,4460.769043,4311.666504,4390.897461,4438.205078,4432.692383,4416.410156,4408.461426,4402.05127,4353.333496,4337.563965,4495,4328.846191,4310.384766,,,,,,,,,,,,,,,,,,,,,,,,,,,,,,,,,,,,,,,,,,,,,,,,,,,,,,,,,,,,,,,,,,,,,,
1720077583,2,0,4469.358887,4472.692383,4309.743652,4388.974121,4445.384766,4432.563965,4413.077148,4397.94873,4392.692383,4352.692383,4334.743652,4492.307617,4334.487305,4311.794922,,,,,,,,,,,,,,,,,,,,,,,,,,,,,,,,,,,,,,,,,,,,,,,,,,,,,,,,,,,,,,,,,,,,,,
1720077583,3,0,4473.205078,4480,4309.871582,4386.922852,4443.589844,4432.179688,4413.461426,4391.794922,4395,4352.307617,4336.282227,4491.410156,4333.846191,4311.922852,,,,,,,,,,,,,,,,,,,,,,,,,,,,,,,,,,,,,,,,,,,,,,,,,,,,,,,,,,,,,,,,,,,,,,
1720077583,4,0,4469.358887,4478.589844,4313.077148,4392.05127,4448.077148,4435.384766,4414.230957,4388.333496,4391.410156,4345.256348,4336.922852,4492.05127,4332.179688,4307.05127,24.874466,6.902719,2.579887,0.901565,0.600677,0.618114,2.775506,1.041338,0.678208,0.441955,1.003253,3.257322,1.782498,1.201981,0.432276,0.729633,1.761987,0.959137,1.385966,1.023925,0.183611,0.265199,0.909402,0.550051,0.548063,0.306488,3.24951,0.524778,0.207221,0.077639,0.377534,1.411963,0.783411,0.445509,0.056615,1.158594,1.014058,0.864092,0.981822,0.151156,0.703188,1.162452,1.135012,0.48856,0.18348,0.591228,0.993805,0.358149,0.217777,0.111324,1.254007,2.213721,0.739913,0.468779,0.240073,2.038523,4.94233,1.710489,1.488663,0.384809,1.551836,5.713266,1.87724,0.595262,0.317839,1.670834,5.69873,1.563331,0.920767,0.54379
1720077583,5,0,4460.384766,4482.179688,4315.641113,4398.974121,4461.666504,4437.179688,4414.230957,4386.794922,4385.384766,4343.333496,4338.589844,4492.692383,4331.666504,4307.692383,,,,,,,,,,,,,,,,,,,,,,,,,,,,,,,,,,,,,,,,,,,,,,,,,,,,,,,,,,,,,,,,,,,,,,
1720077583,6,0,4458.846191,4490,4312.436035,4398.461426,4458.974121,4431.153809,4412.820313,4393.205078,4392.436035,4350.641113,4336.282227,4489.743652,4331.794922,4315.641113,,,,,,,,,,,,,,,,,,,,,,,,,,,,,,,,,,,,,,,,,,,,,,,,,,,,,,,,,,,,,,,,,,,,,,
1720077583,7,0,4459.102539,4492.692383,4312.820313,4401.282227,4442.94873,4428.077148,4412.179688,4397.307617,4399.615234,4351.794922,4332.307617,4487.307617,4329.358887,4316.410156,,,,,,,,,,,,,,,,,,,,,,,,,,,,,,,,,,,,,,,,,,,,,,,,,,,,,,,,,,,,,,,,,,,,,,
1720077583,8,0,4446.922852,4487.05127,4315.897461,4405,4441.282227,4435.384766,4415.641113,4401.282227,4400.512695,4350.897461,4332.94873,4490,4326.282227,4310.897461,,,,,,,,,,,,,,,,,,,,,,,,,,,,,,,,,,,,,,,,,,,,,,,,,,,,,,,,,,,,,,,,,,,,,,
1720077583,9,0,4444.871582,4484.487305,4315,4397.307617,4455.128418,4442.436035,4420.128418,4407.820313,4403.077148,4360.256348,4335.256348,4494.871582,4332.307617,4312.94873,,,,,,,,,,,,,,,,,,,,,,,,,,,,,,,,,,,,,,,,,,,,,,,,,,,,,,,,,,,,,,,,,,,,,,
1720077583,10,0,4463.077148,4487.563965,4311.410156,4390.769043,4460.384766,4442.05127,4421.794922,4408.846191,4404.615234,4367.820313,4336.666504,4499.615234,4344.102539,4323.205078,,,,,,,,,,,,,,,,,,,,,,,,,,,,,,,,,,,,,,,,,,,,,,,,,,,,,,,,,,,,,,,,,,,,,,
1720077583,11,0,4465.128418,4484.871582,4305.897461,4392.820313,4449.743652,4437.05127,4421.666504,4408.077148,4402.179688,4365.128418,4342.563965,4509.358887,4344.358887,4326.025879,,,,,,,,,,,,,,,,,,,,,,,,,,,,,,,,,,,,,,,,,,,,,,,,,,,,,,,,,,,,,,,,,,,,,,
1720077583,12,0,4448.205078,4477.563965,4302.94873,4398.461426,4440.384766,4434.487305,4426.282227,4412.05127,4401.922852,4364.358887,4348.461426,4518.717773,4340.897461,4318.589844,,,,,,,,,,,,,,,,,,,,,,,,,,,,,,,,,,,,,,,,,,,,,,,,,,,,,,,,,,,,,,,,,,,,,,
1720077583,13,0,4441.153809,4476.538574,4307.820313,4397.563965,4445.641113,4439.871582,4428.974121,4414.487305,4403.717773,4367.436035,4345.128418,4522.179688,4344.615234,4310.897461,,,,,,,,,,,,,,,,,,,,,,,,,,,,,,,,,,,,,,,,,,,,,,,,,,,,,,,,,,,,,,,,,,,,,,
1720077583,14,0,4435.256348,4476.410156,4312.307617,4391.922852,4452.563965,4444.743652,4423.333496,4409.871582,4402.820313,4366.794922,4336.025879,4525.128418,4339.871582,4308.461426,,,,,,,,,,,,,,,,,,,,,,,,,,,,,,,,,,,,,,,,,,,,,,,,,,,,,,,,,,,,,,,,,,,,,,
1720077583,15,0,4409.871582,4474.358887,4306.282227,4388.846191,4455.128418,4443.077148,4417.05127,4405.384766,4401.153809,4358.461426,4331.922852,4522.563965,4327.94873,4311.538574,,,,,,,,,,,,,,,,,,,,,,,,,,,,,,,,,,,,,,,,,,,,,,,,,,,,,,,,,,,,,,,,,,,,,,
1720077583,16,0,4394.102539,4479.743652,4297.436035,4382.563965,4455.512695,4440.769043,4416.153809,4398.846191,4397.307617,4348.333496,4334.743652,4513.333496,4323.717773,4308.974121,,,,,,,,,,,,,,,,,,,,,,,,,,,,,,,,,,,,,,,,,,,,,,,,,,,,,,,,,,,,,,,,,,,,,,
1720077583,17,0,4404.102539,4476.282227,4296.025879,4384.102539,4453.717773,4444.871582,4414.487305,4387.179688,4389.358887,4346.410156,4328.077148,4501.282227,4324.487305,4300,,,,,,,,,,,,,,,,,,,,,,,,,,,,,,,,,,,,,,,,,,,,,,,,,,,,,,,,,,,,,,,,,,,,,,
1720077583,18,0,4413.333496,4465,4297.05127,4390.256348,4448.333496,4442.94873,4410.769043,4382.94873,4386.538574,4353.461426,4323.461426,4496.153809,4323.846191,4299.358887,,,,,,,,,,,,,,,,,,,,,,,,,,,,,,,,,,,,,,,,,,,,,,,,,,,,,,,,,,,,,,,,,,,,,,
1720077583,19,0,4417.692383,4471.922852,4296.282227,4383.205078,4435.384766,4430.128418,4408.974121,4391.025879,4393.077148,4358.717773,4336.410156,4504.871582,4329.358887,4311.922852,,,,,,,,,,,,,,,,,,,,,,,,,,,,,,,,,,,,,,,,,,,,,,,,,,,,,,,,,,,,,,,,,,,,,,
1720077583,20,0,4424.871582,4481.025879,4295.256348,4376.794922,4435,4430.641113,4410.897461,4395.769043,4395.897461,4358.589844,4337.307617,4508.077148,4333.205078,4315.641113,25.226088,7.320968,2.956952,0.978506,0.570047,0.604792,2.262493,1.039119,0.731955,0.408991,1.103596,2.75491,1.734963,1.256729,0.41747,0.755998,1.486809,1.000196,1.586009,1.019949,0.219849,0.253755,0.71605,0.513318,0.580168,0.280136,2.787854,0.475831,0.192584,0.085027,0.346007,0.973674,0.666799,0.409825,0.065774,1.314158,1.025169,0.790326,0.814997,0.13441,0.778616,1.136215,0.993942,0.455691,0.159624,0.711172,1.066571,0.37529,0.233696,0.116572,1.246595,2.417253,1.056059,0.420161,0.235149,2.062417,4.453395,1.726397,1.329823,0.383709,1.683145,5.354312,2.001274,0.551397,0.294786,1.85752,4.910389,1.812085,0.842428,0.542702
1720077583,21,0,4421.410156,4463.974121,4290.897461,4376.538574,4448.846191,4442.820313,4413.717773,4389.871582,4386.538574,4357.692383,4324.487305,4491.666504,4319.102539,4298.846191,,,,,,,,,,,,,,,,,,,,,,,,,,,,,,,,,,,,,,,,,,,,,,,,,,,,,,,,,,,,,,,,,,,,,,
1720077583,22,0,4420.512695,4457.179688,4293.717773,4389.102539,4438.461426,4443.589844,4416.153809,4391.794922,4384.743652,4356.153809,4327.820313,4487.307617,4308.974121,4289.487305,,,,,,,,,,,,,,,,,,,,,,,,,,,,,,,,,,,,,,,,,,,,,,,,,,,,,,,,,,,,,,,,,,,,,,
1720077583,23,0,4438.846191,4478.974121,4305.897461,4405.384766,4421.794922,4439.358887,4418.589844,4403.846191,4397.307617,4356.282227,4341.153809,4506.410156,4324.743652,4306.025879,,,,,,,,,,,,,,,,,,,,,,,,,,,,,,,,,,,,,,,,,,,,,,,,,,,,,,,,,,,,,,,,,,,,,,
1720077583,24,0,4446.794922,4478.974121,4302.179688,4389.102539,4439.230957,4444.358887,4417.179688,4401.922852,4401.922852,4361.025879,4342.563965,4506.538574,4332.563965,4313.333496,,,,,,,,,,,,,,,,,,,,,,,,,,,,,,,,,,,,,,,,,,,,,,,,,,,,,,,,,,,,,,,,,,,,,,
1720077583,25,0,4439.615234,4460.512695,4286.666504,4361.538574,4449.102539,4442.94873,4411.410156,4390.128418,4395,4360.128418,4336.922852,4487.692383,4315.256348,4298.846191,,,,,,,,,,,,,,,,,,,,,,,,,,,,,,,,,,,,,,,,,,,,,,,,,,,,,,,,,,,,,,,,,,,,,,
1720077583,26,0,4441.794922,4461.282227,4291.666504,4369.615234,4431.922852,4435.256348,4409.358887,4390.512695,4391.410156,4352.179688,4334.358887,4485.384766,4313.589844,4299.102539,,,,,,,,,,,,,,,,,,,,,,,,,,,,,,,,,,,,,,,,,,,,,,,,,,,,,,,,,,,,,,,,,,,,,,
1720077583,27,0,4446.538574,4465.256348,4298.846191,4386.025879,4438.589844,4439.487305,4413.846191,4394.871582,4391.666504,4347.307617,4337.94873,4494.230957,4327.179688,4312.94873,,,,,,,,,,,,,,,,,,,,,,,,,,,,,,,,,,,,,,,,,,,,,,,,,,,,,,,,,,,,,,,,,,,,,,
1720077583,28,0,4445.128418,4459.358887,4282.05127,4373.589844,4451.922852,4446.153809,4412.307617,4390.641113,4389.230957,4344.615234,4339.358887,4489.487305,4319.743652,4310.769043,,,,,,,,,,,,,,,,,,,,,,,,,,,,,,,,,,,,,,,,,,,,,,,,,,,,,,,,,,,,,,,,,,,,,,
1720077583,29,0,4447.436035,4456.410156,4275.384766,4360.641113,4436.410156,4443.717773,4404.615234,4386.410156,4389.102539,4347.05127,4330.897461,4481.410156,4307.94873,4303.589844,,,,,,,,,,,,,,,,,,,,,,,,,,,,,,,,,,,,,,,,,,,,,,,,,,,,,,,,,,,,,,,,,,,,,,
1720077583,30,0,4462.692383,4460.641113,4296.410156,4368.333496,4428.974121,4440.128418,4404.487305,4389.102539,4390.384766,4351.282227,4334.871582,4495.256348,4318.846191,4307.563965,,,,,,,,,,,,,,,,,,,,,,,,,,,,,,,,,,,,,,,,,,,,,,,,,,,,,,,,,,,,,,,,,,,,,,
1720077583,31,0,4477.820313,4470.512695,4315.512695,4382.05127,4446.538574,4441.666504,4411.025879,4390.897461,4387.05127,4346.538574,4345.384766,4511.666504,4331.538574,4315.512695,,,,,,,,,,,,,,,,,,,,,,,,,,,,,,,,,,,,,,,,,,,,,,,,,,,,,,,,,,,,,,,,,,,,,,
1720077583,32,0,4472.820313,4472.307617,4312.05127,4384.743652,4447.05127,4442.563965,4412.692383,4390.897461,4384.615234,4344.230957,4342.05127,4503.205078,4325.512695,4317.179688,,,,,,,,,,,,,,,,,,,,,,,,,,,,,,,,,,,,,,,,,,,,,,,,,,,,,,,,,,,,,,,,,,,,,,
1720077583,33,0,4462.307617,4461.153809,4297.563965,4379.871582,4427.307617,4443.205078,4411.153809,4390.384766,4383.846191,4351.538574,4335.128418,4487.563965,4314.358887,4307.307617,,,,,,,,,,,,,,,,,,,,,,,,,,,,,,,,,,,,,,,,,,,,,,,,,,,,,,,,,,,,,,,,,,,,,,
1720077583,34,0,4461.922852,4458.589844,4295.384766,4381.410156,4429.615234,4447.563965,4412.692383,4388.205078,4385.897461,4353.717773,4333.717773,4488.589844,4309.871582,4298.717773,,,,,,,,,,,,,,,,,,,,,,,,,,,,,,,,,,,,,,,,,,,,,,,,,,,,,,,,,,,,,,,,,,,,,,
1720077583,35,0,4447.179688,4464.230957,4294.358887,4376.410156,4446.410156,4449.487305,4412.436035,4388.974121,4390.769043,4348.846191,4336.025879,4490.512695,4312.307617,4304.871582,,,,,,,,,,,,,,,,,,,,,,,,,,,,,,,,,,,,,,,,,,,,,,,,,,,,,,,,,,,,,,,,,,,,,,
1720077583,36,0,4424.230957,4460.641113,4285,4366.922852,4439.358887,4445.641113,4410.641113,4390.641113,4391.666504,4348.846191,4338.205078,4484.743652,4314.102539,4310,24.335659,7.425706,3.176424,1.034639,0.539201,0.643155,1.763877,1.031565,0.756443,0.355986,1.218652,2.301272,1.621047,1.269313,0.409664,0.79363,1.267963,0.97717,1.706622,0.98171,0.251831,0.247694,0.579536,0.468002,0.605565,0.23703,2.26206,0.464749,0.185823,0.09595,0.354998,0.666875,0.619179,0.378241,0.084822,1.443163,1.168141,0.749553,0.631441,0.126576,0.872137,1.207019,0.867612,0.41446,0.145792,0.839878,1.160754,0.365388,0.251707,0.128442,1.230554,2.560623,1.349439,0.360186,0.225878,2.269955,3.980539,1.713161,1.147787,0.388143,1.863486,4.921166,2.028612,0.510949,0.268544,2.098377,4.110882,2.022908,0.788649,0.541311
1720077583,37,0,4430.897461,4454.871582,4278.077148,4370.641113,4424.230957,4442.563965,4410.769043,4390.128418,4388.589844,4352.820313,4337.692383,4483.846191,4312.820313,4307.692383,,,,,,,,,,,,,,,,,,,,,,,,,,,,,,,,,,,,,,,,,,,,,,,,,,,,,,,,,,,,,,,,,,,,,,
1720077583,38,0,4448.205078,4456.410156,4281.410156,4373.974121,4430.128418,4444.230957,4411.666504,4389.615234,4389.871582,4354.487305,4332.307617,4484.102539,4310.641113,4311.025879,,,,,,,,,,,,,,,,,,,,,,,,,,,,,,,,,,,,,,,,,,,,,,,,,,,,,,,,,,,,,,,,,,,,,,
1720077583,39,0,4439.871582,4459.358887,4287.05127,4370.769043,4435,4445.128418,4412.307617,4386.922852,4388.717773,4350.769043,4326.410156,4482.820313,4311.538574,4313.461426,,,,,,,,,,,,,,,,,,,,,,,,,,,,,,,,,,,,,,,,,,,,,,,,,,,,,,,,,,,,,,,,,,,,,,
1720077583,40,0,4425.897461,4460.641113,4289.487305,4373.589844,4428.461426,4443.974121,4412.563965,4383.717773,4381.282227,4342.563965,4325.512695,4484.358887,4313.333496,4305.128418,,,,,,,,,,,,,,,,,,,,,,,,,,,,,,,,,,,,,,,,,,,,,,,,,,,,,,,,,,,,,,,,,,,,,,
1720077583,41,0,4419.358887,4452.179688,4280.897461,4366.025879,4430.256348,4440.384766,4408.974121,4377.563965,4373.077148,4338.333496,4320.128418,4475.512695,4300.384766,4288.974121,,,,,,,,,,,,,,,,,,,,,,,,,,,,,,,,,,,,,,,,,,,,,,,,,,,,,,,,,,,,,,,,,,,,,,
1720077583,42,0,4396.282227,4428.974121,4260.769043,4341.153809,4428.077148,4437.436035,4398.461426,4363.205078,4360.256348,4336.410156,4304.358887,4448.717773,4275.256348,4267.436035,,,,,,,,,,,,,,,,,,,,,,,,,,,,,,,,,,,,,,,,,,,,,,,,,,,,,,,,,,,,,,,,,,,,,,
1720077583,43,0,4375.769043,4420.256348,4255.256348,4334.102539,4421.282227,4439.358887,4395.384766,4356.025879,4352.436035,4334.230957,4299.871582,4439.615234,4269.743652,4260.641113,,,,,,,,,,,,,,,,,,,,,,,,,,,,,,,,,,,,,,,,,,,,,,,,,,,,,,,,,,,,,,,,,,,,,,
1720077583,44,0,4396.666504,4442.436035,4277.307617,4360,4432.05127,4445.897461,4407.05127,4371.538574,4367.94873,4339.487305,4324.230957,4468.333496,4295.641113,4286.282227,,,,,,,,,,,,,,,,,,,,,,,,,,,,,,,,,,,,,,,,,,,,,,,,,,,,,,,,,,,,,,,,,,,,,,
1720077583,45,0,4433.077148,4466.538574,4304.102539,4385,4445.897461,4450.641113,4416.153809,4385.641113,4388.333496,4350,4345.128418,4494.230957,4322.563965,4317.820313,,,,,,,,,,,,,,,,,,,,,,,,,,,,,,,,,,,,,,,,,,,,,,,,,,,,,,,,,,,,,,,,,,,,,,
1720077583,46,0,4433.846191,4463.717773,4309.102539,4380.128418,4436.410156,4447.436035,4411.025879,4378.974121,4386.282227,4354.230957,4340.641113,4490.256348,4324.871582,4321.153809,,,,,,,,,,,,,,,,,,,,,,,,,,,,,,,,,,,,,,,,,,,,,,,,,,,,,,,,,,,,,,,,,,,,,,
1720077583,47,0,4410.512695,4446.153809,4295.641113,4363.461426,4425.641113,4443.333496,4402.820313,4370.897461,4376.282227,4348.974121,4335.769043,4476.794922,4312.563965,4307.436035,,,,,,,,,,,,,,,,,,,,,,,,,,,,,,,,,,,,,,,,,,,,,,,,,,,,,,,,,,,,,,,,,,,,,,
1720077583,48,0,4403.974121,4445.512695,4292.05127,4365.512695,4430,4442.436035,4400.897461,4371.025879,4378.205078,4340.897461,4335.256348,4475.512695,4308.333496,4310.384766,,,,,,,,,,,,,,,,,,,,,,,,,,,,,,,,,,,,,,,,,,,,,,,,,,,,,,,,,,,,,,,,,,,,,,
1720077583,49,0,4416.410156,4459.230957,4305.512695,4381.153809,4427.179688,4443.077148,4403.846191,4379.615234,4387.692383,4344.102539,4336.538574,4489.871582,4319.102539,4327.307617,,,,,,,,,,,,,,,,,,,,,,,,,,,,,,,,,,,,,,,,,,,,,,,,,,,,,,,,,,,,,,,,,,,,,,
1720077583,50,0,4425.512695,4463.333496,4314.487305,4381.410156,4426.794922,4443.205078,4410,4393.974121,4394.615234,4354.615234,4343.717773,4505.769043,4331.410156,4326.666504,,,,,,,,,,,,,,,,,,,,,,,,,,,,,,,,,,,,,,,,,,,,,,,,,,,,,,,,,,,,,,,,,,,,,,
1720077583,51,0,4428.974121,4456.410156,4311.025879,4362.692383,4439.102539,4446.410156,4413.589844,4396.282227,4391.922852,4354.102539,4344.230957,4504.743652,4332.820313,4316.410156,,,,,,,,,,,,,,,,,,,,,,,,,,,,,,,,,,,,,,,,,,,,,,,,,,,,,,,,,,,,,,,,,,,,,,
1720077583,52,0,4431.922852,4455.256348,4307.179688,4353.077148,4443.589844,4453.589844,4412.307617,4387.179688,4384.743652,4352.179688,4337.820313,4495.769043,4326.538574,4322.692383,22.496977,7.066122,3.145758,1.052042,0.51438,0.743629,1.374797,1.002077,0.730543,0.297877,1.369934,2.031375,1.477588,1.233983,0.40804,0.857463,1.149528,0.89546,1.711114,0.921593,0.2701,0.242454,0.517128,0.419443,0.617023,0.195679,1.742632,0.48214,0.191997,0.108676,0.40373,0.503402,0.62535,0.354537,0.111719,1.500561,1.486679,0.749461,0.476871,0.127813,0.956346,1.369685,0.771236,0.377865,0.14044,0.942651,1.277998,0.33225,0.262,0.142503,1.221616,2.59091,1.553422,0.303277,0.213943,2.603298,3.733186,1.67432,0.979316,0.395598,2.060286,4.461224,1.938691,0.473316,0.244831,2.376808,3.472409,2.135831,0.768617,0.532809
1720077583,53,0,4429.615234,4458.333496,4308.846191,4368.205078,4436.410156,4460.512695,4416.794922,4387.563965,4384.871582,4358.461426,4337.94873,4500.128418,4327.179688,4331.153809,,,,,,,,,,,,,,,,,,,,,,,,,,,,,,,,,,,,,,,,,,,,,,,,,,,,,,,,,,,,,,,,,,,,,,
1720077583,54,0,4433.461426,4459.871582,4316.025879,4387.436035,4430.641113,4464.487305,4423.077148,4392.692383,4389.230957,4355.897461,4340.512695,4515.641113,4332.692383,4326.410156,,,,,,,,,,,,,,,,,,,,,,,,,,,,,,,,,,,,,,,,,,,,,,,,,,,,,,,,,,,,,,,,,,,,,,
1720077583,55,0,4443.974121,4461.922852,4320.641113,4383.846191,4435.769043,4463.077148,4421.410156,4389.358887,4387.307617,4349.102539,4336.666504,4528.846191,4330.512695,4324.871582,,,,,,,,,,,,,,,,,,,,,,,,,,,,,,,,,,,,,,,,,,,,,,,,,,,,,,,,,,,,,,,,,,,,,,
1720077583,56,0,4438.974121,4458.461426,4319.615234,4366.538574,4447.179688,4462.563965,4417.179688,4388.077148,4386.794922,4354.487305,4335.128418,4544.743652,4324.615234,4329.615234,,,,,,,,,,,,,,,,,,,,,,,,,,,,,,,,,,,,,,,,,,,,,,,,,,,,,,,,,,,,,,,,,,,,,,
1720077583,57,0,4426.794922,4458.974121,4318.974121,4370.128418,4444.358887,4463.846191,4414.230957,4392.05127,4391.538574,4355.769043,4335.769043,4562.563965,4324.358887,4327.94873,,,,,,,,,,,,,,,,,,,,,,,,,,,,,,,,,,,,,,,,,,,,,,,,,,,,,,,,,,,,,,,,,,,,,,
1720077583,58,0,4423.846191,4459.871582,4318.589844,4382.436035,4428.589844,4459.871582,4410.769043,4389.743652,4390.128418,4344.230957,4337.820313,4565.384766,4322.436035,4325,,,,,,,,,,,,,,,,,,,,,,,,,,,,,,,,,,,,,,,,,,,,,,,,,,,,,,,,,,,,,,,,,,,,,,
1720077583,59,0,4422.307617,4448.846191,4312.820313,4369.230957,4427.179688,4450.641113,4408.974121,4382.563965,4382.179688,4337.692383,4336.666504,4552.307617,4315.512695,4322.307617,,,,,,,,,,,,,,,,,,,,,,,,,,,,,,,,,,,,,,,,,,,,,,,,,,,,,,,,,,,,,,,,,,,,,,
1720077583,60,0,4411.410156,4440.256348,4306.025879,4349.615234,4433.333496,4445.512695,4411.153809,4379.358887,4378.846191,4342.563965,4331.538574,4538.333496,4311.538574,4319.102539,,,,,,,,,,,,,,,,,,,,,,,,,,,,,,,,,,,,,,,,,,,,,,,,,,,,,,,,,,,,,,,,,,,,,,
1720077583,61,0,4395.384766,4439.615234,4304.743652,4355.512695,4426.025879,4451.153809,4412.820313,4381.922852,4381.282227,4350.641113,4334.102539,4527.05127,4312.307617,4311.922852,,,,,,,,,,,,,,,,,,,,,,,,,,,,,,,,,,,,,,,,,,,,,,,,,,,,,,,,,,,,,,,,,,,,,,
1720077583,62,0,4387.692383,4440.128418,4306.666504,4371.025879,4424.102539,4459.102539,4412.692383,4383.205078,4382.436035,4350.641113,4335.128418,4519.487305,4315.769043,4302.94873,,,,,,,,,,,,,,,,,,,,,,,,,,,,,,,,,,,,,,,,,,,,,,,,,,,,,,,,,,,,,,,,,,,,,,
1720077583,63,0,4397.563965,4442.692383,4309.358887,4372.05127,4434.487305,4459.358887,4410.769043,4378.589844,4379.102539,4348.846191,4331.794922,4516.410156,4322.436035,4311.666504,,,,,,,,,,,,,,,,,,,,,,,,,,,,,,,,,,,,,,,,,,,,,,,,,,,,,,,,,,,,,,,,,,,,,,
1720077583,64,0,4405.641113,4441.153809,4311.922852,4363.333496,4433.205078,4452.692383,4409.230957,4372.179688,4376.794922,4355.128418,4330,4509.487305,4323.333496,4324.230957,,,,,,,,,,,,,,,,,,,,,,,,,,,,,,,,,,,,,,,,,,,,,,,,,,,,,,,,,,,,,,,,,,,,,,
1720077583,65,0,4398.846191,4431.153809,4313.077148,4358.717773,4424.871582,4451.410156,4411.025879,4373.333496,4378.077148,4356.666504,4329.102539,4505.128418,4318.589844,4316.538574,,,,,,,,,,,,,,,,,,,,,,,,,,,,,,,,,,,,,,,,,,,,,,,,,,,,,,,,,,,,,,,,,,,,,,
1720077583,66,0,4394.871582,4426.794922,4305.769043,4358.205078,4431.794922,4457.820313,4416.282227,4380.769043,4380.384766,4352.436035,4327.94873,4508.333496,4321.410156,4309.615234,,,,,,,,,,,,,,,,,,,,,,,,,,,,,,,,,,,,,,,,,,,,,,,,,,,,,,,,,,,,,,,,,,,,,,
1720077583,67,0,4391.153809,4428.589844,4294.743652,4358.461426,4437.436035,4460.641113,4424.615234,4382.94873,4380.512695,4351.666504,4326.538574,4503.974121,4324.487305,4319.102539,,,,,,,,,,,,,,,,,,,,,,,,,,,,,,,,,,,,,,,,,,,,,,,,,,,,,,,,,,,,,,,,,,,,,,
1720077583,68,0,4386.922852,4426.282227,4303.461426,4361.153809,4424.615234,4459.358887,4427.436035,4381.282227,4377.820313,4351.794922,4326.922852,4498.205078,4322.05127,4325.256348,20.435076,6.259987,2.897316,1.036031,0.497003,0.94153,1.127331,0.947595,0.65149,0.252724,1.559258,1.970239,1.348603,1.156398,0.408375,0.95605,1.126977,0.78538,1.595933,0.859008,0.276824,0.23662,0.517594,0.375073,0.615367,0.16956,1.28022,0.497503,0.211231,0.120284,0.467924,0.464563,0.650553,0.333428,0.140297,1.471693,1.942119,0.779024,0.373242,0.135392,1.004305,1.564448,0.702749,0.351962,0.140202,0.982237,1.397618,0.286249,0.258944,0.153461,1.208654,2.48157,1.629318,0.258365,0.201749,2.944672,3.751543,1.627826,0.840942,0.404561,2.216906,3.948552,1.745587,0.437773,0.230334,2.649097,3.0259,2.123642,0.768756,0.515659
1720077583,69,0,4395.769043,4426.922852,4320,4366.538574,4420.384766,4458.077148,4420.769043,4382.05127,4376.025879,4354.102539,4333.205078,4506.282227,4328.461426,4325.769043,,,,,,,,,,,,,,,,,,,,,,,,,,,,,,,,,,,,,,,,,,,,,,,,,,,,,,,,,,,,,,,,,,,,,,
1720077583,70,0,4396.666504,4430.641113,4316.410156,4362.05127,4429.871582,4456.922852,4417.05127,4383.077148,4379.230957,4358.077148,4342.563965,4510.512695,4337.820313,4327.307617,,,,,,,,,,,,,,,,,,,,,,,,,,,,,,,,,,,,,,,,,,,,,,,,,,,,,,,,,,,,,,,,,,,,,,
1720077583,71,0,4371.922852,4422.94873,4307.692383,4349.487305,4428.974121,4458.205078,4423.333496,4385.512695,4385.512695,4354.871582,4340,4498.846191,4330.641113,4317.307617,,,,,,,,,,,,,,,,,,,,,,,,,,,,,,,,,,,,,,,,,,,,,,,,,,,,,,,,,,,,,,,,,,,,,,
1720077583,72,0,4347.436035,4409.358887,4306.922852,4338.333496,4421.153809,4457.94873,4426.153809,4388.846191,4386.538574,4354.358887,4332.436035,4488.974121,4314.615234,4304.102539,,,,,,,,,,,,,,,,,,,,,,,,,,,,,,,,,,,,,,,,,,,,,,,,,,,,,,,,,,,,,,,,,,,,,,
1720077583,73,0,4352.307617,4405.256348,4303.974121,4337.563965,4415.512695,4449.615234,4423.461426,4389.358887,4382.692383,4356.153809,4330,4488.589844,4311.153809,4305,,,,,,,,,,,,,,,,,,,,,,,,,,,,,,,,,,,,,,,,,,,,,,,,,,,,,,,,,,,,,,,,,,,,,,
1720077583,74,0,4367.820313,4411.153809,4305.128418,4351.282227,4412.179688,4446.025879,4425,4388.589844,4379.230957,4350.256348,4331.025879,4489.871582,4319.487305,4314.230957,,,,,,,,,,,,,,,,,,,,,,,,,,,,,,,,,,,,,,,,,,,,,,,,,,,,,,,,,,,,,,,,,,,,,,
1720077583,75,0,4365.512695,4415.128418,4310.641113,4353.846191,4414.230957,4448.077148,4422.94873,4385.384766,4378.846191,4353.461426,4335.641113,4490,4325.512695,4317.820313,,,,,,,,,,,,,,,,,,,,,,,,,,,,,,,,,,,,,,,,,,,,,,,,,,,,,,,,,,,,,,,,,,,,,,
1720077583,76,0,4353.077148,4414.102539,4310.384766,4339.487305,4417.94873,4444.230957,4411.282227,4381.153809,4383.205078,4364.358887,4336.666504,4489.487305,4325.641113,4318.461426,,,,,,,,,,,,,,,,,,,,,,,,,,,,,,,,,,,,,,,,,,,,,,,,,,,,,,,,,,,,,,,,,,,,,,
1720077583,77,0,4351.025879,4413.333496,4314.615234,4340,4420.384766,4444.743652,4409.871582,4385.897461,4384.102539,4361.538574,4335.512695,4492.05127,4331.538574,4329.871582,,,,,,,,,,,,,,,,,,,,,,,,,,,,,,,,,,,,,,,,,,,,,,,,,,,,,,,,,,,,,,,,,,,,,,
1720077583,78,0,4352.563965,4413.205078,4325.769043,4354.230957,4424.743652,4454.487305,4424.230957,4396.025879,4384.487305,4354.871582,4337.563965,4497.05127,4336.282227,4337.94873,,,,,,,,,,,,,,,,,,,,,,,,,,,,,,,,,,,,,,,,,,,,,,,,,,,,,,,,,,,,,,,,,,,,,,
1720077583,79,0,4335.769043,4414.743652,4327.692383,4357.692383,4426.538574,4458.589844,4432.692383,4401.666504,4392.179688,4356.794922,4337.436035,4496.666504,4329.358887,4327.563965,,,,,,,,,,,,,,,,,,,,,,,,,,,,,,,,,,,,,,,,,,,,,,,,,,,,,,,,,,,,,,,,,,,,,,
1720077583,80,0,4317.820313,4415.384766,4329.871582,4357.307617,4427.692383,4458.974121,4430.384766,4403.333496,4397.563965,4362.179688,4335.384766,4497.563965,4329.615234,4327.179688,,,,,,,,,,,,,,,,,,,,,,,,,,,,,,,,,,,,,,,,,,,,,,,,,,,,,,,,,,,,,,,,,,,,,,
1720077583,81,0,4324.358887,4417.692383,4339.615234,4362.692383,4426.282227,4458.461426,4428.717773,4397.307617,4391.410156,4362.05127,4337.692383,4500.641113,4341.153809,4340.897461,,,,,,,,,,,,,,,,,,,,,,,,,,,,,,,,,,,,,,,,,,,,,,,,,,,,,,,,,,,,,,,,,,,,,,
1720077583,82,0,4337.179688,4424.358887,4345.384766,4367.179688,4414.230957,4450.897461,4425.897461,4388.974121,4385.769043,4356.410156,4338.333496,4496.666504,4343.974121,4333.846191,,,,,,,,,,,,,,,,,,,,,,,,,,,,,,,,,,,,,,,,,,,,,,,,,,,,,,,,,,,,,,,,,,,,,,
1720077583,83,0,4340.128418,4426.153809,4345.384766,4368.205078,4412.94873,4445.641113,4421.153809,4391.666504,4390,4357.820313,4337.179688,4493.974121,4341.538574,4327.307617,,,,,,,,,,,,,,,,,,,,,,,,,,,,,,,,,,,,,,,,,,,,,,,,,,,,,,,,,,,,,,,,,,,,,,
1720077583,84,0,4342.05127,4425.384766,4338.077148,4359.358887,4426.922852,4448.589844,4419.743652,4398.589844,4395.512695,4365.512695,4340.128418,4496.025879,4343.717773,4347.563965,18.635448,5.157077,2.560765,1.030635,0.488766,1.129074,1.002792,0.879195,0.54503,0.234966,1.804168,2.035066,1.261374,1.057735,0.407829,1.054469,1.165692,0.691063,1.395904,0.813682,0.269987,0.2355,0.557181,0.34522,0.60822,0.166497,0.906713,0.487776,0.239026,0.127656,0.524548,0.509032,0.661836,0.309611,0.162879,1.369278,2.419852,0.794515,0.321344,0.146166,0.989453,1.712163,0.641865,0.338106,0.142861,0.937798,1.485089,0.240799,0.243481,0.15739,1.224498,2.244436,1.575777,0.231069,0.192695,3.164578,3.907514,1.595421,0.742554,0.416938,2.277497,3.336303,1.492485,0.417672,0.23288,2.846359,2.684273,2.017109,0.772817,0.495581
1720077583,85,0,4347.563965,4425.384766,4331.666504,4349.615234,4433.333496,4448.333496,4417.307617,4397.563965,4397.436035,4363.589844,4337.820313,4494.871582,4344.615234,4358.717773,,,,,,,,,,,,,,,,,,,,,,,,,,,,,,,,,,,,,,,,,,,,,,,,,,,,,,,,,,,,,,,,,,,,,,
1720077583,86,0,4345.512695,4422.05127,4335.512695,4355.897461,4429.487305,4445.897461,4415.769043,4394.743652,4396.794922,4360,4335.256348,4493.717773,4347.307617,4348.974121,,,,,,,,,,,,,,,,,,,,,,,,,,,,,,,,,,,,,,,,,,,,,,,,,,,,,,,,,,,,,,,,,,,,,,
1720077583,87,0,4345.128418,4419.230957,4339.615234,4366.410156,4422.692383,4446.666504,4422.563965,4395.769043,4395.384766,4365.897461,4339.871582,4496.282227,4351.282227,4349.487305,,,,,,,,,,,,,,,,,,,,,,,,,,,,,,,,,,,,,,,,,,,,,,,,,,,,,,,,,,,,,,,,,,,,,,
1720077583,88,0,4356.410156,4422.179688,4338.333496,4365.512695,4412.05127,4444.487305,4426.025879,4396.282227,4394.230957,4363.974121,4337.820313,4495.897461,4345.384766,4352.179688,,,,,,,,,,,,,,,,,,,,,,,,,,,,,,,,,,,,,,,,,,,,,,,,,,,,,,,,,,,,,,,,,,,,,,
1720077584,89,0,4364.102539,4420.256348,4334.871582,4355.897461,4406.794922,4441.282227,4421.666504,4391.153809,4388.974121,4356.922852,4328.461426,4492.436035,4335.769043,4341.025879,,,,,,,,,,,,,,,,,,,,,,,,,,,,,,,,,,,,,,,,,,,,,,,,,,,,,,,,,,,,,,,,,,,,,,
1720077584,90,0,4358.717773,4406.666504,4331.922852,4345.897461,4414.615234,4442.436035,4417.692383,4381.666504,4384.102539,4362.179688,4323.717773,4485,4336.153809,4336.794922,,,,,,,,,,,,,,,,,,,,,,,,,,,,,,,,,,,,,,,,,,,,,,,,,,,,,,,,,,,,,,,,,,,,,,
1720077584,91,0,4353.205078,4393.333496,4323.974121,4337.820313,4412.563965,4442.820313,4413.077148,4378.461426,4382.820313,4365.512695,4321.538574,4473.846191,4335.256348,4343.717773,,,,,,,,,,,,,,,,,,,,,,,,,,,,,,,,,,,,,,,,,,,,,,,,,,,,,,,,,,,,,,,,,,,,,,
1720077584,92,0,4359.487305,4392.692383,4316.922852,4334.615234,4401.025879,4441.025879,4412.436035,4384.871582,4381.282227,4358.205078,4314.358887,4472.179688,4326.666504,4343.974121,,,,,,,,,,,,,,,,,,,,,,,,,,,,,,,,,,,,,,,,,,,,,,,,,,,,,,,,,,,,,,,,,,,,,,
1720077584,93,0,4361.922852,4398.333496,4320.769043,4334.743652,4408.205078,4442.436035,4421.025879,4391.794922,4380.769043,4355,4310.256348,4480.897461,4326.282227,4337.05127,,,,,,,,,,,,,,,,,,,,,,,,,,,,,,,,,,,,,,,,,,,,,,,,,,,,,,,,,,,,,,,,,,,,,,
1720077584,94,0,4362.820313,4399.230957,4330,4340.512695,4418.077148,4444.230957,4425,4400.256348,4387.820313,4358.589844,4316.922852,4487.820313,4332.436035,4341.794922,,,,,,,,,,,,,,,,,,,,,,,,,,,,,,,,,,,,,,,,,,,,,,,,,,,,,,,,,,,,,,,,,,,,,,
1720077584,95,0,4373.205078,4402.820313,4332.820313,4350,4406.538574,4441.153809,4415.897461,4408.974121,4397.94873,4355.384766,4321.025879,4488.205078,4335.384766,4355.384766,,,,,,,,,,,,,,,,,,,,,,,,,,,,,,,,,,,,,,,,,,,,,,,,,,,,,,,,,,,,,,,,,,,,,,
1720077584,96,0,4369.871582,4411.153809,4330,4348.974121,4400.897461,4439.102539,4411.538574,4408.205078,4398.846191,4352.307617,4319.230957,4486.282227,4334.743652,4358.589844,,,,,,,,,,,,,,,,,,,,,,,,,,,,,,,,,,,,,,,,,,,,,,,,,,,,,,,,,,,,,,,,,,,,,,
1720077584,97,0,4351.410156,4412.05127,4335,4340.128418,4414.871582,4443.077148,4421.025879,4402.436035,4396.538574,4361.794922,4321.410156,4490,4337.94873,4359.743652,,,,,,,,,,,,,,,,,,,,,,,,,,,,,,,,,,,,,,,,,,,,,,,,,,,,,,,,,,,,,,,,,,,,,,
1720077584,98,0,4345.256348,4408.077148,4345.256348,4343.589844,4414.102539,4446.538574,4428.589844,4400.641113,4396.538574,4367.692383,4321.410156,4491.025879,4344.871582,4367.307617,,,,,,,,,,,,,,,,,,,,,,,,,,,,,,,,,,,,,,,,,,,,,,,,,,,,,,,,,,,,,,,,,,,,,,
1720077584,99,0,4356.794922,4408.974121,4350.769043,4356.666504,4409.615234,4446.025879,4427.05127,4402.307617,4396.153809,4364.871582,4318.589844,4489.871582,4347.179688,4370,,,,,,,,,,,,,,,,,,,,,,,,,,,,,,,,,,,,,,,,,,,,,,,,,,,,,,,,,,,,,,,,,,,,,,
1720077584,100,0,4362.307617,4407.820313,4348.077148,4353.205078,4420.769043,4446.410156,4427.179688,4406.153809,4398.333496,4367.94873,4325.641113,4493.717773,4344.358887,4366.025879,17.63397,4.024556,2.270154,1.08797,0.494372,1.294079,0.957287,0.806759,0.453195,0.248715,2.110772,2.096503,1.206893,0.965363,0.408017,1.117005,1.225253,0.64538,1.171948,0.799211,0.268834,0.243875,0.609062,0.335558,0.60391,0.186289,0.637158,0.447052,0.266859,0.128865,0.558504,0.586581,0.635033,0.281897,0.173381,1.26438,2.774512,0.758787,0.306887,0.157301,0.934797,1.755486,0.581167,0.334883,0.148105,0.827714,1.50924,0.209776,0.22351,0.153636,1.267052,1.933157,1.428965,0.223955,0.189594,3.452825,4.01392,1.601622,0.685653,0.435574,2.273284,2.645411,1.244656,0.432746,0.256692,2.981546,2.349838,1.892522,0.76963,0.481134
1720077584,101,0,4355.128418,4399.871582,4340.256348,4336.794922,4410.641113,4444.230957,4429.230957,4404.102539,4400.128418,4374.743652,4328.846191,4486.538574,4340.512695,4364.102539,,,,,,,,,,,,,,,,,,,,,,,,,,,,,,,,,,,,,,,,,,,,,,,,,,,,,,,,,,,,,,,,,,,,,,
1720077584,102,0,4356.666504,4394.358887,4342.307617,4339.230957,4379.230957,4436.025879,4424.615234,4397.307617,4394.230957,4372.563965,4320.897461,4479.743652,4340.512695,4366.410156,,,,,,,,,,,,,,,,,,,,,,,,,,,,,,,,,,,,,,,,,,,,,,,,,,,,,,,,,,,,,,,,,,,,,,
1720077584,103,0,4378.077148,4402.692383,4354.230957,4356.794922,4374.615234,4431.282227,4421.922852,4403.846191,4395.641113,4369.743652,4330.641113,4498.205078,4351.282227,4377.05127,,,,,,,,,,,,,,,,,,,,,,,,,,,,,,,,,,,,,,,,,,,,,,,,,,,,,,,,,,,,,,,,,,,,,,
1720077584,104,0,4390.641113,4410.512695,4360.769043,4355.128418,4398.717773,4437.563965,4424.871582,4416.410156,4409.487305,4372.563965,4340.769043,4512.436035,4359.487305,4383.974121,,,,,,,,,,,,,,,,,,,,,,,,,,,,,,,,,,,,,,,,,,,,,,,,,,,,,,,,,,,,,,,,,,,,,,
1720077584,105,0,4372.179688,4398.589844,4354.615234,4332.820313,4407.179688,4443.974121,4426.922852,4414.615234,4411.282227,4372.05127,4323.717773,4498.589844,4350.769043,4377.436035,,,,,,,,,,,,,,,,,,,,,,,,,,,,,,,,,,,,,,,,,,,,,,,,,,,,,,,,,,,,,,,,,,,,,,
1720077584,106,0,4356.282227,4384.487305,4346.922852,4322.307617,4398.461426,4446.025879,4431.538574,4413.077148,4398.846191,4370,4312.820313,4486.410156,4335,4367.820313,,,,,,,,,,,,,,,,,,,,,,,,,,,,,,,,,,,,,,,,,,,,,,,,,,,,,,,,,,,,,,,,,,,,,,
1720077584,107,0,4356.794922,4382.820313,4341.410156,4325.384766,4393.589844,4444.615234,4428.333496,4412.563965,4393.333496,4367.563965,4319.102539,4482.307617,4329.230957,4357.436035,,,,,,,,,,,,,,,,,,,,,,,,,,,,,,,,,,,,,,,,,,,,,,,,,,,,,,,,,,,,,,,,,,,,,,
1720077584,108,0,4360.897461,4384.487305,4340.512695,4336.153809,4389.743652,4437.692383,4420.128418,4406.153809,4394.743652,4365.769043,4320,4477.436035,4330.384766,4354.358887,,,,,,,,,,,,,,,,,,,,,,,,,,,,,,,,,,,,,,,,,,,,,,,,,,,,,,,,,,,,,,,,,,,,,,
1720077584,109,0,4365,4389.871582,4349.358887,4343.846191,4392.179688,4431.153809,4423.846191,4407.179688,4395.256348,4370,4321.666504,4485.128418,4336.025879,4366.794922,,,,,,,,,,,,,,,,,,,,,,,,,,,,,,,,,,,,,,,,,,,,,,,,,,,,,,,,,,,,,,,,,,,,,,
1720077584,110,0,4359.102539,4396.922852,4350.897461,4336.153809,4396.410156,4429.615234,4423.974121,4409.102539,4395,4370.897461,4323.717773,4491.666504,4343.461426,4374.230957,,,,,,,,,,,,,,,,,,,,,,,,,,,,,,,,,,,,,,,,,,,,,,,,,,,,,,,,,,,,,,,,,,,,,,
1720077584,111,0,4349.230957,4396.282227,4344.358887,4331.282227,4386.922852,4428.461426,4413.717773,4405.384766,4397.179688,4366.538574,4317.563965,4487.94873,4344.230957,4370.512695,,,,,,,,,,,,,,,,,,,,,,,,,,,,,,,,,,,,,,,,,,,,,,,,,,,,,,,,,,,,,,,,,,,,,,
1720077584,112,0,4356.025879,4393.077148,4344.743652,4335.128418,4381.025879,4427.436035,4415,4406.153809,4395.897461,4364.871582,4317.307617,4489.871582,4341.025879,4371.282227,,,,,,,,,,,,,,,,,,,,,,,,,,,,,,,,,,,,,,,,,,,,,,,,,,,,,,,,,,,,,,,,,,,,,,
1720077584,113,0,4372.436035,4396.794922,4355.384766,4342.05127,4393.974121,4431.282227,4420.512695,4411.794922,4396.922852,4365.897461,4326.153809,4497.05127,4345.384766,4380.769043,,,,,,,,,,,,,,,,,,,,,,,,,,,,,,,,,,,,,,,,,,,,,,,,,,,,,,,,,,,,,,,,,,,,,,
1720077584,114,0,4380.256348,4401.538574,4364.487305,4355.128418,4396.538574,4432.307617,4418.461426,4417.563965,4408.589844,4369.615234,4331.794922,4502.692383,4356.025879,4386.538574,,,,,,,,,,,,,,,,,,,,,,,,,,,,,,,,,,,,,,,,,,,,,,,,,,,,,,,,,,,,,,,,,,,,,,
1720077584,115,0,4379.743652,4393.333496,4357.179688,4352.436035,4386.794922,4430,4418.589844,4416.666504,4412.692383,4373.205078,4326.282227,4500.641113,4350.769043,4372.179688,,,,,,,,,,,,,,,,,,,,,,,,,,,,,,,,,,,,,,,,,,,,,,,,,,,,,,,,,,,,,,,,,,,,,,
1720077584,116,0,4377.563965,4382.563965,4341.153809,4325.256348,4392.05127,4429.743652,4416.153809,4406.410156,4400.128418,4368.846191,4314.230957,4490,4334.615234,4357.05127,17.467384,3.058573,2.086829,1.225171,0.518046,1.414518,0.936277,0.733254,0.409539,0.285839,2.517648,2.040484,1.155028,0.899608,0.412292,1.158914,1.272718,0.661577,0.985511,0.816624,0.284691,0.258427,0.642857,0.345151,0.604208,0.226079,0.476982,0.395215,0.285725,0.12417,0.563068,0.660461,0.566173,0.258323,0.170048,1.232676,2.896543,0.671251,0.313923,0.166079,0.899048,1.687419,0.530862,0.337967,0.155487,0.689971,1.455804,0.20054,0.209287,0.145026,1.36254,1.607944,1.23404,0.236306,0.192694,4.063246,3.943832,1.664465,0.669103,0.459511,2.281374,1.962286,1.048498,0.495233,0.298352,3.090783,1.984648,1.808969,0.759073,0.478033
1720077584,117,0,4376.282227,4387.307617,4343.846191,4327.05127,4398.205078,4428.974121,4413.589844,4403.205078,4394.487305,4363.461426,4313.846191,4486.794922,4337.05127,4367.05127,,,,,,,,,,,,,,,,,,,,,,,,,,,,,,,,,,,,,,,,,,,,,,,,,,,,,,,,,,,,,,,,,,,,,,
1720077584,118,0,4386.153809,4400.128418,4358.205078,4358.717773,4396.666504,4434.743652,4419.871582,4411.282227,4400.769043,4365.897461,4318.333496,4490.769043,4345.512695,4377.179688,,,,,,,,,,,,,,,,,,,,,,,,,,,,,,,,,,,,,,,,,,,,,,,,,,,,,,,,,,,,,,,,,,,,,,
1720077584,119,0,4404.743652,4400.512695,4357.94873,4357.436035,4400.384766,4441.922852,4423.717773,4413.717773,4403.205078,4364.615234,4314.743652,4494.487305,4345.641113,4376.922852,,,,,,,,,,,,,,,,,,,,,,,,,,,,,,,,,,,,,,,,,,,,,,,,,,,,,,,,,,,,,,,,,,,,,,
1720077584,120,0,4421.282227,4392.692383,4358.974121,4340.897461,4401.410156,4437.563965,4421.794922,4413.717773,4406.410156,4362.307617,4317.692383,4503.077148,4349.102539,4386.282227,,,,,,,,,,,,,,,,,,,,,,,,,,,,,,,,,,,,,,,,,,,,,,,,,,,,,,,,,,,,,,,,,,,,,,
1720077584,121,0,4429.358887,4400.769043,4372.692383,4357.307617,4396.025879,4432.436035,4425.641113,4418.846191,4412.563965,4373.461426,4322.563965,4511.282227,4353.333496,4389.871582,,,,,,,,,,,,,,,,,,,,,,,,,,,,,,,,,,,,,,,,,,,,,,,,,,,,,,,,,,,,,,,,,,,,,,
1720077584,122,0,4432.436035,4413.333496,4377.94873,4376.922852,4393.461426,4434.102539,4430,4424.102539,4414.102539,4381.282227,4318.077148,4509.102539,4350,4381.794922,,,,,,,,,,,,,,,,,,,,,,,,,,,,,,,,,,,,,,,,,,,,,,,,,,,,,,,,,,,,,,,,,,,,,,
1720077584,123,0,4431.666504,4403.205078,4371.025879,4359.102539,4393.717773,4433.333496,4427.179688,4428.333496,4415.512695,4375.641113,4316.922852,4507.307617,4350.641113,4384.230957,,,,,,,,,,,,,,,,,,,,,,,,,,,,,,,,,,,,,,,,,,,,,,,,,,,,,,,,,,,,,,,,,,,,,,
1720077584,124,0,4425,4390.256348,4369.743652,4338.205078,4394.615234,4430,4418.974121,4426.282227,4414.230957,4375.641113,4320.897461,4509.102539,4356.538574,4384.871582,,,,,,,,,,,,,,,,,,,,,,,,,,,,,,,,,,,,,,,,,,,,,,,,,,,,,,,,,,,,,,,,,,,,,,
1720077584,125,0,4420.384766,4395.512695,4377.94873,4349.743652,4395.897461,4428.846191,4412.179688,4420.897461,4412.307617,4384.743652,4322.94873,4510.128418,4356.666504,4384.230957,,,,,,,,,,,,,,,,,,,,,,,,,,,,,,,,,,,,,,,,,,,,,,,,,,,,,,,,,,,,,,,,,,,,,,
1720077584,126,0,4413.333496,4397.307617,4378.077148,4360.769043,4396.794922,4427.307617,4413.333496,4419.358887,4415.384766,4381.666504,4324.743652,4512.179688,4352.94873,4394.230957,,,,,,,,,,,,,,,,,,,,,,,,,,,,,,,,,,,,,,,,,,,,,,,,,,,,,,,,,,,,,,,,,,,,,,
1720077584,127,0,4394.487305,4386.794922,4366.153809,4347.820313,4400.897461,4428.333496,4413.589844,4416.538574,4411.025879,4370.384766,4315.641113,4505.128418,4342.94873,4387.179688,,,,,,,,,,,,,,,,,,,,,,,,,,,,,,,,,,,,,,,,,,,,,,,,,,,,,,,,,,,,,,,,,,,,,,
1720077584,0,0,4376.410156,4382.436035,4355.128418,4333.205078,4395.769043,4427.436035,4409.615234,4407.94873,4396.666504,4366.025879,4301.410156,4485.897461,4328.205078,4364.871582,,,,,,,,,,,,,,,,,,,,,,,,,,,,,,,,,,,,,,,,,,,,,,,,,,,,,,,,,,,,,,,,,,,,,,
1720077584,1,0,4380.769043,4387.436035,4355.128418,4339.871582,4374.102539,4421.282227,4410.384766,4403.461426,4392.692383,4364.743652,4305.384766,4482.179688,4327.563965,4364.358887,,,,,,,,,,,,,,,,,,,,,,,,,,,,,,,,,,,,,,,,,,,,,,,,,,,,,,,,,,,,,,,,,,,,,,
1720077584,2,0,4392.179688,4387.820313,4357.820313,4347.94873,4372.05127,4417.94873,4413.461426,4404.102539,4396.282227,4368.205078,4311.410156,4492.436035,4338.077148,4371.282227,,,,,,,,,,,,,,,,,,,,,,,,,,,,,,,,,,,,,,,,,,,,,,,,,,,,,,,,,,,,,,,,,,,,,,
1720077584,3,0,4392.563965,4385.128418,4357.307617,4340,4394.743652,4416.025879,4410,4403.205078,4393.846191,4373.846191,4308.077148,4492.820313,4340.512695,4368.974121,,,,,,,,,,,,,,,,,,,,,,,,,,,,,,,,,,,,,,,,,,,,,,,,,,,,,,,,,,,,,,,,,,,,,,
1720077584,4,0,4396.538574,4390.769043,4361.153809,4338.333496,4398.717773,4413.974121,4404.871582,4405.256348,4398.589844,4373.846191,4313.077148,4495.128418,4340.384766,4375.384766,17.581171,2.30705,2.003994,1.406273,0.558081,1.532018,0.91382,0.671246,0.424168,0.330335,3.025944,1.831994,1.09198,0.865625,0.41989,1.20715,1.293535,0.732006,0.876685,0.851846,0.324458,0.276846,0.640623,0.369271,0.604258,0.274561,0.417545,0.358953,0.289111,0.115466,0.549123,0.707215,0.472318,0.249416,0.15593,1.30801,2.751014,0.567727,0.335301,0.169909,0.925988,1.536866,0.505514,0.341957,0.163327,0.577703,1.327753,0.209583,0.205578,0.136268,1.503977,1.320744,1.034764,0.262386,0.199226,5.094545,3.67315,1.775751,0.689754,0.481104,2.398742,1.405709,0.92817,0.595456,0.345064,3.237945,1.625137,1.796415,0.747268,0.485282
1720077584,5,0,4402.692383,4395.512695,4367.94873,4349.743652,4390.512695,4416.025879,4408.846191,4417.307617,4411.666504,4372.692383,4321.794922,4508.846191,4344.102539,4379.615234,,,,,,,,,,,,,,,,,,,,,,,,,,,,,,,,,,,,,,,,,,,,,,,,,,,,,,,,,,,,,,,,,,,,,,
1720077584,6,0,4400,4390.769043,4366.794922,4351.410156,4389.358887,4416.153809,4415.256348,4429.358887,4414.487305,4373.974121,4321.538574,4511.410156,4342.94873,4369.743652,,,,,,,,,,,,,,,,,,,,,,,,,,,,,,,,,,,,,,,,,,,,,,,,,,,,,,,,,,,,,,,,,,,,,,
1720077584,7,0,4397.436035,4388.717773,4362.820313,4350,4383.974121,4415.384766,4416.025879,4429.871582,4412.820313,4375.641113,4320.641113,4502.563965,4341.538574,4371.922852,,,,,,,,,,,,,,,,,,,,,,,,,,,,,,,,,,,,,,,,,,,,,,,,,,,,,,,,,,,,,,,,,,,,,,
1720077584,8,0,4397.820313,4393.589844,4366.666504,4360.128418,4384.615234,4419.615234,4413.077148,4423.461426,4414.358887,4374.102539,4319.102539,4503.589844,4345,4384.743652,,,,,,,,,,,,,,,,,,,,,,,,,,,,,,,,,,,,,,,,,,,,,,,,,,,,,,,,,,,,,,,,,,,,,,
1720077584,9,0,4395.384766,4391.922852,4369.871582,4352.436035,4397.820313,4419.615234,4409.487305,4418.333496,4408.717773,4368.846191,4316.410156,4504.871582,4343.717773,4380.641113,,,,,,,,,,,,,,,,,,,,,,,,,,,,,,,,,,,,,,,,,,,,,,,,,,,,,,,,,,,,,,,,,,,,,,
1720077584,10,0,4396.538574,4391.794922,4367.692383,4339.358887,4397.94873,4413.461426,4402.94873,4414.615234,4400.512695,4365.128418,4316.922852,4496.153809,4339.102539,4372.436035,,,,,,,,,,,,,,,,,,,,,,,,,,,,,,,,,,,,,,,,,,,,,,,,,,,,,,,,,,,,,,,,,,,,,,
1720077584,11,0,4400.384766,4402.820313,4365.384766,4351.538574,4389.743652,4410.897461,4397.179688,4412.563965,4403.461426,4368.461426,4313.205078,4490.512695,4338.461426,4378.461426,,,,,,,,,,,,,,,,,,,,,,,,,,,,,,,,,,,,,,,,,,,,,,,,,,,,,,,,,,,,,,,,,,,,,,
1720077584,12,0,4390.769043,4399.102539,4362.563965,4353.717773,4391.025879,4408.205078,4397.94873,4411.282227,4406.025879,4371.666504,4312.94873,4492.692383,4340.384766,4382.05127,,,,,,,,,,,,,,,,,,,,,,,,,,,,,,,,,,,,,,,,,,,,,,,,,,,,,,,,,,,,,,,,,,,,,,
1720077584,13,0,4375.897461,4382.05127,4363.846191,4339.871582,4387.436035,4406.153809,4398.589844,4409.358887,4398.974121,4368.205078,4316.538574,4494.487305,4346.282227,4379.358887,,,,,,,,,,,,,,,,,,,,,,,,,,,,,,,,,,,,,,,,,,,,,,,,,,,,,,,,,,,,,,,,,,,,,,
1720077584,14,0,4370.256348,4385,4369.487305,4345.384766,4386.922852,4409.230957,4399.358887,4414.615234,4399.743652,4366.922852,4315.641113,4496.282227,4349.871582,4383.333496,,,,,,,,,,,,,,,,,,,,,,,,,,,,,,,,,,,,,,,,,,,,,,,,,,,,,,,,,,,,,,,,,,,,,,
1720077584,15,0,4369.871582,4400.512695,4370.256348,4359.358887,4393.846191,4409.358887,4400.512695,4426.282227,4407.94873,4368.077148,4313.589844,4500.897461,4346.922852,4383.205078,,,,,,,,,,,,,,,,,,,,,,,,,,,,,,,,,,,,,,,,,,,,,,,,,,,,,,,,,,,,,,,,,,,,,,
1720077584,16,0,4373.717773,4396.153809,4366.922852,4352.94873,4387.820313,4407.692383,4399.358887,4431.922852,4407.563965,4364.487305,4309.102539,4501.282227,4340.897461,4372.307617,,,,,,,,,,,,,,,,,,,,,,,,,,,,,,,,,,,,,,,,,,,,,,,,,,,,,,,,,,,,,,,,,,,,,,
1720077584,17,0,4378.333496,4382.94873,4362.563965,4342.307617,4376.922852,4408.205078,4403.589844,4429.230957,4403.717773,4366.153809,4305,4491.666504,4335,4368.846191,,,,,,,,,,,,,,,,,,,,,,,,,,,,,,,,,,,,,,,,,,,,,,,,,,,,,,,,,,,,,,,,,,,,,,
1720077584,18,0,4381.410156,4381.153809,4355.384766,4335.769043,4380.384766,4405.384766,4398.205078,4428.077148,4402.563965,4373.589844,4303.974121,4479.743652,4332.563965,4373.077148,,,,,,,,,,,,,,,,,,,,,,,,,,,,,,,,,,,,,,,,,,,,,,,,,,,,,,,,,,,,,,,,,,,,,,
1720077584,19,0,4389.871582,4374.743652,4350.641113,4326.153809,4381.922852,4400.769043,4367.563965,4428.717773,4398.589844,4371.282227,4301.922852,4479.358887,4333.461426,4369.743652,,,,,,,,,,,,,,,,,,,,,,,,,,,,,,,,,,,,,,,,,,,,,,,,,,,,,,,,,,,,,,,,,,,,,,
1720077584,20,0,4399.487305,4368.077148,4354.743652,4327.820313,4374.230957,4398.846191,4344.102539,4427.692383,4397.563965,4364.871582,4298.717773,4489.871582,4335.512695,4370.384766,17.609575,1.737829,1.983681,1.561281,0.605893,1.705958,0.892211,0.630624,0.480345,0.365147,3.577204,1.517625,1.016238,0.854101,0.424358,1.330628,1.283406,0.829792,0.849376,0.885718,0.390306,0.301408,0.6061,0.402847,0.598305,0.322446,0.434832,0.352055,0.276996,0.104856,0.533819,0.712336,0.378619,0.260876,0.137477,1.457642,2.376273,0.482917,0.366077,0.168075,1.02979,1.337164,0.504981,0.343227,0.169338,0.517848,1.149041,0.22136,0.208612,0.131233,1.680365,1.098008,0.854325,0.292909,0.204914,6.406753,3.266151,1.889627,0.737998,0.489202,2.636673,1.046208,0.872943,0.70405,0.379519,3.395693,1.322728,1.84298,0.739363,0.496419
1720077584,21,0,4398.974121,4374.102539,4356.153809,4334.102539,4375.512695,4397.307617,4347.05127,4432.05127,4401.794922,4367.94873,4302.563965,4492.05127,4335.897461,4379.871582,,,,,,,,,,,,,,,,,,,,,,,,,,,,,,,,,,,,,,,,,,,,,,,,,,,,,,,,,,,,,,,,,,,,,,
1720077584,22,0,4399.487305,4382.692383,4354.358887,4334.487305,4382.179688,4396.794922,4346.538574,4439.871582,4401.282227,4367.436035,4311.410156,4486.538574,4337.820313,4380.897461,,,,,,,,,,,,,,,,,,,,,,,,,,,,,,,,,,,,,,,,,,,,,,,,,,,,,,,,,,,,,,,,,,,,,,
1720077584,23,0,4393.461426,4390.641113,4365.512695,4348.205078,4388.077148,4394.487305,4337.563965,4442.692383,4402.820313,4362.94873,4317.179688,4496.922852,4344.102539,4384.743652,,,,,,,,,,,,,,,,,,,,,,,,,,,,,,,,,,,,,,,,,,,,,,,,,,,,,,,,,,,,,,,,,,,,,,
1720077584,24,0,4355.512695,4399.615234,4380.897461,4365.256348,4391.666504,4389.102539,4338.077148,4441.922852,4409.615234,4371.025879,4316.538574,4515.384766,4352.563965,4400.641113,,,,,,,,,,,,,,,,,,,,,,,,,,,,,,,,,,,,,,,,,,,,,,,,,,,,,,,,,,,,,,,,,,,,,,
1720077584,25,0,4317.692383,4400.384766,4384.743652,4365.128418,4380,4386.410156,4341.794922,4449.102539,4412.436035,4377.820313,4313.461426,4519.615234,4357.94873,4398.974121,,,,,,,,,,,,,,,,,,,,,,,,,,,,,,,,,,,,,,,,,,,,,,,,,,,,,,,,,,,,,,,,,,,,,,
1720077584,26,0,4309.615234,4388.333496,4380.384766,4358.077148,4368.205078,4389.487305,4347.436035,4458.077148,4412.05127,4374.230957,4318.846191,4517.563965,4354.358887,4386.282227,,,,,,,,,,,,,,,,,,,,,,,,,,,,,,,,,,,,,,,,,,,,,,,,,,,,,,,,,,,,,,,,,,,,,,
1720077584,27,0,4308.205078,4382.179688,4377.307617,4355.128418,4382.820313,4395.641113,4356.666504,4462.94873,4413.205078,4372.692383,4323.846191,4521.794922,4351.410156,4393.589844,,,,,,,,,,,,,,,,,,,,,,,,,,,,,,,,,,,,,,,,,,,,,,,,,,,,,,,,,,,,,,,,,,,,,,
1720077584,28,0,4301.538574,4389.871582,4378.461426,4343.974121,4401.666504,4401.794922,4359.615234,4466.025879,4414.102539,4373.717773,4320,4523.717773,4353.589844,4401.794922,,,,,,,,,,,,,,,,,,,,,,,,,,,,,,,,,,,,,,,,,,,,,,,,,,,,,,,,,,,,,,,,,,,,,,
1720077584,29,0,4288.205078,4390.769043,4378.974121,4337.05127,4392.563965,4402.563965,4358.974121,4465.384766,4413.205078,4373.333496,4317.05127,4516.922852,4346.025879,4391.282227,,,,,,,,,,,,,,,,,,,,,,,,,,,,,,,,,,,,,,,,,,,,,,,,,,,,,,,,,,,,,,,,,,,,,,
1720077584,30,0,4274.102539,4380.769043,4368.589844,4346.153809,4371.666504,4398.589844,4357.563965,4464.871582,4414.102539,4373.461426,4313.974121,4504.102539,4331.282227,4381.538574,,,,,,,,,,,,,,,,,,,,,,,,,,,,,,,,,,,,,,,,,,,,,,,,,,,,,,,,,,,,,,,,,,,,,,
1720077584,31,0,4271.410156,4376.025879,4346.794922,4345.384766,4366.666504,4396.922852,4357.05127,4469.102539,4413.589844,4374.230957,4308.205078,4488.077148,4324.743652,4375.384766,,,,,,,,,,,,,,,,,,,,,,,,,,,,,,,,,,,,,,,,,,,,,,,,,,,,,,,,,,,,,,,,,,,,,,
1720077584,32,0,4273.846191,4374.487305,4338.846191,4329.615234,4382.692383,4398.846191,4362.307617,4479.871582,4411.025879,4374.230957,4309.230957,4487.94873,4324.487305,4368.717773,,,,,,,,,,,,,,,,,,,,,,,,,,,,,,,,,,,,,,,,,,,,,,,,,,,,,,,,,,,,,,,,,,,,,,
1720077584,33,0,4280.897461,4369.615234,4355.128418,4327.820313,4391.922852,4397.307617,4365.384766,4489.102539,4414.743652,4373.589844,4316.282227,4510,4330.256348,4374.230957,,,,,,,,,,,,,,,,,,,,,,,,,,,,,,,,,,,,,,,,,,,,,,,,,,,,,,,,,,,,,,,,,,,,,,
1720077584,34,0,4312.563965,4381.666504,4376.282227,4349.358887,4388.205078,4393.205078,4358.589844,4497.820313,4425.128418,4374.743652,4319.230957,4527.692383,4344.102539,4390.897461,,,,,,,,,,,,,,,,,,,,,,,,,,,,,,,,,,,,,,,,,,,,,,,,,,,,,,,,,,,,,,,,,,,,,,
1720077584,35,0,4343.077148,4401.153809,4384.615234,4367.692383,4386.538574,4394.615234,4356.666504,4508.077148,4430.128418,4379.743652,4319.871582,4526.410156,4348.846191,4395.512695,,,,,,,,,,,,,,,,,,,,,,,,,,,,,,,,,,,,,,,,,,,,,,,,,,,,,,,,,,,,,,,,,,,,,,
1720077584,36,0,4338.333496,4389.358887,4377.692383,4365.769043,4377.307617,4389.743652,4361.025879,4505.769043,4416.538574,4375.256348,4317.436035,4518.077148,4332.563965,4374.358887,17.256639,1.416597,1.987682,1.622106,0.64753,1.93064,0.88465,0.612631,0.540468,0.378434,4.072383,1.193377,0.936382,0.841316,0.417809,1.551625,1.245721,0.919994,0.867966,0.907608,0.472638,0.331756,0.556958,0.447385,0.583247,0.369125,0.48742,0.368622,0.255361,0.093924,0.544353,0.675484,0.305743,0.287203,0.121543,1.611552,1.883859,0.455294,0.395239,0.161502,1.180554,1.122027,0.528892,0.336656,0.171613,0.51462,0.950446,0.225069,0.2096,0.131134,1.845708,0.935015,0.702657,0.317138,0.205971,7.58399,2.840678,1.96268,0.790803,0.474459,2.926334,0.877937,0.85257,0.784513,0.387777,3.538869,1.115507,1.900205,0.734977,0.502056
1720077584,37,0,4320.128418,4359.871582,4364.230957,4343.333496,4368.205078,4375.769043,4343.333496,4491.794922,4393.589844,4359.102539,4306.282227,4503.717773,4310,4347.436035,,,,,,,,,,,,,,,,,,,,,,,,,,,,,,,,,,,,,,,,,,,,,,,,,,,,,,,,,,,,,,,,,,,,,,
1720077584,38,0,4315.897461,4352.179688,4353.461426,4319.615234,4369.358887,4374.102539,4320.897461,4484.743652,4385.384766,4352.307617,4298.461426,4490.384766,4300.128418,4342.563965,,,,,,,,,,,,,,,,,,,,,,,,,,,,,,,,,,,,,,,,,,,,,,,,,,,,,,,,,,,,,,,,,,,,,,
1720077584,39,0,4337.05127,4367.820313,4357.436035,4326.538574,4368.333496,4386.922852,4330.512695,4492.692383,4394.743652,4361.666504,4304.487305,4497.563965,4314.487305,4361.666504,,,,,,,,,,,,,,,,,,,,,,,,,,,,,,,,,,,,,,,,,,,,,,,,,,,,,,,,,,,,,,,,,,,,,,
1720077584,40,0,4365.769043,4379.102539,4370.769043,4348.077148,4367.94873,4392.436035,4347.436035,4495.769043,4398.974121,4366.410156,4310.769043,4511.794922,4334.230957,4383.205078,,,,,,,,,,,,,,,,,,,,,,,,,,,,,,,,,,,,,,,,,,,,,,,,,,,,,,,,,,,,,,,,,,,,,,
1720077584,41,0,4364.358887,4374.615234,4365.512695,4340.897461,4379.487305,4384.615234,4341.666504,4491.025879,4390,4360.769043,4305.256348,4504.871582,4326.794922,4382.94873,,,,,,,,,,,,,,,,,,,,,,,,,,,,,,,,,,,,,,,,,,,,,,,,,,,,,,,,,,,,,,,,,,,,,,
1720077584,42,0,4357.307617,4371.025879,4354.743652,4331.922852,4382.05127,4380.384766,4339.230957,4500.641113,4394.487305,4362.179688,4308.077148,4498.846191,4318.205078,4371.153809,,,,,,,,,,,,,,,,,,,,,,,,,,,,,,,,,,,,,,,,,,,,,,,,,,,,,,,,,,,,,,,,,,,,,,
1720077584,43,0,4368.461426,4381.410156,4370.128418,4351.922852,4377.179688,4384.871582,4355.641113,4522.179688,4412.05127,4367.820313,4321.410156,4516.282227,4334.743652,4374.487305,,,,,,,,,,,,,,,,,,,,,,,,,,,,,,,,,,,,,,,,,,,,,,,,,,,,,,,,,,,,,,,,,,,,,,
1720077584,44,0,4363.846191,4382.94873,4383.846191,4354.743652,4382.94873,4386.153809,4360.641113,4530.641113,4416.538574,4367.820313,4317.692383,4529.102539,4344.358887,4385.256348,,,,,,,,,,,,,,,,,,,,,,,,,,,,,,,,,,,,,,,,,,,,,,,,,,,,,,,,,,,,,,,,,,,,,,
1720077584,45,0,4356.538574,4379.230957,4381.538574,4345.256348,4382.179688,4381.282227,4357.179688,4529.487305,4418.077148,4372.307617,4317.179688,4531.794922,4340.897461,4392.436035,,,,,,,,,,,,,,,,,,,,,,,,,,,,,,,,,,,,,,,,,,,,,,,,,,,,,,,,,,,,,,,,,,,,,,
1720077584,46,0,4372.94873,4395.384766,4392.05127,4362.94873,4383.461426,4379.871582,4366.153809,4538.974121,4431.538574,4386.410156,4331.282227,4543.077148,4349.615234,4396.922852,,,,,,,,,,,,,,,,,,,,,,,,,,,,,,,,,,,,,,,,,,,,,,,,,,,,,,,,,,,,,,,,,,,,,,
1720077584,47,0,4374.615234,4401.922852,4401.153809,4376.922852,4390.512695,4382.94873,4372.436035,4544.230957,4439.615234,4389.487305,4331.025879,4544.615234,4353.461426,4389.743652,,,,,,,,,,,,,,,,,,,,,,,,,,,,,,,,,,,,,,,,,,,,,,,,,,,,,,,,,,,,,,,,,,,,,,
1720077584,48,0,4362.94873,4384.487305,4378.846191,4357.436035,4383.974121,4381.794922,4368.846191,4532.05127,4427.05127,4376.025879,4323.077148,4530.384766,4343.205078,4381.025879,,,,,,,,,,,,,,,,,,,,,,,,,,,,,,,,,,,,,,,,,,,,,,,,,,,,,,,,,,,,,,,,,,,,,,
1720077584,49,0,4372.94873,4377.94873,4360.128418,4343.333496,4371.922852,4381.666504,4367.692383,4516.153809,4412.94873,4365.897461,4321.538574,4520.384766,4340.512695,4388.717773,,,,,,,,,,,,,,,,,,,,,,,,,,,,,,,,,,,,,,,,,,,,,,,,,,,,,,,,,,,,,,,,,,,,,,
1720077584,50,0,4385.128418,4385.256348,4370.769043,4358.846191,4370.384766,4387.820313,4371.538574,4511.025879,4412.05127,4366.282227,4317.820313,4516.410156,4337.692383,4388.333496,,,,,,,,,,,,,,,,,,,,,,,,,,,,,,,,,,,,,,,,,,,,,,,,,,,,,,,,,,,,,,,,,,,,,,
1720077584,51,0,4381.794922,4382.436035,4371.666504,4360.384766,4376.153809,4390.384766,4371.410156,4508.846191,4412.307617,4366.025879,4313.205078,4504.615234,4325,4367.179688,,,,,,,,,,,,,,,,,,,,,,,,,,,,,,,,,,,,,,,,,,,,,,,,,,,,,,,,,,,,,,,,,,,,,,
1720077584,52,0,4372.179688,4371.410156,4356.282227,4339.743652,4381.538574,4384.871582,4367.05127,4498.717773,4403.461426,4356.153809,4308.846191,4495.641113,4320.641113,4357.05127,16.186586,1.559578,1.989511,1.559711,0.668557,2.159082,0.896053,0.618747,0.569203,0.369031,4.37562,0.942665,0.875245,0.800982,0.395972,1.827023,1.191485,0.991913,0.877337,0.917745,0.547719,0.367299,0.5133,0.504894,0.561617,0.408503,0.528788,0.389931,0.232698,0.083364,0.633179,0.623907,0.277206,0.317191,0.112965,1.683621,1.41079,0.519955,0.406798,0.151678,1.312701,0.918301,0.586411,0.31744,0.169708,0.549857,0.76038,0.219875,0.201989,0.134217,1.940422,0.81135,0.592543,0.325157,0.200216,8.228439,2.481688,2.001874,0.815669,0.434478,3.123142,0.822197,0.848466,0.808301,0.364951,3.567091,0.993723,1.907787,0.726303,0.49331
1720077584,53,0,4368.205078,4371.282227,4356.922852,4337.563965,4382.436035,4379.358887,4363.461426,4489.487305,4398.205078,4352.563965,4302.94873,4496.922852,4326.025879,4362.307617,,,,,,,,,,,,,,,,,,,,,,,,,,,,,,,,,,,,,,,,,,,,,,,,,,,,,,,,,,,,,,,,,,,,,,
1720077584,54,0,4377.179688,4382.179688,4362.94873,4354.615234,4380.897461,4381.538574,4365.512695,4490.769043,4408.461426,4363.333496,4309.230957,4499.102539,4327.820313,4363.461426,,,,,,,,,,,,,,,,,,,,,,,,,,,,,,,,,,,,,,,,,,,,,,,,,,,,,,,,,,,,,,,,,,,,,,
1720077584,55,0,4378.846191,4384.871582,4348.333496,4352.05127,4380.512695,4381.666504,4368.333496,4492.05127,4415.128418,4366.153809,4314.230957,4489.358887,4326.282227,4354.102539,,,,,,,,,,,,,,,,,,,,,,,,,,,,,,,,,,,,,,,,,,,,,,,,,,,,,,,,,,,,,,,,,,,,,,
1720077584,56,0,4366.666504,4375.769043,4339.615234,4347.307617,4379.102539,4373.717773,4364.102539,4489.487305,4412.820313,4362.820313,4303.974121,4476.666504,4328.589844,4343.589844,,,,,,,,,,,,,,,,,,,,,,,,,,,,,,,,,,,,,,,,,,,,,,,,,,,,,,,,,,,,,,,,,,,,,,
1720077584,57,0,4375.128418,4379.871582,4358.846191,4363.717773,4375.384766,4369.615234,4363.333496,4489.230957,4416.666504,4373.205078,4307.05127,4485.769043,4340,4353.974121,,,,,,,,,,,,,,,,,,,,,,,,,,,,,,,,,,,,,,,,,,,,,,,,,,,,,,,,,,,,,,,,,,,,,,
1720077584,58,0,4397.179688,4390.641113,4376.282227,4369.358887,4376.538574,4375.769043,4373.077148,4488.589844,4422.692383,4382.563965,4316.538574,4504.487305,4346.282227,4372.436035,,,,,,,,,,,,,,,,,,,,,,,,,,,,,,,,,,,,,,,,,,,,,,,,,,,,,,,,,,,,,,,,,,,,,,
1720077584,59,0,4393.846191,4381.410156,4375.256348,4357.179688,4377.05127,4382.692383,4385.512695,4492.436035,4418.717773,4375.641113,4314.487305,4505.769043,4335.256348,4355.897461,,,,,,,,,,,,,,,,,,,,,,,,,,,,,,,,,,,,,,,,,,,,,,,,,,,,,,,,,,,,,,,,,,,,,,
1720077584,60,0,4367.307617,4363.333496,4369.615234,4345.897461,4379.102539,4384.487305,4391.794922,4496.538574,4413.461426,4371.282227,4313.846191,4499.102539,4325,4328.461426,,,,,,,,,,,,,,,,,,,,,,,,,,,,,,,,,,,,,,,,,,,,,,,,,,,,,,,,,,,,,,,,,,,,,,
1720077584,61,0,4345,4357.692383,4362.692383,4341.666504,4383.589844,4387.179688,4390.769043,4485.128418,4411.025879,4375.897461,4313.974121,4493.333496,4321.153809,4334.102539,,,,,,,,,,,,,,,,,,,,,,,,,,,,,,,,,,,,,,,,,,,,,,,,,,,,,,,,,,,,,,,,,,,,,,
1720077584,62,0,4337.436035,4356.922852,4349.743652,4342.94873,4379.230957,4389.743652,4390.256348,4472.179688,4402.436035,4372.94873,4306.666504,4480.769043,4312.820313,4339.615234,,,,,,,,,,,,,,,,,,,,,,,,,,,,,,,,,,,,,,,,,,,,,,,,,,,,,,,,,,,,,,,,,,,,,,
1720077584,63,0,4340.512695,4353.589844,4335.897461,4338.589844,4375,4388.717773,4390.384766,4472.563965,4398.717773,4365.128418,4299.487305,4466.666504,4306.538574,4321.282227,,,,,,,,,,,,,,,,,,,,,,,,,,,,,,,,,,,,,,,,,,,,,,,,,,,,,,,,,,,,,,,,,,,,,,
1720077584,64,0,4352.05127,4358.974121,4338.461426,4338.846191,4378.846191,4387.563965,4388.589844,4477.692383,4407.436035,4358.205078,4301.538574,4470.769043,4310.256348,4314.487305,,,,,,,,,,,,,,,,,,,,,,,,,,,,,,,,,,,,,,,,,,,,,,,,,,,,,,,,,,,,,,,,,,,,,,
1720077584,65,0,4372.94873,4368.077148,4355.897461,4347.307617,4378.974121,4381.666504,4388.077148,4476.666504,4412.563965,4357.692383,4308.461426,4485,4314.871582,4325.897461,,,,,,,,,,,,,,,,,,,,,,,,,,,,,,,,,,,,,,,,,,,,,,,,,,,,,,,,,,,,,,,,,,,,,,
1720077584,66,0,4396.794922,4373.717773,4366.666504,4354.743652,4370.769043,4373.589844,4388.717773,4474.230957,4415.128418,4368.846191,4316.410156,4483.717773,4320.897461,4336.410156,,,,,,,,,,,,,,,,,,,,,,,,,,,,,,,,,,,,,,,,,,,,,,,,,,,,,,,,,,,,,,,,,,,,,,
1720077584,67,0,4402.307617,4381.025879,4367.692383,4358.846191,4369.487305,4375,4389.615234,4477.94873,4420.897461,4372.436035,4314.743652,4470.256348,4326.410156,4337.307617,,,,,,,,,,,,,,,,,,,,,,,,,,,,,,,,,,,,,,,,,,,,,,,,,,,,,,,,,,,,,,,,,,,,,,
1720077584,68,0,4385.512695,4373.846191,4362.820313,4354.358887,4382.05127,4379.358887,4391.025879,4477.179688,4417.436035,4364.230957,4306.153809,4462.179688,4317.820313,4322.94873,14.757672,2.343188,1.975837,1.417504,0.658531,2.333534,0.924868,0.658899,0.559652,0.346955,4.381314,0.824712,0.881551,0.729489,0.361089,2.116552,1.152248,1.083773,0.849718,0.922314,0.627595,0.404991,0.488427,0.57708,0.5397,0.453499,0.529413,0.394899,0.216137,0.073378,0.861997,0.616666,0.315751,0.340221,0.114673,1.608026,1.063834,0.694986,0.391926,0.140661,1.381824,0.745373,0.690405,0.287409,0.165317,0.591663,0.597356,0.216808,0.18645,0.137072,1.924812,0.707278,0.53905,0.316634,0.188159,8.001132,2.203278,2.067267,0.800685,0.376945,3.127479,0.808286,0.87687,0.779648,0.317845,3.422896,0.933223,1.830586,0.719533,0.467429
1720077584,69,0,4376.666504,4357.307617,4353.077148,4342.307617,4385.256348,4376.922852,4389.615234,4463.077148,4405.897461,4364.487305,4302.05127,4459.487305,4308.205078,4315.769043,,,,,,,,,,,,,,,,,,,,,,,,,,,,,,,,,,,,,,,,,,,,,,,,,,,,,,,,,,,,,,,,,,,,,,
