Timestamp,EEG.Counter,EEG.Interpolated,EEG.AF3,EEG.F7,EEG.F3,EEG.FC5,EEG.T7,EEG.P7,EEG.O1,EEG.O2,EEG.P8,EEG.T8,EEG.FC6,EEG.F4,EEG.F8,EEG.AF4,POW.AF3.Theta,POW.AF3.Alpha,POW.AF3.BetaL,POW.AF3.BetaH,POW.AF3.Gamma,POW.F7.Theta,POW.F7.Alpha,POW.F7.BetaL,POW.F7.BetaH,POW.F7.Gamma,POW.F3.Theta,POW.F3.Alpha,POW.F3.BetaL,POW.F3.BetaH,POW.F3.Gamma,POW.FC5.Theta,POW.FC5.Alpha,POW.FC5.BetaL,POW.FC5.BetaH,POW.FC5.Gamma,POW.T7.Theta,POW.T7.Alpha,POW.T7.BetaL,POW.T7.BetaH,POW.T7.Gamma,POW.P7.Theta,POW.P7.Alpha,POW.P7.BetaL,POW.P7.BetaH,POW.P7.Gamma,POW.O1.Theta,POW.O1.Alpha,POW.O1.BetaL,POW.O1.BetaH,POW.O1.Gamma,POW.O2.Theta,POW.O2.Alpha,POW.O2.BetaL,POW.O2.BetaH,POW.O2.Gamma,POW.P8.Theta,POW.P8.Alpha,POW.P8.BetaL,POW.P8.BetaH,POW.P8.Gamma,POW.T8.Theta,POW.T8.Alpha,POW.T8.BetaL,POW.T8.BetaH,POW.T8.Gamma,POW.FC6.Theta,POW.FC6.Alpha,POW.FC6.BetaL,POW.FC6.BetaH,POW.FC6.Gamma,POW.F4.Theta,POW.F4.Alpha,POW.F4.BetaL,POW.F4.BetaH,POW.F4.Gamma,POW.F8.Theta,POW.F8.Alpha,POW.F8.BetaL,POW.F8.BetaH,POW.F8.Gamma,POW.AF4.Theta,POW.AF4.Alpha,POW.AF4.BetaL,POW.AF4.BetaH,POW.AF4.Gamma
1720179882,102,0,4281.410156,4264.230957,4293.846191,4302.307617,4266.794922,4279.487305,4248.974121,4243.589844,4147.563965,4170,4440.128418,4461.025879,4327.94873,4420.256348,,,,,,,,,,,,,,,,,,,,,,,,,,,,,,,,,,,,,,,,,,,,,,,,,,,,,,,,,,,,,,,,,,,,,,
1720179882,103,0,4294.743652,4301.153809,4304.615234,4316.666504,4266.538574,4276.794922,4255.512695,4246.666504,4153.461426,4176.922852,4448.717773,4474.743652,4350.128418,4438.461426,,,,,,,,,,,,,,,,,,,,,,,,,,,,,,,,,,,,,,,,,,,,,,,,,,,,,,,,,,,,,,,,,,,,,,
1720179882,104,0,4307.436035,4297.820313,4314.358887,4325.512695,4264.871582,4276.666504,4263.077148,4246.153809,4155.897461,4178.205078,4455.897461,4488.461426,4361.282227,4449.230957,,,,,,,,,,,,,,,,,,,,,,,,,,,,,,,,,,,,,,,,,,,,,,,,,,,,,,,,,,,,,,,,,,,,,,
1720179882,105,0,4307.820313,4267.94873,4326.794922,4329.358887,4265.256348,4277.820313,4265.512695,4249.230957,4143.589844,4166.794922,4456.410156,4493.589844,4360.512695,4445.384766,,,,,,,,,,,,,,,,,,,,,,,,,,,,,,,,,,,,,,,,,,,,,,,,,,,,,,,,,,,,,,,,,,,,,,
1720179882,106,0,4283.077148,4272.94873,4307.692383,4314.743652,4265,4277.05127,4264.102539,4250.384766,4133.461426,4160.769043,4449.615234,4478.846191,4350.769043,4430,,,,,,,,,,,,,,,,,,,,,,,,,,,,,,,,,,,,,,,,,,,,,,,,,,,,,,,,,,,,,,,,,,,,,,
1720179882,107,0,4253.205078,4282.179688,4266.410156,4288.846191,4266.922852,4276.794922,4262.820313,4247.563965,4140,4170.769043,4440,4446.153809,4331.410156,4407.692383,,,,,,,,,,,,,,,,,,,,,,,,,,,,,,,,,,,,,,,,,,,,,,,,,,,,,,,,,,,,,,,,,,,,,,
1720179882,108,0,4240.512695,4252.94873,4248.333496,4274.487305,4275,4278.589844,4259.358887,4244.487305,4135.512695,4166.282227,4421.538574,4414.487305,4313.205078,4385.512695,,,,,,,,,,,,,,,,,,,,,,,,,,,,,,,,,,,,,,,,,,,,,,,,,,,,,,,,,,,,,,,,,,,,,,
1720179882,109,0,4242.94873,4236.922852,4259.102539,4277.05127,4283.077148,4285.897461,4262.820313,4248.589844,4129.487305,4159.487305,4408.205078,4413.077148,4308.461426,4382.820313,,,,,,,,,,,,,,,,,,,,,,,,,,,,,,,,,,,,,,,,,,,,,,,,,,,,,,,,,,,,,,,,,,,,,,
1720179882,110,0,4244.230957,4253.846191,4262.436035,4277.436035,4283.077148,4290.384766,4265.641113,4251.666504,4135.512695,4165.256348,4404.358887,4426.666504,4307.05127,4389.102539,,,,,,,,,,,,,,,,,,,,,,,,,,,,,,,,,,,,,,,,,,,,,,,,,,,,,,,,,,,,,,,,,,,,,,
1720179882,111,0,4247.94873,4255.384766,4257.179688,4278.717773,4279.230957,4285.256348,4261.922852,4247.563965,4136.794922,4162.94873,4403.077148,4432.179688,4308.974121,4395,,,,,,,,,,,,,,,,,,,,,,,,,,,,,,,,,,,,,,,,,,,,,,,,,,,,,,,,,,,,,,,,,,,,,,
1720179882,112,0,4272.05127,4255.897461,4279.615234,4292.94873,4277.05127,4281.794922,4263.846191,4249.102539,4142.05127,4166.922852,4416.025879,4448.461426,4326.282227,4413.333496,2.754516,20.437672,5.54876,1.272802,0.658516,2.726396,12.310595,5.205878,2.151972,1.050283,2.342577,17.840506,6.164836,1.241067,0.659584,2.591931,13.558845,6.187969,0.730177,0.544123,0.398167,1.953606,0.305964,0.118541,0.108318,0.306276,1.88271,0.568435,0.217865,0.087103,0.834838,10.106501,3.131695,1.321295,0.233804,0.644258,7.784652,2.947745,1.306192,0.209723,0.525559,1.367307,0.455923,0.246331,0.218653,0.629162,0.630199,0.21912,0.163477,0.191563,1.007435,1.900983,1.31626,0.522614,0.376763,2.754698,9.738523,6.452307,2.266777,0.688283,1.420459,8.469485,3.510669,1.137478,0.629404,1.856466,13.904653,5.095541,1.407928,0.799059
1720179882,113,0,4295.897461,4289.487305,4307.179688,4304.487305,4271.922852,4282.692383,4265.641113,4250.769043,4149.743652,4176.410156,4433.333496,4478.333496,4350.897461,4437.692383,,,,,,,,,,,,,,,,,,,,,,,,,,,,,,,,,,,,,,,,,,,,,,,,,,,,,,,,,,,,,,,,,,,,,,
1720179882,114,0,4303.461426,4308.717773,4315.769043,4307.307617,4265.512695,4281.538574,4265,4249.871582,4149.743652,4177.436035,4444.230957,4504.743652,4370.384766,4459.743652,,,,,,,,,,,,,,,,,,,,,,,,,,,,,,,,,,,,,,,,,,,,,,,,,,,,,,,,,,,,,,,,,,,,,,
1720179882,115,0,4313.589844,4286.025879,4332.436035,4321.025879,4266.538574,4283.077148,4271.666504,4257.563965,4149.743652,4176.153809,4453.461426,4532.563965,4379.102539,4478.717773,,,,,,,,,,,,,,,,,,,,,,,,,,,,,,,,,,,,,,,,,,,,,,,,,,,,,,,,,,,,,,,,,,,,,,
1720179882,116,0,4329.743652,4280.641113,4362.05127,4342.436035,4274.102539,4288.461426,4280.384766,4265.256348,4152.436035,4176.794922,4455.769043,4551.538574,4381.282227,4489.487305,,,,,,,,,,,,,,,,,,,,,,,,,,,,,,,,,,,,,,,,,,,,,,,,,,,,,,,,,,,,,,,,,,,,,,
1720179882,117,0,4339.871582,4314.230957,4373.333496,4349.230957,4277.692383,4287.563965,4280.897461,4264.615234,4150,4175.128418,4452.820313,4541.538574,4386.922852,4484.230957,,,,,,,,,,,,,,,,,,,,,,,,,,,,,,,,,,,,,,,,,,,,,,,,,,,,,,,,,,,,,,,,,,,,,,
1720179882,118,0,4333.589844,4332.307617,4356.922852,4347.179688,4280.128418,4281.922852,4275.128418,4263.974121,4153.333496,4182.307617,4455.256348,4516.153809,4383.077148,4466.025879,,,,,,,,,,,,,,,,,,,,,,,,,,,,,,,,,,,,,,,,,,,,,,,,,,,,,,,,,,,,,,,,,,,,,,
1720179882,119,0,4303.717773,4299.871582,4320.897461,4338.205078,4287.820313,4280.384766,4266.410156,4256.025879,4149.358887,4183.461426,4439.358887,4482.05127,4354.230957,4433.717773,,,,,,,,,,,,,,,,,,,,,,,,,,,,,,,,,,,,,,,,,,,,,,,,,,,,,,,,,,,,,,,,,,,,,,
1720179882,120,0,4270.256348,4262.05127,4285.641113,4315.769043,4296.794922,4287.179688,4260.897461,4244.743652,4131.794922,4166.153809,4410.128418,4444.615234,4321.666504,4396.410156,,,,,,,,,,,,,,,,,,,,,,,,,,,,,,,,,,,,,,,,,,,,,,,,,,,,,,,,,,,,,,,,,,,,,,
1720179882,121,0,4250.256348,4260,4265,4292.05127,4298.589844,4295.256348,4266.538574,4248.461426,4131.666504,4165.641113,4409.102539,4423.717773,4308.205078,4376.025879,,,,,,,,,,,,,,,,,,,,,,,,,,,,,,,,,,,,,,,,,,,,,,,,,,,,,,,,,,,,,,,,,,,,,,
1720179882,122,0,4230.512695,4257.692383,4248.846191,4279.102539,4289.102539,4297.179688,4274.615234,4255.769043,4134.102539,4170.897461,4412.179688,4412.820313,4302.94873,4366.282227,,,,,,,,,,,,,,,,,,,,,,,,,,,,,,,,,,,,,,,,,,,,,,,,,,,,,,,,,,,,,,,,,,,,,,
1720179882,123,0,4220.641113,4246.025879,4236.153809,4266.666504,4277.563965,4295.512695,4277.307617,4255.384766,4129.487305,4165.512695,4405.897461,4409.487305,4299.230957,4362.05127,,,,,,,,,,,,,,,,,,,,,,,,,,,,,,,,,,,,,,,,,,,,,,,,,,,,,,,,,,,,,,,,,,,,,,
1720179882,124,0,4235,4241.282227,4241.538574,4258.333496,4272.692383,4295.641113,4274.230957,4256.025879,4136.410156,4168.077148,4416.538574,4426.538574,4306.282227,4374.102539,,,,,,,,,,,,,,,,,,,,,,,,,,,,,,,,,,,,,,,,,,,,,,,,,,,,,,,,,,,,,,,,,,,,,,
1720179882,125,0,4253.974121,4245.256348,4265.384766,4270.897461,4275.384766,4294.871582,4260.256348,4248.717773,4139.230957,4168.589844,4427.436035,4442.94873,4320,4393.974121,,,,,,,,,,,,,,,,,,,,,,,,,,,,,,,,,,,,,,,,,,,,,,,,,,,,,,,,,,,,,,,,,,,,,,
1720179882,126,0,4268.974121,4262.820313,4290.512695,4296.666504,4278.589844,4293.077148,4249.871582,4234.230957,4137.94873,4167.05127,4428.077148,4446.410156,4331.282227,4406.794922,,,,,,,,,,,,,,,,,,,,,,,,,,,,,,,,,,,,,,,,,,,,,,,,,,,,,,,,,,,,,,,,,,,,,,
1720179882,127,0,4294.615234,4292.436035,4309.230957,4317.05127,4277.94873,4292.563965,4253.333496,4233.974121,4140.769043,4169.230957,4431.153809,4459.615234,4341.794922,4422.05127,,,,,,,,,,,,,,,,,,,,,,,,,,,,,,,,,,,,,,,,,,,,,,,,,,,,,,,,,,,,,,,,,,,,,,
1720179882,0,0,4322.307617,4304.487305,4333.205078,4326.153809,4278.717773,4292.436035,4264.743652,4250.128418,4142.307617,4170.512695,4445,4492.563965,4357.436035,4448.077148,3.456414,18.409782,5.048736,1.066696,0.622479,3.135212,11.218512,4.649077,2.089463,1.130863,2.636915,17.016884,5.924324,1.038767,0.561963,2.765367,12.263863,5.510637,0.793278,0.458338,0.355266,2.304887,0.370512,0.124012,0.094968,0.372557,1.54726,0.484705,0.178703,0.08206,0.88362,8.573252,2.907866,1.092457,0.223724,0.740513,6.5549,2.842971,1.095193,0.223871,0.509893,1.789969,0.551106,0.19575,0.214911,0.784823,0.832335,0.26471,0.149264,0.182529,1.208343,1.825579,1.585926,0.438817,0.344983,3.407012,9.938802,7.26594,1.983654,0.643979,1.650955,7.465256,4.017983,1.122059,0.591857,2.44225,12.964796,5.501961,1.321047,0.701187
1720179882,1,0,4334.871582,4299.230957,4356.025879,4332.692383,4279.230957,4294.230957,4278.974121,4266.794922,4142.436035,4170.128418,4462.05127,4522.563965,4371.922852,4466.666504,,,,,,,,,,,,,,,,,,,,,,,,,,,,,,,,,,,,,,,,,,,,,,,,,,,,,,,,,,,,,,,,,,,,,,
1720179882,2,0,4327.436035,4301.410156,4353.461426,4331.153809,4276.153809,4294.102539,4279.102539,4262.94873,4141.025879,4170.256348,4459.358887,4521.282227,4370.256348,4462.436035,,,,,,,,,,,,,,,,,,,,,,,,,,,,,,,,,,,,,,,,,,,,,,,,,,,,,,,,,,,,,,,,,,,,,,
1720179882,3,0,4310.128418,4295.384766,4332.692383,4316.282227,4273.846191,4292.436035,4268.077148,4249.743652,4135,4167.820313,4444.871582,4500.128418,4357.563965,4445.256348,,,,,,,,,,,,,,,,,,,,,,,,,,,,,,,,,,,,,,,,,,,,,,,,,,,,,,,,,,,,,,,,,,,,,,
1720179882,4,0,4297.820313,4285,4316.922852,4311.922852,4279.102539,4298.974121,4273.589844,4257.05127,4140.769043,4169.743652,4445.769043,4490.512695,4348.461426,4433.461426,,,,,,,,,,,,,,,,,,,,,,,,,,,,,,,,,,,,,,,,,,,,,,,,,,,,,,,,,,,,,,,,,,,,,,
1720179882,5,0,4289.487305,4280.641113,4302.820313,4313.589844,4282.692383,4303.205078,4282.05127,4264.487305,4146.282227,4175.128418,4445.256348,4484.358887,4342.436035,4427.436035,,,,,,,,,,,,,,,,,,,,,,,,,,,,,,,,,,,,,,,,,,,,,,,,,,,,,,,,,,,,,,,,,,,,,,
1720179882,6,0,4278.077148,4271.153809,4289.487305,4300,4280.897461,4296.922852,4267.94873,4249.487305,4135.769043,4168.717773,4430.641113,4462.94873,4335.897461,4419.102539,,,,,,,,,,,,,,,,,,,,,,,,,,,,,,,,,,,,,,,,,,,,,,,,,,,,,,,,,,,,,,,,,,,,,,
1720179882,7,0,4259.230957,4259.743652,4274.487305,4288.974121,4279.615234,4293.974121,4258.717773,4242.692383,4136.282227,4166.153809,4425.512695,4438.461426,4324.871582,4405.512695,,,,,,,,,,,,,,,,,,,,,,,,,,,,,,,,,,,,,,,,,,,,,,,,,,,,,,,,,,,,,,,,,,,,,,
1720179882,8,0,4246.025879,4260.256348,4263.846191,4288.461426,4278.589844,4296.282227,4263.205078,4248.461426,4136.794922,4165.256348,4419.102539,4424.615234,4307.820313,4385.128418,,,,,,,,,,,,,,,,,,,,,,,,,,,,,,,,,,,,,,,,,,,,,,,,,,,,,,,,,,,,,,,,,,,,,,
1720179882,9,0,4253.589844,4269.102539,4269.230957,4286.282227,4279.230957,4294.743652,4255,4239.743652,4127.692383,4157.692383,4408.974121,4423.333496,4301.666504,4377.179688,,,,,,,,,,,,,,,,,,,,,,,,,,,,,,,,,,,,,,,,,,,,,,,,,,,,,,,,,,,,,,,,,,,,,,
1720179882,10,0,4267.436035,4275.128418,4276.282227,4290.769043,4278.589844,4293.461426,4245.641113,4231.153809,4131.794922,4160.641113,4416.666504,4438.333496,4313.077148,4391.153809,,,,,,,,,,,,,,,,,,,,,,,,,,,,,,,,,,,,,,,,,,,,,,,,,,,,,,,,,,,,,,,,,,,,,,
1720179882,11,0,4277.563965,4284.358887,4286.538574,4304.230957,4271.282227,4293.974121,4258.333496,4245.256348,4140,4169.487305,4435.128418,4470.512695,4334.871582,4414.871582,,,,,,,,,,,,,,,,,,,,,,,,,,,,,,,,,,,,,,,,,,,,,,,,,,,,,,,,,,,,,,,,,,,,,,
1720179882,12,0,4296.922852,4289.743652,4315.641113,4317.692383,4263.589844,4294.487305,4282.05127,4269.230957,4147.179688,4174.487305,4456.025879,4509.102539,4364.743652,4444.615234,,,,,,,,,,,,,,,,,,,,,,,,,,,,,,,,,,,,,,,,,,,,,,,,,,,,,,,,,,,,,,,,,,,,,,
1720179882,13,0,4315.128418,4287.307617,4340.512695,4331.410156,4265,4299.230957,4298.333496,4281.282227,4147.05127,4169.358887,4464.743652,4522.820313,4382.436035,4462.436035,,,,,,,,,,,,,,,,,,,,,,,,,,,,,,,,,,,,,,,,,,,,,,,,,,,,,,,,,,,,,,,,,,,,,,
1720179882,14,0,4308.333496,4282.179688,4334.230957,4331.025879,4276.538574,4308.461426,4298.461426,4277.05127,4136.410156,4161.794922,4450.384766,4500.512695,4366.410156,4446.666504,,,,,,,,,,,,,,,,,,,,,,,,,,,,,,,,,,,,,,,,,,,,,,,,,,,,,,,,,,,,,,,,,,,,,,
1720179882,15,0,4289.615234,4276.153809,4312.563965,4312.179688,4286.666504,4312.05127,4283.717773,4264.743652,4128.205078,4160.897461,4438.717773,4473.461426,4343.974121,4419.358887,,,,,,,,,,,,,,,,,,,,,,,,,,,,,,,,,,,,,,,,,,,,,,,,,,,,,,,,,,,,,,,,,,,,,,
1720179882,16,0,4282.820313,4281.410156,4299.230957,4299.615234,4285.897461,4304.358887,4266.282227,4251.025879,4127.179688,4159.358887,4440.512695,4463.077148,4342.179688,4411.153809,4.096832,16.099575,4.464646,0.924569,0.58352,3.589956,9.809804,3.775381,1.922506,1.220546,2.982754,15.83158,5.386384,0.924624,0.465081,3.028091,10.831754,4.568596,0.854546,0.3905,0.334921,2.932709,0.481109,0.145252,0.088279,0.442533,1.229824,0.406358,0.153716,0.073207,0.951618,7.369158,2.518898,0.985204,0.206985,0.872407,5.637578,2.543302,0.977378,0.231607,0.496232,2.254095,0.657441,0.166742,0.209577,0.915434,1.039522,0.317713,0.135888,0.173105,1.519039,1.89294,1.872494,0.389062,0.302365,4.062874,9.980759,7.753511,1.7413,0.579444,1.985345,6.811893,4.632584,1.123684,0.543497,3.147722,12.022121,5.792019,1.262499,0.584641
1720179882,17,0,4276.794922,4281.666504,4287.820313,4290.769043,4280.128418,4299.615234,4260.128418,4243.974121,4124.871582,4156.025879,4431.282227,4457.692383,4342.05127,4411.538574,,,,,,,,,,,,,,,,,,,,,,,,,,,,,,,,,,,,,,,,,,,,,,,,,,,,,,,,,,,,,,,,,,,,,,
1720179882,18,0,4258.077148,4266.410156,4273.589844,4277.307617,4279.230957,4307.05127,4269.743652,4251.794922,4132.820313,4160.128418,4424.230957,4454.102539,4335.256348,4405.384766,,,,,,,,,,,,,,,,,,,,,,,,,,,,,,,,,,,,,,,,,,,,,,,,,,,,,,,,,,,,,,,,,,,,,,
1720179882,19,0,4248.846191,4255.897461,4270.769043,4279.358887,4278.717773,4310.769043,4280,4264.230957,4144.358887,4166.282227,4430.512695,4456.410156,4328.974121,4397.436035,,,,,,,,,,,,,,,,,,,,,,,,,,,,,,,,,,,,,,,,,,,,,,,,,,,,,,,,,,,,,,,,,,,,,,
1720179882,20,0,4264.743652,4256.666504,4283.846191,4290.641113,4277.436035,4307.05127,4277.94873,4263.077148,4135.256348,4160.384766,4428.333496,4456.922852,4324.358887,4397.05127,,,,,,,,,,,,,,,,,,,,,,,,,,,,,,,,,,,,,,,,,,,,,,,,,,,,,,,,,,,,,,,,,,,,,,
1720179882,21,0,4281.025879,4262.179688,4290.769043,4291.153809,4279.615234,4307.179688,4273.333496,4256.666504,4136.282227,4164.743652,4427.563965,4457.563965,4332.307617,4409.487305,,,,,,,,,,,,,,,,,,,,,,,,,,,,,,,,,,,,,,,,,,,,,,,,,,,,,,,,,,,,,,,,,,,,,,
1720179882,22,0,4282.179688,4275.384766,4287.94873,4289.102539,4279.487305,4306.794922,4273.846191,4255.769043,4142.05127,4170.769043,4432.94873,4460.769043,4344.615234,4422.179688,,,,,,,,,,,,,,,,,,,,,,,,,,,,,,,,,,,,,,,,,,,,,,,,,,,,,,,,,,,,,,,,,,,,,,
1720179883,23,0,4280.256348,4284.743652,4293.461426,4294.102539,4277.179688,4305.384766,4276.922852,4259.615234,4127.436035,4156.922852,4429.358887,4461.666504,4335.384766,4419.230957,,,,,,,,,,,,,,,,,,,,,,,,,,,,,,,,,,,,,,,,,,,,,,,,,,,,,,,,,,,,,,,,,,,,,,
1720179883,24,0,4281.922852,4275.384766,4297.563965,4297.179688,4277.692383,4309.487305,4278.846191,4265.384766,4118.077148,4149.358887,4422.94873,4462.563965,4315.256348,4405.512695,,,,,,,,,,,,,,,,,,,,,,,,,,,,,,,,,,,,,,,,,,,,,,,,,,,,,,,,,,,,,,,,,,,,,,
1720179883,25,0,4287.820313,4269.615234,4296.410156,4300.128418,4276.922852,4310.256348,4280.384766,4264.615234,4120.512695,4152.820313,4423.846191,4460.256348,4319.615234,4403.205078,,,,,,,,,,,,,,,,,,,,,,,,,,,,,,,,,,,,,,,,,,,,,,,,,,,,,,,,,,,,,,,,,,,,,,
1720179883,26,0,4293.333496,4288.974121,4298.333496,4305.512695,4277.94873,4309.743652,4277.692383,4259.102539,4128.846191,4154.487305,4431.153809,4453.589844,4345.256348,4416.282227,,,,,,,,,,,,,,,,,,,,,,,,,,,,,,,,,,,,,,,,,,,,,,,,,,,,,,,,,,,,,,,,,,,,,,
1720179883,27,0,4288.461426,4303.461426,4296.282227,4300.769043,4278.846191,4310.128418,4267.179688,4250.128418,4133.333496,4152.692383,4433.333496,4449.871582,4351.538574,4420.128418,,,,,,,,,,,,,,,,,,,,,,,,,,,,,,,,,,,,,,,,,,,,,,,,,,,,,,,,,,,,,,,,,,,,,,
1720179883,28,0,4277.94873,4278.974121,4291.025879,4288.974121,4271.025879,4302.820313,4260.897461,4244.871582,4131.538574,4156.410156,4427.563965,4450.128418,4333.461426,4407.692383,,,,,,,,,,,,,,,,,,,,,,,,,,,,,,,,,,,,,,,,,,,,,,,,,,,,,,,,,,,,,,,,,,,,,,
1720179883,29,0,4271.794922,4247.307617,4291.794922,4286.666504,4266.922852,4299.615234,4272.05127,4255,4136.153809,4168.717773,4426.153809,4451.025879,4324.871582,4397.563965,,,,,,,,,,,,,,,,,,,,,,,,,,,,,,,,,,,,,,,,,,,,,,,,,,,,,,,,,,,,,,,,,,,,,,
1720179883,30,0,4264.102539,4253.205078,4285.512695,4283.974121,4276.153809,4307.692383,4281.410156,4264.871582,4141.794922,4170.641113,4427.692383,4442.307617,4323.461426,4384.102539,,,,,,,,,,,,,,,,,,,,,,,,,,,,,,,,,,,,,,,,,,,,,,,,,,,,,,,,,,,,,,,,,,,,,,
1720179883,31,0,4244.487305,4263.974121,4262.563965,4268.717773,4280,4311.282227,4273.974121,4259.102539,4130.256348,4153.333496,4417.563965,4420.384766,4312.436035,4361.153809,,,,,,,,,,,,,,,,,,,,,,,,,,,,,,,,,,,,,,,,,,,,,,,,,,,,,,,,,,,,,,,,,,,,,,
1720179883,32,0,4222.692383,4245.897461,4242.94873,4257.179688,4276.025879,4310.769043,4273.846191,4255.128418,4130,4151.666504,4416.025879,4408.846191,4306.282227,4353.974121,4.671342,14.735361,3.852347,0.887393,0.548442,3.977206,8.645083,2.76385,1.694629,1.3138,3.498343,15.389117,4.608264,0.914884,0.393372,3.370741,9.928052,3.484283,0.913158,0.352328,0.339264,3.638461,0.633051,0.170435,0.090045,0.508913,0.988296,0.344396,0.144001,0.06219,1.019816,6.539797,2.083867,0.980955,0.188461,1.003642,5.060196,2.139389,0.933201,0.231815,0.521866,2.645356,0.746226,0.160426,0.202713,0.987918,1.208039,0.360381,0.124214,0.163765,1.799423,2.283195,2.095606,0.371561,0.260251,4.81099,10.806586,7.802521,1.547446,0.509558,2.386663,7.047719,5.117522,1.127228,0.499124,4.022521,12.033094,5.809259,1.230013,0.474648
1720179883,33,0,4223.461426,4232.307617,4243.589844,4262.179688,4275.512695,4312.692383,4277.307617,4255.641113,4145.897461,4165.897461,4424.743652,4417.94873,4313.077148,4368.077148,,,,,,,,,,,,,,,,,,,,,,,,,,,,,,,,,,,,,,,,,,,,,,,,,,,,,,,,,,,,,,,,,,,,,,
1720179883,34,0,4250.128418,4239.230957,4268.974121,4274.615234,4272.05127,4310.128418,4268.717773,4249.358887,4142.692383,4160.256348,4422.820313,4434.871582,4322.436035,4384.743652,,,,,,,,,,,,,,,,,,,,,,,,,,,,,,,,,,,,,,,,,,,,,,,,,,,,,,,,,,,,,,,,,,,,,,
1720179883,35,0,4282.436035,4260.128418,4308.461426,4287.436035,4265.128418,4306.410156,4267.94873,4251.794922,4144.743652,4158.974121,4428.846191,4463.717773,4334.230957,4398.333496,,,,,,,,,,,,,,,,,,,,,,,,,,,,,,,,,,,,,,,,,,,,,,,,,,,,,,,,,,,,,,,,,,,,,,
1720179883,36,0,4308.846191,4297.94873,4333.717773,4306.538574,4265.641113,4306.025879,4280.256348,4264.487305,4152.179688,4167.820313,4444.871582,4502.692383,4351.922852,4418.589844,,,,,,,,,,,,,,,,,,,,,,,,,,,,,,,,,,,,,,,,,,,,,,,,,,,,,,,,,,,,,,,,,,,,,,
1720179883,37,0,4334.358887,4310,4339.743652,4324.230957,4267.692383,4307.05127,4282.436035,4267.179688,4146.282227,4163.846191,4450.641113,4517.436035,4363.846191,4439.230957,,,,,,,,,,,,,,,,,,,,,,,,,,,,,,,,,,,,,,,,,,,,,,,,,,,,,,,,,,,,,,,,,,,,,,
1720179883,38,0,4362.436035,4285.641113,4342.692383,4327.307617,4266.538574,4309.487305,4278.589844,4263.205078,4150.128418,4163.974121,4454.743652,4510.641113,4368.205078,4447.692383,,,,,,,,,,,,,,,,,,,,,,,,,,,,,,,,,,,,,,,,,,,,,,,,,,,,,,,,,,,,,,,,,,,,,,
1720179883,39,0,4389.230957,4286.538574,4339.615234,4322.563965,4267.05127,4305.769043,4276.922852,4257.692383,4156.025879,4170.512695,4458.846191,4506.282227,4368.717773,4444.358887,,,,,,,,,,,,,,,,,,,,,,,,,,,,,,,,,,,,,,,,,,,,,,,,,,,,,,,,,,,,,,,,,,,,,,
1720179883,40,0,4408.205078,4305.769043,4329.102539,4312.179688,4264.743652,4296.922852,4268.205078,4249.743652,4155.384766,4172.94873,4450.641113,4498.077148,4364.487305,4432.436035,,,,,,,,,,,,,,,,,,,,,,,,,,,,,,,,,,,,,,,,,,,,,,,,,,,,,,,,,,,,,,,,,,,,,,
1720179883,41,0,4416.025879,4277.05127,4314.743652,4294.102539,4263.333496,4292.94873,4259.487305,4247.94873,4158.077148,4175.128418,4439.871582,4479.615234,4350.128418,4410.641113,,,,,,,,,,,,,,,,,,,,,,,,,,,,,,,,,,,,,,,,,,,,,,,,,,,,,,,,,,,,,,,,,,,,,,
1720179883,42,0,4417.820313,4231.794922,4285.769043,4277.94873,4270.897461,4296.025879,4259.358887,4248.461426,4158.974121,4174.230957,4433.846191,4454.230957,4331.025879,4385.512695,,,,,,,,,,,,,,,,,,,,,,,,,,,,,,,,,,,,,,,,,,,,,,,,,,,,,,,,,,,,,,,,,,,,,,
1720179883,43,0,4424.871582,4233.589844,4257.820313,4273.974121,4281.282227,4302.179688,4260.128418,4245.384766,4156.410156,4170.128418,4427.307617,4430.384766,4324.102539,4369.358887,,,,,,,,,,,,,,,,,,,,,,,,,,,,,,,,,,,,,,,,,,,,,,,,,,,,,,,,,,,,,,,,,,,,,,
1720179883,44,0,4431.025879,4245.897461,4257.94873,4278.077148,4286.282227,4306.538574,4258.461426,4241.922852,4157.436035,4172.307617,4425.384766,4419.230957,4321.922852,4362.692383,,,,,,,,,,,,,,,,,,,,,,,,,,,,,,,,,,,,,,,,,,,,,,,,,,,,,,,,,,,,,,,,,,,,,,
1720179883,45,0,4423.077148,4237.563965,4270.256348,4279.487305,4287.94873,4306.794922,4262.94873,4246.025879,4152.179688,4169.358887,4423.846191,4423.589844,4317.563965,4363.974121,,,,,,,,,,,,,,,,,,,,,,,,,,,,,,,,,,,,,,,,,,,,,,,,,,,,,,,,,,,,,,,,,,,,,,
1720179883,46,0,4407.05127,4239.871582,4275,4276.282227,4290.512695,4308.974121,4274.358887,4258.205078,4151.666504,4165.641113,4423.846191,4439.615234,4321.153809,4377.820313,,,,,,,,,,,,,,,,,,,,,,,,,,,,,,,,,,,,,,,,,,,,,,,,,,,,,,,,,,,,,,,,,,,,,,
1720179883,47,0,4395.641113,4259.743652,4276.922852,4283.717773,4290.512695,4314.487305,4286.282227,4269.615234,4163.589844,4173.077148,4431.410156,4458.205078,4322.692383,4391.538574,,,,,,,,,,,,,,,,,,,,,,,,,,,,,,,,,,,,,,,,,,,,,,,,,,,,,,,,,,,,,,,,,,,,,,
1720179883,48,0,4385.897461,4268.717773,4277.05127,4295.128418,4283.717773,4313.846191,4291.153809,4272.563965,4151.538574,4168.205078,4428.846191,4460.128418,4312.563965,4386.794922,5.248532,15.559191,3.275215,0.947071,0.517288,4.226411,8.281988,1.82752,1.465265,1.399805,4.295934,17.108866,3.73971,0.991832,0.356047,3.755907,10.164041,2.44858,0.981463,0.340919,0.358422,4.173352,0.798212,0.192372,0.097797,0.5648,0.836321,0.302566,0.145965,0.051477,1.066245,5.878458,1.724553,1.027223,0.17309,1.106134,4.643154,1.746206,0.922507,0.226838,0.564722,2.866935,0.792201,0.1735,0.193354,0.958494,1.30327,0.381659,0.1176,0.154211,2.02972,3.23277,2.213111,0.379109,0.226327,5.900649,13.897458,7.50316,1.417682,0.445508,2.802046,8.749748,5.302652,1.128399,0.463953,5.134718,14.132302,5.522882,1.22809,0.384606
1720179883,49,0,4372.820313,4261.282227,4273.205078,4291.153809,4276.794922,4309.871582,4286.922852,4270.897461,4135.256348,4160.897461,4422.179688,4448.974121,4309.615234,4378.461426,,,,,,,,,,,,,,,,,,,,,,,,,,,,,,,,,,,,,,,,,,,,,,,,,,,,,,,,,,,,,,,,,,,,,,
1720179883,50,0,4363.205078,4259.487305,4271.922852,4292.692383,4277.94873,4307.94873,4281.666504,4266.282227,4145.897461,4168.461426,4430,4446.794922,4325.641113,4385,,,,,,,,,,,,,,,,,,,,,,,,,,,,,,,,,,,,,,,,,,,,,,,,,,,,,,,,,,,,,,,,,,,,,,
1720179883,51,0,4354.358887,4263.077148,4266.538574,4290.897461,4277.179688,4305.128418,4272.179688,4253.589844,4151.153809,4166.794922,4431.153809,4438.077148,4329.615234,4385.897461,,,,,,,,,,,,,,,,,,,,,,,,,,,,,,,,,,,,,,,,,,,,,,,,,,,,,,,,,,,,,,,,,,,,,,
1720179883,52,0,4335.769043,4261.538574,4251.025879,4257.563965,4270.256348,4298.461426,4253.077148,4235,4142.179688,4155.256348,4411.282227,4411.538574,4311.538574,4369.615234,,,,,,,,,,,,,,,,,,,,,,,,,,,,,,,,,,,,,,,,,,,,,,,,,,,,,,,,,,,,,,,,,,,,,,
1720179883,53,0,4312.307617,4239.102539,4242.563965,4240.128418,4273.077148,4293.717773,4239.871582,4226.282227,4138.846191,4154.487305,4402.05127,4405,4302.307617,4361.025879,,,,,,,,,,,,,,,,,,,,,,,,,,,,,,,,,,,,,,,,,,,,,,,,,,,,,,,,,,,,,,,,,,,,,,
1720179883,54,0,4306.794922,4222.436035,4248.717773,4263.461426,4284.743652,4303.077148,4252.692383,4239.487305,4151.666504,4166.794922,4419.615234,4424.358887,4312.05127,4368.205078,,,,,,,,,,,,,,,,,,,,,,,,,,,,,,,,,,,,,,,,,,,,,,,,,,,,,,,,,,,,,,,,,,,,,,
1720179883,55,0,4309.102539,4245.769043,4244.487305,4270,4292.436035,4316.410156,4275.897461,4258.717773,4161.153809,4172.692383,4425.769043,4431.794922,4316.025879,4367.94873,,,,,,,,,,,,,,,,,,,,,,,,,,,,,,,,,,,,,,,,,,,,,,,,,,,,,,,,,,,,,,,,,,,,,,
1720179883,56,0,4295.897461,4258.461426,4229.615234,4254.102539,4289.615234,4319.871582,4281.025879,4261.794922,4153.589844,4167.820313,4409.487305,4425.256348,4305.897461,4363.205078,,,,,,,,,,,,,,,,,,,,,,,,,,,,,,,,,,,,,,,,,,,,,,,,,,,,,,,,,,,,,,,,,,,,,,
1720179883,57,0,4290.384766,4236.538574,4235.769043,4262.692383,4283.717773,4318.974121,4278.333496,4260.769043,4150.128418,4165.897461,4409.102539,4423.333496,4303.205078,4364.358887,,,,,,,,,,,,,,,,,,,,,,,,,,,,,,,,,,,,,,,,,,,,,,,,,,,,,,,,,,,,,,,,,,,,,,
1720179883,58,0,4304.487305,4251.410156,4255.769043,4284.487305,4282.307617,4321.025879,4286.794922,4270.256348,4160.512695,4168.717773,4423.333496,4430.512695,4311.666504,4366.794922,,,,,,,,,,,,,,,,,,,,,,,,,,,,,,,,,,,,,,,,,,,,,,,,,,,,,,,,,,,,,,,,,,,,,,
1720179883,59,0,4322.307617,4294.102539,4272.436035,4292.436035,4282.179688,4319.871582,4301.153809,4279.615234,4160.128418,4167.307617,4425.256348,4452.94873,4324.487305,4385.641113,,,,,,,,,,,,,,,,,,,,,,,,,,,,,,,,,,,,,,,,,,,,,,,,,,,,,,,,,,,,,,,,,,,,,,
1720179883,60,0,4336.410156,4277.692383,4298.077148,4292.94873,4280,4317.563965,4308.461426,4287.05127,4158.846191,4167.94873,4434.102539,4487.563965,4336.282227,4416.794922,,,,,,,,,,,,,,,,,,,,,,,,,,,,,,,,,,,,,,,,,,,,,,,,,,,,,,,,,,,,,,,,,,,,,,
1720179883,61,0,4334.871582,4248.589844,4308.205078,4289.358887,4279.230957,4322.179688,4308.846191,4289.615234,4170.256348,4173.974121,4445.384766,4498.333496,4337.563965,4420.512695,,,,,,,,,,,,,,,,,,,,,,,,,,,,,,,,,,,,,,,,,,,,,,,,,,,,,,,,,,,,,,,,,,,,,,
1720179883,62,0,4315,4260,4286.794922,4282.436035,4282.692383,4321.794922,4297.179688,4276.794922,4160.256348,4165.128418,4430.256348,4470.384766,4324.615234,4398.461426,,,,,,,,,,,,,,,,,,,,,,,,,,,,,,,,,,,,,,,,,,,,,,,,,,,,,,,,,,,,,,,,,,,,,,
1720179883,63,0,4305.769043,4267.94873,4272.692383,4282.563965,4287.436035,4314.487305,4282.179688,4264.487305,4144.358887,4158.333496,4417.05127,4446.025879,4313.461426,4394.230957,,,,,,,,,,,,,,,,,,,,,,,,,,,,,,,,,,,,,,,,,,,,,,,,,,,,,,,,,,,,,,,,,,,,,,
1720179883,64,0,4313.205078,4271.794922,4279.358887,4284.102539,4286.922852,4310.384766,4278.205078,4261.282227,4151.025879,4163.846191,4426.025879,4446.794922,4320,4406.922852,6.2339,18.978369,2.755087,1.056305,0.486861,4.334203,8.975011,1.147731,1.285683,1.466299,5.451229,21.701902,2.947244,1.123391,0.346975,4.138876,11.742697,1.623423,1.065018,0.343053,0.383354,4.346729,0.933806,0.210304,0.106431,0.606297,0.753888,0.278928,0.154047,0.043618,1.064528,5.136344,1.553686,1.076215,0.164311,1.148408,4.17166,1.484643,0.917442,0.220428,0.633167,2.857747,0.790052,0.202744,0.181668,0.86877,1.300121,0.38319,0.119934,0.145371,2.136759,4.801297,2.232576,0.401426,0.203317,7.624135,20.027157,7.069255,1.370046,0.391109,3.261973,12.028357,5.150196,1.131284,0.436795,6.586963,18.741957,5.039589,1.267515,0.316226
1720179883,65,0,4312.692383,4271.922852,4279.487305,4281.922852,4278.974121,4307.307617,4272.820313,4253.717773,4158.333496,4163.589844,4427.820313,4449.102539,4327.436035,4407.94873,,,,,,,,,,,,,,,,,,,,,,,,,,,,,,,,,,,,,,,,,,,,,,,,,,,,,,,,,,,,,,,,,,,,,,
1720179883,66,0,4316.538574,4255.512695,4281.025879,4286.666504,4275.641113,4305.769043,4261.794922,4244.743652,4158.846191,4166.025879,4422.692383,4449.102539,4325.897461,4405.128418,,,,,,,,,,,,,,,,,,,,,,,,,,,,,,,,,,,,,,,,,,,,,,,,,,,,,,,,,,,,,,,,,,,,,,
1720179883,67,0,4326.410156,4253.717773,4291.025879,4289.358887,4280.512695,4308.589844,4257.307617,4242.436035,4157.692383,4169.358887,4427.307617,4458.077148,4327.05127,4415.384766,,,,,,,,,,,,,,,,,,,,,,,,,,,,,,,,,,,,,,,,,,,,,,,,,,,,,,,,,,,,,,,,,,,,,,
1720179883,68,0,4320.128418,4267.692383,4285.512695,4278.333496,4281.282227,4313.461426,4263.461426,4246.282227,4159.358887,4165.512695,4431.025879,4462.307617,4331.666504,4427.94873,,,,,,,,,,,,,,,,,,,,,,,,,,,,,,,,,,,,,,,,,,,,,,,,,,,,,,,,,,,,,,,,,,,,,,
1720179883,69,0,4303.717773,4262.820313,4273.717773,4272.179688,4278.589844,4314.871582,4271.922852,4255.384766,4165.641113,4164.487305,4426.025879,4456.153809,4329.615234,4427.05127,,,,,,,,,,,,,,,,,,,,,,,,,,,,,,,,,,,,,,,,,,,,,,,,,,,,,,,,,,,,,,,,,,,,,,
1720179883,70,0,4297.436035,4261.666504,4275.769043,4284.102539,4279.487305,4318.717773,4280.769043,4264.871582,4167.05127,4171.153809,4422.692383,4454.487305,4327.307617,4424.615234,,,,,,,,,,,,,,,,,,,,,,,,,,,,,,,,,,,,,,,,,,,,,,,,,,,,,,,,,,,,,,,,,,,,,,
1720179883,71,0,4306.282227,4279.871582,4282.692383,4294.487305,4282.563965,4324.358887,4289.871582,4270.128418,4164.102539,4174.358887,4429.743652,4462.692383,4335.384766,4439.615234,,,,,,,,,,,,,,,,,,,,,,,,,,,,,,,,,,,,,,,,,,,,,,,,,,,,,,,,,,,,,,,,,,,,,,
1720179883,72,0,4315.256348,4277.179688,4291.025879,4298.461426,4275.769043,4320.384766,4295.641113,4278.077148,4168.589844,4173.589844,4443.717773,4481.538574,4350.641113,4459.102539,,,,,,,,,,,,,,,,,,,,,,,,,,,,,,,,,,,,,,,,,,,,,,,,,,,,,,,,,,,,,,,,,,,,,,
1720179883,73,0,4322.820313,4269.487305,4309.230957,4303.077148,4264.743652,4314.487305,4300,4286.794922,4173.589844,4174.230957,4454.230957,4503.333496,4364.871582,4470.128418,,,,,,,,,,,,,,,,,,,,,,,,,,,,,,,,,,,,,,,,,,,,,,,,,,,,,,,,,,,,,,,,,,,,,,
1720179883,74,0,4336.025879,4294.230957,4324.871582,4308.974121,4270,4317.820313,4301.538574,4287.05127,4177.05127,4176.410156,4456.153809,4514.102539,4369.871582,4478.461426,,,,,,,,,,,,,,,,,,,,,,,,,,,,,,,,,,,,,,,,,,,,,,,,,,,,,,,,,,,,,,,,,,,,,,
1720179883,75,0,4338.846191,4308.589844,4322.692383,4313.846191,4282.179688,4319.102539,4300.384766,4283.717773,4185,4186.666504,4451.538574,4510.128418,4362.307617,4478.077148,,,,,,,,,,,,,,,,,,,,,,,,,,,,,,,,,,,,,,,,,,,,,,,,,,,,,,,,,,,,,,,,,,,,,,
1720179883,76,0,4315.512695,4283.077148,4307.820313,4307.307617,4281.153809,4311.025879,4290.256348,4275,4176.794922,4184.230957,4441.153809,4492.820313,4349.102539,4457.563965,,,,,,,,,,,,,,,,,,,,,,,,,,,,,,,,,,,,,,,,,,,,,,,,,,,,,,,,,,,,,,,,,,,,,,
1720179883,77,0,4293.717773,4268.717773,4295.256348,4297.820313,4277.436035,4309.487305,4278.974121,4267.179688,4166.410156,4172.692383,4434.871582,4476.410156,4339.615234,4435.384766,,,,,,,,,,,,,,,,,,,,,,,,,,,,,,,,,,,,,,,,,,,,,,,,,,,,,,,,,,,,,,,,,,,,,,
1720179883,78,0,4291.666504,4265.512695,4295.769043,4292.179688,4281.922852,4317.05127,4281.153809,4268.974121,4173.974121,4172.179688,4434.743652,4473.461426,4333.077148,4429.230957,,,,,,,,,,,,,,,,,,,,,,,,,,,,,,,,,,,,,,,,,,,,,,,,,,,,,,,,,,,,,,,,,,,,,,
1720179883,79,0,4285.256348,4248.589844,4290.128418,4288.717773,4283.333496,4319.871582,4291.538574,4276.282227,4180.769043,4170.512695,4431.025879,4471.153809,4321.922852,4423.461426,,,,,,,,,,,,,,,,,,,,,,,,,,,,,,,,,,,,,,,,,,,,,,,,,,,,,,,,,,,,,,,,,,,,,,
1720179883,80,0,4274.743652,4256.025879,4280.384766,4280.128418,4278.461426,4320.641113,4297.692383,4280.897461,4187.436035,4169.871582,4427.563965,4467.436035,4315.128418,4418.974121,8.773833,24.440037,2.255238,1.165176,0.455975,4.349564,10.632415,0.827174,1.169906,1.511561,6.976957,28.732077,2.360147,1.284248,0.3534,4.479076,14.346548,1.093632,1.153203,0.344228,0.418826,4.102679,1.004914,0.227959,0.110885,0.630339,0.72211,0.270189,0.165257,0.040098,0.984794,4.295084,1.576492,1.111032,0.163394,1.099156,3.60721,1.387141,0.919768,0.215539,0.708472,2.614055,0.74563,0.243321,0.170467,0.727839,1.194191,0.372185,0.132885,0.139604,2.20865,6.752692,2.182616,0.429353,0.190635,10.024647,28.617502,6.729172,1.415992,0.347596,3.841524,16.336752,4.723706,1.142774,0.415872,8.388094,25.293648,4.534489,1.348628,0.2669
1720179883,81,0,4277.563965,4276.025879,4285.897461,4273.205078,4277.692383,4322.307617,4299.230957,4280.897461,4189.487305,4175.641113,4425.384766,4471.794922,4322.307617,4425.769043,,,,,,,,,,,,,,,,,,,,,,,,,,,,,,,,,,,,,,,,,,,,,,,,,,,,,,,,,,,,,,,,,,,,,,
1720179883,82,0,4279.487305,4262.820313,4290.256348,4281.282227,4279.358887,4324.487305,4306.153809,4288.333496,4187.94873,4178.846191,4427.94873,4474.358887,4326.282227,4429.743652,,,,,,,,,,,,,,,,,,,,,,,,,,,,,,,,,,,,,,,,,,,,,,,,,,,,,,,,,,,,,,,,,,,,,,
1720179883,83,0,4267.692383,4238.589844,4277.179688,4285.641113,4273.461426,4324.102539,4311.282227,4294.230957,4193.205078,4173.846191,4430.256348,4462.436035,4315.769043,4418.846191,,,,,,,,,,,,,,,,,,,,,,,,,,,,,,,,,,,,,,,,,,,,,,,,,,,,,,,,,,,,,,,,,,,,,,
1720179883,84,0,4258.461426,4230.384766,4275.384766,4284.615234,4261.410156,4321.410156,4309.230957,4291.538574,4196.794922,4167.563965,4422.436035,4451.794922,4303.974121,4407.692383,,,,,,,,,,,,,,,,,,,,,,,,,,,,,,,,,,,,,,,,,,,,,,,,,,,,,,,,,,,,,,,,,,,,,,
1720179883,85,0,4265.384766,4245.641113,4294.102539,4293.461426,4262.692383,4322.820313,4306.282227,4292.307617,4197.692383,4172.436035,4421.666504,4461.666504,4309.102539,4412.179688,,,,,,,,,,,,,,,,,,,,,,,,,,,,,,,,,,,,,,,,,,,,,,,,,,,,,,,,,,,,,,,,,,,,,,
1720179883,86,0,4272.179688,4278.333496,4301.666504,4296.922852,4271.666504,4322.307617,4298.717773,4288.333496,4202.179688,4183.077148,4432.820313,4473.846191,4322.436035,4422.307617,,,,,,,,,,,,,,,,,,,,,,,,,,,,,,,,,,,,,,,,,,,,,,,,,,,,,,,,,,,,,,,,,,,,,,
1720179883,87,0,4273.846191,4284.743652,4298.717773,4291.794922,4269.358887,4313.846191,4283.717773,4270.641113,4201.025879,4185.384766,4433.077148,4475.512695,4328.717773,4431.410156,,,,,,,,,,,,,,,,,,,,,,,,,,,,,,,,,,,,,,,,,,,,,,,,,,,,,,,,,,,,,,,,,,,,,,
1720179883,88,0,4283.846191,4265.512695,4301.666504,4301.410156,4262.692383,4307.436035,4272.94873,4257.820313,4201.025879,4182.692383,4431.153809,4473.205078,4333.077148,4442.820313,,,,,,,,,,,,,,,,,,,,,,,,,,,,,,,,,,,,,,,,,,,,,,,,,,,,,,,,,,,,,,,,,,,,,,
1720179883,89,0,4287.563965,4267.820313,4301.922852,4308.846191,4263.974121,4306.794922,4270,4260,4213.205078,4188.589844,4437.94873,4467.307617,4337.436035,4448.717773,,,,,,,,,,,,,,,,,,,,,,,,,,,,,,,,,,,,,,,,,,,,,,,,,,,,,,,,,,,,,,,,,,,,,,
1720179883,90,0,4271.153809,4282.94873,4296.282227,4301.025879,4266.922852,4308.589844,4271.410156,4259.615234,4208.589844,4183.717773,4431.922852,4463.205078,4331.282227,4438.461426,,,,,,,,,,,,,,,,,,,,,,,,,,,,,,,,,,,,,,,,,,,,,,,,,,,,,,,,,,,,,,,,,,,,,,
1720179883,91,0,4258.717773,4277.179688,4292.307617,4307.692383,4266.922852,4318.077148,4282.179688,4265.512695,4198.974121,4173.846191,4426.025879,4469.358887,4315.769043,4429.615234,,,,,,,,,,,,,,,,,,,,,,,,,,,,,,,,,,,,,,,,,,,,,,,,,,,,,,,,,,,,,,,,,,,,,,
1720179883,92,0,4259.615234,4266.538574,4293.717773,4311.153809,4267.05127,4327.563965,4299.487305,4283.846191,4209.358887,4179.871582,4433.333496,4482.94873,4313.077148,4434.743652,,,,,,,,,,,,,,,,,,,,,,,,,,,,,,,,,,,,,,,,,,,,,,,,,,,,,,,,,,,,,,,,,,,,,,
1720179883,93,0,4261.025879,4266.538574,4297.692383,4297.307617,4264.871582,4327.820313,4310.512695,4296.282227,4218.333496,4187.179688,4438.461426,4492.692383,4329.871582,4443.077148,,,,,,,,,,,,,,,,,,,,,,,,,,,,,,,,,,,,,,,,,,,,,,,,,,,,,,,,,,,,,,,,,,,,,,
1720179883,94,0,4262.94873,4260.128418,4305.512695,4301.025879,4261.794922,4327.692383,4313.333496,4300.128418,4224.487305,4192.307617,4440.897461,4494.102539,4342.179688,4449.871582,,,,,,,,,,,,,,,,,,,,,,,,,,,,,,,,,,,,,,,,,,,,,,,,,,,,,,,,,,,,,,,,,,,,,,
1720179883,95,0,4273.589844,4261.282227,4320.128418,4317.436035,4261.922852,4328.846191,4314.615234,4304.230957,4227.563965,4193.974121,4442.692383,4495.384766,4345.128418,4457.820313,,,,,,,,,,,,,,,,,,,,,,,,,,,,,,,,,,,,,,,,,,,,,,,,,,,,,,,,,,,,,,,,,,,,,,
1720179883,96,0,4283.333496,4290.256348,4331.794922,4321.153809,4256.410156,4327.94873,4316.922852,4309.615234,4226.538574,4194.230957,4443.333496,4509.358887,4355.641113,4468.974121,14.326052,30.341869,1.757392,1.25105,0.427563,4.292258,12.832889,0.828088,1.090597,1.54477,8.75556,36.541183,2.031394,1.460525,0.365397,4.724986,17.244387,0.850124,1.215523,0.338588,0.47052,3.535902,1.004622,0.250575,0.108635,0.628372,0.731417,0.270412,0.178407,0.040975,0.868803,3.612071,1.726014,1.126797,0.16992,0.990514,3.13347,1.42012,0.935816,0.213023,0.791806,2.200936,0.673018,0.288251,0.165135,0.596141,1.010345,0.360324,0.154706,0.139476,2.265259,8.58735,2.085442,0.457719,0.188447,12.83038,37.681068,6.600148,1.556882,0.318044,4.57845,20.497206,4.119733,1.169282,0.403038,10.351114,32.147686,4.121749,1.457366,0.238267
1720179883,97,0,4284.230957,4295.384766,4334.487305,4322.692383,4249.487305,4325.512695,4318.077148,4306.922852,4230.384766,4198.589844,4444.102539,4527.179688,4372.436035,4475.769043,,,,,,,,,,,,,,,,,,,,,,,,,,,,,,,,,,,,,,,,,,,,,,,,,,,,,,,,,,,,,,,,,,,,,,
1720179883,98,0,4272.179688,4263.717773,4323.205078,4316.922852,4251.922852,4319.615234,4306.282227,4293.333496,4227.05127,4195,4438.333496,4516.666504,4367.307617,4464.358887,,,,,,,,,,,,,,,,,,,,,,,,,,,,,,,,,,,,,,,,,,,,,,,,,,,,,,,,,,,,,,,,,,,,,,
1720179883,99,0,4243.974121,4257.179688,4297.692383,4293.589844,4253.205078,4311.282227,4283.717773,4273.974121,4208.077148,4181.410156,4423.717773,4479.487305,4343.589844,4435.897461,,,,,,,,,,,,,,,,,,,,,,,,,,,,,,,,,,,,,,,,,,,,,,,,,,,,,,,,,,,,,,,,,,,,,,
1720179883,100,0,4231.025879,4265.769043,4287.307617,4284.871582,4247.94873,4309.102539,4270.769043,4262.307617,4199.487305,4176.666504,4416.794922,4456.666504,4338.589844,4424.230957,,,,,,,,,,,,,,,,,,,,,,,,,,,,,,,,,,,,,,,,,,,,,,,,,,,,,,,,,,,,,,,,,,,,,,
1720179883,101,0,4250,4257.307617,4304.871582,4303.077148,4253.333496,4311.666504,4268.589844,4259.743652,4205.897461,4181.153809,4421.666504,4464.743652,4354.615234,4445.641113,,,,,,,,,,,,,,,,,,,,,,,,,,,,,,,,,,,,,,,,,,,,,,,,,,,,,,,,,,,,,,,,,,,,,,
1720179883,102,0,4262.179688,4265.769043,4315.384766,4314.487305,4262.179688,4314.615234,4271.666504,4260.641113,4203.717773,4177.563965,4419.487305,4475.641113,4355.769043,4459.102539,,,,,,,,,,,,,,,,,,,,,,,,,,,,,,,,,,,,,,,,,,,,,,,,,,,,,,,,,,,,,,,,,,,,,,
1720179883,103,0,4249.230957,4282.94873,4303.974121,4309.358887,4256.282227,4321.410156,4283.461426,4270.897461,4204.230957,4179.487305,4411.922852,4471.794922,4340.512695,4446.025879,,,,,,,,,,,,,,,,,,,,,,,,,,,,,,,,,,,,,,,,,,,,,,,,,,,,,,,,,,,,,,,,,,,,,,
1720179883,104,0,4240.641113,4268.589844,4303.461426,4307.94873,4249.615234,4327.94873,4299.487305,4285.256348,4207.692383,4182.05127,4413.077148,4470.512695,4336.666504,4435.256348,,,,,,,,,,,,,,,,,,,,,,,,,,,,,,,,,,,,,,,,,,,,,,,,,,,,,,,,,,,,,,,,,,,,,,
1720179883,105,0,4244.230957,4247.692383,4311.922852,4304.615234,4252.05127,4330,4308.077148,4293.589844,4205.897461,4180.512695,4425.641113,4481.153809,4340.512695,4443.717773,,,,,,,,,,,,,,,,,,,,,,,,,,,,,,,,,,,,,,,,,,,,,,,,,,,,,,,,,,,,,,,,,,,,,,
1720179883,106,0,4245,4249.743652,4309.230957,4294.871582,4247.563965,4327.94873,4310.384766,4295.384766,4212.05127,4184.871582,4433.333496,4495.769043,4341.666504,4455.256348,,,,,,,,,,,,,,,,,,,,,,,,,,,,,,,,,,,,,,,,,,,,,,,,,,,,,,,,,,,,,,,,,,,,,,
1720179883,107,0,4241.410156,4251.410156,4307.692383,4295.641113,4236.922852,4325.128418,4313.974121,4296.922852,4212.94873,4184.743652,4429.358887,4503.461426,4343.461426,4456.794922,,,,,,,,,,,,,,,,,,,,,,,,,,,,,,,,,,,,,,,,,,,,,,,,,,,,,,,,,,,,,,,,,,,,,,
1720179883,108,0,4237.563965,4244.102539,4311.538574,4300.256348,4234.102539,4325.256348,4313.717773,4296.410156,4207.307617,4183.846191,4428.846191,4502.436035,4342.820313,4458.846191,,,,,,,,,,,,,,,,,,,,,,,,,,,,,,,,,,,,,,,,,,,,,,,,,,,,,,,,,,,,,,,,,,,,,,
1720179883,109,0,4233.333496,4255,4309.102539,4293.333496,4236.410156,4320.641113,4307.307617,4291.538574,4208.846191,4186.025879,4430.641113,4502.05127,4342.179688,4468.974121,,,,,,,,,,,,,,,,,,,,,,,,,,,,,,,,,,,,,,,,,,,,,,,,,,,,,,,,,,,,,,,,,,,,,,
1720179883,110,0,4231.025879,4266.025879,4308.205078,4290.641113,4237.436035,4312.94873,4306.410156,4290.256348,4210.769043,4182.307617,4428.205078,4504.871582,4340,4475.128418,,,,,,,,,,,,,,,,,,,,,,,,,,,,,,,,,,,,,,,,,,,,,,,,,,,,,,,,,,,,,,,,,,,,,,
1720179883,111,0,4239.871582,4259.230957,4320.384766,4302.692383,4237.179688,4312.563965,4309.871582,4292.05127,4205.897461,4176.922852,4425.769043,4509.230957,4336.538574,4475.256348,,,,,,,,,,,,,,,,,,,,,,,,,,,,,,,,,,,,,,,,,,,,,,,,,,,,,,,,,,,,,,,,,,,,,,
1720179883,112,0,4257.692383,4264.230957,4330.897461,4312.179688,4232.307617,4315,4310.384766,4291.794922,4203.205078,4179.358887,4433.333496,4520.256348,4342.94873,4486.922852,23.53054,34.628185,1.314887,1.321194,0.404605,4.181146,14.900253,1.058387,1.022869,1.579454,10.522752,42.755692,1.964487,1.635073,0.376046,4.855124,19.518709,0.84875,1.221561,0.328958,0.544257,2.835197,0.951585,0.279396,0.101566,0.609279,0.787176,0.27189,0.19286,0.045114,0.791618,3.416718,1.895586,1.1138,0.181256,0.888368,3.012102,1.508586,0.95626,0.211103,0.872633,1.725203,0.592052,0.32862,0.170147,0.509715,0.795621,0.355559,0.181602,0.145516,2.385318,9.745258,1.936839,0.481883,0.196796,15.500883,44.590553,6.60531,1.767173,0.305439,5.467806,23.152626,3.425547,1.203696,0.400962,12.163192,37.172562,3.810952,1.55974,0.234272
1720179883,113,0,4266.666504,4281.666504,4334.102539,4320.641113,4232.692383,4312.179688,4309.358887,4294.743652,4212.307617,4184.487305,4447.179688,4534.230957,4357.436035,4504.871582,,,,,,,,,,,,,,,,,,,,,,,,,,,,,,,,,,,,,,,,,,,,,,,,,,,,,,,,,,,,,,,,,,,,,,
1720179883,114,0,4258.461426,4280.769043,4329.615234,4327.05127,4238.846191,4312.436035,4304.615234,4296.153809,4220.769043,4187.436035,4449.871582,4532.820313,4359.102539,4506.025879,,,,,,,,,,,,,,,,,,,,,,,,,,,,,,,,,,,,,,,,,,,,,,,,,,,,,,,,,,,,,,,,,,,,,,
1720179883,115,0,4240.384766,4267.05127,4313.846191,4318.077148,4237.94873,4313.461426,4292.179688,4285,4211.666504,4181.410156,4434.230957,4511.538574,4342.179688,4490.256348,,,,,,,,,,,,,,,,,,,,,,,,,,,,,,,,,,,,,,,,,,,,,,,,,,,,,,,,,,,,,,,,,,,,,,
1720179883,116,0,4227.563965,4255.769043,4302.692383,4302.179688,4237.692383,4312.692383,4290.769043,4280.256348,4198.077148,4170.128418,4420.256348,4491.538574,4324.230957,4476.025879,,,,,,,,,,,,,,,,,,,,,,,,,,,,,,,,,,,,,,,,,,,,,,,,,,,,,,,,,,,,,,,,,,,,,,
1720179883,117,0,4225.897461,4245.641113,4304.487305,4297.436035,4244.743652,4320.897461,4304.615234,4291.282227,4205.512695,4174.358887,4424.230957,4487.307617,4313.461426,4471.538574,,,,,,,,,,,,,,,,,,,,,,,,,,,,,,,,,,,,,,,,,,,,,,,,,,,,,,,,,,,,,,,,,,,,,,
1720179883,118,0,4230.641113,4250.769043,4311.666504,4302.436035,4242.820313,4328.461426,4313.205078,4297.692383,4206.410156,4177.179688,4423.333496,4489.487305,4307.94873,4474.871582,,,,,,,,,,,,,,,,,,,,,,,,,,,,,,,,,,,,,,,,,,,,,,,,,,,,,,,,,,,,,,,,,,,,,,
1720179883,119,0,4243.205078,4270.641113,4324.487305,4312.94873,4237.436035,4327.94873,4321.794922,4303.974121,4197.05127,4172.307617,4421.410156,4497.692383,4314.230957,4485.512695,,,,,,,,,,,,,,,,,,,,,,,,,,,,,,,,,,,,,,,,,,,,,,,,,,,,,,,,,,,,,,,,,,,,,,
1720179883,120,0,4258.846191,4277.820313,4339.487305,4336.538574,4242.563965,4327.692383,4329.487305,4313.205078,4207.94873,4177.563965,4431.794922,4514.871582,4333.589844,4501.025879,,,,,,,,,,,,,,,,,,,,,,,,,,,,,,,,,,,,,,,,,,,,,,,,,,,,,,,,,,,,,,,,,,,,,,
1720179883,121,0,4258.589844,4278.077148,4334.871582,4347.436035,4252.179688,4323.333496,4320.769043,4307.05127,4212.307617,4178.461426,4439.871582,4521.666504,4347.563965,4511.025879,,,,,,,,,,,,,,,,,,,,,,,,,,,,,,,,,,,,,,,,,,,,,,,,,,,,,,,,,,,,,,,,,,,,,,
1720179883,122,0,4243.461426,4288.846191,4313.461426,4328.589844,4257.820313,4315,4302.05127,4291.666504,4203.717773,4174.615234,4437.820313,4506.153809,4341.025879,4507.179688,,,,,,,,,,,,,,,,,,,,,,,,,,,,,,,,,,,,,,,,,,,,,,,,,,,,,,,,,,,,,,,,,,,,,,
1720179883,123,0,4229.358887,4287.563965,4295.128418,4309.615234,4255.384766,4310.769043,4283.589844,4276.025879,4199.230957,4173.846191,4426.922852,4478.589844,4322.179688,4491.794922,,,,,,,,,,,,,,,,,,,,,,,,,,,,,,,,,,,,,,,,,,,,,,,,,,,,,,,,,,,,,,,,,,,,,,
1720179883,124,0,4220.384766,4256.538574,4284.358887,4299.871582,4248.205078,4311.025879,4276.025879,4263.461426,4193.461426,4166.922852,4417.692383,4462.563965,4309.743652,4479.487305,,,,,,,,,,,,,,,,,,,,,,,,,,,,,,,,,,,,,,,,,,,,,,,,,,,,,,,,,,,,,,,,,,,,,,
1720179883,125,0,4221.922852,4237.05127,4288.846191,4300.128418,4247.563965,4314.230957,4281.794922,4268.333496,4189.102539,4161.410156,4416.666504,4468.333496,4311.794922,4483.846191,,,,,,,,,,,,,,,,,,,,,,,,,,,,,,,,,,,,,,,,,,,,,,,,,,,,,,,,,,,,,,,,,,,,,,
1720179883,126,0,4241.538574,4256.025879,4315.256348,4317.436035,4249.230957,4319.487305,4297.436035,4287.179688,4193.333496,4168.717773,4427.820313,4497.563965,4332.307617,4510.641113,,,,,,,,,,,,,,,,,,,,,,,,,,,,,,,,,,,,,,,,,,,,,,,,,,,,,,,,,,,,,,,,,,,,,,
1720179883,127,0,4257.563965,4280,4335.256348,4333.205078,4246.153809,4323.974121,4313.589844,4304.615234,4203.205078,4178.589844,4446.282227,4538.461426,4356.922852,4540.384766,,,,,,,,,,,,,,,,,,,,,,,,,,,,,,,,,,,,,,,,,,,,,,,,,,,,,,,,,,,,,,,,,,,,,,
1720179883,0,0,4247.692383,4280,4325.128418,4323.846191,4243.717773,4324.102539,4318.846191,4312.179688,4211.410156,4181.282227,4449.871582,4553.461426,4353.461426,4542.179688,35.321037,35.633118,0.987911,1.39672,0.38781,4.05959,16.144342,1.41994,0.9832,1.619308,11.959857,45.218658,2.074015,1.787464,0.380817,4.892414,20.350679,1.021973,1.158042,0.321563,0.623007,2.184897,0.865732,0.310428,0.094448,0.563092,0.904373,0.265639,0.20747,0.050789,0.835006,3.963111,1.974726,1.064218,0.193351,0.879752,3.467678,1.561874,0.959293,0.206861,0.958865,1.293953,0.514348,0.35593,0.18635,0.487407,0.599617,0.357408,0.209473,0.155109,2.547692,9.851487,1.723798,0.499603,0.213184,17.471294,47.166885,6.513244,2.009217,0.30856,6.493834,23.372059,2.709053,1.233471,0.408474,13.623734,38.67812,3.519125,1.629398,0.253298
1720179883,1,0,4231.666504,4269.230957,4306.794922,4314.230957,4248.077148,4321.282227,4312.05127,4303.205078,4209.358887,4177.692383,4434.743652,4530,4328.717773,4522.563965,,,,,,,,,,,,,,,,,,,,,,,,,,,,,,,,,,,,,,,,,,,,,,,,,,,,,,,,,,,,,,,,,,,,,,
1720179883,2,0,4231.922852,4267.05127,4305.256348,4323.717773,4253.974121,4322.179688,4306.538574,4292.436035,4199.487305,4171.922852,4423.461426,4502.94873,4316.410156,4507.94873,,,,,,,,,,,,,,,,,,,,,,,,,,,,,,,,,,,,,,,,,,,,,,,,,,,,,,,,,,,,,,,,,,,,,,
1720179883,3,0,4237.820313,4264.487305,4311.538574,4331.153809,4253.717773,4327.820313,4312.820313,4300.641113,4206.282227,4176.025879,4428.333496,4498.974121,4317.94873,4504.615234,,,,,,,,,,,,,,,,,,,,,,,,,,,,,,,,,,,,,,,,,,,,,,,,,,,,,,,,,,,,,,,,,,,,,,
1720179883,4,0,4237.820313,4264.487305,4312.94873,4328.589844,4249.487305,4328.077148,4322.692383,4312.307617,4208.589844,4175.897461,4434.102539,4511.410156,4320.769043,4512.563965,,,,,,,,,,,,,,,,,,,,,,,,,,,,,,,,,,,,,,,,,,,,,,,,,,,,,,,,,,,,,,,,,,,,,,
1720179883,5,0,4248.205078,4285.641113,4321.282227,4327.05127,4248.461426,4325.769043,4329.487305,4318.974121,4198.974121,4170,4436.538574,4532.05127,4326.794922,4525.256348,,,,,,,,,,,,,,,,,,,,,,,,,,,,,,,,,,,,,,,,,,,,,,,,,,,,,,,,,,,,,,,,,,,,,,
1720179883,6,0,4263.461426,4292.05127,4338.205078,4338.717773,4246.922852,4326.794922,4331.282227,4325.641113,4200.769043,4170.897461,4436.922852,4543.461426,4323.077148,4529.230957,,,,,,,,,,,,,,,,,,,,,,,,,,,,,,,,,,,,,,,,,,,,,,,,,,,,,,,,,,,,,,,,,,,,,,
1720179883,7,0,4255.769043,4266.282227,4340,4348.846191,4245.256348,4327.179688,4328.205078,4322.94873,4198.461426,4166.794922,4429.615234,4533.077148,4308.974121,4524.743652,,,,,,,,,,,,,,,,,,,,,,,,,,,,,,,,,,,,,,,,,,,,,,,,,,,,,,,,,,,,,,,,,,,,,,
1720179883,8,0,4231.794922,4261.025879,4314.615234,4331.794922,4248.717773,4325.641113,4320.641113,4311.153809,4193.974121,4164.871582,4425.641113,4514.487305,4309.358887,4516.282227,,,,,,,,,,,,,,,,,,,,,,,,,,,,,,,,,,,,,,,,,,,,,,,,,,,,,,,,,,,,,,,,,,,,,,
1720179883,9,0,4224.615234,4271.410156,4292.94873,4313.589844,4248.974121,4318.589844,4300.769043,4295.512695,4196.025879,4170,4423.589844,4496.794922,4310.384766,4498.846191,,,,,,,,,,,,,,,,,,,,,,,,,,,,,,,,,,,,,,,,,,,,,,,,,,,,,,,,,,,,,,,,,,,,,,
1720179883,10,0,4229.743652,4268.333496,4292.94873,4316.922852,4246.922852,4312.563965,4280,4279.230957,4196.794922,4168.205078,4416.666504,4485.128418,4300,4488.333496,,,,,,,,,,,,,,,,,,,,,,,,,,,,,,,,,,,,,,,,,,,,,,,,,,,,,,,,,,,,,,,,,,,,,,
1720179883,11,0,4226.153809,4271.922852,4294.102539,4319.615234,4248.846191,4315.512695,4279.358887,4273.077148,4203.717773,4171.153809,4420.384766,4490.256348,4303.974121,4502.05127,,,,,,,,,,,,,,,,,,,,,,,,,,,,,,,,,,,,,,,,,,,,,,,,,,,,,,,,,,,,,,,,,,,,,,
1720179883,12,0,4221.410156,4274.358887,4293.717773,4322.820313,4249.615234,4321.025879,4295.256348,4284.487305,4214.487305,4182.307617,4429.615234,4500.384766,4312.94873,4509.615234,,,,,,,,,,,,,,,,,,,,,,,,,,,,,,,,,,,,,,,,,,,,,,,,,,,,,,,,,,,,,,,,,,,,,,
1720179883,13,0,4220.641113,4265.256348,4292.692383,4330,4247.692383,4325,4310.641113,4302.05127,4213.846191,4182.05127,4425.769043,4491.922852,4301.666504,4493.333496,,,,,,,,,,,,,,,,,,,,,,,,,,,,,,,,,,,,,,,,,,,,,,,,,,,,,,,,,,,,,,,,,,,,,,
1720179883,14,0,4213.846191,4260.128418,4286.025879,4320,4247.563965,4328.205078,4318.205078,4311.666504,4211.282227,4179.358887,4418.589844,4477.820313,4290,4481.538574,,,,,,,,,,,,,,,,,,,,,,,,,,,,,,,,,,,,,,,,,,,,,,,,,,,,,,,,,,,,,,,,,,,,,,
1720179883,15,0,4211.538574,4252.94873,4283.589844,4312.820313,4250.256348,4327.563965,4322.563965,4313.333496,4213.717773,4181.922852,4416.666504,4489.743652,4294.615234,4491.794922,,,,,,,,,,,,,,,,,,,,,,,,,,,,,,,,,,,,,,,,,,,,,,,,,,,,,,,,,,,,,,,,,,,,,,
1720179883,16,0,4221.794922,4253.205078,4298.333496,4327.436035,4246.666504,4326.794922,4326.538574,4311.538574,4207.563965,4173.846191,4416.794922,4515.897461,4296.794922,4503.974121,46.835953,32.825878,0.812575,1.507385,0.377467,3.959614,16.097088,1.815022,1.022648,1.650558,12.704443,42.940285,2.242082,1.90091,0.379863,4.849028,19.346416,1.289168,1.050813,0.322337,0.67626,1.699911,0.758077,0.332104,0.09221,0.501068,1.101803,0.250098,0.220486,0.056124,1.082884,5.275791,1.91983,0.980825,0.202116,1.053143,4.549272,1.543458,0.925574,0.198317,1.040665,0.980386,0.447907,0.365128,0.209938,0.52501,0.457992,0.363158,0.235145,0.163457,2.776223,8.885506,1.453353,0.511264,0.233114,18.375763,44.685162,6.140512,2.247042,0.325303,7.533521,21.051558,2.049775,1.257378,0.420505,14.493452,36.127869,3.179121,1.670294,0.289228
1720179883,17,0,4232.820313,4281.666504,4312.307617,4332.563965,4236.282227,4328.974121,4325.512695,4313.974121,4209.102539,4173.846191,4422.820313,4523.205078,4295.128418,4507.563965,,,,,,,,,,,,,,,,,,,,,,,,,,,,,,,,,,,,,,,,,,,,,,,,,,,,,,,,,,,,,,,,,,,,,,
1720179883,18,0,4231.538574,4301.666504,4304.871582,4324.615234,4230.256348,4321.410156,4318.077148,4311.538574,4210.128418,4176.153809,4427.05127,4508.846191,4300.641113,4507.179688,,,,,,,,,,,,,,,,,,,,,,,,,,,,,,,,,,,,,,,,,,,,,,,,,,,,,,,,,,,,,,,,,,,,,,
1720179883,19,0,4222.179688,4274.487305,4292.820313,4325.256348,4231.282227,4312.05127,4309.615234,4303.461426,4201.025879,4166.666504,4424.743652,4496.922852,4303.717773,4498.589844,,,,,,,,,,,,,,,,,,,,,,,,,,,,,,,,,,,,,,,,,,,,,,,,,,,,,,,,,,,,,,,,,,,,,,
1720179883,20,0,4219.743652,4247.692383,4294.230957,4330.256348,4233.333496,4316.410156,4301.282227,4293.077148,4201.794922,4168.589844,4422.436035,4490.256348,4298.846191,4491.153809,,,,,,,,,,,,,,,,,,,,,,,,,,,,,,,,,,,,,,,,,,,,,,,,,,,,,,,,,,,,,,,,,,,,,,
1720179883,21,0,4221.410156,4263.205078,4297.05127,4332.307617,4234.487305,4324.871582,4289.358887,4281.282227,4197.820313,4174.230957,4412.179688,4477.692383,4288.461426,4491.153809,,,,,,,,,,,,,,,,,,,,,,,,,,,,,,,,,,,,,,,,,,,,,,,,,,,,,,,,,,,,,,,,,,,,,,
1720179883,22,0,4219.102539,4287.563965,4298.205078,4334.102539,4236.153809,4326.410156,4290.128418,4284.102539,4197.94873,4174.871582,4409.358887,4477.436035,4290.128418,4492.692383,,,,,,,,,,,,,,,,,,,,,,,,,,,,,,,,,,,,,,,,,,,,,,,,,,,,,,,,,,,,,,,,,,,,,,
1720179884,23,0,4218.205078,4275.769043,4298.333496,4326.410156,4235.897461,4325.128418,4303.846191,4293.717773,4206.666504,4177.563965,4418.846191,4489.487305,4297.563965,4492.307617,,,,,,,,,,,,,,,,,,,,,,,,,,,,,,,,,,,,,,,,,,,,,,,,,,,,,,,,,,,,,,,,,,,,,,
1720179884,24,0,4215.512695,4245.641113,4283.846191,4314.230957,4234.358887,4325.256348,4311.025879,4298.717773,4199.743652,4174.358887,4416.922852,4484.615234,4286.922852,4489.102539,,,,,,,,,,,,,,,,,,,,,,,,,,,,,,,,,,,,,,,,,,,,,,,,,,,,,,,,,,,,,,,,,,,,,,
1720179884,25,0,4213.077148,4231.410156,4279.615234,4317.692383,4233.974121,4326.922852,4320.641113,4311.794922,4195.769043,4170.769043,4410.897461,4483.077148,4280,4489.871582,,,,,,,,,,,,,,,,,,,,,,,,,,,,,,,,,,,,,,,,,,,,,,,,,,,,,,,,,,,,,,,,,,,,,,
1720179884,26,0,4219.358887,4230.769043,4299.102539,4329.743652,4235,4328.461426,4331.282227,4325.897461,4205.641113,4176.025879,4415.897461,4501.282227,4292.179688,4494.487305,,,,,,,,,,,,,,,,,,,,,,,,,,,,,,,,,,,,,,,,,,,,,,,,,,,,,,,,,,,,,,,,,,,,,,
1720179884,27,0,4222.692383,4231.282227,4295,4326.538574,4235,4325.512695,4323.205078,4317.05127,4201.282227,4178.974121,4421.538574,4505,4300.897461,4496.153809,,,,,,,,,,,,,,,,,,,,,,,,,,,,,,,,,,,,,,,,,,,,,,,,,,,,,,,,,,,,,,,,,,,,,,
1720179884,28,0,4215.512695,4225.641113,4271.794922,4314.615234,4233.589844,4322.692383,4307.05127,4297.94873,4191.282227,4176.794922,4418.077148,4488.205078,4294.743652,4495.256348,,,,,,,,,,,,,,,,,,,,,,,,,,,,,,,,,,,,,,,,,,,,,,,,,,,,,,,,,,,,,,,,,,,,,,
1720179884,29,0,4215.128418,4232.563965,4283.589844,4318.461426,4233.205078,4321.282227,4299.743652,4294.102539,4194.230957,4176.282227,4413.846191,4475.128418,4286.153809,4495.256348,,,,,,,,,,,,,,,,,,,,,,,,,,,,,,,,,,,,,,,,,,,,,,,,,,,,,,,,,,,,,,,,,,,,,,
1720179884,30,0,4219.615234,4251.922852,4301.666504,4325,4231.538574,4317.94873,4296.282227,4293.461426,4184.871582,4166.666504,4412.05127,4464.358887,4279.871582,4485.769043,,,,,,,,,,,,,,,,,,,,,,,,,,,,,,,,,,,,,,,,,,,,,,,,,,,,,,,,,,,,,,,,,,,,,,
1720179884,31,0,4217.436035,4239.615234,4288.846191,4324.743652,4231.025879,4318.974121,4293.846191,4292.307617,4176.410156,4159.743652,4410.256348,4457.436035,4271.153809,4473.077148,,,,,,,,,,,,,,,,,,,,,,,,,,,,,,,,,,,,,,,,,,,,,,,,,,,,,,,,,,,,,,,,,,,,,,
1720179884,32,0,4215.769043,4215.384766,4281.922852,4328.846191,4232.820313,4319.358887,4294.358887,4290.256348,4176.025879,4163.589844,4405.128418,4459.358887,4265.384766,4473.461426,54.350502,26.970343,0.770453,1.689332,0.372487,3.909656,14.710182,2.165497,1.186107,1.648033,12.631098,36.537991,2.368749,1.998532,0.374794,4.763586,16.692472,1.577017,0.963713,0.332295,0.690377,1.390356,0.640451,0.334275,0.097126,0.424217,1.381133,0.23263,0.2303,0.059373,1.517144,7.092372,1.781374,0.897309,0.203959,1.408283,6.051316,1.492097,0.871323,0.185491,1.125793,0.799681,0.401086,0.357959,0.234048,0.597284,0.380207,0.371251,0.257817,0.16603,2.997628,7.172423,1.161404,0.528553,0.251155,18.298292,38.068478,5.46664,2.519225,0.351794,8.386902,16.963329,1.528223,1.305398,0.430191,14.888429,30.339962,2.785164,1.737807,0.333344
1720179884,33,0,4215.897461,4224.615234,4283.717773,4326.794922,4231.153809,4315.769043,4293.589844,4288.461426,4166.410156,4159.230957,4403.974121,4462.94873,4268.974121,4478.333496,,,,,,,,,,,,,,,,,,,,,,,,,,,,,,,,,,,,,,,,,,,,,,,,,,,,,,,,,,,,,,,,,,,,,,
1720179884,34,0,4215.897461,4246.153809,4279.743652,4324.487305,4231.666504,4317.05127,4293.846191,4293.846191,4173.205078,4159.102539,4416.922852,4472.563965,4280.256348,4481.794922,,,,,,,,,,,,,,,,,,,,,,,,,,,,,,,,,,,,,,,,,,,,,,,,,,,,,,,,,,,,,,,,,,,,,,
1720179884,35,0,4215,4248.846191,4281.410156,4326.282227,4230.512695,4320.897461,4296.410156,4296.153809,4183.589844,4165.128418,4423.589844,4476.922852,4280.641113,4484.743652,,,,,,,,,,,,,,,,,,,,,,,,,,,,,,,,,,,,,,,,,,,,,,,,,,,,,,,,,,,,,,,,,,,,,,
1720179884,36,0,4207.05127,4239.487305,4274.487305,4316.282227,4221.153809,4317.179688,4301.794922,4294.358887,4183.077148,4165.256348,4420.769043,4467.820313,4277.05127,4484.615234,,,,,,,,,,,,,,,,,,,,,,,,,,,,,,,,,,,,,,,,,,,,,,,,,,,,,,,,,,,,,,,,,,,,,,
1720179884,37,0,4205.512695,4225.384766,4262.307617,4301.282227,4215.128418,4312.307617,4310,4300.384766,4184.871582,4162.436035,4421.538574,4464.487305,4281.538574,4488.717773,,,,,,,,,,,,,,,,,,,,,,,,,,,,,,,,,,,,,,,,,,,,,,,,,,,,,,,,,,,,,,,,,,,,,,
1720179884,38,0,4214.487305,4219.615234,4271.153809,4303.077148,4218.077148,4315.897461,4313.589844,4307.820313,4185.769043,4164.102539,4417.179688,4462.563965,4272.307617,4487.563965,,,,,,,,,,,,,,,,,,,,,,,,,,,,,,,,,,,,,,,,,,,,,,,,,,,,,,,,,,,,,,,,,,,,,,
1720179884,39,0,4218.846191,4231.025879,4280.641113,4314.230957,4218.589844,4318.461426,4307.563965,4302.563965,4185.641113,4171.410156,4412.05127,4452.563965,4265.128418,4476.794922,,,,,,,,,,,,,,,,,,,,,,,,,,,,,,,,,,,,,,,,,,,,,,,,,,,,,,,,,,,,,,,,,,,,,,
1720179884,40,0,4230.384766,4240.897461,4283.846191,4323.205078,4218.333496,4313.717773,4298.333496,4293.717773,4186.282227,4170.897461,4418.205078,4452.94873,4284.615234,4484.871582,,,,,,,,,,,,,,,,,,,,,,,,,,,,,,,,,,,,,,,,,,,,,,,,,,,,,,,,,,,,,,,,,,,,,,
1720179884,41,0,4253.205078,4248.846191,4305.256348,4332.692383,4220.384766,4311.025879,4295.128418,4293.974121,4182.94873,4164.358887,4430.512695,4472.563965,4301.282227,4509.230957,,,,,,,,,,,,,,,,,,,,,,,,,,,,,,,,,,,,,,,,,,,,,,,,,,,,,,,,,,,,,,,,,,,,,,
1720179884,42,0,4258.974121,4262.436035,4315.512695,4328.333496,4216.538574,4310.641113,4296.794922,4297.820313,4183.333496,4165.384766,4438.974121,4491.922852,4297.563965,4516.282227,,,,,,,,,,,,,,,,,,,,,,,,,,,,,,,,,,,,,,,,,,,,,,,,,,,,,,,,,,,,,,,,,,,,,,
1720179884,43,0,4250.256348,4260.384766,4298.333496,4315,4217.436035,4303.205078,4295.128418,4296.025879,4185,4168.461426,4434.358887,4488.205078,4292.692383,4508.717773,,,,,,,,,,,,,,,,,,,,,,,,,,,,,,,,,,,,,,,,,,,,,,,,,,,,,,,,,,,,,,,,,,,,,,
1720179884,44,0,4244.487305,4239.358887,4286.794922,4308.077148,4217.563965,4294.615234,4291.922852,4285.897461,4171.794922,4161.794922,4419.743652,4462.436035,4287.179688,4498.461426,,,,,,,,,,,,,,,,,,,,,,,,,,,,,,,,,,,,,,,,,,,,,,,,,,,,,,,,,,,,,,,,,,,,,,
1720179884,45,0,4236.153809,4230.256348,4281.153809,4296.666504,4205.769043,4295.897461,4289.615234,4282.436035,4173.461426,4163.077148,4419.358887,4444.102539,4274.230957,4483.077148,,,,,,,,,,,,,,,,,,,,,,,,,,,,,,,,,,,,,,,,,,,,,,,,,,,,,,,,,,,,,,,,,,,,,,
1720179884,46,0,4226.410156,4245.641113,4267.05127,4289.743652,4205.512695,4297.05127,4284.230957,4281.282227,4180.512695,4167.94873,4420.897461,4437.94873,4264.358887,4467.820313,,,,,,,,,,,,,,,,,,,,,,,,,,,,,,,,,,,,,,,,,,,,,,,,,,,,,,,,,,,,,,,,,,,,,,
1720179884,47,0,4221.538574,4250.128418,4258.717773,4302.05127,4215.384766,4293.461426,4276.666504,4270.128418,4168.461426,4159.615234,4409.358887,4421.153809,4258.461426,4456.410156,,,,,,,,,,,,,,,,,,,,,,,,,,,,,,,,,,,,,,,,,,,,,,,,,,,,,,,,,,,,,,,,,,,,,,
1720179884,48,0,4227.05127,4230.641113,4267.436035,4315.897461,4209.358887,4291.282227,4276.538574,4269.358887,4178.589844,4166.538574,4413.461426,4421.922852,4263.205078,4461.538574,55.230484,19.70513,0.821144,1.959412,0.367966,3.854477,12.308274,2.420121,1.477307,1.591368,11.715629,27.829752,2.390203,2.128541,0.367368,4.582054,13.043498,1.816663,0.968882,0.346737,0.660958,1.193804,0.532223,0.314447,0.10713,0.345745,1.704066,0.222192,0.235858,0.059596,2.039754,8.980312,1.648018,0.863837,0.196409,1.870024,7.607132,1.468578,0.842691,0.169366,1.179925,0.740237,0.373304,0.339763,0.250861,0.668016,0.36567,0.375582,0.276012,0.160673,3.172789,5.214682,0.89184,0.568968,0.261822,17.411606,29.295475,4.613357,2.910779,0.379076,8.88568,12.312951,1.180438,1.418947,0.430826,14.68055,22.936638,2.367237,1.902113,0.374133
1720179884,49,0,4255.384766,4233.974121,4291.538574,4320.384766,4196.153809,4291.666504,4291.922852,4289.358887,4202.563965,4182.692383,4434.230957,4466.282227,4289.615234,4492.436035,,,,,,,,,,,,,,,,,,,,,,,,,,,,,,,,,,,,,,,,,,,,,,,,,,,,,,,,,,,,,,,,,,,,,,
1720179884,50,0,4287.307617,4264.102539,4318.333496,4329.358887,4202.307617,4294.102539,4310,4306.410156,4214.487305,4189.743652,4452.179688,4508.205078,4321.282227,4527.05127,,,,,,,,,,,,,,,,,,,,,,,,,,,,,,,,,,,,,,,,,,,,,,,,,,,,,,,,,,,,,,,,,,,,,,
1720179884,51,0,4283.333496,4275.769043,4320.512695,4333.846191,4212.820313,4296.025879,4304.615234,4299.871582,4216.794922,4191.153809,4455,4502.436035,4324.102539,4527.307617,,,,,,,,,,,,,,,,,,,,,,,,,,,,,,,,,,,,,,,,,,,,,,,,,,,,,,,,,,,,,,,,,,,,,,
1720179884,52,0,4263.205078,4265.897461,4300.384766,4319.871582,4205.897461,4293.333496,4285.641113,4282.436035,4206.538574,4177.94873,4441.153809,4474.487305,4301.922852,4497.436035,,,,,,,,,,,,,,,,,,,,,,,,,,,,,,,,,,,,,,,,,,,,,,,,,,,,,,,,,,,,,,,,,,,,,,
1720179884,53,0,4259.102539,4256.666504,4287.179688,4305.769043,4196.794922,4291.794922,4279.743652,4277.563965,4202.563965,4173.205078,4433.589844,4459.871582,4292.436035,4478.974121,,,,,,,,,,,,,,,,,,,,,,,,,,,,,,,,,,,,,,,,,,,,,,,,,,,,,,,,,,,,,,,,,,,,,,
1720179884,54,0,4256.666504,4237.94873,4282.94873,4306.410156,4197.05127,4292.05127,4280.512695,4280,4205.256348,4179.487305,4434.871582,4451.538574,4291.282227,4480.769043,,,,,,,,,,,,,,,,,,,,,,,,,,,,,,,,,,,,,,,,,,,,,,,,,,,,,,,,,,,,,,,,,,,,,,
1720179884,55,0,4252.820313,4215.641113,4278.589844,4309.615234,4199.358887,4291.794922,4282.94873,4280.897461,4195.512695,4166.922852,4430.769043,4453.461426,4282.179688,4483.717773,,,,,,,,,,,,,,,,,,,,,,,,,,,,,,,,,,,,,,,,,,,,,,,,,,,,,,,,,,,,,,,,,,,,,,
1720179884,56,0,4257.307617,4217.820313,4284.743652,4305.897461,4199.743652,4297.436035,4293.846191,4289.358887,4204.743652,4204.615234,4433.333496,4472.820313,4282.05127,4486.282227,,,,,,,,,,,,,,,,,,,,,,,,,,,,,,,,,,,,,,,,,,,,,,,,,,,,,,,,,,,,,,,,,,,,,,
1720179884,57,0,4260.769043,4236.794922,4298.717773,4302.307617,4201.922852,4303.717773,4301.794922,4300.512695,4245.512695,4329.230957,4445,4486.794922,4294.743652,4494.487305,,,,,,,,,,,,,,,,,,,,,,,,,,,,,,,,,,,,,,,,,,,,,,,,,,,,,,,,,,,,,,,,,,,,,,
1720179884,58,0,4248.846191,4232.05127,4289.358887,4297.820313,4199.102539,4300.512695,4294.871582,4290.641113,4255,4405.384766,4441.025879,4473.589844,4296.538574,4490.128418,,,,,,,,,,,,,,,,,,,,,,,,,,,,,,,,,,,,,,,,,,,,,,,,,,,,,,,,,,,,,,,,,,,,,,
1720179884,59,0,4240.512695,4210.641113,4269.871582,4290.641113,4194.615234,4298.333496,4284.487305,4278.333496,4246.538574,4400,4437.05127,4463.205078,4291.025879,4478.589844,,,,,,,,,,,,,,,,,,,,,,,,,,,,,,,,,,,,,,,,,,,,,,,,,,,,,,,,,,,,,,,,,,,,,,
1720179884,60,0,4259.743652,4224.358887,4281.666504,4296.282227,4195.769043,4302.179688,4281.538574,4280.128418,4261.794922,4413.589844,4443.077148,4473.717773,4298.205078,4483.846191,,,,,,,,,,,,,,,,,,,,,,,,,,,,,,,,,,,,,,,,,,,,,,,,,,,,,,,,,,,,,,,,,,,,,,
1720179884,61,0,4280.897461,4256.922852,4302.179688,4317.436035,4191.025879,4304.487305,4284.615234,4281.410156,4274.230957,4437.820313,4443.846191,4478.077148,4307.179688,4489.487305,,,,,,,,,,,,,,,,,,,,,,,,,,,,,,,,,,,,,,,,,,,,,,,,,,,,,,,,,,,,,,,,,,,,,,
1720179884,62,0,4275.384766,4257.436035,4288.461426,4330,4189.615234,4299.871582,4287.820313,4281.794922,4280.769043,4437.563965,4446.538574,4469.230957,4303.846191,4483.205078,,,,,,,,,,,,,,,,,,,,,,,,,,,,,,,,,,,,,,,,,,,,,,,,,,,,,,,,,,,,,,,,,,,,,,
1720179884,63,0,4257.436035,4243.974121,4259.615234,4321.282227,4196.282227,4295.512695,4280.384766,4279.871582,4282.179688,4435.256348,4445.128418,4455.512695,4295.897461,4472.436035,,,,,,,,,,,,,,,,,,,,,,,,,,,,,,,,,,,,,,,,,,,,,,,,,,,,,,,,,,,,,,,,,,,,,,
1720179884,64,0,4249.871582,4246.153809,4244.743652,4310,4201.282227,4297.820313,4268.077148,4269.102539,4276.794922,4439.358887,4432.436035,4433.589844,4290.128418,4458.589844,48.985527,12.866039,0.950679,2.280304,0.359547,3.695749,9.483242,2.557534,1.868874,1.484431,10.120187,19.097216,2.315215,2.306691,0.364354,4.251267,9.287482,1.96312,1.096576,0.36053,0.631395,1.039352,0.442809,0.27688,0.117096,0.282283,1.994761,0.224733,0.236029,0.057548,2.488079,10.479177,1.616018,0.915904,0.180088,2.294628,8.812155,1.538403,0.883475,0.1524,1.200319,0.779517,0.362365,0.317823,0.254566,0.700755,0.407749,0.372408,0.287604,0.148286,3.193241,3.475121,0.691744,0.642499,0.261864,16.032204,20.602753,3.859737,3.454152,0.399168,8.807523,8.217576,1.018128,1.615233,0.419534,13.957063,15.711962,2.000702,2.181617,0.400761
1720179884,65,0,4245.897461,4253.205078,4234.230957,4308.589844,4209.358887,4304.358887,4260.256348,4256.538574,4280.256348,4442.436035,4426.410156,4409.743652,4282.307617,4438.077148,,,,,,,,,,,,,,,,,,,,,,,,,,,,,,,,,,,,,,,,,,,,,,,,,,,,,,,,,,,,,,,,,,,,,,
1720179884,66,0,4242.563965,4249.487305,4227.179688,4304.615234,4218.589844,4308.846191,4258.205078,4253.333496,4285,4441.666504,4424.358887,4400.384766,4274.230957,4424.615234,,,,,,,,,,,,,,,,,,,,,,,,,,,,,,,,,,,,,,,,,,,,,,,,,,,,,,,,,,,,,,,,,,,,,,
1720179884,67,0,4243.846191,4238.589844,4229.358887,4296.025879,4218.589844,4309.230957,4264.743652,4261.538574,4284.230957,4442.436035,4419.358887,4409.102539,4274.743652,4430.641113,,,,,,,,,,,,,,,,,,,,,,,,,,,,,,,,,,,,,,,,,,,,,,,,,,,,,,,,,,,,,,,,,,,,,,
1720179884,68,0,4245.128418,4229.102539,4236.025879,4294.102539,4210.641113,4313.205078,4284.102539,4278.589844,4290.512695,4452.820313,4427.179688,4430,4284.230957,4448.974121,,,,,,,,,,,,,,,,,,,,,,,,,,,,,,,,,,,,,,,,,,,,,,,,,,,,,,,,,,,,,,,,,,,,,,
1720179884,69,0,4242.307617,4223.205078,4239.102539,4289.487305,4203.461426,4319.487305,4302.307617,4293.461426,4302.94873,4467.436035,4442.692383,4446.410156,4293.461426,4455.769043,,,,,,,,,,,,,,,,,,,,,,,,,,,,,,,,,,,,,,,,,,,,,,,,,,,,,,,,,,,,,,,,,,,,,,
1720179884,70,0,4238.589844,4222.179688,4242.820313,4287.692383,4200.512695,4320,4305.128418,4298.846191,4316.410156,4481.025879,4445.256348,4448.589844,4296.666504,4453.205078,,,,,,,,,,,,,,,,,,,,,,,,,,,,,,,,,,,,,,,,,,,,,,,,,,,,,,,,,,,,,,,,,,,,,,
1720179884,71,0,4240.769043,4235.128418,4248.589844,4299.615234,4201.538574,4313.846191,4295.641113,4292.05127,4328.205078,4491.794922,4436.666504,4450.256348,4293.333496,4454.871582,,,,,,,,,,,,,,,,,,,,,,,,,,,,,,,,,,,,,,,,,,,,,,,,,,,,,,,,,,,,,,,,,,,,,,
1720179884,72,0,4251.794922,4262.307617,4251.025879,4306.538574,4205.897461,4308.717773,4277.307617,4270.641113,4321.794922,4486.922852,4432.179688,4451.153809,4292.436035,4453.461426,,,,,,,,,,,,,,,,,,,,,,,,,,,,,,,,,,,,,,,,,,,,,,,,,,,,,,,,,,,,,,,,,,,,,,
1720179884,73,0,4268.589844,4275.641113,4257.94873,4310.512695,4214.615234,4310.641113,4260,4256.666504,4324.615234,4488.717773,4438.333496,4446.025879,4297.179688,4453.461426,,,,,,,,,,,,,,,,,,,,,,,,,,,,,,,,,,,,,,,,,,,,,,,,,,,,,,,,,,,,,,,,,,,,,,
1720179884,74,0,4271.922852,4251.282227,4262.94873,4314.615234,4215.897461,4310.897461,4257.692383,4257.820313,4338.974121,4500.256348,4437.820313,4441.538574,4296.922852,4452.563965,,,,,,,,,,,,,,,,,,,,,,,,,,,,,,,,,,,,,,,,,,,,,,,,,,,,,,,,,,,,,,,,,,,,,,
1720179884,75,0,4257.307617,4228.846191,4256.025879,4299.358887,4201.794922,4309.230957,4270.384766,4264.487305,4331.282227,4496.410156,4431.410156,4443.717773,4290.384766,4442.563965,,,,,,,,,,,,,,,,,,,,,,,,,,,,,,,,,,,,,,,,,,,,,,,,,,,,,,,,,,,,,,,,,,,,,,
1720179884,76,0,4248.333496,4243.077148,4249.230957,4296.410156,4197.307617,4313.205078,4289.358887,4281.025879,4331.153809,4500,4443.205078,4448.077148,4292.307617,4441.922852,,,,,,,,,,,,,,,,,,,,,,,,,,,,,,,,,,,,,,,,,,,,,,,,,,,,,,,,,,,,,,,,,,,,,,
1720179884,77,0,4247.307617,4252.563965,4244.487305,4313.974121,4208.846191,4315,4297.94873,4295.384766,4339.871582,4504.743652,4450.512695,4445.256348,4299.102539,4446.666504,,,,,,,,,,,,,,,,,,,,,,,,,,,,,,,,,,,,,,,,,,,,,,,,,,,,,,,,,,,,,,,,,,,,,,
1720179884,78,0,4234.871582,4233.589844,4225.384766,4298.077148,4215,4312.692383,4287.307617,4283.846191,4331.025879,4489.871582,4435.512695,4424.102539,4289.358887,4430,,,,,,,,,,,,,,,,,,,,,,,,,,,,,,,,,,,,,,,,,,,,,,,,,,,,,,,,,,,,,,,,,,,,,,
1720179884,79,0,4221.410156,4219.615234,4208.461426,4267.179688,4213.205078,4314.230957,4271.538574,4263.717773,4330.641113,4484.743652,4427.179688,4403.717773,4275.384766,4410,,,,,,,,,,,,,,,,,,,,,,,,,,,,,,,,,,,,,,,,,,,,,,,,,,,,,,,,,,,,,,,,,,,,,,
1720179884,80,0,4225.641113,4234.102539,4215.256348,4275.384766,4213.717773,4316.153809,4271.794922,4261.538574,4347.179688,4494.743652,4428.717773,4405.769043,4277.307617,4412.563965,37.531609,7.688737,1.188206,2.56188,0.346485,3.442684,6.81436,2.591813,2.28678,1.348328,8.113313,12.041096,2.264201,2.498511,0.374108,3.726518,6.128581,2.029242,1.311791,0.369981,0.601474,0.884711,0.381483,0.232751,0.122479,0.238578,2.168067,0.240232,0.229937,0.055215,2.742174,11.262928,1.75039,1.053235,0.159104,2.565392,9.380944,1.745582,1.007301,0.138802,1.172978,0.91012,0.371541,0.301104,0.244436,0.875682,0.591259,0.395549,0.303415,0.135869,3.010296,2.205483,0.600395,0.746569,0.25259,14.334663,13.579569,3.564954,4.096234,0.410875,8.129299,5.286178,1.060843,1.871186,0.400755,12.567126,9.932856,1.814754,2.532518,0.408736
1720179884,81,0,4235,4250.256348,4225.512695,4295.384766,4218.333496,4317.436035,4283.846191,4275.769043,4363.461426,4504.230957,4431.410156,4413.205078,4287.563965,4419.487305,,,,,,,,,,,,,,,,,,,,,,,,,,,,,,,,,,,,,,,,,,,,,,,,,,,,,,,,,,,,,,,,,,,,,,
1720179884,82,0,4242.436035,4240.769043,4228.717773,4293.717773,4212.563965,4320,4293.846191,4289.615234,4375,4510.641113,4438.205078,4420.384766,4298.205078,4423.717773,,,,,,,,,,,,,,,,,,,,,,,,,,,,,,,,,,,,,,,,,,,,,,,,,,,,,,,,,,,,,,,,,,,,,,
1720179884,83,0,4250.512695,4238.974121,4237.692383,4292.179688,4203.717773,4318.589844,4296.666504,4289.615234,4378.461426,4512.820313,4442.820313,4435.256348,4304.743652,4434.487305,,,,,,,,,,,,,,,,,,,,,,,,,,,,,,,,,,,,,,,,,,,,,,,,,,,,,,,,,,,,,,,,,,,,,,
1720179884,84,0,4259.102539,4259.358887,4253.461426,4303.461426,4205.897461,4315.384766,4293.974121,4286.666504,4381.153809,4515.256348,4444.358887,4452.05127,4310.256348,4449.743652,,,,,,,,,,,,,,,,,,,,,,,,,,,,,,,,,,,,,,,,,,,,,,,,,,,,,,,,,,,,,,,,,,,,,,
1720179884,85,0,4266.666504,4262.307617,4258.974121,4311.410156,4207.05127,4315.512695,4284.743652,4282.307617,4395.897461,4528.077148,4454.358887,4455.769043,4322.692383,4456.666504,,,,,,,,,,,,,,,,,,,,,,,,,,,,,,,,,,,,,,,,,,,,,,,,,,,,,,,,,,,,,,,,,,,,,,
1720179884,86,0,4267.94873,4248.589844,4249.743652,4304.615234,4204.230957,4312.05127,4272.436035,4268.974121,4395.384766,4531.666504,4459.102539,4443.974121,4331.282227,4448.333496,,,,,,,,,,,,,,,,,,,,,,,,,,,,,,,,,,,,,,,,,,,,,,,,,,,,,,,,,,,,,,,,,,,,,,
1720179884,87,0,4258.589844,4251.922852,4242.820313,4292.692383,4211.025879,4308.589844,4271.538574,4266.025879,4388.974121,4526.538574,4453.205078,4436.794922,4323.077148,4440.897461,,,,,,,,,,,,,,,,,,,,,,,,,,,,,,,,,,,,,,,,,,,,,,,,,,,,,,,,,,,,,,,,,,,,,,
1720179884,88,0,4252.692383,4261.410156,4245.769043,4288.717773,4219.102539,4311.794922,4278.333496,4277.820313,4397.563965,4536.153809,4450.641113,4443.589844,4318.077148,4446.025879,,,,,,,,,,,,,,,,,,,,,,,,,,,,,,,,,,,,,,,,,,,,,,,,,,,,,,,,,,,,,,,,,,,,,,
1720179884,89,0,4258.846191,4245.512695,4251.794922,4297.179688,4217.692383,4315.512695,4281.410156,4280.384766,4389.230957,4536.794922,4450.897461,4451.666504,4324.358887,4451.025879,,,,,,,,,,,,,,,,,,,,,,,,,,,,,,,,,,,,,,,,,,,,,,,,,,,,,,,,,,,,,,,,,,,,,,
1720179884,90,0,4258.589844,4228.846191,4249.487305,4302.94873,4215.769043,4318.589844,4283.717773,4277.307617,4375.897461,4528.846191,4448.974121,4444.487305,4320.897461,4442.179688,,,,,,,,,,,,,,,,,,,,,,,,,,,,,,,,,,,,,,,,,,,,,,,,,,,,,,,,,,,,,,,,,,,,,,
1720179884,91,0,4249.487305,4246.666504,4236.025879,4291.794922,4217.692383,4319.230957,4285.256348,4281.410156,4378.717773,4532.563965,4444.358887,4429.871582,4309.871582,4431.666504,,,,,,,,,,,,,,,,,,,,,,,,,,,,,,,,,,,,,,,,,,,,,,,,,,,,,,,,,,,,,,,,,,,,,,
1720179884,92,0,4247.436035,4268.077148,4225.641113,4288.205078,4217.05127,4314.743652,4279.743652,4278.974121,4382.820313,4538.846191,4446.410156,4418.846191,4308.461426,4428.461426,,,,,,,,,,,,,,,,,,,,,,,,,,,,,,,,,,,,,,,,,,,,,,,,,,,,,,,,,,,,,,,,,,,,,,
1720179884,93,0,4249.743652,4248.077148,4227.94873,4293.974121,4212.436035,4311.922852,4269.743652,4268.333496,4385.897461,4543.077148,4448.205078,4412.820313,4309.743652,4418.333496,,,,,,,,,,,,,,,,,,,,,,,,,,,,,,,,,,,,,,,,,,,,,,,,,,,,,,,,,,,,,,,,,,,,,,
1720179884,94,0,4250.897461,4233.461426,4230.641113,4287.692383,4210.256348,4312.05127,4265.256348,4263.974121,4391.794922,4549.230957,4440,4411.794922,4307.436035,4412.179688,,,,,,,,,,,,,,,,,,,,,,,,,,,,,,,,,,,,,,,,,,,,,,,,,,,,,,,,,,,,,,,,,,,,,,
1720179884,95,0,4254.743652,4257.820313,4227.436035,4284.487305,4215.512695,4312.05127,4263.717773,4264.615234,4398.077148,4556.922852,4437.692383,4412.563965,4307.820313,4423.846191,,,,,,,,,,,,,,,,,,,,,,,,,,,,,,,,,,,,,,,,,,,,,,,,,,,,,,,,,,,,,,,,,,,,,,
1720179884,96,0,4261.922852,4258.077148,4229.102539,4297.436035,4217.94873,4310.897461,4266.666504,4266.922852,4400,4558.589844,4446.794922,4416.922852,4316.666504,4433.333496,24.416302,4.531582,1.584262,2.714234,0.3312,3.11016,4.714611,2.598079,2.647642,1.215518,6.045725,7.28573,2.419644,2.643485,0.400848,3.033174,3.896949,2.075186,1.538007,0.374972,0.592067,0.713862,0.353736,0.194921,0.121963,0.226366,2.165314,0.263361,0.216594,0.054442,2.735551,11.201493,2.030097,1.24408,0.138616,2.604804,9.21137,2.057871,1.193348,0.132257,1.101117,1.129862,0.411927,0.301236,0.226772,2.106939,1.279523,0.627651,0.382577,0.145138,2.622539,1.409687,0.633549,0.865283,0.238554,12.425051,8.748636,3.957869,4.721802,0.417452,6.857707,3.53039,1.333348,2.126348,0.381928,10.632685,6.02012,1.928018,2.882468,0.400029
1720179884,97,0,4271.922852,4237.179688,4243.205078,4302.436035,4217.436035,4313.846191,4273.589844,4270.512695,4404.743652,4561.666504,4454.230957,4428.846191,4332.179688,4438.333496,,,,,,,,,,,,,,,,,,,,,,,,,,,,,,,,,,,,,,,,,,,,,,,,,,,,,,,,,,,,,,,,,,,,,,
1720179884,98,0,4279.230957,4248.717773,4249.615234,4292.94873,4213.205078,4316.666504,4271.666504,4269.871582,4412.94873,4572.692383,4456.410156,4431.794922,4338.589844,4446.410156,,,,,,,,,,,,,,,,,,,,,,,,,,,,,,,,,,,,,,,,,,,,,,,,,,,,,,,,,,,,,,,,,,,,,,
1720179884,99,0,4275.641113,4271.538574,4236.410156,4283.461426,4203.589844,4310.384766,4262.692383,4263.333496,4414.615234,4581.025879,4452.692383,4415.512695,4329.358887,4440.256348,,,,,,,,,,,,,,,,,,,,,,,,,,,,,,,,,,,,,,,,,,,,,,,,,,,,,,,,,,,,,,,,,,,,,,
1720179884,100,0,4271.282227,4255,4227.94873,4278.974121,4203.717773,4303.974121,4259.743652,4258.333496,4401.666504,4577.94873,4444.230957,4407.692383,4320.897461,4426.922852,,,,,,,,,,,,,,,,,,,,,,,,,,,,,,,,,,,,,,,,,,,,,,,,,,,,,,,,,,,,,,,,,,,,,,
1720179884,101,0,4272.820313,4220.769043,4231.025879,4281.666504,4213.461426,4308.717773,4262.179688,4261.538574,4401.282227,4580,4448.077148,4418.974121,4324.230957,4430,,,,,,,,,,,,,,,,,,,,,,,,,,,,,,,,,,,,,,,,,,,,,,,,,,,,,,,,,,,,,,,,,,,,,,
1720179884,102,0,4275.256348,4236.025879,4231.666504,4292.436035,4219.615234,4315.256348,4268.333496,4271.153809,4416.153809,4594.102539,4453.974121,4420.897461,4324.230957,4431.922852,,,,,,,,,,,,,,,,,,,,,,,,,,,,,,,,,,,,,,,,,,,,,,,,,,,,,,,,,,,,,,,,,,,,,,
1720179884,103,0,4278.205078,4276.025879,4235.897461,4303.077148,4223.333496,4317.436035,4277.436035,4278.717773,4408.717773,4594.871582,4443.461426,4414.230957,4318.333496,4426.410156,,,,,,,,,,,,,,,,,,,,,,,,,,,,,,,,,,,,,,,,,,,,,,,,,,,,,,,,,,,,,,,,,,,,,,
1720179884,104,0,4280.897461,4276.666504,4247.179688,4302.820313,4223.846191,4320.512695,4282.05127,4281.666504,4405,4593.461426,4442.563965,4423.974121,4322.05127,4431.922852,,,,,,,,,,,,,,,,,,,,,,,,,,,,,,,,,,,,,,,,,,,,,,,,,,,,,,,,,,,,,,,,,,,,,,
1720179884,105,0,4280.641113,4254.871582,4246.025879,4292.179688,4218.974121,4319.487305,4279.102539,4278.717773,4412.307617,4600.897461,4451.922852,4431.538574,4328.717773,4436.794922,,,,,,,,,,,,,,,,,,,,,,,,,,,,,,,,,,,,,,,,,,,,,,,,,,,,,,,,,,,,,,,,,,,,,,
1720179884,106,0,4277.563965,4243.077148,4232.563965,4288.974121,4215.256348,4312.94873,4271.922852,4269.871582,4407.307617,4604.487305,4449.743652,4419.102539,4326.025879,4429.102539,,,,,,,,,,,,,,,,,,,,,,,,,,,,,,,,,,,,,,,,,,,,,,,,,,,,,,,,,,,,,,,,,,,,,,
1720179884,107,0,4279.487305,4247.179688,4231.282227,4296.794922,4214.358887,4310.256348,4263.589844,4263.461426,4410.384766,4614.487305,4446.666504,4407.94873,4323.717773,4424.487305,,,,,,,,,,,,,,,,,,,,,,,,,,,,,,,,,,,,,,,,,,,,,,,,,,,,,,,,,,,,,,,,,,,,,,
1720179884,108,0,4288.974121,4261.153809,4243.974121,4304.487305,4214.743652,4310.384766,4264.487305,4264.615234,4419.871582,4622.820313,4450.769043,4411.282227,4332.820313,4427.563965,,,,,,,,,,,,,,,,,,,,,,,,,,,,,,,,,,,,,,,,,,,,,,,,,,,,,,,,,,,,,,,,,,,,,,
1720179884,109,0,4294.487305,4268.077148,4251.025879,4305.641113,4217.692383,4308.846191,4261.666504,4262.307617,4418.846191,4621.794922,4452.307617,4419.871582,4343.717773,4434.102539,,,,,,,,,,,,,,,,,,,,,,,,,,,,,,,,,,,,,,,,,,,,,,,,,,,,,,,,,,,,,,,,,,,,,,
1720179884,110,0,4294.615234,4270.641113,4248.974121,4306.666504,4219.230957,4308.205078,4249.743652,4257.94873,4420,4627.179688,4454.615234,4429.743652,4352.436035,4448.974121,,,,,,,,,,,,,,,,,,,,,,,,,,,,,,,,,,,,,,,,,,,,,,,,,,,,,,,,,,,,,,,,,,,,,,
1720179884,111,0,4297.563965,4279.102539,4252.692383,4308.974121,4217.692383,4306.538574,4252.179688,4258.717773,4422.436035,4632.94873,4463.589844,4440.641113,4362.94873,4464.230957,,,,,,,,,,,,,,,,,,,,,,,,,,,,,,,,,,,,,,,,,,,,,,,,,,,,,,,,,,,,,,,,,,,,,,
1720179884,112,0,4292.94873,4276.025879,4249.871582,4302.94873,4220.769043,4304.487305,4264.615234,4264.230957,4417.05127,4630,4464.358887,4432.563965,4360.256348,4451.025879,13.158155,3.032587,2.123801,2.689897,0.316382,2.810019,3.393115,2.662727,2.877825,1.122341,4.392236,4.644031,2.857198,2.682806,0.441864,2.275997,2.60745,2.153304,1.691083,0.379377,0.604626,0.547892,0.356297,0.1766,0.118081,0.240473,1.982231,0.285335,0.194839,0.056088,2.498199,10.388949,2.373002,1.444048,0.122644,2.42132,8.405119,2.390784,1.400207,0.133818,1.038215,1.446886,0.488939,0.324151,0.212182,5.575681,2.963847,1.279744,0.595414,0.201703,2.105615,0.953631,0.768407,0.97085,0.224543,10.502986,5.848704,4.963679,5.183042,0.421969,5.280008,2.629735,1.794675,2.298896,0.366811,8.358967,3.75703,2.328732,3.147129,0.380183
1720179884,113,0,4285.897461,4261.922852,4240,4297.179688,4229.743652,4310,4268.077148,4275.128418,4423.461426,4636.025879,4456.794922,4410.769043,4347.94873,4429.230957,,,,,,,,,,,,,,,,,,,,,,,,,,,,,,,,,,,,,,,,,,,,,,,,,,,,,,,,,,,,,,,,,,,,,,
1720179884,114,0,4288.205078,4259.871582,4240,4296.794922,4229.743652,4313.974121,4266.153809,4276.410156,4421.410156,4638.077148,4451.153809,4403.717773,4343.077148,4426.153809,,,,,,,,,,,,,,,,,,,,,,,,,,,,,,,,,,,,,,,,,,,,,,,,,,,,,,,,,,,,,,,,,,,,,,
1720179884,115,0,4283.974121,4260.769043,4238.974121,4294.871582,4221.153809,4311.410156,4263.461426,4264.358887,4405.641113,4627.94873,4444.102539,4406.025879,4338.077148,4421.538574,,,,,,,,,,,,,,,,,,,,,,,,,,,,,,,,,,,,,,,,,,,,,,,,,,,,,,,,,,,,,,,,,,,,,,
1720179884,116,0,4278.974121,4257.179688,4234.615234,4300.512695,4227.307617,4309.358887,4262.179688,4261.666504,4408.974121,4631.666504,4442.563965,4405.769043,4333.205078,4413.846191,,,,,,,,,,,,,,,,,,,,,,,,,,,,,,,,,,,,,,,,,,,,,,,,,,,,,,,,,,,,,,,,,,,,,,
1720179884,117,0,4283.205078,4265.128418,4235.256348,4305.897461,4233.461426,4307.05127,4262.179688,4264.743652,4412.820313,4635.641113,4451.410156,4410.384766,4342.307617,4428.205078,,,,,,,,,,,,,,,,,,,,,,,,,,,,,,,,,,,,,,,,,,,,,,,,,,,,,,,,,,,,,,,,,,,,,,
1720179884,118,0,4286.922852,4277.179688,4233.589844,4298.077148,4221.922852,4303.974121,4258.333496,4263.205078,4417.820313,4642.692383,4460.641113,4419.871582,4361.153809,4448.717773,,,,,,,,,,,,,,,,,,,,,,,,,,,,,,,,,,,,,,,,,,,,,,,,,,,,,,,,,,,,,,,,,,,,,,
1720179884,119,0,4285.641113,4279.102539,4228.974121,4290,4219.615234,4302.179688,4248.846191,4258.589844,4433.077148,4690.512695,4456.153809,4416.410156,4359.487305,4436.666504,,,,,,,,,,,,,,,,,,,,,,,,,,,,,,,,,,,,,,,,,,,,,,,,,,,,,,,,,,,,,,,,,,,,,,
1720179884,120,0,4286.025879,4274.358887,4231.282227,4294.487305,4233.717773,4302.05127,4246.410156,4252.179688,4441.922852,4762.94873,4451.666504,4409.230957,4345.641113,4415,,,,,,,,,,,,,,,,,,,,,,,,,,,,,,,,,,,,,,,,,,,,,,,,,,,,,,,,,,,,,,,,,,,,,,
1720179884,121,0,4283.077148,4263.333496,4233.077148,4298.717773,4237.307617,4300.897461,4246.794922,4248.846191,4447.05127,4800,4454.743652,4409.230957,4345.769043,4417.563965,,,,,,,,,,,,,,,,,,,,,,,,,,,,,,,,,,,,,,,,,,,,,,,,,,,,,,,,,,,,,,,,,,,,,,
1720179884,122,0,4268.461426,4247.820313,4221.794922,4286.666504,4232.05127,4299.102539,4236.666504,4246.025879,4450,4807.820313,4444.230957,4393.846191,4338.589844,4413.461426,,,,,,,,,,,,,,,,,,,,,,,,,,,,,,,,,,,,,,,,,,,,,,,,,,,,,,,,,,,,,,,,,,,,,,
1720179884,123,0,4254.487305,4241.922852,4208.077148,4269.230957,4230.641113,4294.743652,4231.025879,4239.487305,4451.410156,4846.538574,4435.256348,4380.256348,4324.615234,4391.666504,,,,,,,,,,,,,,,,,,,,,,,,,,,,,,,,,,,,,,,,,,,,,,,,,,,,,,,,,,,,,,,,,,,,,,
1720179884,124,0,4263.589844,4251.922852,4217.820313,4276.153809,4230.128418,4294.230957,4246.410156,4248.589844,4468.205078,4897.179688,4449.871582,4405.641113,4341.794922,4402.307617,,,,,,,,,,,,,,,,,,,,,,,,,,,,,,,,,,,,,,,,,,,,,,,,,,,,,,,,,,,,,,,,,,,,,,
1720179884,125,0,4287.94873,4262.179688,4246.538574,4299.230957,4232.05127,4304.102539,4270.897461,4274.487305,4487.436035,4907.436035,4470.769043,4447.05127,4380.128418,4440.897461,,,,,,,,,,,,,,,,,,,,,,,,,,,,,,,,,,,,,,,,,,,,,,,,,,,,,,,,,,,,,,,,,,,,,,
1720179884,126,0,4289.358887,4262.179688,4247.307617,4297.05127,4234.358887,4312.179688,4282.94873,4285.641113,4482.94873,4897.436035,4473.974121,4453.589844,4390,4445.769043,,,,,,,,,,,,,,,,,,,,,,,,,,,,,,,,,,,,,,,,,,,,,,,,,,,,,,,,,,,,,,,,,,,,,,
1720179884,127,0,4275,4251.794922,4231.282227,4276.153809,4228.974121,4311.666504,4276.538574,4281.922852,4472.94873,4895.769043,4467.436035,4434.743652,4372.692383,4422.563965,,,,,,,,,,,,,,,,,,,,,,,,,,,,,,,,,,,,,,,,,,,,,,,,,,,,,,,,,,,,,,,,,,,,,,
1720179884,0,0,4275.256348,4244.358887,4235.256348,4278.974121,4228.333496,4309.230957,4266.410156,4279.230957,4466.666504,4887.179688,4461.025879,4422.179688,4359.871582,4412.05127,5.83895,2.709055,2.679989,2.495089,0.303772,2.601337,2.886285,2.814343,2.945835,1.096212,3.403709,3.649951,3.46426,2.580537,0.488417,1.571606,2.131723,2.256559,1.715624,0.388325,0.60976,0.421016,0.369328,0.187884,0.11495,0.284878,1.672918,0.296676,0.167197,0.059612,2.125874,9.078742,2.666256,1.632239,0.112356,2.091546,7.207225,2.639546,1.601313,0.141395,0.972425,1.886181,0.586185,0.366006,0.209321,11.761988,5.859408,2.426743,0.967143,0.315624,1.581743,0.73262,0.946208,1.033155,0.21406,8.800496,4.515966,6.205521,5.359972,0.427313,3.726781,2.296501,2.313927,2.316864,0.354305,6.142462,2.798013,2.860987,3.254325,0.355913
1720179884,1,0,4278.077148,4257.820313,4240.769043,4298.077148,4241.282227,4309.871582,4265.641113,4274.358887,4464.615234,4879.743652,4454.615234,4412.307617,4354.871582,4411.666504,,,,,,,,,,,,,,,,,,,,,,,,,,,,,,,,,,,,,,,,,,,,,,,,,,,,,,,,,,,,,,,,,,,,,,
1720179884,2,0,4280.128418,4278.846191,4237.05127,4302.820313,4246.282227,4306.666504,4262.94873,4267.820313,4470,4889.230957,4457.05127,4405.641113,4364.230957,4416.922852,,,,,,,,,,,,,,,,,,,,,,,,,,,,,,,,,,,,,,,,,,,,,,,,,,,,,,,,,,,,,,,,,,,,,,
1720179884,3,0,4291.025879,4280,4243.205078,4300.897461,4236.282227,4299.487305,4245.256348,4254.358887,4459.358887,4887.94873,4459.102539,4408.077148,4376.410156,4424.358887,,,,,,,,,,,,,,,,,,,,,,,,,,,,,,,,,,,,,,,,,,,,,,,,,,,,,,,,,,,,,,,,,,,,,,
1720179884,4,0,4302.563965,4268.974121,4253.461426,4306.666504,4231.794922,4295.256348,4227.05127,4237.307617,4455.384766,4883.974121,4463.589844,4421.025879,4382.820313,4435.128418,,,,,,,,,,,,,,,,,,,,,,,,,,,,,,,,,,,,,,,,,,,,,,,,,,,,,,,,,,,,,,,,,,,,,,
1720179884,5,0,4301.666504,4262.179688,4249.230957,4303.461426,4236.538574,4292.692383,4219.487305,4227.692383,4469.871582,4890.256348,4469.230957,4426.410156,4388.589844,4443.717773,,,,,,,,,,,,,,,,,,,,,,,,,,,,,,,,,,,,,,,,,,,,,,,,,,,,,,,,,,,,,,,,,,,,,,
1720179884,6,0,4282.436035,4252.436035,4230.384766,4286.922852,4233.205078,4290.769043,4220.512695,4230.128418,4468.077148,4887.94873,4462.563965,4406.666504,4383.846191,4428.974121,,,,,,,,,,,,,,,,,,,,,,,,,,,,,,,,,,,,,,,,,,,,,,,,,,,,,,,,,,,,,,,,,,,,,,
1720179884,7,0,4258.717773,4238.205078,4209.871582,4273.974121,4225.256348,4292.307617,4234.615234,4245.512695,4467.94873,4885,4457.563965,4387.94873,4371.282227,4407.436035,,,,,,,,,,,,,,,,,,,,,,,,,,,,,,,,,,,,,,,,,,,,,,,,,,,,,,,,,,,,,,,,,,,,,,
1720179884,8,0,4258.846191,4237.94873,4210.512695,4272.179688,4228.333496,4294.487305,4252.436035,4262.94873,4478.717773,4882.436035,4463.077148,4396.538574,4369.487305,4406.538574,,,,,,,,,,,,,,,,,,,,,,,,,,,,,,,,,,,,,,,,,,,,,,,,,,,,,,,,,,,,,,,,,,,,,,
1720179884,9,0,4280.384766,4247.05127,4230.512695,4283.077148,4234.230957,4299.102539,4263.205078,4269.102539,4473.461426,4872.820313,4466.666504,4415.641113,4376.922852,4417.179688,,,,,,,,,,,,,,,,,,,,,,,,,,,,,,,,,,,,,,,,,,,,,,,,,,,,,,,,,,,,,,,,,,,,,,
1720179884,10,0,4290.512695,4242.94873,4245.897461,4296.666504,4234.102539,4308.205078,4263.974121,4268.717773,4465.897461,4867.563965,4465.512695,4419.358887,4379.615234,4424.487305,,,,,,,,,,,,,,,,,,,,,,,,,,,,,,,,,,,,,,,,,,,,,,,,,,,,,,,,,,,,,,,,,,,,,,
1720179884,11,0,4286.922852,4244.743652,4248.974121,4295.384766,4237.436035,4311.153809,4256.922852,4265,4466.538574,4864.871582,4466.538574,4415.897461,4379.230957,4423.333496,,,,,,,,,,,,,,,,,,,,,,,,,,,,,,,,,,,,,,,,,,,,,,,,,,,,,,,,,,,,,,,,,,,,,,
1720179884,12,0,4288.077148,4276.410156,4242.05127,4290.128418,4247.436035,4307.563965,4250.384766,4254.743652,4456.410156,4854.358887,4467.94873,4414.230957,4380.384766,4414.102539,,,,,,,,,,,,,,,,,,,,,,,,,,,,,,,,,,,,,,,,,,,,,,,,,,,,,,,,,,,,,,,,,,,,,,
1720179884,13,0,4288.333496,4279.615234,4233.846191,4296.025879,4252.307617,4308.717773,4244.358887,4247.307617,4457.820313,4852.05127,4466.282227,4406.666504,4375.897461,4404.615234,,,,,,,,,,,,,,,,,,,,,,,,,,,,,,,,,,,,,,,,,,,,,,,,,,,,,,,,,,,,,,,,,,,,,,
1720179884,14,0,4284.358887,4231.922852,4233.717773,4302.94873,4248.974121,4305.256348,4235,4242.05127,4466.153809,4853.846191,4458.717773,4397.05127,4368.077148,4400.256348,,,,,,,,,,,,,,,,,,,,,,,,,,,,,,,,,,,,,,,,,,,,,,,,,,,,,,,,,,,,,,,,,,,,,,
1720179884,15,0,4280.641113,4228.717773,4235.769043,4293.589844,4249.615234,4298.717773,4223.974121,4232.692383,4455.769043,4842.05127,4451.538574,4395,4365.897461,4397.820313,,,,,,,,,,,,,,,,,,,,,,,,,,,,,,,,,,,,,,,,,,,,,,,,,,,,,,,,,,,,,,,,,,,,,,
1720179884,16,0,4280.384766,4274.102539,4232.307617,4281.025879,4254.871582,4298.717773,4216.153809,4228.077148,4457.179688,4837.307617,4458.461426,4397.692383,4372.436035,4398.589844,2.397908,3.145573,3.077922,2.181876,0.29168,2.500127,3.013245,2.988142,2.873688,1.138896,3.092472,3.815707,3.997252,2.342887,0.525001,1.023092,2.247802,2.325779,1.609254,0.402752,0.600522,0.362592,0.379375,0.230822,0.115724,0.326974,1.321906,0.292241,0.140329,0.063295,1.740755,7.5819,2.807787,1.804971,0.10629,1.726811,5.909566,2.720147,1.78387,0.150862,1.018337,2.440152,0.677296,0.415525,0.219928,20.436062,9.798252,3.937669,1.448408,0.470544,1.143386,0.698949,1.103189,1.032185,0.208373,7.492988,4.424007,7.190049,5.204381,0.431716,2.502625,2.39194,2.729758,2.156819,0.340324,4.358608,2.851482,3.315858,3.179465,0.333236
1720179884,17,0,4280,4277.179688,4231.538574,4280.769043,4256.282227,4297.820313,4219.358887,4232.05127,4462.05127,4840.512695,4463.333496,4398.077148,4379.871582,4399.743652,,,,,,,,,,,,,,,,,,,,,,,,,,,,,,,,,,,,,,,,,,,,,,,,,,,,,,,,,,,,,,,,,,,,,,
1720179884,18,0,4270.769043,4248.717773,4227.94873,4281.282227,4254.871582,4300.256348,4234.487305,4245.641113,4457.436035,4839.615234,4463.333496,4394.743652,4378.846191,4395.128418,,,,,,,,,,,,,,,,,,,,,,,,,,,,,,,,,,,,,,,,,,,,,,,,,,,,,,,,,,,,,,,,,,,,,,
1720179884,19,0,4261.282227,4239.230957,4215.897461,4276.282227,4256.666504,4309.102539,4249.230957,4259.230957,4461.025879,4835.897461,4463.333496,4391.282227,4372.179688,4392.692383,,,,,,,,,,,,,,,,,,,,,,,,,,,,,,,,,,,,,,,,,,,,,,,,,,,,,,,,,,,,,,,,,,,,,,
1720179884,20,0,4268.846191,4245,4212.692383,4276.538574,4258.846191,4311.025879,4257.307617,4265.384766,4463.333496,4828.333496,4455.641113,4392.307617,4363.461426,4392.436035,,,,,,,,,,,,,,,,,,,,,,,,,,,,,,,,,,,,,,,,,,,,,,,,,,,,,,,,,,,,,,,,,,,,,,
1720179884,21,0,4279.615234,4258.077148,4220.641113,4279.743652,4259.358887,4308.717773,4264.871582,4271.794922,4454.102539,4824.615234,4449.358887,4399.102539,4359.230957,4392.05127,,,,,,,,,,,,,,,,,,,,,,,,,,,,,,,,,,,,,,,,,,,,,,,,,,,,,,,,,,,,,,,,,,,,,,
1720179884,22,0,4275.512695,4266.538574,4225.512695,4284.871582,4263.974121,4311.025879,4268.589844,4280.128418,4447.692383,4818.461426,4454.615234,4407.179688,4362.307617,4394.487305,,,,,,,,,,,,,,,,,,,,,,,,,,,,,,,,,,,,,,,,,,,,,,,,,,,,,,,,,,,,,,,,,,,,,,
1720179885,23,0,4272.94873,4252.820313,4230.384766,4292.94873,4269.102539,4313.846191,4267.94873,4279.487305,4449.615234,4811.538574,4453.846191,4406.538574,4362.692383,4394.743652,,,,,,,,,,,,,,,,,,,,,,,,,,,,,,,,,,,,,,,,,,,,,,,,,,,,,,,,,,,,,,,,,,,,,,
1720179885,24,0,4281.025879,4246.794922,4235.256348,4294.358887,4268.717773,4313.589844,4264.615234,4272.179688,4448.974121,4811.794922,4450.897461,4402.307617,4366.794922,4393.333496,,,,,,,,,,,,,,,,,,,,,,,,,,,,,,,,,,,,,,,,,,,,,,,,,,,,,,,,,,,,,,,,,,,,,,
1720179885,25,0,4284.102539,4258.333496,4232.05127,4283.077148,4267.563965,4313.846191,4251.922852,4261.538574,4449.358887,4812.05127,4461.282227,4403.846191,4376.025879,4396.282227,,,,,,,,,,,,,,,,,,,,,,,,,,,,,,,,,,,,,,,,,,,,,,,,,,,,,,,,,,,,,,,,,,,,,,
1720179885,26,0,4280.641113,4257.05127,4230.256348,4263.589844,4266.282227,4309.102539,4234.871582,4245.769043,4454.615234,4809.487305,4464.743652,4408.077148,4382.307617,4401.922852,,,,,,,,,,,,,,,,,,,,,,,,,,,,,,,,,,,,,,,,,,,,,,,,,,,,,,,,,,,,,,,,,,,,,,
1720179885,27,0,4284.102539,4247.436035,4230.512695,4257.307617,4264.230957,4300.769043,4227.820313,4236.153809,4465.384766,4814.743652,4463.717773,4409.871582,4390.384766,4406.666504,,,,,,,,,,,,,,,,,,,,,,,,,,,,,,,,,,,,,,,,,,,,,,,,,,,,,,,,,,,,,,,,,,,,,,
1720179885,28,0,4290.512695,4245.384766,4230,4273.974121,4265.769043,4297.563965,4234.743652,4242.307617,4468.846191,4821.794922,4469.615234,4415,4401.922852,4412.05127,,,,,,,,,,,,,,,,,,,,,,,,,,,,,,,,,,,,,,,,,,,,,,,,,,,,,,,,,,,,,,,,,,,,,,
1720179885,29,0,4295.897461,4250,4241.025879,4279.743652,4268.589844,4302.05127,4247.307617,4257.05127,4465.512695,4817.692383,4472.436035,4425.641113,4405.384766,4419.230957,,,,,,,,,,,,,,,,,,,,,,,,,,,,,,,,,,,,,,,,,,,,,,,,,,,,,,,,,,,,,,,,,,,,,,
1720179885,30,0,4302.307617,4261.666504,4255.128418,4270.512695,4271.025879,4309.358887,4258.846191,4271.794922,4471.922852,4815.641113,4476.538574,4440.641113,4401.538574,4425.641113,,,,,,,,,,,,,,,,,,,,,,,,,,,,,,,,,,,,,,,,,,,,,,,,,,,,,,,,,,,,,,,,,,,,,,
1720179885,31,0,4296.153809,4275.384766,4244.743652,4273.333496,4277.05127,4308.846191,4264.487305,4277.563965,4461.025879,4806.922852,4472.436035,4442.307617,4397.436035,4423.461426,,,,,,,,,,,,,,,,,,,,,,,,,,,,,,,,,,,,,,,,,,,,,,,,,,,,,,,,,,,,,,,,,,,,,,
1720179885,32,0,4284.487305,4265.769043,4226.922852,4276.666504,4278.077148,4302.179688,4263.461426,4277.436035,4446.666504,4794.615234,4458.974121,4425.256348,4388.974121,4409.871582,1.35597,3.913802,3.207869,1.831746,0.279015,2.437466,3.396218,3.068879,2.722646,1.222375,3.218645,4.598909,4.228005,2.027489,0.538559,0.681292,2.626789,2.282695,1.418856,0.421451,0.534947,0.376658,0.3848,0.295901,0.121473,0.349762,1.011448,0.269948,0.120601,0.06517,1.430116,6.174663,2.712578,1.957015,0.10367,1.408011,4.763217,2.581078,1.936691,0.158375,1.137963,3.040482,0.738553,0.461116,0.238206,31.732319,14.126496,5.472384,1.918918,0.630629,0.833572,0.800986,1.201358,0.977118,0.206848,6.59762,5.117068,7.551723,4.793005,0.433818,1.757239,2.786838,2.940513,1.888947,0.324418,3.20479,3.525083,3.540323,2.982529,0.320141
1720179885,33,0,4289.102539,4239.102539,4235.897461,4277.563965,4272.179688,4302.563965,4264.615234,4278.589844,4459.487305,4798.589844,4457.05127,4422.307617,4387.436035,4407.563965,,,,,,,,,,,,,,,,,,,,,,,,,,,,,,,,,,,,,,,,,,,,,,,,,,,,,,,,,,,,,,,,,,,,,,
1720179885,34,0,4302.307617,4237.436035,4253.589844,4277.436035,4269.230957,4303.974121,4263.461426,4278.846191,4466.538574,4798.461426,4468.205078,4440,4402.436035,4421.282227,,,,,,,,,,,,,,,,,,,,,,,,,,,,,,,,,,,,,,,,,,,,,,,,,,,,,,,,,,,,,,,,,,,,,,
1720179885,35,0,4305.769043,4262.692383,4257.820313,4270.128418,4266.282227,4298.846191,4254.871582,4276.282227,4460,4792.307617,4478.589844,4450.128418,4418.333496,4430.641113,,,,,,,,,,,,,,,,,,,,,,,,,,,,,,,,,,,,,,,,,,,,,,,,,,,,,,,,,,,,,,,,,,,,,,
1720179885,36,0,4309.230957,4277.820313,4255.384766,4268.077148,4262.94873,4296.922852,4249.615234,4270.897461,4462.179688,4789.871582,4479.871582,4441.922852,4413.077148,4425,,,,,,,,,,,,,,,,,,,,,,,,,,,,,,,,,,,,,,,,,,,,,,,,,,,,,,,,,,,,,,,,,,,,,,
1720179885,37,0,4313.974121,4269.102539,4259.487305,4278.846191,4271.538574,4301.153809,4248.205078,4263.077148,4455.641113,4773.077148,4468.974121,4434.743652,4394.358887,4415.769043,,,,,,,,,,,,,,,,,,,,,,,,,,,,,,,,,,,,,,,,,,,,,,,,,,,,,,,,,,,,,,,,,,,,,,
1720179885,38,0,4309.102539,4260.641113,4261.282227,4289.230957,4282.692383,4303.846191,4248.461426,4263.717773,4442.05127,4745.512695,4463.461426,4443.717773,4395.769043,4417.94873,,,,,,,,,,,,,,,,,,,,,,,,,,,,,,,,,,,,,,,,,,,,,,,,,,,,,,,,,,,,,,,,,,,,,,
1720179885,39,0,4307.692383,4270.128418,4252.94873,4289.230957,4280.256348,4305.769043,4256.922852,4275.256348,4447.692383,4739.230957,4471.538574,4447.820313,4405,4421.282227,,,,,,,,,,,,,,,,,,,,,,,,,,,,,,,,,,,,,,,,,,,,,,,,,,,,,,,,,,,,,,,,,,,,,,
1720179885,40,0,4319.487305,4270.897461,4251.538574,4286.922852,4277.436035,4304.487305,4266.538574,4281.410156,4446.922852,4739.743652,4468.461426,4434.358887,4397.563965,4414.102539,,,,,,,,,,,,,,,,,,,,,,,,,,,,,,,,,,,,,,,,,,,,,,,,,,,,,,,,,,,,,,,,,,,,,,
1720179885,41,0,4325.641113,4253.589844,4260.512695,4283.333496,4278.717773,4295.897461,4262.436035,4278.333496,4441.025879,4731.282227,4461.153809,4427.05127,4391.794922,4407.94873,,,,,,,,,,,,,,,,,,,,,,,,,,,,,,,,,,,,,,,,,,,,,,,,,,,,,,,,,,,,,,,,,,,,,,
1720179885,42,0,4316.538574,4256.410156,4259.102539,4281.410156,4274.102539,4293.333496,4252.692383,4272.307617,4448.205078,4730.384766,4468.205078,4433.077148,4399.102539,4413.846191,,,,,,,,,,,,,,,,,,,,,,,,,,,,,,,,,,,,,,,,,,,,,,,,,,,,,,,,,,,,,,,,,,,,,,
1720179885,43,0,4304.743652,4269.358887,4246.666504,4275.384766,4271.666504,4296.794922,4248.717773,4266.410156,4444.615234,4728.974121,4471.794922,4430.512695,4399.871582,4414.230957,,,,,,,,,,,,,,,,,,,,,,,,,,,,,,,,,,,,,,,,,,,,,,,,,,,,,,,,,,,,,,,,,,,,,,
1720179885,44,0,4300,4258.205078,4243.717773,4265.384766,4277.563965,4295.897461,4248.205078,4265.128418,4436.282227,4719.615234,4470.897461,4428.205078,4396.922852,4402.563965,,,,,,,,,,,,,,,,,,,,,,,,,,,,,,,,,,,,,,,,,,,,,,,,,,,,,,,,,,,,,,,,,,,,,,
1720179885,45,0,4302.820313,4245.256348,4247.05127,4269.102539,4280,4294.615234,4246.410156,4264.230957,4437.94873,4713.461426,4470.769043,4426.922852,4399.871582,4397.05127,,,,,,,,,,,,,,,,,,,,,,,,,,,,,,,,,,,,,,,,,,,,,,,,,,,,,,,,,,,,,,,,,,,,,,
1720179885,46,0,4312.05127,4265.512695,4249.358887,4281.025879,4277.820313,4297.179688,4243.846191,4260.641113,4438.461426,4713.846191,4463.846191,4414.743652,4398.205078,4399.743652,,,,,,,,,,,,,,,,,,,,,,,,,,,,,,,,,,,,,,,,,,,,,,,,,,,,,,,,,,,,,,,,,,,,,,
1720179885,47,0,4324.487305,4292.179688,4258.077148,4295,4278.974121,4295.256348,4245.128418,4260.512695,4435.512695,4709.358887,4458.333496,4414.102539,4395,4402.820313,,,,,,,,,,,,,,,,,,,,,,,,,,,,,,,,,,,,,,,,,,,,,,,,,,,,,,,,,,,,,,,,,,,,,,
1720179885,48,0,4331.922852,4285,4268.333496,4297.307617,4277.307617,4290.897461,4247.692383,4263.589844,4434.230957,4702.05127,4463.846191,4426.410156,4398.846191,4400.256348,1.121959,4.646512,3.045934,1.532999,0.265067,2.31235,3.715001,2.973841,2.559169,1.316531,3.394661,5.449234,4.028734,1.729373,0.522449,0.550988,2.978217,2.099726,1.214016,0.441717,0.449022,0.435838,0.389697,0.363022,0.131216,0.337601,0.809829,0.235239,0.112863,0.063991,1.208385,5.144969,2.397395,2.062817,0.104026,1.171381,3.998885,2.259241,2.034105,0.160249,1.418284,3.575015,0.765563,0.493047,0.254653,43.204346,18.022697,6.620715,2.238974,0.754498,0.649323,0.958178,1.218321,0.897485,0.20704,5.937816,6.026405,7.141309,4.282481,0.431229,1.424908,3.286951,2.900769,1.63733,0.309182,2.611716,4.357187,3.448581,2.768396,0.321949
1720179885,49,0,4319.230957,4267.05127,4258.846191,4280.641113,4273.974121,4289.615234,4242.692383,4258.846191,4428.461426,4697.05127,4465.897461,4418.717773,4396.025879,4390.384766,,,,,,,,,,,,,,,,,,,,,,,,,,,,,,,,,,,,,,,,,,,,,,,,,,,,,,,,,,,,,,,,,,,,,,
1720179885,50,0,4295.384766,4261.153809,4229.230957,4265.641113,4278.717773,4286.922852,4229.230957,4244.871582,4419.615234,4688.461426,4457.05127,4394.871582,4379.615234,4374.230957,,,,,,,,,,,,,,,,,,,,,,,,,,,,,,,,,,,,,,,,,,,,,,,,,,,,,,,,,,,,,,,,,,,,,,
1720179885,51,0,4286.410156,4254.487305,4217.820313,4263.077148,4284.615234,4288.589844,4220.256348,4237.05127,4421.025879,4682.94873,4448.846191,4385.128418,4368.461426,4359.871582,,,,,,,,,,,,,,,,,,,,,,,,,,,,,,,,,,,,,,,,,,,,,,,,,,,,,,,,,,,,,,,,,,,,,,
1720179885,52,0,4287.307617,4246.538574,4230.769043,4265.384766,4281.410156,4291.538574,4224.230957,4240.897461,4426.153809,4682.436035,4448.333496,4389.358887,4371.282227,4355.256348,,,,,,,,,,,,,,,,,,,,,,,,,,,,,,,,,,,,,,,,,,,,,,,,,,,,,,,,,,,,,,,,,,,,,,
1720179885,53,0,4289.358887,4246.794922,4235,4264.358887,4277.563965,4288.461426,4236.025879,4252.307617,4428.333496,4680.384766,4457.307617,4404.487305,4382.436035,4365.769043,,,,,,,,,,,,,,,,,,,,,,,,,,,,,,,,,,,,,,,,,,,,,,,,,,,,,,,,,,,,,,,,,,,,,,
1720179885,54,0,4302.820313,4251.153809,4237.94873,4267.436035,4278.974121,4287.820313,4248.205078,4266.282227,4431.410156,4677.692383,4469.487305,4427.436035,4399.615234,4384.743652,,,,,,,,,,,,,,,,,,,,,,,,,,,,,,,,,,,,,,,,,,,,,,,,,,,,,,,,,,,,,,,,,,,,,,
1720179885,55,0,4315.512695,4260.384766,4256.410156,4274.487305,4275.897461,4287.436035,4252.307617,4271.410156,4435.128418,4679.743652,4474.358887,4437.436035,4406.666504,4390.512695,,,,,,,,,,,,,,,,,,,,,,,,,,,,,,,,,,,,,,,,,,,,,,,,,,,,,,,,,,,,,,,,,,,,,,
1720179885,56,0,4309.615234,4271.282227,4259.230957,4274.358887,4272.692383,4286.025879,4250,4266.025879,4431.282227,4674.871582,4467.307617,4427.05127,4397.05127,4379.358887,,,,,,,,,,,,,,,,,,,,,,,,,,,,,,,,,,,,,,,,,,,,,,,,,,,,,,,,,,,,,,,,,,,,,,
1720179885,57,0,4297.563965,4270.128418,4239.871582,4269.358887,4278.589844,4290.641113,4248.333496,4260.897461,4425.256348,4662.563965,4456.410156,4408.846191,4386.282227,4361.922852,,,,,,,,,,,,,,,,,,,,,,,,,,,,,,,,,,,,,,,,,,,,,,,,,,,,,,,,,,,,,,,,,,,,,,
1720179885,58,0,4291.153809,4262.436035,4227.05127,4262.692383,4283.589844,4291.153809,4233.333496,4248.846191,4423.846191,4658.461426,4450.897461,4388.333496,4381.666504,4344.743652,,,,,,,,,,,,,,,,,,,,,,,,,,,,,,,,,,,,,,,,,,,,,,,,,,,,,,,,,,,,,,,,,,,,,,
1720179885,59,0,4291.538574,4256.282227,4231.282227,4264.487305,4281.794922,4279.230957,4203.333496,4224.615234,4410.384766,4649.615234,4448.077148,4376.922852,4383.333496,4343.205078,,,,,,,,,,,,,,,,,,,,,,,,,,,,,,,,,,,,,,,,,,,,,,,,,,,,,,,,,,,,,,,,,,,,,,
1720179885,60,0,4306.025879,4259.615234,4251.666504,4276.666504,4281.794922,4278.205078,4200.897461,4222.692383,4409.230957,4642.820313,4454.358887,4395.256348,4395.512695,4365.256348,,,,,,,,,,,,,,,,,,,,,,,,,,,,,,,,,,,,,,,,,,,,,,,,,,,,,,,,,,,,,,,,,,,,,,
1720179885,61,0,4315.512695,4277.05127,4267.563965,4279.102539,4282.436035,4285.256348,4230.897461,4247.820313,4432.563965,4651.282227,4466.410156,4421.538574,4403.077148,4383.205078,,,,,,,,,,,,,,,,,,,,,,,,,,,,,,,,,,,,,,,,,,,,,,,,,,,,,,,,,,,,,,,,,,,,,,
1720179885,62,0,4302.94873,4278.846191,4256.538574,4273.205078,4277.692383,4284.615234,4248.846191,4264.615234,4430.512695,4648.717773,4468.077148,4425.512695,4397.05127,4374.358887,,,,,,,,,,,,,,,,,,,,,,,,,,,,,,,,,,,,,,,,,,,,,,,,,,,,,,,,,,,,,,,,,,,,,,
1720179885,63,0,4297.820313,4259.358887,4246.153809,4276.153809,4273.333496,4288.205078,4253.205078,4269.871582,4417.436035,4637.307617,4466.794922,4424.230957,4396.282227,4368.077148,,,,,,,,,,,,,,,,,,,,,,,,,,,,,,,,,,,,,,,,,,,,,,,,,,,,,,,,,,,,,,,,,,,,,,
1720179885,64,0,4313.974121,4263.717773,4258.974121,4285.512695,4275.769043,4291.922852,4251.666504,4265.641113,4423.717773,4637.820313,4467.563965,4430.128418,4399.487305,4377.05127,1.061366,5.035663,2.623466,1.340426,0.250667,2.063917,3.788961,2.697275,2.423063,1.40389,3.430316,5.929967,3.426309,1.526443,0.481357,0.59321,3.118786,1.829015,1.049713,0.461824,0.370343,0.497989,0.399419,0.409585,0.142077,0.293285,0.7498,0.200145,0.11817,0.059957,1.068955,4.737919,2.020486,2.083398,0.107333,1.017526,3.799138,1.903678,2.042996,0.155015,1.85062,3.911417,0.753891,0.504638,0.261235,55.126511,20.582405,7.038969,2.309022,0.811028,0.558008,1.075626,1.153173,0.825263,0.206549,5.413507,6.595769,6.081358,3.821769,0.423063,1.390666,3.658393,2.628487,1.503954,0.296278,2.41205,4.910553,3.053628,2.618271,0.337777
1720179885,65,0,4327.436035,4285.512695,4269.102539,4282.94873,4279.487305,4287.307617,4238.717773,4254.871582,4423.974121,4639.487305,4466.922852,4434.358887,4405.128418,4383.205078,,,,,,,,,,,,,,,,,,,,,,,,,,,,,,,,,,,,,,,,,,,,,,,,,,,,,,,,,,,,,,,,,,,,,,
1720179885,66,0,4328.846191,4281.025879,4268.589844,4280.256348,4279.871582,4284.230957,4237.05127,4256.025879,4418.461426,4633.717773,4475.641113,4437.820313,4419.743652,4382.692383,,,,,,,,,,,,,,,,,,,,,,,,,,,,,,,,,,,,,,,,,,,,,,,,,,,,,,,,,,,,,,,,,,,,,,
1720179885,67,0,4320.256348,4262.563965,4259.615234,4284.102539,4280.897461,4284.743652,4247.563965,4263.077148,4427.179688,4633.717773,4484.358887,4434.871582,4421.666504,4379.230957,,,,,,,,,,,,,,,,,,,,,,,,,,,,,,,,,,,,,,,,,,,,,,,,,,,,,,,,,,,,,,,,,,,,,,
1720179885,68,0,4299.871582,4257.307617,4242.563965,4273.461426,4281.922852,4281.922852,4240.897461,4256.025879,4420.897461,4627.820313,4471.153809,4415.769043,4402.692383,4367.94873,,,,,,,,,,,,,,,,,,,,,,,,,,,,,,,,,,,,,,,,,,,,,,,,,,,,,,,,,,,,,,,,,,,,,,
1720179885,69,0,4282.436035,4264.358887,4227.692383,4254.615234,4280.641113,4278.333496,4228.461426,4247.05127,4395.512695,4608.461426,4448.205078,4387.436035,4376.025879,4340.128418,,,,,,,,,,,,,,,,,,,,,,,,,,,,,,,,,,,,,,,,,,,,,,,,,,,,,,,,,,,,,,,,,,,,,,
1720179885,70,0,4276.282227,4263.717773,4217.692383,4246.922852,4279.871582,4277.179688,4227.692383,4244.615234,4384.743652,4594.358887,4438.205078,4366.666504,4357.820313,4312.820313,,,,,,,,,,,,,,,,,,,,,,,,,,,,,,,,,,,,,,,,,,,,,,,,,,,,,,,,,,,,,,,,,,,,,,
1720179885,71,0,4281.538574,4242.179688,4221.538574,4254.743652,4276.538574,4276.794922,4226.922852,4238.077148,4388.846191,4590.641113,4444.358887,4373.717773,4367.179688,4317.436035,,,,,,,,,,,,,,,,,,,,,,,,,,,,,,,,,,,,,,,,,,,,,,,,,,,,,,,,,,,,,,,,,,,,,,
1720179885,72,0,4309.358887,4239.358887,4252.692383,4275.641113,4280.128418,4284.358887,4232.692383,4243.077148,4404.871582,4601.025879,4465.641113,4410.641113,4403.461426,4353.077148,,,,,,,,,,,,,,,,,,,,,,,,,,,,,,,,,,,,,,,,,,,,,,,,,,,,,,,,,,,,,,,,,,,,,,
1720179885,73,0,4337.94873,4281.538574,4283.717773,4293.461426,4293.077148,4293.589844,4246.922852,4262.436035,4416.153809,4609.487305,4478.461426,4437.436035,4428.717773,4378.333496,,,,,,,,,,,,,,,,,,,,,,,,,,,,,,,,,,,,,,,,,,,,,,,,,,,,,,,,,,,,,,,,,,,,,,
1720179885,74,0,4335.769043,4307.307617,4281.410156,4286.794922,4291.410156,4291.666504,4249.487305,4263.974121,4410.897461,4601.025879,4471.153809,4431.282227,4419.743652,4368.589844,,,,,,,,,,,,,,,,,,,,,,,,,,,,,,,,,,,,,,,,,,,,,,,,,,,,,,,,,,,,,,,,,,,,,,
1720179885,75,0,4321.153809,4278.846191,4270,4273.846191,4278.333496,4283.974121,4242.563965,4250.512695,4403.717773,4592.05127,4465.897461,4418.974121,4405,4352.692383,,,,,,,,,,,,,,,,,,,,,,,,,,,,,,,,,,,,,,,,,,,,,,,,,,,,,,,,,,,,,,,,,,,,,,
1720179885,76,0,4313.589844,4251.025879,4260,4274.358887,4279.102539,4281.153809,4240.128418,4252.820313,4397.94873,4588.205078,4467.179688,4414.743652,4403.461426,4350.897461,,,,,,,,,,,,,,,,,,,,,,,,,,,,,,,,,,,,,,,,,,,,,,,,,,,,,,,,,,,,,,,,,,,,,,
1720179885,77,0,4308.205078,4259.871582,4249.743652,4272.307617,4286.666504,4286.282227,4244.615234,4262.436035,4395.256348,4583.077148,4469.743652,4417.179688,4410.769043,4354.230957,,,,,,,,,,,,,,,,,,,,,,,,,,,,,,,,,,,,,,,,,,,,,,,,,,,,,,,,,,,,,,,,,,,,,,
1720179885,78,0,4309.102539,4282.820313,4256.410156,4270.641113,4291.025879,4287.692383,4243.333496,4256.922852,4396.025879,4580,4470.256348,4418.846191,4410.769043,4352.307617,,,,,,,,,,,,,,,,,,,,,,,,,,,,,,,,,,,,,,,,,,,,,,,,,,,,,,,,,,,,,,,,,,,,,,
1720179885,79,0,4315,4289.230957,4265.256348,4277.563965,4296.666504,4284.615234,4232.94873,4245.128418,4393.205078,4577.692383,4463.205078,4411.794922,4393.974121,4345.641113,,,,,,,,,,,,,,,,,,,,,,,,,,,,,,,,,,,,,,,,,,,,,,,,,,,,,,,,,,,,,,,,,,,,,,
1720179885,80,0,4312.563965,4269.743652,4259.230957,4280.512695,4296.922852,4285.512695,4232.307617,4247.563965,4388.846191,4572.94873,4457.307617,4408.205078,4385.769043,4342.307617,1.103836,4.935672,2.063589,1.261681,0.237426,1.697582,3.564945,2.312726,2.315864,1.480144,3.267376,5.832159,2.580467,1.44621,0.429928,0.748387,2.987606,1.574357,0.942533,0.479663,0.329581,0.527345,0.416652,0.420251,0.150333,0.240415,0.810079,0.179675,0.132996,0.054647,0.980413,5.078036,1.787325,1.988937,0.113519,0.941457,4.250995,1.694047,1.942798,0.144136,2.331812,3.957355,0.71527,0.496101,0.255001,63.193951,21.253695,6.627558,2.115782,0.790263,0.529201,1.09444,1.028397,0.778632,0.204466,4.889226,6.52004,4.693936,3.481707,0.414181,1.534226,3.719222,2.213015,1.518677,0.286304,2.429036,4.909216,2.468426,2.549303,0.361528
1720179885,81,0,4308.717773,4261.153809,4257.179688,4275.256348,4294.487305,4289.743652,4243.077148,4257.692383,4390.512695,4570.128418,4462.436035,4413.974121,4397.692383,4345.128418,,,,,,,,,,,,,,,,,,,,,,,,,,,,,,,,,,,,,,,,,,,,,,,,,,,,,,,,,,,,,,,,,,,,,,
1720179885,82,0,4309.871582,4280.641113,4262.179688,4267.563965,4294.230957,4292.05127,4251.025879,4264.358887,4393.333496,4567.307617,4469.230957,4418.077148,4412.307617,4352.05127,,,,,,,,,,,,,,,,,,,,,,,,,,,,,,,,,,,,,,,,,,,,,,,,,,,,,,,,,,,,,,,,,,,,,,
1720179885,83,0,4309.487305,4295.512695,4259.743652,4260.128418,4288.333496,4287.820313,4248.077148,4265.256348,4393.974121,4562.94873,4469.871582,4420.769043,4414.230957,4358.205078,,,,,,,,,,,,,,,,,,,,,,,,,,,,,,,,,,,,,,,,,,,,,,,,,,,,,,,,,,,,,,,,,,,,,,
1720179885,84,0,4316.153809,4291.666504,4265,4265.512695,4283.589844,4280.512695,4238.846191,4257.94873,4392.820313,4561.794922,4468.333496,4427.05127,4412.94873,4362.436035,,,,,,,,,,,,,,,,,,,,,,,,,,,,,,,,,,,,,,,,,,,,,,,,,,,,,,,,,,,,,,,,,,,,,,
1720179885,85,0,4327.179688,4293.461426,4278.717773,4283.846191,4290.769043,4282.820313,4236.794922,4255.256348,4388.846191,4557.436035,4466.794922,4434.102539,4414.743652,4365,,,,,,,,,,,,,,,,,,,,,,,,,,,,,,,,,,,,,,,,,,,,,,,,,,,,,,,,,,,,,,,,,,,,,,
1720179885,86,0,4329.743652,4315.769043,4286.410156,4293.333496,4305,4294.615234,4249.230957,4265,4396.153809,4560.256348,4474.615234,4443.205078,4414.358887,4371.025879,,,,,,,,,,,,,,,,,,,,,,,,,,,,,,,,,,,,,,,,,,,,,,,,,,,,,,,,,,,,,,,,,,,,,,
1720179885,87,0,4331.410156,4329.358887,4288.717773,4287.05127,4312.436035,4296.282227,4255.769043,4267.692383,4395,4562.436035,4477.436035,4446.538574,4414.615234,4377.179688,,,,,,,,,,,,,,,,,,,,,,,,,,,,,,,,,,,,,,,,,,,,,,,,,,,,,,,,,,,,,,,,,,,,,,
1720179885,88,0,4334.230957,4322.94873,4283.974121,4279.230957,4310.128418,4292.307617,4253.461426,4264.358887,4381.922852,4550.897461,4471.153809,4440.512695,4419.358887,4375.512695,,,,,,,,,,,,,,,,,,,,,,,,,,,,,,,,,,,,,,,,,,,,,,,,,,,,,,,,,,,,,,,,,,,,,,
1720179885,89,0,4329.102539,4307.179688,4280.512695,4280,4308.717773,4291.666504,4256.538574,4270.897461,4390.512695,4551.538574,4478.077148,4439.615234,4427.692383,4376.538574,,,,,,,,,,,,,,,,,,,,,,,,,,,,,,,,,,,,,,,,,,,,,,,,,,,,,,,,,,,,,,,,,,,,,,
1720179885,90,0,4322.692383,4294.230957,4279.615234,4275.897461,4310.128418,4284.102539,4255,4270.384766,4397.94873,4557.820313,4483.077148,4441.922852,4430.769043,4384.102539,,,,,,,,,,,,,,,,,,,,,,,,,,,,,,,,,,,,,,,,,,,,,,,,,,,,,,,,,,,,,,,,,,,,,,
1720179885,91,0,4326.410156,4299.358887,4277.05127,4274.230957,4305.769043,4278.205078,4245.897461,4260.128418,4392.05127,4548.205078,4477.692383,4444.358887,4433.461426,4389.230957,,,,,,,,,,,,,,,,,,,,,,,,,,,,,,,,,,,,,,,,,,,,,,,,,,,,,,,,,,,,,,,,,,,,,,
1720179885,92,0,4338.717773,4313.077148,4284.743652,4291.410156,4303.589844,4281.025879,4248.846191,4267.307617,4400.512695,4545.128418,4483.077148,4453.717773,4441.153809,4394.358887,,,,,,,,,,,,,,,,,,,,,,,,,,,,,,,,,,,,,,,,,,,,,,,,,,,,,,,,,,,,,,,,,,,,,,
1720179885,93,0,4344.102539,4309.487305,4296.538574,4296.153809,4312.05127,4280.897461,4260,4277.05127,4403.974121,4549.230957,4483.974121,4452.94873,4439.102539,4392.436035,,,,,,,,,,,,,,,,,,,,,,,,,,,,,,,,,,,,,,,,,,,,,,,,,,,,,,,,,,,,,,,,,,,,,,
1720179885,94,0,4337.820313,4304.358887,4294.102539,4284.102539,4318.461426,4283.589844,4263.974121,4273.717773,4388.974121,4539.230957,4473.205078,4444.487305,4426.282227,4384.102539,,,,,,,,,,,,,,,,,,,,,,,,,,,,,,,,,,,,,,,,,,,,,,,,,,,,,,,,,,,,,,,,,,,,,,
1720179885,95,0,4339.871582,4314.871582,4295.128418,4289.102539,4321.410156,4296.153809,4265.897461,4277.307617,4388.846191,4532.820313,4475.769043,4457.692383,4423.461426,4392.307617,,,,,,,,,,,,,,,,,,,,,,,,,,,,,,,,,,,,,,,,,,,,,,,,,,,,,,,,,,,,,,,,,,,,,,
1720179885,96,0,4355.641113,4311.153809,4307.692383,4297.820313,4318.461426,4294.871582,4263.974121,4280.384766,4391.153809,4532.692383,4485.641113,4478.717773,4436.794922,4410.384766,1.240342,4.389323,1.57244,1.278674,0.227225,1.301908,3.128046,1.953045,2.217442,1.545142,2.989176,5.192017,1.77229,1.472707,0.38523,0.938604,2.639437,1.444786,0.879895,0.489731,0.329726,0.505935,0.43955,0.395501,0.153027,0.186928,0.928441,0.188782,0.150914,0.05032,0.92999,6.047099,1.889718,1.790368,0.12278,0.92686,5.248436,1.784317,1.74982,0.131983,2.865908,3.684984,0.665245,0.478157,0.239029,68.050957,19.941492,5.541498,1.741637,0.705862,0.53909,1.009123,0.892629,0.765776,0.200005,4.385086,5.793876,3.438503,3.25809,0.407648,1.808633,3.422125,1.810564,1.650315,0.277703,2.600079,4.319887,1.893642,2.539408,0.382519
1720179885,97,0,4358.589844,4302.179688,4311.794922,4292.307617,4312.692383,4285.384766,4253.333496,4268.717773,4377.820313,4522.563965,4485.641113,4476.794922,4442.563965,4410.769043,,,,,,,,,,,,,,,,,,,,,,,,,,,,,,,,,,,,,,,,,,,,,,,,,,,,,,,,,,,,,,,,,,,,,,
1720179885,98,0,4346.282227,4308.461426,4313.846191,4296.922852,4317.307617,4285.641113,4245.384766,4254.871582,4373.717773,4515,4477.563965,4460.512695,4432.307617,4398.589844,,,,,,,,,,,,,,,,,,,,,,,,,,,,,,,,,,,,,,,,,,,,,,,,,,,,,,,,,,,,,,,,,,,,,,
1720179885,99,0,4337.692383,4306.794922,4309.871582,4305.384766,4326.153809,4286.025879,4240.897461,4248.717773,4373.205078,4514.358887,4465.897461,4452.94873,4426.410156,4392.179688,,,,,,,,,,,,,,,,,,,,,,,,,,,,,,,,,,,,,,,,,,,,,,,,,,,,,,,,,,,,,,,,,,,,,,
1720179885,100,0,4333.333496,4297.692383,4293.589844,4296.025879,4326.025879,4285.897461,4239.487305,4251.922852,4372.820313,4512.820313,4467.05127,4455.512695,4430.897461,4389.615234,,,,,,,,,,,,,,,,,,,,,,,,,,,,,,,,,,,,,,,,,,,,,,,,,,,,,,,,,,,,,,,,,,,,,,
1720179885,101,0,4332.05127,4291.410156,4292.05127,4289.487305,4323.333496,4287.179688,4247.436035,4262.94873,4379.743652,4512.820313,4481.922852,4460.128418,4433.333496,4387.179688,,,,,,,,,,,,,,,,,,,,,,,,,,,,,,,,,,,,,,,,,,,,,,,,,,,,,,,,,,,,,,,,,,,,,,
1720179885,102,0,4337.692383,4295.769043,4306.666504,4287.436035,4323.333496,4285.128418,4262.436035,4273.589844,4384.615234,4515.641113,4488.974121,4466.282227,4437.436035,4389.487305,,,,,,,,,,,,,,,,,,,,,,,,,,,,,,,,,,,,,,,,,,,,,,,,,,,,,,,,,,,,,,,,,,,,,,
1720179885,103,0,4340.384766,4301.666504,4313.205078,4280.897461,4317.436035,4282.436035,4269.487305,4279.615234,4386.025879,4517.179688,4489.230957,4474.102539,4445.769043,4397.179688,,,,,,,,,,,,,,,,,,,,,,,,,,,,,,,,,,,,,,,,,,,,,,,,,,,,,,,,,,,,,,,,,,,,,,
1720179885,104,0,4340.512695,4291.794922,4316.410156,4284.487305,4310.256348,4283.974121,4270.641113,4283.205078,4388.461426,4515.384766,4493.077148,4482.179688,4447.179688,4398.205078,,,,,,,,,,,,,,,,,,,,,,,,,,,,,,,,,,,,,,,,,,,,,,,,,,,,,,,,,,,,,,,,,,,,,,
1720179885,105,0,4342.436035,4275.384766,4316.922852,4293.717773,4309.871582,4284.230957,4270.256348,4282.436035,4388.589844,4513.077148,4490,4477.179688,4441.922852,4385.769043,,,,,,,,,,,,,,,,,,,,,,,,,,,,,,,,,,,,,,,,,,,,,,,,,,,,,,,,,,,,,,,,,,,,,,
1720179885,106,0,4337.05127,4288.717773,4304.743652,4293.589844,4315.384766,4285,4267.436035,4280.769043,4381.410156,4510,4478.717773,4458.589844,4434.230957,4374.871582,,,,,,,,,,,,,,,,,,,,,,,,,,,,,,,,,,,,,,,,,,,,,,,,,,,,,,,,,,,,,,,,,,,,,,
1720179885,107,0,4326.025879,4310.641113,4297.436035,4289.230957,4321.922852,4289.487305,4263.589844,4278.846191,4374.230957,4504.487305,4474.358887,4449.102539,4424.102539,4372.436035,,,,,,,,,,,,,,,,,,,,,,,,,,,,,,,,,,,,,,,,,,,,,,,,,,,,,,,,,,,,,,,,,,,,,,
1720179885,108,0,4335,4302.820313,4308.205078,4294.102539,4328.077148,4294.102539,4261.410156,4276.282227,4377.179688,4499.358887,4480.641113,4463.846191,4427.563965,4378.333496,,,,,,,,,,,,,,,,,,,,,,,,,,,,,,,,,,,,,,,,,,,,,,,,,,,,,,,,,,,,,,,,,,,,,,
1720179885,109,0,4357.179688,4297.436035,4319.743652,4306.410156,4332.692383,4295.256348,4261.410156,4275.641113,4381.025879,4498.077148,4484.743652,4482.179688,4441.922852,4393.205078,,,,,,,,,,,,,,,,,,,,,,,,,,,,,,,,,,,,,,,,,,,,,,,,,,,,,,,,,,,,,,,,,,,,,,
1720179885,110,0,4361.922852,4312.563965,4329.358887,4307.179688,4329.743652,4287.820313,4259.102539,4273.333496,4375.897461,4495,4483.077148,4488.333496,4445.769043,4406.282227,,,,,,,,,,,,,,,,,,,,,,,,,,,,,,,,,,,,,,,,,,,,,,,,,,,,,,,,,,,,,,,,,,,,,,
1720179885,111,0,4356.922852,4313.461426,4341.922852,4310,4324.358887,4282.307617,4256.538574,4268.717773,4371.538574,4489.358887,4488.461426,4497.692383,4448.205078,4412.179688,,,,,,,,,,,,,,,,,,,,,,,,,,,,,,,,,,,,,,,,,,,,,,,,,,,,,,,,,,,,,,,,,,,,,,
1720179885,112,0,4357.307617,4301.666504,4335.256348,4323.333496,4325.897461,4282.436035,4256.538574,4263.205078,4365.897461,4480.641113,4488.461426,4494.615234,4445,4408.077148,1.43317,3.59522,1.362226,1.372906,0.221463,0.989793,2.631575,1.754375,2.110259,1.603115,2.707708,4.252075,1.294141,1.574148,0.358777,1.10315,2.198702,1.503645,0.846206,0.485484,0.352582,0.440006,0.460125,0.350682,0.149185,0.156409,1.035038,0.23473,0.166037,0.049083,0.880057,7.27157,2.39813,1.545997,0.135931,0.950034,6.465544,2.229527,1.517732,0.124744,3.183041,3.172777,0.649819,0.468017,0.22033,65.986237,17.108763,4.181856,1.32021,0.586148,0.584861,0.87069,0.811832,0.784893,0.193382,4.029563,4.749929,2.76438,3.09885,0.404459,2.181978,2.883623,1.597427,1.838242,0.270274,2.979044,3.384923,1.557848,2.55643,0.392136
1720179885,113,0,4352.307617,4312.436035,4310.384766,4313.205078,4326.153809,4283.589844,4257.94873,4264.871582,4356.666504,4473.846191,4472.563965,4469.615234,4425.641113,4393.717773,,,,,,,,,,,,,,,,,,,,,,,,,,,,,,,,,,,,,,,,,,,,,,,,,,,,,,,,,,,,,,,,,,,,,,
1720179885,114,0,4344.743652,4324.743652,4304.358887,4288.717773,4318.846191,4285.769043,4265.769043,4276.538574,4363.333496,4477.820313,4468.077148,4462.94873,4419.487305,4385.769043,,,,,,,,,,,,,,,,,,,,,,,,,,,,,,,,,,,,,,,,,,,,,,,,,,,,,,,,,,,,,,,,,,,,,,
1720179885,115,0,4340.384766,4296.794922,4312.820313,4282.436035,4313.077148,4286.794922,4275.897461,4286.666504,4373.974121,4480.512695,4478.717773,4480.769043,4429.230957,4387.820313,,,,,,,,,,,,,,,,,,,,,,,,,,,,,,,,,,,,,,,,,,,,,,,,,,,,,,,,,,,,,,,,,,,,,,
1720179885,116,0,4338.974121,4267.307617,4313.974121,4280.512695,4310.769043,4287.307617,4280.256348,4289.230957,4374.615234,4477.820313,4484.230957,4490.769043,4434.230957,4389.487305,,,,,,,,,,,,,,,,,,,,,,,,,,,,,,,,,,,,,,,,,,,,,,,,,,,,,,,,,,,,,,,,,,,,,,
1720179885,117,0,4347.179688,4285.256348,4322.307617,4281.410156,4312.692383,4285.897461,4277.307617,4290.641113,4386.538574,4481.666504,4492.563965,4494.615234,4445,4395.256348,,,,,,,,,,,,,,,,,,,,,,,,,,,,,,,,,,,,,,,,,,,,,,,,,,,,,,,,,,,,,,,,,,,,,,
1720179885,118,0,4357.94873,4310.641113,4336.410156,4301.410156,4317.436035,4282.307617,4269.615234,4286.666504,4390.384766,4480.256348,4495,4495.897461,4453.077148,4400.641113,,,,,,,,,,,,,,,,,,,,,,,,,,,,,,,,,,,,,,,,,,,,,,,,,,,,,,,,,,,,,,,,,,,,,,
1720179885,119,0,4348.717773,4293.974121,4330.384766,4306.538574,4318.974121,4280.512695,4262.436035,4271.282227,4373.717773,4466.153809,4478.077148,4478.461426,4438.205078,4389.102539,,,,,,,,,,,,,,,,,,,,,,,,,,,,,,,,,,,,,,,,,,,,,,,,,,,,,,,,,,,,,,,,,,,,,,
1720179885,120,0,4327.692383,4272.307617,4307.820313,4284.102539,4319.102539,4284.358887,4255.384766,4262.179688,4369.230957,4457.179688,4464.615234,4458.974121,4420.256348,4371.538574,,,,,,,,,,,,,,,,,,,,,,,,,,,,,,,,,,,,,,,,,,,,,,,,,,,,,,,,,,,,,,,,,,,,,,
1720179885,121,0,4318.461426,4286.922852,4295.256348,4274.871582,4319.743652,4284.487305,4247.436035,4263.461426,4370.512695,4455.256348,4463.717773,4455.512695,4414.358887,4362.307617,,,,,,,,,,,,,,,,,,,,,,,,,,,,,,,,,,,,,,,,,,,,,,,,,,,,,,,,,,,,,,,,,,,,,,
1720179885,122,0,4330,4310.384766,4307.563965,4289.743652,4320.641113,4285.256348,4246.922852,4262.820313,4357.563965,4443.846191,4467.94873,4464.487305,4419.230957,4367.05127,,,,,,,,,,,,,,,,,,,,,,,,,,,,,,,,,,,,,,,,,,,,,,,,,,,,,,,,,,,,,,,,,,,,,,
1720179885,123,0,4346.666504,4309.102539,4326.282227,4303.846191,4321.538574,4288.974121,4250.128418,4260,4352.94873,4438.846191,4474.871582,4475.897461,4424.871582,4380.512695,,,,,,,,,,,,,,,,,,,,,,,,,,,,,,,,,,,,,,,,,,,,,,,,,,,,,,,,,,,,,,,,,,,,,,
1720179885,124,0,4351.922852,4298.717773,4332.820313,4299.487305,4322.94873,4286.410156,4250.512695,4262.692383,4358.846191,4446.025879,4475.128418,4482.179688,4423.589844,4383.717773,,,,,,,,,,,,,,,,,,,,,,,,,,,,,,,,,,,,,,,,,,,,,,,,,,,,,,,,,,,,,,,,,,,,,,
1720179885,125,0,4343.461426,4287.179688,4326.282227,4289.230957,4322.436035,4280.512695,4255.128418,4271.410156,4358.333496,4445.769043,4468.974121,4477.692383,4417.692383,4372.179688,,,,,,,,,,,,,,,,,,,,,,,,,,,,,,,,,,,,,,,,,,,,,,,,,,,,,,,,,,,,,,,,,,,,,,
1720179885,126,0,4321.538574,4273.333496,4305.256348,4279.871582,4320.897461,4280.128418,4262.94873,4277.563965,4357.307617,4436.922852,4461.410156,4459.102539,4403.077148,4354.487305,,,,,,,,,,,,,,,,,,,,,,,,,,,,,,,,,,,,,,,,,,,,,,,,,,,,,,,,,,,,,,,,,,,,,,
1720179885,127,0,4295.897461,4259.615234,4281.282227,4259.487305,4313.333496,4282.436035,4263.461426,4276.666504,4351.410156,4429.871582,4451.282227,4436.538574,4387.563965,4338.461426,,,,,,,,,,,,,,,,,,,,,,,,,,,,,,,,,,,,,,,,,,,,,,,,,,,,,,,,,,,,,,,,,,,,,,
1720179885,0,0,4288.077148,4250.769043,4274.487305,4238.589844,4298.974121,4281.025879,4262.307617,4272.692383,4343.461426,4425.641113,4446.922852,4426.025879,4386.025879,4332.563965,1.667983,2.800083,1.543704,1.530848,0.219851,0.82518,2.20832,1.781636,1.97623,1.653965,2.507611,3.333242,1.298626,1.730177,0.351008,1.201865,1.79886,1.731966,0.844603,0.463271,0.365196,0.353616,0.469151,0.309903,0.140064,0.141586,1.073277,0.307863,0.177438,0.052207,0.82804,8.199097,3.202722,1.341767,0.153744,0.988521,7.414014,2.92592,1.318942,0.128244,3.320846,2.552712,0.702063,0.478296,0.206644,59.370888,13.476692,2.921503,0.969289,0.461611,0.66147,0.748234,0.830736,0.828457,0.186976,3.910523,3.81517,2.881125,2.968512,0.404256,2.598119,2.295596,1.684367,2.018732,0.266465,3.54805,2.463656,1.591632,2.573135,0.388095
1720179885,1,0,4298.717773,4253.205078,4280.128418,4243.461426,4294.743652,4280.384766,4263.974121,4274.743652,4345.384766,4420.512695,4452.692383,4433.717773,4390.512695,4343.077148,,,,,,,,,,,,,,,,,,,,,,,,,,,,,,,,,,,,,,,,,,,,,,,,,,,,,,,,,,,,,,,,,,,,,,
1720179885,2,0,4306.410156,4264.615234,4287.820313,4259.102539,4301.025879,4280.641113,4266.282227,4280.256348,4347.563965,4418.077148,4456.794922,4449.102539,4394.615234,4355.641113,,,,,,,,,,,,,,,,,,,,,,,,,,,,,,,,,,,,,,,,,,,,,,,,,,,,,,,,,,,,,,,,,,,,,,
1720179885,3,0,4317.820313,4280.769043,4305.641113,4264.871582,4307.692383,4278.717773,4261.922852,4272.563965,4348.974121,4417.820313,4458.205078,4457.692383,4401.538574,4357.436035,,,,,,,,,,,,,,,,,,,,,,,,,,,,,,,,,,,,,,,,,,,,,,,,,,,,,,,,,,,,,,,,,,,,,,
1720179885,4,0,4336.153809,4284.615234,4318.205078,4272.820313,4312.179688,4276.922852,4242.820313,4253.461426,4348.333496,4413.974121,4453.846191,4450,4396.282227,4351.794922,,,,,,,,,,,,,,,,,,,,,,,,,,,,,,,,,,,,,,,,,,,,,,,,,,,,,,,,,,,,,,,,,,,,,,
1720179885,5,0,4333.974121,4275.897461,4309.358887,4282.94873,4312.820313,4274.743652,4223.974121,4238.205078,4342.436035,4409.102539,4441.666504,4429.358887,4382.436035,4342.692383,,,,,,,,,,,,,,,,,,,,,,,,,,,,,,,,,,,,,,,,,,,,,,,,,,,,,,,,,,,,,,,,,,,,,,
