Timestamp,EEG.Counter,EEG.Interpolated,EEG.AF3,EEG.F7,EEG.F3,EEG.FC5,EEG.T7,EEG.P7,EEG.O1,EEG.O2,EEG.P8,EEG.T8,EEG.FC6,EEG.F4,EEG.F8,EEG.AF4,POW.AF3.Theta,POW.AF3.Alpha,POW.AF3.BetaL,POW.AF3.BetaH,POW.AF3.Gamma,POW.F7.Theta,POW.F7.Alpha,POW.F7.BetaL,POW.F7.BetaH,POW.F7.Gamma,POW.F3.Theta,POW.F3.Alpha,POW.F3.BetaL,POW.F3.BetaH,POW.F3.Gamma,POW.FC5.Theta,POW.FC5.Alpha,POW.FC5.BetaL,POW.FC5.BetaH,POW.FC5.Gamma,POW.T7.Theta,POW.T7.Alpha,POW.T7.BetaL,POW.T7.BetaH,POW.T7.Gamma,POW.P7.Theta,POW.P7.Alpha,POW.P7.BetaL,POW.P7.BetaH,POW.P7.Gamma,POW.O1.Theta,POW.O1.Alpha,POW.O1.BetaL,POW.O1.BetaH,POW.O1.Gamma,POW.O2.Theta,POW.O2.Alpha,POW.O2.BetaL,POW.O2.BetaH,POW.O2.Gamma,POW.P8.Theta,POW.P8.Alpha,POW.P8.BetaL,POW.P8.BetaH,POW.P8.Gamma,POW.T8.Theta,POW.T8.Alpha,POW.T8.BetaL,POW.T8.BetaH,POW.T8.Gamma,POW.FC6.Theta,POW.FC6.Alpha,POW.FC6.BetaL,POW.FC6.BetaH,POW.FC6.Gamma,POW.F4.Theta,POW.F4.Alpha,POW.F4.BetaL,POW.F4.BetaH,POW.F4.Gamma,POW.F8.Theta,POW.F8.Alpha,POW.F8.BetaL,POW.F8.BetaH,POW.F8.Gamma,POW.AF4.Theta,POW.AF4.Alpha,POW.AF4.BetaL,POW.AF4.BetaH,POW.AF4.Gamma
1720156471,46,0,4254.102539,4292.436035,4343.717773,4447.692383,4312.94873,4332.692383,4327.307617,4115.384766,4308.205078,4323.333496,4565.256348,4490.897461,4435.769043,4484.487305,,,,,,,,,,,,,,,,,,,,,,,,,,,,,,,,,,,,,,,,,,,,,,,,,,,,,,,,,,,,,,,,,,,,,,
1720156471,47,0,4236.922852,4281.025879,4323.589844,4439.743652,4310.641113,4327.563965,4327.692383,4124.358887,4303.846191,4319.358887,4563.846191,4483.205078,4426.153809,4478.717773,,,,,,,,,,,,,,,,,,,,,,,,,,,,,,,,,,,,,,,,,,,,,,,,,,,,,,,,,,,,,,,,,,,,,,
1720156471,48,0,4234.871582,4280,4318.077148,4439.230957,4309.230957,4329.871582,4325.256348,4128.205078,4296.538574,4307.307617,4557.179688,4471.282227,4414.230957,4466.538574,,,,,,,,,,,,,,,,,,,,,,,,,,,,,,,,,,,,,,,,,,,,,,,,,,,,,,,,,,,,,,,,,,,,,,
1720156471,49,0,4235.384766,4275.769043,4315.769043,4431.794922,4303.077148,4327.307617,4312.820313,4126.794922,4280.128418,4284.230957,4532.05127,4452.05127,4387.94873,4451.410156,,,,,,,,,,,,,,,,,,,,,,,,,,,,,,,,,,,,,,,,,,,,,,,,,,,,,,,,,,,,,,,,,,,,,,
1720156471,50,0,4224.230957,4264.487305,4305,4422.307617,4297.94873,4317.05127,4300.128418,4121.410156,4260.897461,4264.871582,4504.615234,4432.692383,4367.05127,4438.333496,,,,,,,,,,,,,,,,,,,,,,,,,,,,,,,,,,,,,,,,,,,,,,,,,,,,,,,,,,,,,,,,,,,,,,
1720156471,51,0,4224.102539,4266.794922,4308.205078,4428.589844,4296.794922,4311.025879,4297.692383,4129.358887,4259.615234,4267.436035,4504.230957,4439.871582,4372.692383,4443.589844,,,,,,,,,,,,,,,,,,,,,,,,,,,,,,,,,,,,,,,,,,,,,,,,,,,,,,,,,,,,,,,,,,,,,,
1720156471,52,0,4244.615234,4287.307617,4331.922852,4446.794922,4303.333496,4313.974121,4301.922852,4137.692383,4273.974121,4284.487305,4526.922852,4462.94873,4393.974121,4466.153809,,,,,,,,,,,,,,,,,,,,,,,,,,,,,,,,,,,,,,,,,,,,,,,,,,,,,,,,,,,,,,,,,,,,,,
1720156471,53,0,4259.743652,4301.666504,4345,4460.256348,4313.717773,4319.230957,4304.102539,4136.666504,4281.922852,4299.358887,4554.743652,4479.615234,4416.153809,4482.307617,,,,,,,,,,,,,,,,,,,,,,,,,,,,,,,,,,,,,,,,,,,,,,,,,,,,,,,,,,,,,,,,,,,,,,
1720156471,54,0,4262.692383,4302.179688,4343.205078,4463.205078,4314.871582,4318.717773,4306.410156,4147.563965,4284.358887,4307.179688,4576.025879,4497.436035,4432.436035,4491.666504,,,,,,,,,,,,,,,,,,,,,,,,,,,,,,,,,,,,,,,,,,,,,,,,,,,,,,,,,,,,,,,,,,,,,,
1720156471,55,0,4261.538574,4301.282227,4343.333496,4459.615234,4311.282227,4319.230957,4310.897461,4154.358887,4290.512695,4310.897461,4579.358887,4503.205078,4437.307617,4491.025879,,,,,,,,,,,,,,,,,,,,,,,,,,,,,,,,,,,,,,,,,,,,,,,,,,,,,,,,,,,,,,,,,,,,,,
1720156471,56,0,4258.589844,4298.205078,4340.384766,4451.282227,4305,4320.384766,4310.512695,4153.717773,4295,4311.666504,4572.05127,4492.692383,4433.589844,4482.94873,,,,,,,,,,,,,,,,,,,,,,,,,,,,,,,,,,,,,,,,,,,,,,,,,,,,,,,,,,,,,,,,,,,,,,
1720156471,57,0,4257.94873,4292.563965,4336.922852,4445.512695,4300.128418,4315.256348,4306.282227,4159.230957,4294.743652,4311.666504,4572.436035,4489.102539,4428.333496,4485.769043,,,,,,,,,,,,,,,,,,,,,,,,,,,,,,,,,,,,,,,,,,,,,,,,,,,,,,,,,,,,,,,,,,,,,,
1720156471,58,0,4257.820313,4292.05127,4343.717773,4446.282227,4303.846191,4313.333496,4306.410156,4159.615234,4291.794922,4308.717773,4572.307617,4491.153809,4432.179688,4491.282227,,,,,,,,,,,,,,,,,,,,,,,,,,,,,,,,,,,,,,,,,,,,,,,,,,,,,,,,,,,,,,,,,,,,,,
1720156471,59,0,4263.717773,4296.025879,4353.717773,4450.384766,4304.230957,4317.94873,4311.025879,4163.333496,4291.666504,4306.410156,4570.897461,4491.922852,4441.538574,4495.897461,,,,,,,,,,,,,,,,,,,,,,,,,,,,,,,,,,,,,,,,,,,,,,,,,,,,,,,,,,,,,,,,,,,,,,
1720156471,60,0,4276.922852,4297.94873,4359.358887,4456.410156,4302.05127,4317.563965,4312.436035,4169.230957,4296.025879,4310.641113,4573.974121,4496.410156,4437.563965,4498.846191,13.585927,8.803752,0.791514,1.277851,0.36814,2.339658,4.275194,0.716972,0.698197,0.212977,2.145973,7.82242,0.570045,1.13223,0.366515,2.63108,3.188918,0.948494,0.388235,0.319448,1.667472,1.711537,0.471527,0.189716,0.115134,0.986371,2.17856,0.881342,0.281194,0.157585,1.322461,8.415692,0.893731,0.547807,0.146571,84.385208,41.475021,14.907026,5.941136,2.340451,3.807665,10.928919,1.303904,0.826961,0.205354,4.404667,3.889269,1.18703,0.841293,0.168203,8.375544,2.383624,1.691859,1.370616,0.443357,13.778402,7.181014,2.113494,1.133004,0.682322,4.00642,2.838555,1.493177,0.850776,0.285276,2.696191,2.371927,1.265518,0.649682,0.227985
1720156471,61,0,4275.512695,4292.307617,4358.589844,4456.153809,4305.128418,4308.077148,4307.692383,4165.256348,4290.897461,4306.282227,4568.974121,4493.846191,4422.820313,4489.230957,,,,,,,,,,,,,,,,,,,,,,,,,,,,,,,,,,,,,,,,,,,,,,,,,,,,,,,,,,,,,,,,,,,,,,
1720156471,62,0,4266.922852,4292.179688,4352.179688,4451.153809,4303.717773,4303.717773,4301.666504,4167.307617,4282.307617,4296.666504,4563.717773,4488.846191,4422.307617,4488.333496,,,,,,,,,,,,,,,,,,,,,,,,,,,,,,,,,,,,,,,,,,,,,,,,,,,,,,,,,,,,,,,,,,,,,,
1720156471,63,0,4271.538574,4302.563965,4350.384766,4456.794922,4301.410156,4310.256348,4302.05127,4175.897461,4286.538574,4302.436035,4568.589844,4495.256348,4429.871582,4498.589844,,,,,,,,,,,,,,,,,,,,,,,,,,,,,,,,,,,,,,,,,,,,,,,,,,,,,,,,,,,,,,,,,,,,,,
1720156471,64,0,4275.897461,4306.410156,4352.179688,4462.820313,4309.487305,4316.666504,4304.487305,4171.025879,4291.282227,4306.153809,4573.333496,4498.846191,4429.358887,4495.641113,,,,,,,,,,,,,,,,,,,,,,,,,,,,,,,,,,,,,,,,,,,,,,,,,,,,,,,,,,,,,,,,,,,,,,
1720156471,65,0,4275,4303.589844,4349.871582,4458.205078,4314.230957,4315.512695,4306.282227,4171.538574,4289.743652,4300.512695,4573.077148,4498.205078,4428.846191,4491.666504,,,,,,,,,,,,,,,,,,,,,,,,,,,,,,,,,,,,,,,,,,,,,,,,,,,,,,,,,,,,,,,,,,,,,,
1720156471,66,0,4275.769043,4304.487305,4349.871582,4458.077148,4306.666504,4310,4304.871582,4181.025879,4291.153809,4302.307617,4574.615234,4497.692383,4431.282227,4492.179688,,,,,,,,,,,,,,,,,,,,,,,,,,,,,,,,,,,,,,,,,,,,,,,,,,,,,,,,,,,,,,,,,,,,,,
1720156471,67,0,4272.05127,4300.384766,4349.615234,4456.922852,4299.743652,4303.205078,4296.794922,4176.666504,4287.05127,4302.307617,4573.846191,4494.102539,4428.589844,4489.487305,,,,,,,,,,,,,,,,,,,,,,,,,,,,,,,,,,,,,,,,,,,,,,,,,,,,,,,,,,,,,,,,,,,,,,
1720156471,68,0,4271.153809,4291.538574,4343.589844,4448.077148,4297.307617,4303.461426,4296.538574,4178.077148,4281.410156,4294.871582,4570.384766,4497.307617,4425.897461,4491.025879,,,,,,,,,,,,,,,,,,,,,,,,,,,,,,,,,,,,,,,,,,,,,,,,,,,,,,,,,,,,,,,,,,,,,,
1720156472,69,0,4275.641113,4292.436035,4339.487305,4449.743652,4298.589844,4314.487305,4306.922852,4187.05127,4286.666504,4296.153809,4571.922852,4504.487305,4429.487305,4494.230957,,,,,,,,,,,,,,,,,,,,,,,,,,,,,,,,,,,,,,,,,,,,,,,,,,,,,,,,,,,,,,,,,,,,,,
1720156472,70,0,4278.205078,4295.897461,4341.538574,4457.307617,4299.358887,4314.102539,4308.461426,4188.846191,4288.589844,4299.615234,4575.128418,4508.205078,4432.820313,4492.692383,,,,,,,,,,,,,,,,,,,,,,,,,,,,,,,,,,,,,,,,,,,,,,,,,,,,,,,,,,,,,,,,,,,,,,
1720156472,71,0,4281.538574,4290.769043,4346.410156,4458.846191,4297.692383,4302.563965,4303.846191,4188.846191,4282.94873,4292.692383,4573.205078,4508.589844,4432.05127,4491.666504,,,,,,,,,,,,,,,,,,,,,,,,,,,,,,,,,,,,,,,,,,,,,,,,,,,,,,,,,,,,,,,,,,,,,,
1720156472,72,0,4290.512695,4292.563965,4350.897461,4459.871582,4297.94873,4303.205078,4305,4188.717773,4281.538574,4285.769043,4562.436035,4505.256348,4428.846191,4492.692383,,,,,,,,,,,,,,,,,,,,,,,,,,,,,,,,,,,,,,,,,,,,,,,,,,,,,,,,,,,,,,,,,,,,,,
1720156472,73,0,4295.769043,4300.256348,4351.153809,4461.794922,4296.538574,4310.128418,4305.256348,4191.666504,4277.05127,4282.692383,4552.563965,4500.384766,4425.769043,4490.384766,,,,,,,,,,,,,,,,,,,,,,,,,,,,,,,,,,,,,,,,,,,,,,,,,,,,,,,,,,,,,,,,,,,,,,
1720156472,74,0,4295.897461,4300.128418,4349.743652,4461.922852,4297.179688,4307.692383,4298.461426,4192.820313,4273.974121,4282.563965,4560,4500.512695,4427.05127,4492.307617,,,,,,,,,,,,,,,,,,,,,,,,,,,,,,,,,,,,,,,,,,,,,,,,,,,,,,,,,,,,,,,,,,,,,,
1720156472,75,0,4298.589844,4298.333496,4346.538574,4461.538574,4298.333496,4301.410156,4294.358887,4191.538574,4277.179688,4286.410156,4569.102539,4501.794922,4430.128418,4496.922852,,,,,,,,,,,,,,,,,,,,,,,,,,,,,,,,,,,,,,,,,,,,,,,,,,,,,,,,,,,,,,,,,,,,,,
1720156472,76,0,4300.128418,4295.512695,4343.974121,4457.436035,4293.589844,4295.769043,4294.102539,4195.897461,4275.897461,4288.205078,4567.179688,4505.384766,4426.666504,4496.153809,18.067131,10.415349,0.852112,1.537711,0.364988,3.033414,4.816851,0.621223,0.729881,0.215873,2.175771,9.308117,0.704158,1.23033,0.330291,4.083378,3.440913,0.816086,0.370554,0.294334,2.388568,1.826769,0.4754,0.202229,0.128331,1.302804,2.024305,0.73287,0.303523,0.185921,1.524997,8.202993,0.687855,0.539508,0.158163,122.19294,56.059994,21.121626,8.110163,2.993058,4.312226,11.284945,1.021065,0.855301,0.21698,4.336277,4.315897,1.081583,0.891131,0.16679,9.869977,3.36297,1.848452,1.360591,0.456545,18.769806,11.378965,2.7862,1.196382,0.683144,3.931639,3.150294,1.406451,0.93031,0.292646,2.656029,2.728134,1.233325,0.672323,0.225182
1720156472,77,0,4298.717773,4287.05127,4342.94873,4452.307617,4292.563965,4293.205078,4294.615234,4202.307617,4274.743652,4288.846191,4568.717773,4512.94873,4421.922852,4499.358887,,,,,,,,,,,,,,,,,,,,,,,,,,,,,,,,,,,,,,,,,,,,,,,,,,,,,,,,,,,,,,,,,,,,,,
1720156472,78,0,4288.846191,4279.230957,4331.153809,4445.641113,4296.282227,4298.846191,4295,4197.05127,4280.384766,4287.436035,4568.333496,4504.102539,4422.692383,4495.256348,,,,,,,,,,,,,,,,,,,,,,,,,,,,,,,,,,,,,,,,,,,,,,,,,,,,,,,,,,,,,,,,,,,,,,
1720156472,79,0,4276.794922,4275.128418,4319.230957,4432.820313,4290.641113,4303.205078,4295.128418,4197.94873,4278.589844,4281.922852,4550.384766,4489.230957,4418.205078,4487.436035,,,,,,,,,,,,,,,,,,,,,,,,,,,,,,,,,,,,,,,,,,,,,,,,,,,,,,,,,,,,,,,,,,,,,,
1720156472,80,0,4276.666504,4269.487305,4330.769043,4424.615234,4286.153809,4302.179688,4296.538574,4208.077148,4271.794922,4273.077148,4537.307617,4484.358887,4403.205078,4486.282227,,,,,,,,,,,,,,,,,,,,,,,,,,,,,,,,,,,,,,,,,,,,,,,,,,,,,,,,,,,,,,,,,,,,,,
1720156472,81,0,4278.461426,4262.94873,4348.077148,4426.153809,4287.94873,4302.692383,4297.436035,4201.922852,4270.128418,4264.743652,4536.025879,4475.897461,4395,4475,,,,,,,,,,,,,,,,,,,,,,,,,,,,,,,,,,,,,,,,,,,,,,,,,,,,,,,,,,,,,,,,,,,,,,
1720156472,82,0,4280.641113,4261.666504,4355.384766,4425.641113,4282.05127,4301.410156,4297.179688,4206.666504,4266.538574,4261.153809,4534.102539,4474.230957,4389.615234,4472.692383,,,,,,,,,,,,,,,,,,,,,,,,,,,,,,,,,,,,,,,,,,,,,,,,,,,,,,,,,,,,,,,,,,,,,,
1720156472,83,0,4291.025879,4272.307617,4363.846191,4430.256348,4282.692383,4296.922852,4295.769043,4214.230957,4262.563965,4264.871582,4540.769043,4483.974121,4383.589844,4483.589844,,,,,,,,,,,,,,,,,,,,,,,,,,,,,,,,,,,,,,,,,,,,,,,,,,,,,,,,,,,,,,,,,,,,,,
1720156472,84,0,4302.436035,4287.94873,4369.743652,4442.436035,4291.922852,4297.692383,4295.256348,4206.153809,4258.077148,4269.358887,4556.794922,4496.794922,4395.897461,4491.282227,,,,,,,,,,,,,,,,,,,,,,,,,,,,,,,,,,,,,,,,,,,,,,,,,,,,,,,,,,,,,,,,,,,,,,
1720156472,85,0,4308.846191,4295.512695,4365,4447.820313,4288.461426,4297.179688,4291.794922,4205.769043,4250.512695,4270.128418,4560.256348,4507.692383,4414.230957,4501.538574,,,,,,,,,,,,,,,,,,,,,,,,,,,,,,,,,,,,,,,,,,,,,,,,,,,,,,,,,,,,,,,,,,,,,,
1720156472,86,0,4310.128418,4298.205078,4367.820313,4447.436035,4284.487305,4290.384766,4284.230957,4206.666504,4253.205078,4274.871582,4551.153809,4507.692383,4417.94873,4503.333496,,,,,,,,,,,,,,,,,,,,,,,,,,,,,,,,,,,,,,,,,,,,,,,,,,,,,,,,,,,,,,,,,,,,,,
1720156472,87,0,4315.641113,4300.128418,4383.205078,4449.230957,4287.692383,4287.05127,4280.128418,4208.077148,4265.256348,4283.333496,4558.077148,4512.820313,4422.307617,4502.307617,,,,,,,,,,,,,,,,,,,,,,,,,,,,,,,,,,,,,,,,,,,,,,,,,,,,,,,,,,,,,,,,,,,,,,
1720156472,88,0,4324.871582,4294.102539,4385.769043,4449.102539,4283.461426,4286.282227,4280,4216.410156,4273.461426,4285.256348,4571.922852,4523.077148,4432.436035,4509.871582,,,,,,,,,,,,,,,,,,,,,,,,,,,,,,,,,,,,,,,,,,,,,,,,,,,,,,,,,,,,,,,,,,,,,,
1720156472,89,0,4314.871582,4285,4363.846191,4439.102539,4273.077148,4280.384766,4277.307617,4217.307617,4271.153809,4280.897461,4565.128418,4515.384766,4427.05127,4505.769043,,,,,,,,,,,,,,,,,,,,,,,,,,,,,,,,,,,,,,,,,,,,,,,,,,,,,,,,,,,,,,,,,,,,,,
1720156472,90,0,4297.820313,4278.974121,4345.897461,4426.922852,4269.487305,4277.307617,4275.256348,4213.589844,4265.769043,4277.692383,4554.358887,4504.615234,4412.820313,4495,,,,,,,,,,,,,,,,,,,,,,,,,,,,,,,,,,,,,,,,,,,,,,,,,,,,,,,,,,,,,,,,,,,,,,
1720156472,91,0,4305,4280.641113,4351.282227,4426.666504,4273.333496,4281.153809,4281.153809,4222.436035,4267.05127,4273.333496,4552.94873,4507.820313,4405.256348,4494.230957,,,,,,,,,,,,,,,,,,,,,,,,,,,,,,,,,,,,,,,,,,,,,,,,,,,,,,,,,,,,,,,,,,,,,,
1720156472,92,0,4314.743652,4288.077148,4357.563965,4434.358887,4275,4287.94873,4290.256348,4225.128418,4271.922852,4265.384766,4556.282227,4507.05127,4401.538574,4498.461426,20.778585,11.530065,0.854985,1.70656,0.352144,3.62021,5.240563,0.524223,0.731369,0.220062,2.255765,10.709139,0.833562,1.327818,0.296562,5.087998,3.673006,0.68302,0.355772,0.25118,3.036548,1.824718,0.471881,0.211008,0.141054,1.625161,1.722607,0.580284,0.328905,0.210624,1.650025,7.337695,0.498739,0.512659,0.170241,154.190567,68.007004,26.212872,9.895175,3.549881,4.626022,11.000121,0.77621,0.833214,0.226771,3.996857,4.685242,0.926546,0.870063,0.161933,10.803122,4.634656,1.937261,1.26266,0.457054,22.691008,15.753936,3.334232,1.212095,0.663734,3.730722,3.653448,1.249323,1.00364,0.297615,2.650114,3.130105,1.120064,0.702587,0.224442
1720156472,93,0,4304.743652,4286.666504,4353.846191,4434.615234,4271.410156,4292.563965,4297.05127,4222.692383,4268.846191,4260.384766,4562.05127,4512.692383,4405.769043,4509.743652,,,,,,,,,,,,,,,,,,,,,,,,,,,,,,,,,,,,,,,,,,,,,,,,,,,,,,,,,,,,,,,,,,,,,,
1720156472,94,0,4299.230957,4278.846191,4349.230957,4428.589844,4269.102539,4288.974121,4294.871582,4228.461426,4262.436035,4258.717773,4561.922852,4521.666504,4407.563965,4511.410156,,,,,,,,,,,,,,,,,,,,,,,,,,,,,,,,,,,,,,,,,,,,,,,,,,,,,,,,,,,,,,,,,,,,,,
1720156472,95,0,4309.102539,4281.538574,4343.717773,4428.205078,4268.589844,4279.230957,4285,4227.563965,4264.743652,4261.666504,4550.256348,4510.641113,4406.922852,4500.512695,,,,,,,,,,,,,,,,,,,,,,,,,,,,,,,,,,,,,,,,,,,,,,,,,,,,,,,,,,,,,,,,,,,,,,
1720156472,96,0,4318.589844,4283.205078,4341.794922,4429.615234,4269.743652,4276.410156,4280.769043,4227.179688,4269.615234,4263.589844,4549.743652,4505.256348,4411.153809,4505,,,,,,,,,,,,,,,,,,,,,,,,,,,,,,,,,,,,,,,,,,,,,,,,,,,,,,,,,,,,,,,,,,,,,,
1720156472,97,0,4322.563965,4279.615234,4353.717773,4431.410156,4274.102539,4278.717773,4283.461426,4230.384766,4272.563965,4264.871582,4562.563965,4515.384766,4416.153809,4515.769043,,,,,,,,,,,,,,,,,,,,,,,,,,,,,,,,,,,,,,,,,,,,,,,,,,,,,,,,,,,,,,,,,,,,,,
1720156472,98,0,4325.897461,4288.077148,4360.897461,4431.794922,4275.384766,4275.256348,4278.974121,4230.512695,4276.538574,4266.153809,4570.512695,4517.563965,4416.025879,4519.615234,,,,,,,,,,,,,,,,,,,,,,,,,,,,,,,,,,,,,,,,,,,,,,,,,,,,,,,,,,,,,,,,,,,,,,
1720156472,99,0,4322.94873,4292.436035,4346.922852,4429.358887,4270.512695,4268.077148,4266.410156,4227.436035,4276.025879,4265.384766,4570.128418,4506.922852,4410.512695,4514.102539,,,,,,,,,,,,,,,,,,,,,,,,,,,,,,,,,,,,,,,,,,,,,,,,,,,,,,,,,,,,,,,,,,,,,,
1720156472,100,0,4314.871582,4281.025879,4335.384766,4428.333496,4268.717773,4266.794922,4265.769043,4225.128418,4272.307617,4265.128418,4561.153809,4501.410156,4407.563965,4504.871582,,,,,,,,,,,,,,,,,,,,,,,,,,,,,,,,,,,,,,,,,,,,,,,,,,,,,,,,,,,,,,,,,,,,,,
1720156472,101,0,4317.179688,4281.153809,4346.538574,4426.922852,4270.769043,4273.846191,4276.794922,4230.512695,4272.692383,4264.230957,4552.692383,4510.512695,4410.384766,4504.743652,,,,,,,,,,,,,,,,,,,,,,,,,,,,,,,,,,,,,,,,,,,,,,,,,,,,,,,,,,,,,,,,,,,,,,
1720156472,102,0,4323.717773,4292.820313,4363.077148,4430.384766,4273.461426,4281.922852,4283.333496,4235.128418,4276.538574,4262.436035,4556.153809,4517.436035,4412.436035,4512.179688,,,,,,,,,,,,,,,,,,,,,,,,,,,,,,,,,,,,,,,,,,,,,,,,,,,,,,,,,,,,,,,,,,,,,,
1720156472,103,0,4325.384766,4295.256348,4362.692383,4442.307617,4278.205078,4284.743652,4287.307617,4235.128418,4278.205078,4262.563965,4563.077148,4519.358887,4415.769043,4518.589844,,,,,,,,,,,,,,,,,,,,,,,,,,,,,,,,,,,,,,,,,,,,,,,,,,,,,,,,,,,,,,,,,,,,,,
1720156472,104,0,4329.358887,4292.436035,4358.205078,4444.102539,4278.974121,4288.974121,4299.358887,4240.128418,4278.717773,4263.589844,4571.153809,4527.05127,4423.205078,4520,,,,,,,,,,,,,,,,,,,,,,,,,,,,,,,,,,,,,,,,,,,,,,,,,,,,,,,,,,,,,,,,,,,,,,
1720156472,105,0,4335.897461,4294.487305,4365.641113,4433.717773,4277.94873,4295.256348,4308.717773,4251.794922,4281.666504,4261.538574,4579.230957,4538.589844,4422.94873,4526.153809,,,,,,,,,,,,,,,,,,,,,,,,,,,,,,,,,,,,,,,,,,,,,,,,,,,,,,,,,,,,,,,,,,,,,,
1720156472,106,0,4338.333496,4300.128418,4371.025879,4434.358887,4278.589844,4289.615234,4299.743652,4246.794922,4286.666504,4261.025879,4577.05127,4534.358887,4421.538574,4526.538574,,,,,,,,,,,,,,,,,,,,,,,,,,,,,,,,,,,,,,,,,,,,,,,,,,,,,,,,,,,,,,,,,,,,,,
1720156472,107,0,4338.077148,4302.563965,4372.820313,4443.461426,4280.897461,4278.333496,4289.358887,4237.94873,4287.436035,4260.512695,4570,4524.615234,4425,4517.436035,,,,,,,,,,,,,,,,,,,,,,,,,,,,,,,,,,,,,,,,,,,,,,,,,,,,,,,,,,,,,,,,,,,,,,
1720156472,108,0,4341.282227,4301.282227,4377.820313,4445.897461,4283.974121,4277.307617,4288.589844,4245.256348,4282.307617,4256.153809,4573.333496,4527.179688,4419.743652,4519.743652,20.767344,11.70411,0.79888,1.72529,0.326872,3.909289,5.435559,0.45576,0.705681,0.223399,2.378729,11.659256,0.915656,1.402073,0.268962,5.770992,3.836957,0.58316,0.348051,0.203087,3.401756,1.692787,0.457035,0.212586,0.148483,1.83561,1.317395,0.456348,0.346194,0.225196,1.684792,5.958503,0.364486,0.472576,0.177357,169.927841,72.898903,28.391933,10.654304,3.794678,4.689237,10.071551,0.611445,0.768794,0.228413,3.610999,4.965277,0.791535,0.799856,0.153097,10.950303,5.923343,2.001999,1.138677,0.435045,24.257891,19.136929,3.647747,1.175705,0.613902,3.650571,4.311347,1.115534,1.085957,0.293239,2.690545,3.491813,1.008271,0.749801,0.220556
1720156472,109,0,4337.692383,4302.563965,4370.641113,4443.846191,4285.384766,4280.384766,4286.794922,4243.589844,4279.743652,4259.230957,4574.871582,4526.025879,4418.717773,4521.538574,,,,,,,,,,,,,,,,,,,,,,,,,,,,,,,,,,,,,,,,,,,,,,,,,,,,,,,,,,,,,,,,,,,,,,
1720156472,110,0,4326.410156,4300,4347.94873,4434.615234,4283.077148,4276.025879,4277.563965,4238.846191,4280.512695,4265.512695,4569.230957,4522.94873,4428.846191,4518.205078,,,,,,,,,,,,,,,,,,,,,,,,,,,,,,,,,,,,,,,,,,,,,,,,,,,,,,,,,,,,,,,,,,,,,,
1720156472,111,0,4320.641113,4290.641113,4336.153809,4424.487305,4277.307617,4267.820313,4270.769043,4239.487305,4283.205078,4269.102539,4574.230957,4521.794922,4429.230957,4520.256348,,,,,,,,,,,,,,,,,,,,,,,,,,,,,,,,,,,,,,,,,,,,,,,,,,,,,,,,,,,,,,,,,,,,,,
1720156472,112,0,4321.282227,4290.128418,4340.256348,4425.769043,4278.077148,4270.897461,4274.743652,4238.461426,4289.871582,4272.94873,4585.512695,4517.179688,4423.205078,4518.333496,,,,,,,,,,,,,,,,,,,,,,,,,,,,,,,,,,,,,,,,,,,,,,,,,,,,,,,,,,,,,,,,,,,,,,
1720156472,113,0,4321.922852,4294.615234,4340.897461,4429.871582,4280.641113,4282.05127,4284.102539,4246.794922,4291.025879,4270.128418,4579.615234,4513.974121,4423.974121,4513.205078,,,,,,,,,,,,,,,,,,,,,,,,,,,,,,,,,,,,,,,,,,,,,,,,,,,,,,,,,,,,,,,,,,,,,,
1720156472,114,0,4320.512695,4292.436035,4339.230957,4432.05127,4279.871582,4287.05127,4285.128418,4250,4287.307617,4263.846191,4568.077148,4510.641113,4418.717773,4510.128418,,,,,,,,,,,,,,,,,,,,,,,,,,,,,,,,,,,,,,,,,,,,,,,,,,,,,,,,,,,,,,,,,,,,,,
1720156472,115,0,4317.307617,4287.05127,4337.436035,4428.717773,4276.410156,4285.256348,4284.487305,4246.538574,4288.974121,4260.256348,4568.205078,4508.589844,4409.615234,4510.897461,,,,,,,,,,,,,,,,,,,,,,,,,,,,,,,,,,,,,,,,,,,,,,,,,,,,,,,,,,,,,,,,,,,,,,
1720156472,116,0,4312.436035,4284.230957,4330.128418,4420.384766,4272.307617,4280.641113,4289.230957,4251.410156,4285.512695,4252.94873,4561.153809,4507.563965,4409.487305,4509.230957,,,,,,,,,,,,,,,,,,,,,,,,,,,,,,,,,,,,,,,,,,,,,,,,,,,,,,,,,,,,,,,,,,,,,,
1720156472,117,0,4311.153809,4286.666504,4334.358887,4422.820313,4273.846191,4279.102539,4285.897461,4253.205078,4275.897461,4245.641113,4552.820313,4506.538574,4408.205078,4500.769043,,,,,,,,,,,,,,,,,,,,,,,,,,,,,,,,,,,,,,,,,,,,,,,,,,,,,,,,,,,,,,,,,,,,,,
1720156472,118,0,4313.077148,4288.333496,4344.615234,4431.025879,4276.282227,4276.410156,4278.205078,4254.102539,4275.769043,4245.512695,4563.077148,4511.538574,4398.461426,4505.256348,,,,,,,,,,,,,,,,,,,,,,,,,,,,,,,,,,,,,,,,,,,,,,,,,,,,,,,,,,,,,,,,,,,,,,
1720156472,119,0,4311.282227,4281.538574,4335.769043,4422.692383,4267.692383,4268.333496,4276.794922,4253.589844,4276.666504,4242.307617,4561.410156,4506.538574,4396.410156,4512.307617,,,,,,,,,,,,,,,,,,,,,,,,,,,,,,,,,,,,,,,,,,,,,,,,,,,,,,,,,,,,,,,,,,,,,,
1720156472,120,0,4304.871582,4278.974121,4321.666504,4413.333496,4259.230957,4260.256348,4273.717773,4243.333496,4270.256348,4238.461426,4549.487305,4493.846191,4409.102539,4507.563965,,,,,,,,,,,,,,,,,,,,,,,,,,,,,,,,,,,,,,,,,,,,,,,,,,,,,,,,,,,,,,,,,,,,,,
1720156472,121,0,4310.256348,4284.487305,4326.538574,4418.461426,4263.589844,4256.922852,4265.384766,4243.846191,4267.05127,4246.153809,4554.358887,4497.692383,4408.974121,4509.743652,,,,,,,,,,,,,,,,,,,,,,,,,,,,,,,,,,,,,,,,,,,,,,,,,,,,,,,,,,,,,,,,,,,,,,
1720156472,122,0,4317.05127,4282.179688,4334.615234,4415,4263.589844,4251.794922,4255.512695,4244.487305,4265.512695,4247.307617,4551.666504,4494.871582,4390.897461,4504.487305,,,,,,,,,,,,,,,,,,,,,,,,,,,,,,,,,,,,,,,,,,,,,,,,,,,,,,,,,,,,,,,,,,,,,,
1720156472,123,0,4301.666504,4269.230957,4324.358887,4400.897461,4248.717773,4241.794922,4246.666504,4235.769043,4256.922852,4234.615234,4536.538574,4477.05127,4383.589844,4491.538574,,,,,,,,,,,,,,,,,,,,,,,,,,,,,,,,,,,,,,,,,,,,,,,,,,,,,,,,,,,,,,,,,,,,,,
1720156472,124,0,4284.230957,4258.974121,4304.871582,4393.846191,4237.692383,4237.436035,4243.846191,4237.563965,4248.205078,4225.769043,4533.333496,4470,4384.487305,4494.487305,18.167854,10.862715,0.722457,1.578841,0.291289,3.829785,5.385981,0.452159,0.656318,0.222516,2.622627,11.891373,0.948382,1.428024,0.248788,5.653328,3.921821,0.545651,0.346384,0.161862,3.35986,1.448477,0.429527,0.205753,0.147327,1.855117,0.909743,0.372364,0.346927,0.226463,1.606247,4.405159,0.299461,0.427151,0.174662,163.254272,68.544708,26.763342,10.048116,3.595689,4.498629,8.724001,0.516405,0.679332,0.217961,3.352307,5.16776,0.720194,0.710592,0.140308,10.293669,6.935749,2.088366,1.052734,0.388619,22.887142,20.576826,3.703841,1.102577,0.530805,3.850674,5.049489,1.10235,1.17589,0.276382,2.787279,3.723249,0.976792,0.808877,0.209815
1720156472,125,0,4279.230957,4259.615234,4297.692383,4388.205078,4243.333496,4246.153809,4248.846191,4238.974121,4253.205078,4229.615234,4530,4465,4379.871582,4490.897461,,,,,,,,,,,,,,,,,,,,,,,,,,,,,,,,,,,,,,,,,,,,,,,,,,,,,,,,,,,,,,,,,,,,,,
1720156472,126,0,4276.282227,4264.358887,4305,4384.230957,4250.769043,4252.820313,4252.692383,4242.307617,4257.820313,4232.563965,4520.384766,4459.615234,4373.974121,4482.436035,,,,,,,,,,,,,,,,,,,,,,,,,,,,,,,,,,,,,,,,,,,,,,,,,,,,,,,,,,,,,,,,,,,,,,
1720156472,127,0,4275.769043,4259.615234,4309.487305,4386.538574,4246.410156,4250.512695,4255,4247.307617,4249.615234,4221.666504,4518.717773,4455.256348,4371.282227,4477.820313,,,,,,,,,,,,,,,,,,,,,,,,,,,,,,,,,,,,,,,,,,,,,,,,,,,,,,,,,,,,,,,,,,,,,,
1720156472,0,0,4274.487305,4250.128418,4306.794922,4381.025879,4239.615234,4249.871582,4258.846191,4244.358887,4247.307617,4215.384766,4519.743652,4447.692383,4367.692383,4474.230957,,,,,,,,,,,,,,,,,,,,,,,,,,,,,,,,,,,,,,,,,,,,,,,,,,,,,,,,,,,,,,,,,,,,,,
1720156472,1,0,4275.769043,4251.794922,4310.256348,4379.487305,4243.333496,4253.333496,4264.102539,4247.692383,4258.077148,4225.128418,4524.871582,4452.436035,4370,4487.692383,,,,,,,,,,,,,,,,,,,,,,,,,,,,,,,,,,,,,,,,,,,,,,,,,,,,,,,,,,,,,,,,,,,,,,
1720156472,2,0,4281.794922,4266.922852,4320.256348,4397.692383,4251.282227,4255.512695,4268.077148,4256.666504,4266.282227,4235.384766,4536.922852,4468.077148,4381.666504,4497.05127,,,,,,,,,,,,,,,,,,,,,,,,,,,,,,,,,,,,,,,,,,,,,,,,,,,,,,,,,,,,,,,,,,,,,,
1720156472,3,0,4284.487305,4275.256348,4322.563965,4408.717773,4250.384766,4254.358887,4263.846191,4260.128418,4263.333496,4232.563965,4542.05127,4473.717773,4384.102539,4490.897461,,,,,,,,,,,,,,,,,,,,,,,,,,,,,,,,,,,,,,,,,,,,,,,,,,,,,,,,,,,,,,,,,,,,,,
1720156472,4,0,4283.077148,4274.743652,4324.102539,4407.179688,4250.769043,4250.769043,4260.769043,4255.128418,4257.692383,4230,4537.94873,4469.615234,4383.846191,4487.307617,,,,,,,,,,,,,,,,,,,,,,,,,,,,,,,,,,,,,,,,,,,,,,,,,,,,,,,,,,,,,,,,,,,,,,
1720156472,5,0,4287.820313,4281.922852,4334.871582,4410.897461,4258.077148,4249.102539,4261.794922,4259.487305,4253.974121,4232.179688,4540.897461,4480.256348,4397.436035,4497.94873,,,,,,,,,,,,,,,,,,,,,,,,,,,,,,,,,,,,,,,,,,,,,,,,,,,,,,,,,,,,,,,,,,,,,,
1720156472,6,0,4298.717773,4291.794922,4342.05127,4417.94873,4262.820313,4250.769043,4254.358887,4261.410156,4249.230957,4230.384766,4548.974121,4497.05127,4407.820313,4511.025879,,,,,,,,,,,,,,,,,,,,,,,,,,,,,,,,,,,,,,,,,,,,,,,,,,,,,,,,,,,,,,,,,,,,,,
1720156472,7,0,4297.436035,4290.897461,4331.153809,4413.461426,4262.94873,4247.692383,4240.512695,4244.102539,4244.102539,4226.282227,4545.256348,4485,4398.589844,4503.077148,,,,,,,,,,,,,,,,,,,,,,,,,,,,,,,,,,,,,,,,,,,,,,,,,,,,,,,,,,,,,,,,,,,,,,
1720156472,8,0,4287.05127,4276.282227,4311.410156,4397.563965,4258.589844,4242.94873,4237.820313,4241.922852,4242.05127,4222.563965,4534.487305,4464.358887,4386.922852,4491.922852,,,,,,,,,,,,,,,,,,,,,,,,,,,,,,,,,,,,,,,,,,,,,,,,,,,,,,,,,,,,,,,,,,,,,,
1720156472,9,0,4283.846191,4264.102539,4299.358887,4390.769043,4256.922852,4252.820313,4244.743652,4250.641113,4246.153809,4226.794922,4529.102539,4461.282227,4383.974121,4487.436035,,,,,,,,,,,,,,,,,,,,,,,,,,,,,,,,,,,,,,,,,,,,,,,,,,,,,,,,,,,,,,,,,,,,,,
1720156472,10,0,4280.384766,4262.563965,4294.615234,4395.256348,4257.563965,4261.025879,4248.589844,4247.563965,4251.538574,4229.102539,4524.230957,4458.077148,4375.384766,4481.538574,,,,,,,,,,,,,,,,,,,,,,,,,,,,,,,,,,,,,,,,,,,,,,,,,,,,,,,,,,,,,,,,,,,,,,
1720156472,11,0,4273.205078,4260.769043,4293.461426,4393.717773,4255.641113,4256.794922,4254.230957,4253.461426,4252.05127,4220.897461,4520.769043,4451.410156,4367.820313,4483.846191,,,,,,,,,,,,,,,,,,,,,,,,,,,,,,,,,,,,,,,,,,,,,,,,,,,,,,,,,,,,,,,,,,,,,,
1720156472,12,0,4269.871582,4258.717773,4291.410156,4388.077148,4251.410156,4255.897461,4261.282227,4266.794922,4252.692383,4220.256348,4521.666504,4452.179688,4371.922852,4487.820313,13.859769,9.301653,0.676436,1.307884,0.252412,3.439002,5.159306,0.537069,0.590464,0.215257,3.016675,11.338141,0.955481,1.391119,0.23789,4.875693,3.955638,0.585651,0.347573,0.133849,2.922119,1.14953,0.395495,0.193039,0.137312,1.668129,0.611678,0.327701,0.328914,0.215872,1.420271,3.06292,0.305042,0.381509,0.161208,136.115021,56.078663,21.809179,8.227901,2.979541,4.106615,7.261495,0.474939,0.580518,0.196057,3.286002,5.297811,0.727158,0.624599,0.124322,9.005183,7.450045,2.215339,1.036917,0.3277,18.993486,19.736828,3.568129,1.012977,0.424346,4.308864,5.758052,1.267656,1.248835,0.249594,2.878904,3.758048,1.058711,0.859082,0.192688
1720156472,13,0,4277.179688,4261.922852,4295.256348,4394.230957,4249.871582,4262.179688,4265.256348,4259.743652,4260,4230.256348,4520.512695,4453.077148,4378.717773,4479.102539,,,,,,,,,,,,,,,,,,,,,,,,,,,,,,,,,,,,,,,,,,,,,,,,,,,,,,,,,,,,,,,,,,,,,,
1720156472,14,0,4285.769043,4267.436035,4305.897461,4399.487305,4249.615234,4262.436035,4266.794922,4267.307617,4266.538574,4232.563965,4526.282227,4463.077148,4383.333496,4483.461426,,,,,,,,,,,,,,,,,,,,,,,,,,,,,,,,,,,,,,,,,,,,,,,,,,,,,,,,,,,,,,,,,,,,,,
1720156472,15,0,4286.282227,4270.512695,4312.307617,4400.384766,4248.974121,4255.384766,4265.897461,4291.794922,4265.128418,4231.025879,4536.153809,4479.615234,4387.94873,4502.563965,,,,,,,,,,,,,,,,,,,,,,,,,,,,,,,,,,,,,,,,,,,,,,,,,,,,,,,,,,,,,,,,,,,,,,
1720156472,16,0,4287.692383,4278.205078,4317.307617,4407.563965,4251.538574,4250.256348,4260.641113,4278.205078,4258.205078,4232.436035,4538.974121,4484.487305,4390.512695,4500.769043,,,,,,,,,,,,,,,,,,,,,,,,,,,,,,,,,,,,,,,,,,,,,,,,,,,,,,,,,,,,,,,,,,,,,,
1720156472,17,0,4293.846191,4286.666504,4326.538574,4410.384766,4254.615234,4245.512695,4254.230957,4268.974121,4248.846191,4227.179688,4548.589844,4498.205078,4395.641113,4503.461426,,,,,,,,,,,,,,,,,,,,,,,,,,,,,,,,,,,,,,,,,,,,,,,,,,,,,,,,,,,,,,,,,,,,,,
1720156472,18,0,4298.333496,4291.538574,4335.769043,4412.179688,4257.436035,4246.282227,4250.128418,4275.128418,4243.461426,4226.794922,4560.641113,4513.205078,4409.487305,4516.025879,,,,,,,,,,,,,,,,,,,,,,,,,,,,,,,,,,,,,,,,,,,,,,,,,,,,,,,,,,,,,,,,,,,,,,
1720156472,19,0,4297.563965,4296.922852,4334.615234,4417.05127,4256.410156,4246.922852,4245.384766,4266.666504,4237.179688,4233.461426,4558.077148,4508.974121,4418.717773,4515.512695,,,,,,,,,,,,,,,,,,,,,,,,,,,,,,,,,,,,,,,,,,,,,,,,,,,,,,,,,,,,,,,,,,,,,,
1720156472,20,0,4294.615234,4297.94873,4327.563965,4418.205078,4252.307617,4242.94873,4242.436035,4262.692383,4229.102539,4233.461426,4551.282227,4501.538574,4413.077148,4515.256348,,,,,,,,,,,,,,,,,,,,,,,,,,,,,,,,,,,,,,,,,,,,,,,,,,,,,,,,,,,,,,,,,,,,,,
1720156472,21,0,4291.025879,4291.025879,4327.179688,4416.153809,4252.820313,4245.128418,4244.743652,4261.282227,4235.384766,4232.307617,4551.538574,4493.589844,4402.820313,4510.256348,,,,,,,,,,,,,,,,,,,,,,,,,,,,,,,,,,,,,,,,,,,,,,,,,,,,,,,,,,,,,,,,,,,,,,
1720156472,22,0,4285.512695,4280.897461,4328.077148,4407.436035,4250.128418,4249.871582,4250.384766,4266.410156,4252.307617,4232.307617,4553.077148,4492.436035,4395,4505,,,,,,,,,,,,,,,,,,,,,,,,,,,,,,,,,,,,,,,,,,,,,,,,,,,,,,,,,,,,,,,,,,,,,,
1720156472,23,0,4279.743652,4276.922852,4321.922852,4398.461426,4245.128418,4250.897461,4260.256348,4272.692383,4262.05127,4232.05127,4553.333496,4498.461426,4394.615234,4502.563965,,,,,,,,,,,,,,,,,,,,,,,,,,,,,,,,,,,,,,,,,,,,,,,,,,,,,,,,,,,,,,,,,,,,,,
1720156472,24,0,4277.307617,4274.615234,4315.384766,4396.538574,4245.769043,4253.974121,4274.102539,4279.871582,4267.563965,4239.871582,4548.717773,4500,4402.05127,4504.230957,,,,,,,,,,,,,,,,,,,,,,,,,,,,,,,,,,,,,,,,,,,,,,,,,,,,,,,,,,,,,,,,,,,,,,
1720156472,25,0,4272.94873,4265.641113,4315.256348,4394.871582,4242.179688,4258.717773,4278.589844,4287.436035,4275.128418,4248.461426,4540,4495.512695,4403.077148,4504.230957,,,,,,,,,,,,,,,,,,,,,,,,,,,,,,,,,,,,,,,,,,,,,,,,,,,,,,,,,,,,,,,,,,,,,,
1720156472,26,0,4262.820313,4259.230957,4308.846191,4388.333496,4233.589844,4255.256348,4268.461426,4283.461426,4273.717773,4242.436035,4534.358887,4486.282227,4391.666504,4491.025879,,,,,,,,,,,,,,,,,,,,,,,,,,,,,,,,,,,,,,,,,,,,,,,,,,,,,,,,,,,,,,,,,,,,,,
1720156472,27,0,4261.922852,4260.256348,4296.410156,4383.974121,4233.717773,4248.461426,4263.974121,4286.282227,4265,4230.641113,4535.641113,4484.615234,4385,4485.769043,,,,,,,,,,,,,,,,,,,,,,,,,,,,,,,,,,,,,,,,,,,,,,,,,,,,,,,,,,,,,,,,,,,,,,
1720156472,28,0,4267.436035,4261.282227,4297.692383,4385.769043,4241.922852,4249.871582,4268.461426,4290.128418,4261.538574,4229.102539,4541.025879,4492.436035,4389.230957,4492.05127,9.33702,7.538815,0.676847,0.991078,0.218875,2.92836,4.866508,0.68547,0.517344,0.20264,3.622168,10.170981,0.952659,1.297145,0.240032,3.830591,3.985342,0.680524,0.349106,0.119687,2.293458,0.871558,0.363263,0.178649,0.12237,1.393322,0.497609,0.313226,0.296186,0.19832,1.208224,2.21716,0.358611,0.33627,0.140954,97.196152,39.535469,15.165574,5.774033,2.131748,3.632114,5.915147,0.470611,0.483732,0.167944,3.323262,5.303316,0.793205,0.549773,0.107429,7.292636,7.368078,2.331484,1.078016,0.269717,13.649527,16.983635,3.301768,0.925093,0.316254,4.767582,6.292404,1.565593,1.267946,0.219875,2.852127,3.574925,1.205507,0.874724,0.174116
1720156472,29,0,4268.077148,4265.384766,4307.820313,4389.615234,4244.358887,4252.563965,4264.743652,4282.692383,4255.512695,4229.487305,4541.922852,4498.717773,4390,4496.794922,,,,,,,,,,,,,,,,,,,,,,,,,,,,,,,,,,,,,,,,,,,,,,,,,,,,,,,,,,,,,,,,,,,,,,
1720156472,30,0,4268.333496,4275.128418,4313.461426,4398.205078,4245,4245.897461,4252.05127,4275,4240.256348,4225.128418,4538.974121,4502.179688,4391.666504,4500.128418,,,,,,,,,,,,,,,,,,,,,,,,,,,,,,,,,,,,,,,,,,,,,,,,,,,,,,,,,,,,,,,,,,,,,,
1720156472,31,0,4272.563965,4285.128418,4322.179688,4407.436035,4250.641113,4233.717773,4239.487305,4269.615234,4228.077148,4227.563965,4545.128418,4505.641113,4402.820313,4505.256348,,,,,,,,,,,,,,,,,,,,,,,,,,,,,,,,,,,,,,,,,,,,,,,,,,,,,,,,,,,,,,,,,,,,,,
1720156472,32,0,4275.769043,4292.307617,4328.974121,4412.820313,4253.589844,4230.897461,4231.025879,4261.794922,4227.692383,4232.563965,4553.717773,4499.743652,4402.820313,4504.615234,,,,,,,,,,,,,,,,,,,,,,,,,,,,,,,,,,,,,,,,,,,,,,,,,,,,,,,,,,,,,,,,,,,,,,
1720156472,33,0,4274.358887,4290.256348,4326.153809,4413.333496,4254.871582,4238.461426,4230.641113,4263.205078,4229.871582,4229.487305,4545.512695,4490.128418,4394.487305,4501.282227,,,,,,,,,,,,,,,,,,,,,,,,,,,,,,,,,,,,,,,,,,,,,,,,,,,,,,,,,,,,,,,,,,,,,,
1720156472,34,0,4275.384766,4281.410156,4332.179688,4407.436035,4256.153809,4245.128418,4237.05127,4272.563965,4230,4226.282227,4536.153809,4493.077148,4396.666504,4507.820313,,,,,,,,,,,,,,,,,,,,,,,,,,,,,,,,,,,,,,,,,,,,,,,,,,,,,,,,,,,,,,,,,,,,,,
1720156472,35,0,4278.333496,4279.102539,4346.794922,4401.538574,4253.461426,4248.846191,4247.307617,4271.153809,4239.743652,4231.025879,4539.358887,4497.179688,4401.794922,4507.307617,,,,,,,,,,,,,,,,,,,,,,,,,,,,,,,,,,,,,,,,,,,,,,,,,,,,,,,,,,,,,,,,,,,,,,
1720156472,36,0,4271.153809,4277.436035,4344.871582,4398.717773,4247.692383,4255,4261.666504,4279.230957,4257.179688,4235.256348,4541.538574,4496.794922,4398.205078,4499.871582,,,,,,,,,,,,,,,,,,,,,,,,,,,,,,,,,,,,,,,,,,,,,,,,,,,,,,,,,,,,,,,,,,,,,,
1720156472,37,0,4258.589844,4265.128418,4329.871582,4394.230957,4243.846191,4259.487305,4274.871582,4298.077148,4268.846191,4237.94873,4541.410156,4496.025879,4393.717773,4498.077148,,,,,,,,,,,,,,,,,,,,,,,,,,,,,,,,,,,,,,,,,,,,,,,,,,,,,,,,,,,,,,,,,,,,,,
1720156472,38,0,4255,4258.589844,4320.512695,4389.615234,4245.256348,4263.717773,4281.282227,4273.846191,4274.743652,4247.05127,4539.487305,4482.563965,4393.589844,4494.358887,,,,,,,,,,,,,,,,,,,,,,,,,,,,,,,,,,,,,,,,,,,,,,,,,,,,,,,,,,,,,,,,,,,,,,
1720156472,39,0,4255.512695,4263.589844,4310.256348,4387.820313,4249.102539,4267.563965,4281.410156,4211.794922,4275.384766,4250.384766,4522.820313,4455.384766,4385.769043,4483.461426,,,,,,,,,,,,,,,,,,,,,,,,,,,,,,,,,,,,,,,,,,,,,,,,,,,,,,,,,,,,,,,,,,,,,,
1720156472,40,0,4247.179688,4262.436035,4294.230957,4387.94873,4255.384766,4265.641113,4279.358887,4179.871582,4265.641113,4240.641113,4505.128418,4434.743652,4371.666504,4470.384766,,,,,,,,,,,,,,,,,,,,,,,,,,,,,,,,,,,,,,,,,,,,,,,,,,,,,,,,,,,,,,,,,,,,,,
1720156472,41,0,4243.717773,4263.846191,4294.102539,4388.717773,4256.794922,4264.871582,4277.436035,4193.846191,4253.461426,4231.922852,4506.282227,4440.897461,4373.205078,4473.333496,,,,,,,,,,,,,,,,,,,,,,,,,,,,,,,,,,,,,,,,,,,,,,,,,,,,,,,,,,,,,,,,,,,,,,
1720156472,42,0,4259.743652,4275.128418,4311.538574,4394.615234,4256.410156,4267.436035,4271.410156,4203.974121,4249.358887,4234.615234,4519.358887,4463.974121,4391.922852,4492.05127,,,,,,,,,,,,,,,,,,,,,,,,,,,,,,,,,,,,,,,,,,,,,,,,,,,,,,,,,,,,,,,,,,,,,,
1720156472,43,0,4272.563965,4282.307617,4319.230957,4398.846191,4259.102539,4263.461426,4266.025879,4199.743652,4249.230957,4240,4536.922852,4481.025879,4404.743652,4503.205078,,,,,,,,,,,,,,,,,,,,,,,,,,,,,,,,,,,,,,,,,,,,,,,,,,,,,,,,,,,,,,,,,,,,,,
1720156472,44,0,4266.282227,4278.846191,4312.692383,4401.153809,4258.205078,4253.974121,4262.563965,4204.871582,4243.461426,4238.846191,4542.05127,4478.077148,4404.871582,4505.769043,5.826492,6.066735,0.705908,0.708021,0.197231,2.473857,4.610442,0.841573,0.445084,0.188233,4.256391,8.759589,0.940938,1.167699,0.258167,2.789088,4.045119,0.785823,0.348036,0.117042,1.719302,0.670868,0.337601,0.165693,0.10899,1.121767,0.591362,0.31705,0.256892,0.180376,1.006738,1.969381,0.424623,0.291365,0.12126,58.373898,23.88534,8.888597,3.422706,1.31074,3.113686,4.771671,0.491342,0.395041,0.141303,3.282047,5.089775,0.876363,0.479848,0.093402,5.525666,6.754296,2.362132,1.125645,0.229602,8.415717,13.283084,2.978585,0.842664,0.231448,4.923193,6.506595,1.86874,1.203778,0.194069,2.633775,3.224975,1.328684,0.83493,0.16042
1720156472,45,0,4260.384766,4276.538574,4306.666504,4405.256348,4256.153809,4247.820313,4249.615234,4208.461426,4232.820313,4233.461426,4528.461426,4465.512695,4403.461426,4504.743652,,,,,,,,,,,,,,,,,,,,,,,,,,,,,,,,,,,,,,,,,,,,,,,,,,,,,,,,,,,,,,,,,,,,,,
1720156472,46,0,4257.179688,4280.769043,4301.922852,4401.410156,4260.512695,4242.692383,4230,4198.974121,4227.436035,4230.384766,4519.230957,4460.384766,4401.794922,4495.641113,,,,,,,,,,,,,,,,,,,,,,,,,,,,,,,,,,,,,,,,,,,,,,,,,,,,,,,,,,,,,,,,,,,,,,
1720156472,47,0,4250,4277.307617,4292.179688,4392.692383,4257.179688,4240,4227.563965,4202.820313,4238.717773,4235.256348,4522.94873,4463.589844,4401.922852,4495.256348,,,,,,,,,,,,,,,,,,,,,,,,,,,,,,,,,,,,,,,,,,,,,,,,,,,,,,,,,,,,,,,,,,,,,,
1720156472,48,0,4242.436035,4265.128418,4281.282227,4388.205078,4245.769043,4248.205078,4243.846191,4225.384766,4253.974121,4241.153809,4525.128418,4463.846191,4396.025879,4495.384766,,,,,,,,,,,,,,,,,,,,,,,,,,,,,,,,,,,,,,,,,,,,,,,,,,,,,,,,,,,,,,,,,,,,,,
1720156472,49,0,4236.025879,4259.615234,4275.128418,4385.384766,4247.179688,4254.615234,4257.05127,4238.846191,4255.384766,4236.410156,4519.102539,4456.410156,4381.666504,4477.436035,,,,,,,,,,,,,,,,,,,,,,,,,,,,,,,,,,,,,,,,,,,,,,,,,,,,,,,,,,,,,,,,,,,,,,
1720156472,50,0,4231.153809,4256.922852,4274.743652,4377.820313,4252.563965,4252.94873,4262.563965,4251.153809,4253.974121,4229.102539,4516.794922,4454.871582,4371.794922,4467.94873,,,,,,,,,,,,,,,,,,,,,,,,,,,,,,,,,,,,,,,,,,,,,,,,,,,,,,,,,,,,,,,,,,,,,,
1720156472,51,0,4227.692383,4251.282227,4271.922852,4373.333496,4247.436035,4254.230957,4266.282227,4268.846191,4258.974121,4230.128418,4519.743652,4460.256348,4368.589844,4471.025879,,,,,,,,,,,,,,,,,,,,,,,,,,,,,,,,,,,,,,,,,,,,,,,,,,,,,,,,,,,,,,,,,,,,,,
1720156472,52,0,4235.641113,4253.077148,4275.256348,4374.487305,4241.410156,4258.717773,4269.615234,4279.743652,4257.563965,4233.974121,4520.769043,4470.641113,4372.692383,4478.461426,,,,,,,,,,,,,,,,,,,,,,,,,,,,,,,,,,,,,,,,,,,,,,,,,,,,,,,,,,,,,,,,,,,,,,
1720156472,53,0,4250.128418,4263.717773,4294.230957,4377.563965,4242.436035,4257.436035,4268.589844,4287.05127,4247.692383,4231.922852,4529.358887,4490.128418,4387.94873,4492.692383,,,,,,,,,,,,,,,,,,,,,,,,,,,,,,,,,,,,,,,,,,,,,,,,,,,,,,,,,,,,,,,,,,,,,,
1720156472,54,0,4257.179688,4272.05127,4311.794922,4389.102539,4247.563965,4254.615234,4268.205078,4292.436035,4246.410156,4231.538574,4550,4510.384766,4400.897461,4502.820313,,,,,,,,,,,,,,,,,,,,,,,,,,,,,,,,,,,,,,,,,,,,,,,,,,,,,,,,,,,,,,,,,,,,,,
1720156472,55,0,4261.282227,4282.307617,4315,4401.410156,4251.410156,4253.974121,4266.153809,4295.384766,4246.794922,4234.102539,4558.717773,4518.717773,4407.94873,4510.128418,,,,,,,,,,,,,,,,,,,,,,,,,,,,,,,,,,,,,,,,,,,,,,,,,,,,,,,,,,,,,,,,,,,,,,
1720156472,56,0,4263.717773,4292.820313,4313.717773,4404.230957,4251.538574,4244.358887,4247.179688,4290.256348,4232.94873,4234.871582,4552.563965,4513.333496,4421.538574,4513.205078,,,,,,,,,,,,,,,,,,,,,,,,,,,,,,,,,,,,,,,,,,,,,,,,,,,,,,,,,,,,,,,,,,,,,,
1720156472,57,0,4263.077148,4291.153809,4315.641113,4407.436035,4255.384766,4232.563965,4229.615234,4283.589844,4223.717773,4233.589844,4558.974121,4512.179688,4429.615234,4512.820313,,,,,,,,,,,,,,,,,,,,,,,,,,,,,,,,,,,,,,,,,,,,,,,,,,,,,,,,,,,,,,,,,,,,,,
1720156472,58,0,4262.692383,4283.846191,4315.384766,4411.922852,4259.743652,4234.230957,4228.717773,4279.615234,4225.641113,4235.641113,4560.512695,4508.461426,4421.538574,4506.666504,,,,,,,,,,,,,,,,,,,,,,,,,,,,,,,,,,,,,,,,,,,,,,,,,,,,,,,,,,,,,,,,,,,,,,
1720156472,59,0,4252.307617,4276.666504,4301.410156,4400.897461,4255.256348,4242.307617,4231.153809,4278.205078,4233.589844,4239.102539,4543.717773,4496.025879,4413.589844,4493.077148,,,,,,,,,,,,,,,,,,,,,,,,,,,,,,,,,,,,,,,,,,,,,,,,,,,,,,,,,,,,,,,,,,,,,,
1720156472,60,0,4233.077148,4269.230957,4280,4382.94873,4249.871582,4244.743652,4238.461426,4290,4246.282227,4240.384766,4537.05127,4487.436035,4408.461426,4481.282227,3.71539,5.132452,0.743195,0.503429,0.187483,2.148891,4.483363,0.958759,0.378202,0.176288,4.74207,7.566881,0.91927,1.029804,0.28978,2.08567,4.154983,0.866627,0.339394,0.123241,1.418036,0.576473,0.318215,0.154261,0.101909,1.016347,0.864095,0.32962,0.218455,0.166122,0.87313,2.273517,0.474471,0.247796,0.10842,28.947308,12.551125,4.395257,1.716463,0.709544,2.568359,3.862415,0.519943,0.316705,0.122273,3.024782,4.590765,0.936135,0.407597,0.08597,3.984428,5.856819,2.257908,1.1255,0.212411,4.447673,9.823873,2.659743,0.765441,0.185268,4.617769,6.376375,2.063813,1.057902,0.176787,2.203918,2.848987,1.361141,0.739408,0.157101
1720156472,61,0,4221.538574,4260.897461,4266.282227,4375.256348,4245.641113,4244.871582,4250.512695,4308.461426,4250.384766,4233.205078,4535.512695,4479.230957,4391.282227,4472.307617,,,,,,,,,,,,,,,,,,,,,,,,,,,,,,,,,,,,,,,,,,,,,,,,,,,,,,,,,,,,,,,,,,,,,,
1720156472,62,0,4206.282227,4242.563965,4250.384766,4360.641113,4234.743652,4246.410156,4249.230957,4309.487305,4238.461426,4209.487305,4505,4456.153809,4356.282227,4451.410156,,,,,,,,,,,,,,,,,,,,,,,,,,,,,,,,,,,,,,,,,,,,,,,,,,,,,,,,,,,,,,,,,,,,,,
1720156472,63,0,4183.461426,4218.974121,4226.410156,4338.974121,4225.256348,4245.641113,4245.256348,4295.384766,4227.94873,4187.94873,4469.102539,4429.743652,4321.922852,4427.436035,,,,,,,,,,,,,,,,,,,,,,,,,,,,,,,,,,,,,,,,,,,,,,,,,,,,,,,,,,,,,,,,,,,,,,
1720156472,64,0,4187.820313,4209.487305,4221.025879,4333.846191,4226.538574,4246.922852,4255.641113,4298.333496,4232.179688,4192.307617,4474.615234,4433.333496,4322.307617,4436.666504,,,,,,,,,,,,,,,,,,,,,,,,,,,,,,,,,,,,,,,,,,,,,,,,,,,,,,,,,,,,,,,,,,,,,,
1720156472,65,0,4212.820313,4221.922852,4240.897461,4346.922852,4231.282227,4250,4262.820313,4309.615234,4244.358887,4213.205078,4501.794922,4459.487305,4356.538574,4462.179688,,,,,,,,,,,,,,,,,,,,,,,,,,,,,,,,,,,,,,,,,,,,,,,,,,,,,,,,,,,,,,,,,,,,,,
1720156472,66,0,4222.307617,4243.461426,4261.794922,4361.538574,4234.615234,4249.230957,4262.692383,4309.230957,4255.641113,4229.487305,4521.666504,4479.871582,4387.820313,4474.102539,,,,,,,,,,,,,,,,,,,,,,,,,,,,,,,,,,,,,,,,,,,,,,,,,,,,,,,,,,,,,,,,,,,,,,
1720156472,67,0,4230,4259.102539,4276.922852,4371.025879,4236.922852,4246.025879,4265.641113,4311.410156,4256.410156,4236.153809,4536.025879,4492.179688,4398.333496,4486.666504,,,,,,,,,,,,,,,,,,,,,,,,,,,,,,,,,,,,,,,,,,,,,,,,,,,,,,,,,,,,,,,,,,,,,,
1720156472,68,0,4248.974121,4267.05127,4295.128418,4379.487305,4236.794922,4244.487305,4266.282227,4313.589844,4250,4237.94873,4543.846191,4503.589844,4404.871582,4497.307617,,,,,,,,,,,,,,,,,,,,,,,,,,,,,,,,,,,,,,,,,,,,,,,,,,,,,,,,,,,,,,,,,,,,,,
1720156473,69,0,4257.307617,4275.384766,4312.307617,4391.666504,4242.05127,4240.641113,4264.102539,4310.769043,4246.153809,4232.436035,4550.384766,4514.615234,4412.307617,4497.05127,,,,,,,,,,,,,,,,,,,,,,,,,,,,,,,,,,,,,,,,,,,,,,,,,,,,,,,,,,,,,,,,,,,,,,
1720156473,70,0,4255.769043,4282.05127,4320.128418,4400.256348,4247.179688,4234.102539,4263.717773,4310.897461,4240,4223.974121,4554.871582,4522.692383,4410,4500.384766,,,,,,,,,,,,,,,,,,,,,,,,,,,,,,,,,,,,,,,,,,,,,,,,,,,,,,,,,,,,,,,,,,,,,,
1720156473,71,0,4257.179688,4281.538574,4323.077148,4401.666504,4246.666504,4237.307617,4263.589844,4309.487305,4231.538574,4218.077148,4554.230957,4525.128418,4408.205078,4505.897461,,,,,,,,,,,,,,,,,,,,,,,,,,,,,,,,,,,,,,,,,,,,,,,,,,,,,,,,,,,,,,,,,,,,,,
1720156473,72,0,4256.025879,4280.897461,4322.436035,4399.358887,4247.563965,4245.128418,4263.461426,4304.487305,4222.436035,4215.641113,4552.436035,4521.410156,4412.307617,4501.666504,,,,,,,,,,,,,,,,,,,,,,,,,,,,,,,,,,,,,,,,,,,,,,,,,,,,,,,,,,,,,,,,,,,,,,
1720156473,73,0,4249.743652,4281.666504,4313.077148,4396.666504,4248.333496,4245.384766,4262.436035,4304.871582,4217.820313,4213.846191,4548.974121,4515.256348,4409.358887,4496.794922,,,,,,,,,,,,,,,,,,,,,,,,,,,,,,,,,,,,,,,,,,,,,,,,,,,,,,,,,,,,,,,,,,,,,,
1720156473,74,0,4242.563965,4280.384766,4304.871582,4396.282227,4248.846191,4244.102539,4261.666504,4305.256348,4224.871582,4215,4537.179688,4503.333496,4403.589844,4489.358887,,,,,,,,,,,,,,,,,,,,,,,,,,,,,,,,,,,,,,,,,,,,,,,,,,,,,,,,,,,,,,,,,,,,,,
1720156473,75,0,4240,4278.846191,4306.025879,4397.05127,4249.615234,4252.692383,4270.256348,4308.461426,4234.743652,4220.128418,4536.794922,4504.358887,4404.230957,4492.179688,,,,,,,,,,,,,,,,,,,,,,,,,,,,,,,,,,,,,,,,,,,,,,,,,,,,,,,,,,,,,,,,,,,,,,
1720156473,76,0,4238.077148,4273.333496,4302.563965,4392.179688,4246.666504,4257.563965,4278.846191,4316.153809,4233.461426,4214.102539,4544.102539,4514.230957,4397.820313,4502.307617,2.796692,4.698712,0.758906,0.377785,0.184269,1.988008,4.549172,0.991553,0.318237,0.169207,5.087726,6.903909,0.891958,0.904876,0.324912,1.751118,4.329718,0.881441,0.318562,0.135191,1.44571,0.580738,0.296919,0.141857,0.101877,1.089417,1.260353,0.339288,0.186267,0.156211,0.834529,3.074391,0.492287,0.212813,0.104567,12.40744,6.442174,2.070601,0.807896,0.385677,2.072058,3.346786,0.547141,0.25393,0.112951,2.620988,3.852108,0.946691,0.332592,0.08701,2.925952,4.977491,2.013,1.055113,0.21227,2.313442,7.466257,2.369009,0.699193,0.175885,3.986696,6.025214,2.094978,0.863521,0.16947,1.680873,2.632877,1.290186,0.611011,0.165145
1720156473,77,0,4229.358887,4263.974121,4293.717773,4379.358887,4245.641113,4253.333496,4277.820313,4314.487305,4228.974121,4201.794922,4533.461426,4501.666504,4382.179688,4488.333496,,,,,,,,,,,,,,,,,,,,,,,,,,,,,,,,,,,,,,,,,,,,,,,,,,,,,,,,,,,,,,,,,,,,,,
1720156473,78,0,4227.307617,4260.769043,4291.025879,4373.717773,4246.025879,4251.538574,4279.487305,4315.641113,4232.94873,4202.307617,4519.615234,4490.897461,4375.256348,4477.820313,,,,,,,,,,,,,,,,,,,,,,,,,,,,,,,,,,,,,,,,,,,,,,,,,,,,,,,,,,,,,,,,,,,,,,
1720156473,79,0,4232.436035,4265.256348,4289.358887,4377.436035,4244.358887,4253.974121,4280.128418,4320.641113,4238.077148,4210.641113,4519.102539,4499.230957,4380.256348,4487.94873,,,,,,,,,,,,,,,,,,,,,,,,,,,,,,,,,,,,,,,,,,,,,,,,,,,,,,,,,,,,,,,,,,,,,,
1720156473,80,0,4234.487305,4266.282227,4287.692383,4379.358887,4245.512695,4254.615234,4272.05127,4317.05127,4236.282227,4218.461426,4527.179688,4503.077148,4388.717773,4490.769043,,,,,,,,,,,,,,,,,,,,,,,,,,,,,,,,,,,,,,,,,,,,,,,,,,,,,,,,,,,,,,,,,,,,,,
1720156473,81,0,4236.794922,4262.179688,4287.307617,4379.871582,4248.461426,4246.410156,4261.410156,4310.897461,4233.974121,4222.05127,4535.897461,4500,4390,4488.333496,,,,,,,,,,,,,,,,,,,,,,,,,,,,,,,,,,,,,,,,,,,,,,,,,,,,,,,,,,,,,,,,,,,,,,
1720156473,82,0,4238.589844,4263.077148,4287.436035,4380.641113,4246.538574,4236.282227,4251.922852,4303.333496,4231.153809,4220.769043,4540.384766,4503.846191,4392.820313,4492.179688,,,,,,,,,,,,,,,,,,,,,,,,,,,,,,,,,,,,,,,,,,,,,,,,,,,,,,,,,,,,,,,,,,,,,,
1720156473,83,0,4244.487305,4267.179688,4290.128418,4383.974121,4246.794922,4232.563965,4243.077148,4300.512695,4222.307617,4223.205078,4540.128418,4508.717773,4407.436035,4500.384766,,,,,,,,,,,,,,,,,,,,,,,,,,,,,,,,,,,,,,,,,,,,,,,,,,,,,,,,,,,,,,,,,,,,,,
1720156473,84,0,4252.436035,4266.282227,4293.717773,4387.05127,4248.205078,4231.538574,4244.871582,4304.102539,4218.333496,4228.077148,4536.538574,4506.794922,4414.102539,4500.128418,,,,,,,,,,,,,,,,,,,,,,,,,,,,,,,,,,,,,,,,,,,,,,,,,,,,,,,,,,,,,,,,,,,,,,
1720156473,85,0,4254.487305,4265.897461,4300.384766,4385.384766,4242.307617,4231.666504,4254.230957,4306.025879,4225.128418,4222.307617,4535.384766,4505.641113,4405.897461,4497.05127,,,,,,,,,,,,,,,,,,,,,,,,,,,,,,,,,,,,,,,,,,,,,,,,,,,,,,,,,,,,,,,,,,,,,,
1720156473,86,0,4257.179688,4266.410156,4304.871582,4382.820313,4241.922852,4236.666504,4261.794922,4312.307617,4234.230957,4215.128418,4540.641113,4506.666504,4399.358887,4499.102539,,,,,,,,,,,,,,,,,,,,,,,,,,,,,,,,,,,,,,,,,,,,,,,,,,,,,,,,,,,,,,,,,,,,,,
1720156473,87,0,4260.897461,4256.666504,4300.256348,4381.410156,4246.025879,4246.538574,4273.461426,4325,4241.282227,4218.589844,4541.282227,4505.128418,4396.794922,4498.846191,,,,,,,,,,,,,,,,,,,,,,,,,,,,,,,,,,,,,,,,,,,,,,,,,,,,,,,,,,,,,,,,,,,,,,
1720156473,88,0,4255.769043,4247.563965,4289.871582,4375.512695,4241.282227,4250.641113,4280.769043,4322.692383,4246.794922,4218.846191,4531.025879,4495.641113,4391.025879,4493.589844,,,,,,,,,,,,,,,,,,,,,,,,,,,,,,,,,,,,,,,,,,,,,,,,,,,,,,,,,,,,,,,,,,,,,,
1720156473,89,0,4247.94873,4243.333496,4282.820313,4364.871582,4233.077148,4248.461426,4277.179688,4314.230957,4245.641113,4214.102539,4517.05127,4483.333496,4381.025879,4486.538574,,,,,,,,,,,,,,,,,,,,,,,,,,,,,,,,,,,,,,,,,,,,,,,,,,,,,,,,,,,,,,,,,,,,,,
1720156473,90,0,4249.743652,4237.307617,4283.717773,4360.256348,4227.436035,4246.922852,4272.94873,4317.820313,4236.025879,4212.820313,4508.589844,4477.05127,4370.897461,4482.179688,,,,,,,,,,,,,,,,,,,,,,,,,,,,,,,,,,,,,,,,,,,,,,,,,,,,,,,,,,,,,,,,,,,,,,
1720156473,91,0,4255.128418,4236.922852,4290.641113,4360.256348,4229.743652,4247.94873,4270.641113,4318.717773,4233.846191,4213.846191,4516.410156,4482.820313,4370.512695,4486.025879,,,,,,,,,,,,,,,,,,,,,,,,,,,,,,,,,,,,,,,,,,,,,,,,,,,,,,,,,,,,,,,,,,,,,,
1720156473,92,0,4257.436035,4242.820313,4295.641113,4361.153809,4235.256348,4249.743652,4268.461426,4318.333496,4240.512695,4217.820313,4527.179688,4496.666504,4382.307617,4498.461426,2.426733,4.651868,0.734723,0.304758,0.181461,1.963783,4.89129,0.914595,0.267367,0.166285,5.429446,6.901656,0.866452,0.803809,0.35116,1.756345,4.627131,0.811445,0.285056,0.148222,1.732543,0.661125,0.265596,0.126616,0.10613,1.358264,1.715497,0.332344,0.162588,0.14856,0.942146,4.321226,0.473023,0.197111,0.10709,6.565388,4.184601,1.388474,0.519732,0.276536,1.661103,3.440753,0.585038,0.216822,0.11144,2.142273,3.031737,0.921605,0.268723,0.09578,2.436434,4.39328,1.672278,0.937648,0.217742,1.858831,6.482083,2.10035,0.665311,0.188443,3.329721,5.765448,1.978872,0.674269,0.171018,1.269453,2.776307,1.158568,0.482515,0.180631
1720156473,93,0,4256.794922,4244.358887,4291.794922,4368.333496,4236.922852,4246.025879,4263.333496,4316.025879,4238.205078,4219.102539,4523.846191,4497.563965,4387.436035,4501.666504,,,,,,,,,,,,,,,,,,,,,,,,,,,,,,,,,,,,,,,,,,,,,,,,,,,,,,,,,,,,,,,,,,,,,,
1720156473,94,0,4258.717773,4245.512695,4290.128418,4372.436035,4237.94873,4243.589844,4256.153809,4307.436035,4228.974121,4217.05127,4527.692383,4490.769043,4387.436035,4496.025879,,,,,,,,,,,,,,,,,,,,,,,,,,,,,,,,,,,,,,,,,,,,,,,,,,,,,,,,,,,,,,,,,,,,,,
1720156473,95,0,4265.128418,4250.897461,4290.769043,4364.487305,4236.794922,4240.512695,4245,4308.077148,4227.179688,4216.538574,4540.256348,4497.179688,4394.230957,4503.333496,,,,,,,,,,,,,,,,,,,,,,,,,,,,,,,,,,,,,,,,,,,,,,,,,,,,,,,,,,,,,,,,,,,,,,
1720156473,96,0,4265.384766,4252.820313,4282.436035,4359.358887,4235.641113,4235.128418,4240.256348,4310.384766,4228.461426,4219.487305,4531.922852,4500.256348,4399.615234,4510.128418,,,,,,,,,,,,,,,,,,,,,,,,,,,,,,,,,,,,,,,,,,,,,,,,,,,,,,,,,,,,,,,,,,,,,,
1720156473,97,0,4261.153809,4247.94873,4275.384766,4363.589844,4237.820313,4238.077148,4251.410156,4307.307617,4228.589844,4221.282227,4519.230957,4492.436035,4391.410156,4499.102539,,,,,,,,,,,,,,,,,,,,,,,,,,,,,,,,,,,,,,,,,,,,,,,,,,,,,,,,,,,,,,,,,,,,,,
1720156473,98,0,4266.794922,4246.410156,4284.487305,4368.461426,4241.538574,4245.512695,4261.922852,4312.307617,4233.974121,4219.487305,4528.461426,4496.922852,4384.615234,4495.769043,,,,,,,,,,,,,,,,,,,,,,,,,,,,,,,,,,,,,,,,,,,,,,,,,,,,,,,,,,,,,,,,,,,,,,
1720156473,99,0,4280.512695,4255.384766,4297.692383,4370,4240.256348,4244.871582,4266.153809,4318.333496,4241.025879,4223.589844,4541.153809,4509.487305,4397.94873,4509.358887,,,,,,,,,,,,,,,,,,,,,,,,,,,,,,,,,,,,,,,,,,,,,,,,,,,,,,,,,,,,,,,,,,,,,,
1720156473,100,0,4285.897461,4264.743652,4296.025879,4369.743652,4238.974121,4245.128418,4273.589844,4318.333496,4247.820313,4233.205078,4545.769043,4511.282227,4412.692383,4514.358887,,,,,,,,,,,,,,,,,,,,,,,,,,,,,,,,,,,,,,,,,,,,,,,,,,,,,,,,,,,,,,,,,,,,,,
1720156473,101,0,4289.615234,4266.410156,4293.205078,4370.256348,4243.846191,4250.512695,4282.820313,4326.538574,4258.333496,4239.230957,4551.282227,4516.153809,4412.179688,4517.820313,,,,,,,,,,,,,,,,,,,,,,,,,,,,,,,,,,,,,,,,,,,,,,,,,,,,,,,,,,,,,,,,,,,,,,
1720156473,102,0,4293.205078,4259.871582,4295.641113,4370.384766,4242.692383,4249.102539,4283.077148,4329.743652,4263.333496,4239.230957,4557.307617,4525.769043,4410.512695,4519.230957,,,,,,,,,,,,,,,,,,,,,,,,,,,,,,,,,,,,,,,,,,,,,,,,,,,,,,,,,,,,,,,,,,,,,,
1720156473,103,0,4291.922852,4255.256348,4296.410156,4365.897461,4236.922852,4245.769043,4278.846191,4324.358887,4258.589844,4237.05127,4552.563965,4524.871582,4408.077148,4511.922852,,,,,,,,,,,,,,,,,,,,,,,,,,,,,,,,,,,,,,,,,,,,,,,,,,,,,,,,,,,,,,,,,,,,,,
1720156473,104,0,4296.538574,4253.974121,4305.769043,4368.077148,4236.666504,4248.077148,4280,4328.589844,4251.794922,4232.307617,4541.282227,4526.025879,4400.641113,4518.205078,,,,,,,,,,,,,,,,,,,,,,,,,,,,,,,,,,,,,,,,,,,,,,,,,,,,,,,,,,,,,,,,,,,,,,
1720156473,105,0,4295.769043,4251.410156,4311.794922,4379.358887,4244.102539,4250.256348,4277.436035,4324.358887,4245,4229.230957,4542.307617,4530.641113,4405.256348,4522.179688,,,,,,,,,,,,,,,,,,,,,,,,,,,,,,,,,,,,,,,,,,,,,,,,,,,,,,,,,,,,,,,,,,,,,,
1720156473,106,0,4293.846191,4258.333496,4299.230957,4379.743652,4247.05127,4247.307617,4266.794922,4313.333496,4235.769043,4231.922852,4549.102539,4527.436035,4414.487305,4517.692383,,,,,,,,,,,,,,,,,,,,,,,,,,,,,,,,,,,,,,,,,,,,,,,,,,,,,,,,,,,,,,,,,,,,,,
1720156473,107,0,4306.538574,4272.692383,4298.333496,4377.179688,4246.410156,4245.512695,4260,4313.077148,4228.846191,4232.820313,4548.974121,4522.179688,4412.307617,4522.179688,,,,,,,,,,,,,,,,,,,,,,,,,,,,,,,,,,,,,,,,,,,,,,,,,,,,,,,,,,,,,,,,,,,,,,
1720156473,108,0,4318.974121,4275.256348,4321.794922,4389.358887,4252.436035,4250.897461,4264.102539,4316.025879,4235.384766,4232.692383,4551.410156,4525.384766,4414.487305,4525.897461,2.256185,4.977139,0.698149,0.259725,0.176326,2.122577,5.629973,0.764827,0.230848,0.16475,6.097536,7.620683,0.895667,0.72459,0.35813,2.045981,5.170315,0.691112,0.243183,0.157096,2.043201,0.804747,0.227616,0.110217,0.10989,1.646201,2.161489,0.303662,0.148333,0.140121,1.190076,5.903473,0.43652,0.20931,0.111134,6.320096,3.588549,1.496131,0.560368,0.27431,1.340323,4.221684,0.660143,0.217758,0.114166,1.688246,2.31749,0.905011,0.246308,0.109738,2.525957,4.355733,1.326986,0.832035,0.221237,2.596591,6.706642,1.886772,0.695301,0.20617,2.944444,6.061052,1.832022,0.559587,0.179784,1.187131,3.44753,1.051809,0.387095,0.198315
1720156473,109,0,4317.05127,4265.512695,4330.128418,4394.487305,4252.692383,4251.282227,4266.410156,4318.589844,4244.102539,4231.922852,4553.461426,4533.589844,4413.077148,4522.05127,,,,,,,,,,,,,,,,,,,,,,,,,,,,,,,,,,,,,,,,,,,,,,,,,,,,,,,,,,,,,,,,,,,,,,
1720156473,110,0,4302.179688,4261.153809,4312.94873,4381.153809,4247.307617,4244.743652,4261.282227,4316.794922,4242.179688,4229.358887,4545.769043,4526.153809,4397.179688,4514.743652,,,,,,,,,,,,,,,,,,,,,,,,,,,,,,,,,,,,,,,,,,,,,,,,,,,,,,,,,,,,,,,,,,,,,,
1720156473,111,0,4287.692383,4257.692383,4293.846191,4371.410156,4244.615234,4244.743652,4260.128418,4315.641113,4242.820313,4229.230957,4532.820313,4510.128418,4386.794922,4508.461426,,,,,,,,,,,,,,,,,,,,,,,,,,,,,,,,,,,,,,,,,,,,,,,,,,,,,,,,,,,,,,,,,,,,,,
1720156473,112,0,4280.256348,4249.230957,4281.153809,4370.384766,4244.487305,4249.358887,4265.256348,4321.025879,4248.717773,4228.461426,4524.871582,4501.282227,4387.179688,4499.871582,,,,,,,,,,,,,,,,,,,,,,,,,,,,,,,,,,,,,,,,,,,,,,,,,,,,,,,,,,,,,,,,,,,,,,
1720156473,113,0,4276.922852,4248.461426,4279.615234,4367.563965,4242.563965,4250,4272.436035,4323.205078,4249.615234,4228.717773,4530.769043,4500.384766,4384.230957,4493.205078,,,,,,,,,,,,,,,,,,,,,,,,,,,,,,,,,,,,,,,,,,,,,,,,,,,,,,,,,,,,,,,,,,,,,,
1720156473,114,0,4277.307617,4248.077148,4286.410156,4362.820313,4240.256348,4253.846191,4278.461426,4320.641113,4247.94873,4230.128418,4538.205078,4502.307617,4378.589844,4498.077148,,,,,,,,,,,,,,,,,,,,,,,,,,,,,,,,,,,,,,,,,,,,,,,,,,,,,,,,,,,,,,,,,,,,,,
1720156473,115,0,4282.307617,4245.897461,4292.05127,4364.230957,4238.846191,4259.743652,4281.922852,4326.282227,4245.897461,4232.179688,4533.717773,4505.256348,4382.692383,4504.230957,,,,,,,,,,,,,,,,,,,,,,,,,,,,,,,,,,,,,,,,,,,,,,,,,,,,,,,,,,,,,,,,,,,,,,
1720156473,116,0,4286.025879,4254.487305,4294.871582,4370.641113,4238.333496,4255.512695,4277.563965,4328.205078,4237.692383,4233.717773,4532.820313,4508.205078,4395.256348,4507.179688,,,,,,,,,,,,,,,,,,,,,,,,,,,,,,,,,,,,,,,,,,,,,,,,,,,,,,,,,,,,,,,,,,,,,,
1720156473,117,0,4283.717773,4266.025879,4295.897461,4371.025879,4241.153809,4248.333496,4267.94873,4319.102539,4232.436035,4231.666504,4538.333496,4507.179688,4400.128418,4510.256348,,,,,,,,,,,,,,,,,,,,,,,,,,,,,,,,,,,,,,,,,,,,,,,,,,,,,,,,,,,,,,,,,,,,,,
1720156473,118,0,4284.487305,4266.410156,4293.077148,4365.384766,4242.307617,4249.358887,4262.563965,4317.94873,4230.897461,4228.333496,4536.538574,4507.94873,4394.102539,4510.897461,,,,,,,,,,,,,,,,,,,,,,,,,,,,,,,,,,,,,,,,,,,,,,,,,,,,,,,,,,,,,,,,,,,,,,
1720156473,119,0,4289.871582,4262.436035,4294.358887,4368.205078,4242.94873,4250.512695,4254.358887,4313.974121,4220.897461,4229.358887,4536.025879,4504.871582,4392.94873,4507.436035,,,,,,,,,,,,,,,,,,,,,,,,,,,,,,,,,,,,,,,,,,,,,,,,,,,,,,,,,,,,,,,,,,,,,,
1720156473,120,0,4293.333496,4265.769043,4306.282227,4381.025879,4244.230957,4244.871582,4244.743652,4308.461426,4217.563965,4231.922852,4542.820313,4506.666504,4399.230957,4511.538574,,,,,,,,,,,,,,,,,,,,,,,,,,,,,,,,,,,,,,,,,,,,,,,,,,,,,,,,,,,,,,,,,,,,,,
1720156473,121,0,4292.563965,4267.179688,4312.307617,4384.743652,4242.692383,4243.589844,4249.871582,4314.743652,4229.615234,4233.846191,4550.897461,4517.307617,4399.871582,4518.205078,,,,,,,,,,,,,,,,,,,,,,,,,,,,,,,,,,,,,,,,,,,,,,,,,,,,,,,,,,,,,,,,,,,,,,
1720156473,122,0,4291.153809,4266.922852,4305.769043,4378.589844,4242.94873,4249.615234,4261.282227,4321.025879,4242.05127,4239.102539,4557.05127,4516.794922,4397.820313,4513.589844,,,,,,,,,,,,,,,,,,,,,,,,,,,,,,,,,,,,,,,,,,,,,,,,,,,,,,,,,,,,,,,,,,,,,,
1720156473,123,0,4289.871582,4266.410156,4295.641113,4373.461426,4244.230957,4248.589844,4259.871582,4322.692383,4242.436035,4241.282227,4550.769043,4512.820313,4396.282227,4508.846191,,,,,,,,,,,,,,,,,,,,,,,,,,,,,,,,,,,,,,,,,,,,,,,,,,,,,,,,,,,,,,,,,,,,,,
1720156473,124,0,4280.384766,4254.743652,4282.94873,4365.769043,4237.692383,4248.205078,4257.692383,4321.538574,4240.512695,4234.871582,4535.256348,4509.487305,4391.922852,4508.717773,2.523876,5.78331,0.682371,0.231872,0.170107,2.626616,6.813071,0.611112,0.214625,0.161481,7.371212,9.005048,1.022151,0.658889,0.340733,2.619804,6.057336,0.581365,0.200604,0.158025,2.303702,1.005128,0.194398,0.096083,0.109419,1.906221,2.539315,0.255318,0.142876,0.129482,1.580336,7.602479,0.407421,0.249534,0.112889,7.943578,3.503624,1.910849,0.747941,0.310436,1.153782,5.496711,0.791949,0.261108,0.118458,1.3623,1.87451,0.947679,0.289144,0.125172,3.199004,5.014708,1.09818,0.794472,0.223773,4.196823,7.771574,1.796022,0.80721,0.219897,3.091998,7.293555,1.803121,0.560544,0.194395,1.588359,4.666698,1.041659,0.341833,0.214121
1720156473,125,0,4266.025879,4244.743652,4265.641113,4355.897461,4231.538574,4255.384766,4268.846191,4322.307617,4246.282227,4230.769043,4526.153809,4495.384766,4380.256348,4497.692383,,,,,,,,,,,,,,,,,,,,,,,,,,,,,,,,,,,,,,,,,,,,,,,,,,,,,,,,,,,,,,,,,,,,,,
1720156473,126,0,4260.384766,4244.615234,4258.205078,4349.358887,4232.05127,4257.563965,4279.871582,4329.487305,4246.025879,4228.461426,4523.461426,4481.410156,4364.871582,4485.769043,,,,,,,,,,,,,,,,,,,,,,,,,,,,,,,,,,,,,,,,,,,,,,,,,,,,,,,,,,,,,,,,,,,,,,
1720156473,127,0,4266.538574,4242.692383,4267.692383,4350.512695,4232.179688,4255.512695,4282.94873,4332.563965,4233.333496,4226.410156,4518.846191,4485.384766,4363.974121,4492.307617,,,,,,,,,,,,,,,,,,,,,,,,,,,,,,,,,,,,,,,,,,,,,,,,,,,,,,,,,,,,,,,,,,,,,,
1720156473,0,0,4274.230957,4247.436035,4276.282227,4358.077148,4235.512695,4258.333496,4279.102539,4323.205078,4230.769043,4226.538574,4519.358887,4492.179688,4377.307617,4499.102539,,,,,,,,,,,,,,,,,,,,,,,,,,,,,,,,,,,,,,,,,,,,,,,,,,,,,,,,,,,,,,,,,,,,,,
1720156473,1,0,4283.461426,4261.025879,4276.794922,4361.025879,4240.769043,4256.794922,4270.897461,4320.641113,4232.563965,4225,4530.384766,4493.077148,4384.871582,4501.666504,,,,,,,,,,,,,,,,,,,,,,,,,,,,,,,,,,,,,,,,,,,,,,,,,,,,,,,,,,,,,,,,,,,,,,
1720156473,2,0,4289.871582,4257.820313,4275.641113,4357.307617,4236.922852,4243.077148,4258.333496,4322.692383,4219.230957,4220.384766,4529.615234,4492.05127,4383.205078,4500.769043,,,,,,,,,,,,,,,,,,,,,,,,,,,,,,,,,,,,,,,,,,,,,,,,,,,,,,,,,,,,,,,,,,,,,,
1720156473,3,0,4285,4248.333496,4276.666504,4356.666504,4234.230957,4234.230957,4249.230957,4313.205078,4212.563965,4222.179688,4520.128418,4490.641113,4384.102539,4491.153809,,,,,,,,,,,,,,,,,,,,,,,,,,,,,,,,,,,,,,,,,,,,,,,,,,,,,,,,,,,,,,,,,,,,,,
1720156473,4,0,4285.256348,4256.153809,4282.692383,4363.205078,4241.538574,4233.461426,4246.025879,4310.384766,4212.307617,4225.384766,4530.641113,4500.641113,4390.897461,4501.025879,,,,,,,,,,,,,,,,,,,,,,,,,,,,,,,,,,,,,,,,,,,,,,,,,,,,,,,,,,,,,,,,,,,,,,
1720156473,5,0,4292.307617,4266.025879,4291.794922,4371.666504,4242.820313,4230,4240.641113,4309.358887,4202.179688,4219.615234,4545.512695,4506.794922,4398.333496,4513.589844,,,,,,,,,,,,,,,,,,,,,,,,,,,,,,,,,,,,,,,,,,,,,,,,,,,,,,,,,,,,,,,,,,,,,,
1720156473,6,0,4297.436035,4268.717773,4297.692383,4379.358887,4237.179688,4226.025879,4238.717773,4306.538574,4201.794922,4217.94873,4541.282227,4504.358887,4398.461426,4506.282227,,,,,,,,,,,,,,,,,,,,,,,,,,,,,,,,,,,,,,,,,,,,,,,,,,,,,,,,,,,,,,,,,,,,,,
1720156473,7,0,4302.692383,4270.256348,4297.307617,4379.615234,4242.179688,4229.743652,4245.128418,4313.333496,4220.641113,4229.487305,4535.256348,4507.563965,4394.487305,4503.846191,,,,,,,,,,,,,,,,,,,,,,,,,,,,,,,,,,,,,,,,,,,,,,,,,,,,,,,,,,,,,,,,,,,,,,
1720156473,8,0,4298.974121,4269.230957,4292.692383,4370,4249.102539,4240.769043,4254.871582,4320,4231.794922,4236.666504,4539.743652,4509.615234,4393.974121,4508.205078,,,,,,,,,,,,,,,,,,,,,,,,,,,,,,,,,,,,,,,,,,,,,,,,,,,,,,,,,,,,,,,,,,,,,,
1720156473,9,0,4287.820313,4260.384766,4285,4365.641113,4239.871582,4246.922852,4262.820313,4327.820313,4235.641113,4231.282227,4538.846191,4510.128418,4391.282227,4509.358887,,,,,,,,,,,,,,,,,,,,,,,,,,,,,,,,,,,,,,,,,,,,,,,,,,,,,,,,,,,,,,,,,,,,,,
1720156473,10,0,4277.307617,4249.487305,4278.333496,4362.692383,4232.05127,4250.256348,4269.615234,4334.487305,4243.974121,4229.102539,4536.282227,4508.846191,4384.102539,4504.871582,,,,,,,,,,,,,,,,,,,,,,,,,,,,,,,,,,,,,,,,,,,,,,,,,,,,,,,,,,,,,,,,,,,,,,
1720156473,11,0,4273.077148,4242.563965,4276.025879,4335.769043,4235.256348,4252.563965,4276.922852,4334.358887,4244.743652,4231.794922,4537.179688,4500.769043,4377.820313,4497.307617,,,,,,,,,,,,,,,,,,,,,,,,,,,,,,,,,,,,,,,,,,,,,,,,,,,,,,,,,,,,,,,,,,,,,,
1720156473,12,0,4278.461426,4242.820313,4273.333496,4299.487305,4232.436035,4252.692383,4281.666504,4331.794922,4239.102539,4231.666504,4528.717773,4492.307617,4375.512695,4495.128418,3.302042,7.014221,0.724324,0.220278,0.164386,3.466285,8.2474,0.527318,0.224464,0.154592,9.284184,10.781965,1.246024,0.608017,0.304131,3.387902,7.179128,0.536497,0.16695,0.150708,2.330383,1.230685,0.178753,0.087511,0.103401,1.944452,2.800865,0.204984,0.144654,0.117407,1.974378,9.126379,0.411976,0.308701,0.111257,10.367875,3.797482,2.444854,0.983038,0.356757,1.053845,6.839751,0.951877,0.341641,0.1225,1.171756,1.764157,1.052081,0.396096,0.138072,4.325553,6.299271,1.040607,0.845174,0.229932,6.443689,9.265483,1.819232,0.974231,0.226951,3.724191,9.444375,1.966025,0.670785,0.213122,2.446004,6.227083,1.138866,0.342704,0.225861
1720156473,13,0,4284.871582,4247.436035,4272.692383,4289.358887,4230.128418,4252.179688,4276.025879,4329.358887,4236.666504,4228.974121,4518.461426,4491.538574,4376.410156,4495.384766,,,,,,,,,,,,,,,,,,,,,,,,,,,,,,,,,,,,,,,,,,,,,,,,,,,,,,,,,,,,,,,,,,,,,,
1720156473,14,0,4286.922852,4247.179688,4274.358887,4294.871582,4231.025879,4244.871582,4265.641113,4326.922852,4235.128418,4223.461426,4524.743652,4494.102539,4381.922852,4493.974121,,,,,,,,,,,,,,,,,,,,,,,,,,,,,,,,,,,,,,,,,,,,,,,,,,,,,,,,,,,,,,,,,,,,,,
1720156473,15,0,4288.077148,4247.94873,4275.256348,4291.922852,4228.846191,4235.384766,4260.897461,4323.461426,4229.743652,4224.615234,4536.410156,4498.461426,4389.615234,4495.641113,,,,,,,,,,,,,,,,,,,,,,,,,,,,,,,,,,,,,,,,,,,,,,,,,,,,,,,,,,,,,,,,,,,,,,
1720156473,16,0,4287.94873,4255.256348,4286.922852,4291.153809,4230,4231.410156,4253.589844,4318.974121,4221.025879,4232.692383,4538.461426,4508.461426,4393.205078,4500.384766,,,,,,,,,,,,,,,,,,,,,,,,,,,,,,,,,,,,,,,,,,,,,,,,,,,,,,,,,,,,,,,,,,,,,,
1720156473,17,0,4287.179688,4263.589844,4313.077148,4302.820313,4233.333496,4230.384766,4242.563965,4314.487305,4214.102539,4232.94873,4540.897461,4522.307617,4401.282227,4507.05127,,,,,,,,,,,,,,,,,,,,,,,,,,,,,,,,,,,,,,,,,,,,,,,,,,,,,,,,,,,,,,,,,,,,,,
1720156473,18,0,4288.461426,4265.256348,4330.769043,4312.436035,4233.974121,4223.461426,4237.820313,4312.436035,4208.974121,4224.358887,4548.461426,4525.256348,4412.307617,4513.077148,,,,,,,,,,,,,,,,,,,,,,,,,,,,,,,,,,,,,,,,,,,,,,,,,,,,,,,,,,,,,,,,,,,,,,
1720156473,19,0,4286.794922,4265.128418,4344.102539,4311.025879,4233.461426,4220.128418,4240.897461,4310.384766,4211.794922,4224.230957,4549.102539,4515,4408.333496,4507.307617,,,,,,,,,,,,,,,,,,,,,,,,,,,,,,,,,,,,,,,,,,,,,,,,,,,,,,,,,,,,,,,,,,,,,,
1720156473,20,0,4284.487305,4266.025879,4365.769043,4307.94873,4232.436035,4226.538574,4244.358887,4315,4220.897461,4231.538574,4545,4512.563965,4397.307617,4497.179688,,,,,,,,,,,,,,,,,,,,,,,,,,,,,,,,,,,,,,,,,,,,,,,,,,,,,,,,,,,,,,,,,,,,,,
1720156473,21,0,4284.358887,4257.307617,4369.871582,4309.743652,4229.871582,4228.589844,4248.077148,4324.615234,4226.025879,4232.94873,4537.692383,4517.692383,4396.410156,4494.743652,,,,,,,,,,,,,,,,,,,,,,,,,,,,,,,,,,,,,,,,,,,,,,,,,,,,,,,,,,,,,,,,,,,,,,
1720156473,22,0,4281.922852,4246.666504,4354.358887,4308.846191,4229.230957,4228.461426,4253.974121,4326.410156,4225.384766,4230.641113,4534.358887,4514.615234,4392.436035,4495.384766,,,,,,,,,,,,,,,,,,,,,,,,,,,,,,,,,,,,,,,,,,,,,,,,,,,,,,,,,,,,,,,,,,,,,,
1720156473,23,0,4279.743652,4245.641113,4347.563965,4305.384766,4230.256348,4237.05127,4265.897461,4332.05127,4229.230957,4229.358887,4538.974121,4512.436035,4381.025879,4492.692383,,,,,,,,,,,,,,,,,,,,,,,,,,,,,,,,,,,,,,,,,,,,,,,,,,,,,,,,,,,,,,,,,,,,,,
1720156473,24,0,4277.563965,4247.05127,4343.717773,4306.538574,4230.897461,4251.922852,4277.436035,4340.384766,4236.282227,4228.461426,4534.358887,4511.025879,4373.333496,4486.282227,,,,,,,,,,,,,,,,,,,,,,,,,,,,,,,,,,,,,,,,,,,,,,,,,,,,,,,,,,,,,,,,,,,,,,
1720156473,25,0,4271.282227,4244.615234,4326.666504,4303.077148,4230.256348,4249.615234,4272.563965,4335.384766,4235.512695,4224.230957,4521.794922,4495.256348,4367.307617,4474.743652,,,,,,,,,,,,,,,,,,,,,,,,,,,,,,,,,,,,,,,,,,,,,,,,,,,,,,,,,,,,,,,,,,,,,,
1720156473,26,0,4265.256348,4242.05127,4312.307617,4297.307617,4228.974121,4234.230957,4261.666504,4330.128418,4228.717773,4219.102539,4519.102539,4482.05127,4362.563965,4465.256348,,,,,,,,,,,,,,,,,,,,,,,,,,,,,,,,,,,,,,,,,,,,,,,,,,,,,,,,,,,,,,,,,,,,,,
1720156473,27,0,4271.410156,4241.410156,4314.102539,4303.461426,4231.153809,4240.512695,4262.436035,4334.230957,4220.897461,4218.205078,4521.922852,4487.94873,4362.820313,4471.153809,,,,,,,,,,,,,,,,,,,,,,,,,,,,,,,,,,,,,,,,,,,,,,,,,,,,,,,,,,,,,,,,,,,,,,
1720156473,28,0,4277.179688,4244.871582,4316.666504,4310.128418,4234.871582,4251.666504,4263.461426,4327.94873,4215.256348,4223.077148,4520.384766,4491.153809,4369.743652,4474.871582,4.406848,8.368802,0.816042,0.229318,0.159313,4.538015,9.521858,0.531202,0.26137,0.144225,11.416511,12.488245,1.488768,0.587134,0.261755,4.303926,8.273598,0.540098,0.15187,0.138794,2.248936,1.421842,0.178308,0.08615,0.092922,1.83832,2.912768,0.169769,0.151176,0.105562,2.321317,10.178431,0.454748,0.368832,0.107292,12.803284,4.101604,2.843641,1.163679,0.385995,1.052421,7.769018,1.09424,0.438593,0.125201,1.129913,1.90115,1.188038,0.535021,0.144725,5.643205,7.844855,1.121526,0.962408,0.241474,8.859285,10.65166,1.871501,1.13455,0.22728,4.692122,12.006211,2.273056,0.843082,0.23325,3.534688,7.722817,1.284644,0.373439,0.232779
1720156473,29,0,4275.512695,4255.897461,4310.128418,4308.974121,4235.641113,4237.563965,4252.179688,4318.974121,4215.512695,4227.179688,4528.205078,4494.230957,4384.230957,4478.717773,,,,,,,,,,,,,,,,,,,,,,,,,,,,,,,,,,,,,,,,,,,,,,,,,,,,,,,,,,,,,,,,,,,,,,
1720156473,30,0,4282.307617,4263.077148,4311.025879,4313.589844,4234.615234,4225.512695,4243.589844,4324.230957,4216.025879,4230,4548.461426,4512.05127,4395.897461,4497.307617,,,,,,,,,,,,,,,,,,,,,,,,,,,,,,,,,,,,,,,,,,,,,,,,,,,,,,,,,,,,,,,,,,,,,,
1720156473,31,0,4292.05127,4267.179688,4328.333496,4327.692383,4235.641113,4232.820313,4247.692383,4322.563965,4209.358887,4229.487305,4559.743652,4523.077148,4399.871582,4504.102539,,,,,,,,,,,,,,,,,,,,,,,,,,,,,,,,,,,,,,,,,,,,,,,,,,,,,,,,,,,,,,,,,,,,,,
1720156473,32,0,4298.077148,4276.410156,4336.922852,4336.922852,4237.05127,4227.436035,4246.410156,4316.025879,4200.512695,4224.487305,4552.94873,4521.025879,4405.897461,4495.769043,,,,,,,,,,,,,,,,,,,,,,,,,,,,,,,,,,,,,,,,,,,,,,,,,,,,,,,,,,,,,,,,,,,,,,
1720156473,33,0,4296.153809,4275.897461,4327.436035,4334.487305,4234.487305,4210.641113,4236.794922,4314.230957,4204.102539,4225.256348,4542.05127,4515.641113,4404.358887,4487.94873,,,,,,,,,,,,,,,,,,,,,,,,,,,,,,,,,,,,,,,,,,,,,,,,,,,,,,,,,,,,,,,,,,,,,,
1720156473,34,0,4289.743652,4266.666504,4325.384766,4331.794922,4232.563965,4208.461426,4234.487305,4314.871582,4216.410156,4233.333496,4544.358887,4510.128418,4393.333496,4483.846191,,,,,,,,,,,,,,,,,,,,,,,,,,,,,,,,,,,,,,,,,,,,,,,,,,,,,,,,,,,,,,,,,,,,,,
1720156473,35,0,4289.230957,4263.717773,4325.512695,4325.256348,4232.436035,4213.077148,4240.128418,4321.794922,4222.563965,4238.717773,4546.794922,4509.487305,4391.410156,4485.769043,,,,,,,,,,,,,,,,,,,,,,,,,,,,,,,,,,,,,,,,,,,,,,,,,,,,,,,,,,,,,,,,,,,,,,
1720156473,36,0,4284.743652,4258.974121,4313.205078,4314.615234,4231.794922,4222.692383,4248.077148,4326.410156,4219.230957,4233.461426,4534.358887,4505,4391.538574,4479.102539,,,,,,,,,,,,,,,,,,,,,,,,,,,,,,,,,,,,,,,,,,,,,,,,,,,,,,,,,,,,,,,,,,,,,,
1720156473,37,0,4274.358887,4247.179688,4306.282227,4317.436035,4232.179688,4240,4260.769043,4328.461426,4220.384766,4222.179688,4523.717773,4499.871582,4378.589844,4466.282227,,,,,,,,,,,,,,,,,,,,,,,,,,,,,,,,,,,,,,,,,,,,,,,,,,,,,,,,,,,,,,,,,,,,,,
1720156473,38,0,4270.641113,4238.717773,4306.153809,4324.615234,4232.94873,4249.871582,4269.102539,4332.05127,4226.282227,4219.230957,4518.333496,4496.025879,4361.538574,4460.384766,,,,,,,,,,,,,,,,,,,,,,,,,,,,,,,,,,,,,,,,,,,,,,,,,,,,,,,,,,,,,,,,,,,,,,
1720156473,39,0,4273.717773,4237.05127,4297.307617,4314.743652,4231.666504,4246.538574,4264.871582,4332.820313,4227.94873,4229.230957,4513.717773,4491.410156,4355,4459.743652,,,,,,,,,,,,,,,,,,,,,,,,,,,,,,,,,,,,,,,,,,,,,,,,,,,,,,,,,,,,,,,,,,,,,,
1720156473,40,0,4276.025879,4241.282227,4290.641113,4305.384766,4230.897461,4245.769043,4263.589844,4331.153809,4226.410156,4232.307617,4516.410156,4496.282227,4357.436035,4466.153809,,,,,,,,,,,,,,,,,,,,,,,,,,,,,,,,,,,,,,,,,,,,,,,,,,,,,,,,,,,,,,,,,,,,,,
1720156473,41,0,4280.897461,4245.256348,4299.487305,4312.179688,4232.179688,4248.205078,4264.358887,4328.846191,4223.205078,4219.358887,4523.461426,4502.05127,4362.820313,4471.922852,,,,,,,,,,,,,,,,,,,,,,,,,,,,,,,,,,,,,,,,,,,,,,,,,,,,,,,,,,,,,,,,,,,,,,
1720156473,42,0,4287.563965,4242.179688,4312.436035,4318.589844,4231.666504,4238.333496,4252.179688,4320,4213.461426,4214.102539,4522.05127,4497.307617,4368.717773,4471.025879,,,,,,,,,,,,,,,,,,,,,,,,,,,,,,,,,,,,,,,,,,,,,,,,,,,,,,,,,,,,,,,,,,,,,,
1720156473,43,0,4294.102539,4246.666504,4325,4321.410156,4229.487305,4227.563965,4242.05127,4315.512695,4200.641113,4216.282227,4523.205078,4505.256348,4373.461426,4483.077148,,,,,,,,,,,,,,,,,,,,,,,,,,,,,,,,,,,,,,,,,,,,,,,,,,,,,,,,,,,,,,,,,,,,,,
1720156473,44,0,4304.871582,4260.256348,4346.282227,4330.897461,4231.282227,4232.692383,4245,4318.974121,4194.102539,4208.717773,4532.820313,4529.615234,4384.871582,4500.256348,5.463761,9.42221,0.920819,0.263233,0.153724,5.431585,10.211386,0.596198,0.318093,0.132017,13.021089,13.751253,1.651667,0.611989,0.227349,5.012794,9.073956,0.559501,0.16089,0.128674,1.977607,1.52056,0.182178,0.089861,0.080782,1.535332,2.904814,0.154197,0.157943,0.095381,2.464208,10.623037,0.512542,0.409437,0.10276,13.645198,4.149642,2.927381,1.209074,0.378863,1.040247,8.009525,1.178352,0.521664,0.126442,1.110698,2.092038,1.282377,0.652937,0.143153,6.707838,9.104795,1.237693,1.089939,0.256321,10.78607,11.431652,1.851687,1.220365,0.222299,5.574839,14.158084,2.556226,1.0034,0.249856,4.515723,8.699976,1.39635,0.409523,0.235061
1720156473,45,0,4313.333496,4269.615234,4372.179688,4349.358887,4234.102539,4231.025879,4246.153809,4309.230957,4192.692383,4203.974121,4537.692383,4536.410156,4394.358887,4499.615234,,,,,,,,,,,,,,,,,,,,,,,,,,,,,,,,,,,,,,,,,,,,,,,,,,,,,,,,,,,,,,,,,,,,,,
1720156473,46,0,4313.846191,4278.846191,4392.05127,4360.769043,4233.333496,4215.769043,4241.410156,4306.538574,4196.410156,4211.794922,4539.615234,4527.94873,4392.179688,4495.769043,,,,,,,,,,,,,,,,,,,,,,,,,,,,,,,,,,,,,,,,,,,,,,,,,,,,,,,,,,,,,,,,,,,,,,
1720156473,47,0,4308.205078,4285.256348,4401.538574,4353.717773,4233.205078,4211.410156,4240.769043,4317.820313,4209.102539,4220.641113,4545.128418,4523.717773,4391.025879,4494.102539,,,,,,,,,,,,,,,,,,,,,,,,,,,,,,,,,,,,,,,,,,,,,,,,,,,,,,,,,,,,,,,,,,,,,,
1720156473,48,0,4295,4273.461426,4403.205078,4340.512695,4234.230957,4215.256348,4242.820313,4314.230957,4215.897461,4218.974121,4542.307617,4514.615234,4391.666504,4479.230957,,,,,,,,,,,,,,,,,,,,,,,,,,,,,,,,,,,,,,,,,,,,,,,,,,,,,,,,,,,,,,,,,,,,,,
1720156473,49,0,4275.897461,4254.230957,4405.641113,4332.436035,4231.282227,4216.538574,4242.05127,4307.692383,4215.641113,4218.717773,4530.512695,4497.94873,4382.820313,4466.153809,,,,,,,,,,,,,,,,,,,,,,,,,,,,,,,,,,,,,,,,,,,,,,,,,,,,,,,,,,,,,,,,,,,,,,
1720156473,50,0,4263.205078,4245.641113,4417.692383,4324.615234,4229.487305,4227.307617,4246.410156,4315.128418,4222.94873,4228.589844,4521.922852,4482.94873,4369.743652,4463.846191,,,,,,,,,,,,,,,,,,,,,,,,,,,,,,,,,,,,,,,,,,,,,,,,,,,,,,,,,,,,,,,,,,,,,,
1720156473,51,0,4258.461426,4239.358887,4427.563965,4314.487305,4231.153809,4240.641113,4257.563965,4322.692383,4233.205078,4233.205078,4512.94873,4469.102539,4359.615234,4451.666504,,,,,,,,,,,,,,,,,,,,,,,,,,,,,,,,,,,,,,,,,,,,,,,,,,,,,,,,,,,,,,,,,,,,,,
1720156473,52,0,4252.692383,4230,4432.820313,4308.077148,4230.512695,4243.205078,4264.230957,4321.153809,4233.846191,4226.153809,4501.666504,4455.128418,4352.05127,4437.05127,,,,,,,,,,,,,,,,,,,,,,,,,,,,,,,,,,,,,,,,,,,,,,,,,,,,,,,,,,,,,,,,,,,,,,
1720156473,53,0,4247.436035,4226.025879,4447.179688,4312.179688,4232.563965,4246.538574,4261.538574,4319.102539,4228.846191,4219.871582,4501.025879,4455.384766,4353.589844,4441.794922,,,,,,,,,,,,,,,,,,,,,,,,,,,,,,,,,,,,,,,,,,,,,,,,,,,,,,,,,,,,,,,,,,,,,,
1720156473,54,0,4246.282227,4230.128418,4458.589844,4319.358887,4235.384766,4247.179688,4254.102539,4316.794922,4223.333496,4220.897461,4507.307617,4471.025879,4356.922852,4450.384766,,,,,,,,,,,,,,,,,,,,,,,,,,,,,,,,,,,,,,,,,,,,,,,,,,,,,,,,,,,,,,,,,,,,,,
1720156473,55,0,4256.794922,4238.589844,4464.615234,4316.666504,4230.897461,4235,4244.615234,4309.743652,4213.717773,4218.461426,4513.205078,4485.641113,4357.436035,4458.205078,,,,,,,,,,,,,,,,,,,,,,,,,,,,,,,,,,,,,,,,,,,,,,,,,,,,,,,,,,,,,,,,,,,,,,
1720156473,56,0,4274.871582,4247.05127,4482.94873,4320.641113,4229.615234,4229.230957,4239.102539,4305.384766,4211.410156,4214.743652,4520.512695,4495.897461,4370,4470.512695,,,,,,,,,,,,,,,,,,,,,,,,,,,,,,,,,,,,,,,,,,,,,,,,,,,,,,,,,,,,,,,,,,,,,,
1720156473,57,0,4282.820313,4253.974121,4507.563965,4338.333496,4232.307617,4230.384766,4238.846191,4309.487305,4215.128418,4215.256348,4530.769043,4512.179688,4391.282227,4482.563965,,,,,,,,,,,,,,,,,,,,,,,,,,,,,,,,,,,,,,,,,,,,,,,,,,,,,,,,,,,,,,,,,,,,,,
1720156473,58,0,4291.666504,4264.615234,4526.153809,4347.05127,4228.077148,4223.461426,4237.820313,4316.794922,4210.128418,4211.538574,4545,4531.153809,4401.282227,4497.94873,,,,,,,,,,,,,,,,,,,,,,,,,,,,,,,,,,,,,,,,,,,,,,,,,,,,,,,,,,,,,,,,,,,,,,
1720156473,59,0,4293.846191,4267.436035,4533.589844,4341.794922,4222.94873,4212.436035,4226.922852,4308.333496,4197.436035,4197.05127,4537.94873,4520.128418,4387.692383,4486.922852,,,,,,,,,,,,,,,,,,,,,,,,,,,,,,,,,,,,,,,,,,,,,,,,,,,,,,,,,,,,,,,,,,,,,,
1720156473,60,0,4270.384766,4245.128418,4507.94873,4328.461426,4212.436035,4202.563965,4212.563965,4294.743652,4181.153809,4176.282227,4495.384766,4479.487305,4354.743652,4451.410156,6.107854,9.78272,1.003495,0.323072,0.145695,5.847258,10.088096,0.678311,0.381331,0.120293,13.508365,14.379204,1.690906,0.681295,0.208484,5.592993,9.432422,0.576537,0.194156,0.126783,1.705516,1.492562,0.179403,0.094592,0.070261,1.226706,2.883443,0.156463,0.160363,0.089006,2.441383,10.5741,0.554331,0.417658,0.099284,12.756104,3.908027,2.619759,1.09452,0.334077,1.029399,7.664486,1.188096,0.565292,0.126958,1.106906,2.172183,1.278743,0.706602,0.134846,7.137186,9.624613,1.285154,1.169231,0.269193,11.591008,11.353671,1.685482,1.196426,0.213516,6.016042,15.187618,2.652055,1.089981,0.257211,5.026932,8.843274,1.405438,0.432274,0.232822
1720156473,61,0,4252.307617,4232.436035,4469.487305,4321.666504,4199.871582,4198.077148,4212.436035,4296.282227,4181.666504,4175.897461,4477.563965,4464.102539,4335.897461,4443.589844,,,,,,,,,,,,,,,,,,,,,,,,,,,,,,,,,,,,,,,,,,,,,,,,,,,,,,,,,,,,,,,,,,,,,,
1720156473,62,0,4263.077148,4247.436035,4462.563965,4331.025879,4204.743652,4201.410156,4229.743652,4306.922852,4210.256348,4205,4510.128418,4487.820313,4352.179688,4458.974121,,,,,,,,,,,,,,,,,,,,,,,,,,,,,,,,,,,,,,,,,,,,,,,,,,,,,,,,,,,,,,,,,,,,,,
1720156473,63,0,4277.563965,4253.717773,4463.846191,4339.615234,4216.794922,4207.436035,4243.333496,4321.025879,4233.461426,4228.077148,4530,4505,4377.179688,4467.179688,,,,,,,,,,,,,,,,,,,,,,,,,,,,,,,,,,,,,,,,,,,,,,,,,,,,,,,,,,,,,,,,,,,,,,
1720156473,64,0,4273.974121,4247.179688,4447.05127,4341.410156,4215.641113,4218.846191,4248.846191,4326.922852,4233.333496,4230.769043,4522.692383,4500.512695,4382.05127,4466.282227,,,,,,,,,,,,,,,,,,,,,,,,,,,,,,,,,,,,,,,,,,,,,,,,,,,,,,,,,,,,,,,,,,,,,,
1720156473,65,0,4265,4250.769043,4427.307617,4341.025879,4218.717773,4232.692383,4256.282227,4323.205078,4232.692383,4230.641113,4523.333496,4497.179688,4371.410156,4465.641113,,,,,,,,,,,,,,,,,,,,,,,,,,,,,,,,,,,,,,,,,,,,,,,,,,,,,,,,,,,,,,,,,,,,,,
1720156473,66,0,4261.538574,4249.871582,4409.487305,4334.230957,4227.436035,4236.025879,4258.333496,4322.307617,4232.307617,4230.256348,4521.538574,4494.358887,4363.846191,4461.025879,,,,,,,,,,,,,,,,,,,,,,,,,,,,,,,,,,,,,,,,,,,,,,,,,,,,,,,,,,,,,,,,,,,,,,
1720156473,67,0,4252.94873,4234.615234,4385.769043,4325.384766,4222.436035,4235.512695,4246.538574,4316.282227,4216.153809,4220.897461,4511.538574,4481.025879,4365,4452.307617,,,,,,,,,,,,,,,,,,,,,,,,,,,,,,,,,,,,,,,,,,,,,,,,,,,,,,,,,,,,,,,,,,,,,,
1720156473,68,0,4238.846191,4227.94873,4360.512695,4324.615234,4221.282227,4236.538574,4233.205078,4303.974121,4201.025879,4214.230957,4503.717773,4463.333496,4363.846191,4445.641113,,,,,,,,,,,,,,,,,,,,,,,,,,,,,,,,,,,,,,,,,,,,,,,,,,,,,,,,,,,,,,,,,,,,,,
1720156474,69,0,4239.102539,4231.666504,4351.282227,4325,4226.666504,4231.282227,4229.743652,4303.717773,4201.153809,4216.410156,4495.384766,4458.461426,4362.692383,4446.666504,,,,,,,,,,,,,,,,,,,,,,,,,,,,,,,,,,,,,,,,,,,,,,,,,,,,,,,,,,,,,,,,,,,,,,
1720156474,70,0,4253.461426,4236.025879,4361.922852,4325.512695,4225.256348,4232.179688,4229.871582,4307.820313,4200.384766,4219.487305,4496.282227,4470.384766,4365.384766,4455,,,,,,,,,,,,,,,,,,,,,,,,,,,,,,,,,,,,,,,,,,,,,,,,,,,,,,,,,,,,,,,,,,,,,,
1720156474,71,0,4256.794922,4235.384766,4363.077148,4335,4222.563965,4235,4226.282227,4300.512695,4193.589844,4214.358887,4503.077148,4477.563965,4359.102539,4455.769043,,,,,,,,,,,,,,,,,,,,,,,,,,,,,,,,,,,,,,,,,,,,,,,,,,,,,,,,,,,,,,,,,,,,,,
1720156474,72,0,4250.256348,4230.128418,4340.769043,4316.282227,4218.333496,4224.615234,4224.358887,4299.230957,4191.538574,4201.666504,4502.05127,4468.589844,4348.205078,4451.410156,,,,,,,,,,,,,,,,,,,,,,,,,,,,,,,,,,,,,,,,,,,,,,,,,,,,,,,,,,,,,,,,,,,,,,
1720156474,73,0,4252.307617,4235.512695,4331.666504,4257.307617,4217.05127,4222.179688,4230.256348,4309.871582,4200.641113,4198.461426,4502.179688,4466.025879,4355,4458.333496,,,,,,,,,,,,,,,,,,,,,,,,,,,,,,,,,,,,,,,,,,,,,,,,,,,,,,,,,,,,,,,,,,,,,,
1720156474,74,0,4257.436035,4246.410156,4344.743652,4216.282227,4220.256348,4228.717773,4239.615234,4319.487305,4207.820313,4204.871582,4509.743652,4485.641113,4373.589844,4474.487305,,,,,,,,,,,,,,,,,,,,,,,,,,,,,,,,,,,,,,,,,,,,,,,,,,,,,,,,,,,,,,,,,,,,,,
1720156474,75,0,4258.333496,4247.05127,4351.666504,4220.256348,4221.538574,4222.563965,4243.717773,4322.94873,4206.153809,4207.563965,4514.102539,4505.897461,4382.692383,4481.153809,,,,,,,,,,,,,,,,,,,,,,,,,,,,,,,,,,,,,,,,,,,,,,,,,,,,,,,,,,,,,,,,,,,,,,
1720156474,76,0,4262.436035,4251.410156,4349.615234,4230.128418,4220.384766,4211.922852,4241.666504,4322.820313,4209.230957,4208.846191,4521.922852,4511.666504,4386.153809,4480.897461,6.185309,9.340201,1.035553,0.39761,0.133772,5.557842,9.279867,0.725855,0.434356,0.110934,12.831549,14.546138,1.595222,0.769753,0.20438,5.942874,9.390222,0.579912,0.247993,0.136404,1.401823,1.349108,0.164463,0.097006,0.063312,0.915714,3.000216,0.178524,0.158863,0.090235,2.220684,10.286592,0.554476,0.393658,0.09828,10.059916,3.541317,2.012599,0.860755,0.265726,1.003706,7.085873,1.0859,0.558955,0.127367,1.082591,2.069731,1.140188,0.681225,0.123952,6.747488,9.289665,1.206914,1.169097,0.27466,11.013408,10.498663,1.380762,1.07642,0.202396,5.800282,14.905768,2.462723,1.076625,0.251537,4.916997,8.199018,1.280665,0.436614,0.22651
1720156474,77,0,4272.692383,4265.256348,4351.538574,4226.666504,4225.897461,4214.487305,4244.743652,4326.153809,4217.563965,4215,4534.871582,4517.05127,4389.743652,4482.820313,,,,,,,,,,,,,,,,,,,,,,,,,,,,,,,,,,,,,,,,,,,,,,,,,,,,,,,,,,,,,,,,,,,,,,
1720156474,78,0,4282.692383,4269.358887,4360.256348,4253.974121,4233.589844,4227.307617,4256.282227,4329.487305,4219.487305,4218.974121,4535.256348,4527.692383,4388.974121,4481.282227,,,,,,,,,,,,,,,,,,,,,,,,,,,,,,,,,,,,,,,,,,,,,,,,,,,,,,,,,,,,,,,,,,,,,,
1720156474,79,0,4289.615234,4265,4364.871582,4315,4229.358887,4231.282227,4259.487305,4330.641113,4217.94873,4218.333496,4536.794922,4532.563965,4387.820313,4482.563965,,,,,,,,,,,,,,,,,,,,,,,,,,,,,,,,,,,,,,,,,,,,,,,,,,,,,,,,,,,,,,,,,,,,,,
1720156474,80,0,4292.94873,4265,4350.897461,4355.897461,4221.922852,4225.256348,4251.538574,4337.820313,4217.179688,4217.820313,4542.05127,4526.666504,4388.589844,4483.461426,,,,,,,,,,,,,,,,,,,,,,,,,,,,,,,,,,,,,,,,,,,,,,,,,,,,,,,,,,,,,,,,,,,,,,
1720156474,81,0,4290.256348,4264.102539,4330.512695,4358.077148,4223.461426,4222.820313,4240.769043,4342.563965,4207.436035,4217.307617,4531.282227,4515.897461,4385.512695,4475.128418,,,,,,,,,,,,,,,,,,,,,,,,,,,,,,,,,,,,,,,,,,,,,,,,,,,,,,,,,,,,,,,,,,,,,,
1720156474,82,0,4283.717773,4257.05127,4321.794922,4350.256348,4223.717773,4221.794922,4233.589844,4337.436035,4197.05127,4212.307617,4512.307617,4499.615234,4379.358887,4464.102539,,,,,,,,,,,,,,,,,,,,,,,,,,,,,,,,,,,,,,,,,,,,,,,,,,,,,,,,,,,,,,,,,,,,,,
1720156474,83,0,4280.897461,4249.487305,4309.102539,4348.974121,4219.743652,4219.102539,4230,4332.307617,4199.358887,4211.025879,4506.025879,4486.025879,4373.846191,4463.333496,,,,,,,,,,,,,,,,,,,,,,,,,,,,,,,,,,,,,,,,,,,,,,,,,,,,,,,,,,,,,,,,,,,,,,
1720156474,84,0,4277.94873,4245.641113,4288.461426,4343.589844,4224.230957,4224.487305,4225.384766,4329.615234,4201.153809,4212.563965,4508.461426,4479.487305,4363.717773,4462.307617,,,,,,,,,,,,,,,,,,,,,,,,,,,,,,,,,,,,,,,,,,,,,,,,,,,,,,,,,,,,,,,,,,,,,,
1720156474,85,0,4273.205078,4243.589844,4287.820313,4341.025879,4227.820313,4230.384766,4224.615234,4328.461426,4200.384766,4206.410156,4504.487305,4467.307617,4357.436035,4453.589844,,,,,,,,,,,,,,,,,,,,,,,,,,,,,,,,,,,,,,,,,,,,,,,,,,,,,,,,,,,,,,,,,,,,,,
1720156474,86,0,4280.897461,4242.692383,4311.922852,4342.05127,4224.358887,4225.384766,4230.769043,4333.333496,4202.94873,4204.102539,4506.922852,4469.487305,4361.922852,4461.410156,,,,,,,,,,,,,,,,,,,,,,,,,,,,,,,,,,,,,,,,,,,,,,,,,,,,,,,,,,,,,,,,,,,,,,
1720156474,87,0,4290,4245,4342.436035,4339.615234,4227.307617,4229.230957,4234.871582,4336.922852,4203.974121,4211.282227,4516.538574,4487.05127,4367.94873,4468.333496,,,,,,,,,,,,,,,,,,,,,,,,,,,,,,,,,,,,,,,,,,,,,,,,,,,,,,,,,,,,,,,,,,,,,,
1720156474,88,0,4283.974121,4247.179688,4369.358887,4342.563965,4229.358887,4232.94873,4233.205078,4337.05127,4201.282227,4209.743652,4519.487305,4490.128418,4373.205078,4461.153809,,,,,,,,,,,,,,,,,,,,,,,,,,,,,,,,,,,,,,,,,,,,,,,,,,,,,,,,,,,,,,,,,,,,,,
1720156474,89,0,4284.230957,4246.153809,4402.307617,4347.94873,4222.94873,4219.743652,4235.128418,4338.589844,4202.692383,4205,4520.641113,4490,4376.538574,4468.717773,,,,,,,,,,,,,,,,,,,,,,,,,,,,,,,,,,,,,,,,,,,,,,,,,,,,,,,,,,,,,,,,,,,,,,
1720156474,90,0,4296.025879,4250.256348,4445,4352.692383,4223.589844,4211.922852,4230.512695,4334.487305,4200.641113,4211.153809,4523.974121,4508.974121,4377.307617,4482.307617,,,,,,,,,,,,,,,,,,,,,,,,,,,,,,,,,,,,,,,,,,,,,,,,,,,,,,,,,,,,,,,,,,,,,,
1720156474,91,0,4297.692383,4258.717773,4476.153809,4360.384766,4227.436035,4211.922852,4217.692383,4331.410156,4189.743652,4216.410156,4525.256348,4522.436035,4377.692383,4486.922852,,,,,,,,,,,,,,,,,,,,,,,,,,,,,,,,,,,,,,,,,,,,,,,,,,,,,,,,,,,,,,,,,,,,,,
1720156474,92,0,4289.871582,4263.846191,4492.05127,4368.333496,4229.230957,4210.769043,4215.897461,4331.538574,4183.846191,4211.922852,4525.384766,4507.94873,4377.05127,4478.846191,5.707215,8.374108,1.020035,0.471938,0.118754,4.695019,8.216022,0.735471,0.466928,0.104989,11.831265,14.512646,1.401417,0.852444,0.208428,6.228119,9.148724,0.591262,0.319971,0.156624,1.186844,1.138887,0.143083,0.095275,0.059927,0.710926,3.417677,0.210396,0.159572,0.102222,1.889025,10.015273,0.50768,0.350656,0.100694,6.748375,3.241011,1.302238,0.588191,0.19445,0.978197,6.679208,0.879312,0.516159,0.128078,1.079715,1.831475,0.891004,0.5971,0.11606,5.662902,8.327471,1.035774,1.09644,0.272261,9.306909,9.284591,1.060171,0.919054,0.193202,5.013277,13.678991,2.036812,0.981886,0.233905,4.279884,7.196061,1.063084,0.430494,0.218248
1720156474,93,0,4285.256348,4264.230957,4498.974121,4367.05127,4232.05127,4218.077148,4226.538574,4329.743652,4189.487305,4207.05127,4522.692383,4490.897461,4366.025879,4460.897461,,,,,,,,,,,,,,,,,,,,,,,,,,,,,,,,,,,,,,,,,,,,,,,,,,,,,,,,,,,,,,,,,,,,,,
1720156474,94,0,4279.615234,4258.846191,4482.436035,4357.05127,4230.769043,4232.436035,4239.871582,4330.512695,4196.025879,4207.179688,4510.384766,4485.897461,4349.487305,4451.538574,,,,,,,,,,,,,,,,,,,,,,,,,,,,,,,,,,,,,,,,,,,,,,,,,,,,,,,,,,,,,,,,,,,,,,
1720156474,95,0,4273.205078,4250.128418,4452.05127,4351.794922,4232.179688,4243.846191,4249.487305,4332.436035,4200.769043,4210.384766,4498.589844,4483.974121,4344.615234,4451.153809,,,,,,,,,,,,,,,,,,,,,,,,,,,,,,,,,,,,,,,,,,,,,,,,,,,,,,,,,,,,,,,,,,,,,,
1720156474,96,0,4275.641113,4245,4439.358887,4357.820313,4234.487305,4249.871582,4253.589844,4335,4212.307617,4211.282227,4501.794922,4485.512695,4347.563965,4454.358887,,,,,,,,,,,,,,,,,,,,,,,,,,,,,,,,,,,,,,,,,,,,,,,,,,,,,,,,,,,,,,,,,,,,,,
1720156474,97,0,4280.512695,4249.230957,4431.025879,4362.820313,4232.692383,4249.615234,4253.205078,4339.615234,4220.256348,4209.871582,4507.563965,4483.974121,4349.487305,4459.487305,,,,,,,,,,,,,,,,,,,,,,,,,,,,,,,,,,,,,,,,,,,,,,,,,,,,,,,,,,,,,,,,,,,,,,
1720156474,98,0,4278.846191,4258.589844,4411.153809,4358.589844,4236.282227,4247.05127,4253.205078,4336.410156,4211.410156,4208.974121,4503.846191,4475.256348,4346.794922,4456.282227,,,,,,,,,,,,,,,,,,,,,,,,,,,,,,,,,,,,,,,,,,,,,,,,,,,,,,,,,,,,,,,,,,,,,,
1720156474,99,0,4283.205078,4266.666504,4401.922852,4359.230957,4239.743652,4246.410156,4248.974121,4330.769043,4205.128418,4211.282227,4500.128418,4480.512695,4348.974121,4456.922852,,,,,,,,,,,,,,,,,,,,,,,,,,,,,,,,,,,,,,,,,,,,,,,,,,,,,,,,,,,,,,,,,,,,,,
1720156474,100,0,4296.666504,4272.820313,4401.153809,4365.897461,4233.717773,4235.769043,4238.461426,4336.410156,4208.589844,4215.897461,4512.563965,4506.282227,4367.179688,4478.077148,,,,,,,,,,,,,,,,,,,,,,,,,,,,,,,,,,,,,,,,,,,,,,,,,,,,,,,,,,,,,,,,,,,,,,
1720156474,101,0,4301.666504,4278.077148,4392.692383,4365,4226.538574,4218.077148,4228.974121,4337.563965,4206.410156,4218.077148,4540.384766,4524.487305,4392.307617,4496.538574,,,,,,,,,,,,,,,,,,,,,,,,,,,,,,,,,,,,,,,,,,,,,,,,,,,,,,,,,,,,,,,,,,,,,,
1720156474,102,0,4301.794922,4279.615234,4385.256348,4368.333496,4227.179688,4209.230957,4224.230957,4330.641113,4197.820313,4221.538574,4562.820313,4534.615234,4409.358887,4500.641113,,,,,,,,,,,,,,,,,,,,,,,,,,,,,,,,,,,,,,,,,,,,,,,,,,,,,,,,,,,,,,,,,,,,,,
1720156474,103,0,4305.128418,4277.179688,4386.025879,4374.871582,4230.256348,4208.717773,4225.128418,4332.05127,4199.615234,4233.461426,4571.538574,4543.461426,4417.692383,4500.769043,,,,,,,,,,,,,,,,,,,,,,,,,,,,,,,,,,,,,,,,,,,,,,,,,,,,,,,,,,,,,,,,,,,,,,
1720156474,104,0,4303.077148,4273.205078,4383.589844,4374.230957,4233.333496,4220.256348,4231.922852,4336.538574,4211.538574,4244.871582,4573.077148,4536.025879,4419.743652,4494.487305,,,,,,,,,,,,,,,,,,,,,,,,,,,,,,,,,,,,,,,,,,,,,,,,,,,,,,,,,,,,,,,,,,,,,,
1720156474,105,0,4291.025879,4267.94873,4364.615234,4371.153809,4233.974121,4238.205078,4240.897461,4339.102539,4218.461426,4244.615234,4561.538574,4516.410156,4404.871582,4478.717773,,,,,,,,,,,,,,,,,,,,,,,,,,,,,,,,,,,,,,,,,,,,,,,,,,,,,,,,,,,,,,,,,,,,,,
1720156474,106,0,4278.974121,4263.589844,4337.436035,4368.846191,4236.794922,4246.410156,4250,4338.974121,4217.94873,4236.666504,4538.333496,4498.333496,4378.846191,4459.487305,,,,,,,,,,,,,,,,,,,,,,,,,,,,,,,,,,,,,,,,,,,,,,,,,,,,,,,,,,,,,,,,,,,,,,
1720156474,107,0,4273.205078,4258.461426,4318.461426,4366.153809,4244.615234,4250.256348,4260.256348,4336.410156,4222.563965,4227.436035,4525.769043,4482.692383,4359.743652,4446.025879,,,,,,,,,,,,,,,,,,,,,,,,,,,,,,,,,,,,,,,,,,,,,,,,,,,,,,,,,,,,,,,,,,,,,,
1720156474,108,0,4262.692383,4251.025879,4306.666504,4357.05127,4244.102539,4257.179688,4266.538574,4339.102539,4233.974121,4220.512695,4513.333496,4468.205078,4347.436035,4438.974121,4.895618,7.374518,0.990721,0.538793,0.104885,3.509403,7.3802,0.740331,0.479198,0.103653,12.002095,14.592134,1.187393,0.920693,0.216096,6.76849,9.090672,0.703086,0.423104,0.18724,0.980231,0.925162,0.128015,0.090675,0.059045,0.570903,4.224902,0.245539,0.171546,0.124638,1.484936,9.914115,0.443066,0.312033,0.106696,3.621455,3.127656,0.700044,0.362885,0.138438,0.920974,6.727199,0.641408,0.472892,0.130032,1.087349,1.617956,0.61995,0.508104,0.11597,4.202744,7.19679,0.894584,0.999184,0.27023,7.191204,8.32018,0.923692,0.802182,0.194403,3.862279,12.172869,1.564005,0.871347,0.211234,3.386943,6.392305,0.862667,0.43453,0.211982
1720156474,109,0,4251.153809,4239.102539,4289.358887,4343.846191,4234.358887,4257.94873,4265,4345.256348,4234.743652,4214.615234,4492.692383,4461.794922,4332.436035,4436.538574,,,,,,,,,,,,,,,,,,,,,,,,,,,,,,,,,,,,,,,,,,,,,,,,,,,,,,,,,,,,,,,,,,,,,,
1720156474,110,0,4248.717773,4232.436035,4279.615234,4345.256348,4230.897461,4253.461426,4265.641113,4342.307617,4229.230957,4213.589844,4488.717773,4461.153809,4322.307617,4433.717773,,,,,,,,,,,,,,,,,,,,,,,,,,,,,,,,,,,,,,,,,,,,,,,,,,,,,,,,,,,,,,,,,,,,,,
1720156474,111,0,4260.384766,4237.436035,4302.307617,4365.128418,4236.410156,4252.563965,4265.256348,4339.358887,4228.974121,4212.563965,4501.538574,4472.307617,4329.743652,4438.461426,,,,,,,,,,,,,,,,,,,,,,,,,,,,,,,,,,,,,,,,,,,,,,,,,,,,,,,,,,,,,,,,,,,,,,
1720156474,112,0,4281.538574,4246.666504,4338.589844,4383.461426,4239.230957,4248.205078,4254.615234,4340.641113,4223.589844,4211.410156,4520.769043,4497.563965,4347.179688,4460.256348,,,,,,,,,,,,,,,,,,,,,,,,,,,,,,,,,,,,,,,,,,,,,,,,,,,,,,,,,,,,,,,,,,,,,,
1720156474,113,0,4295.256348,4260.128418,4358.205078,4391.666504,4237.820313,4236.025879,4244.615234,4333.846191,4214.743652,4222.94873,4543.589844,4519.487305,4369.230957,4479.358887,,,,,,,,,,,,,,,,,,,,,,,,,,,,,,,,,,,,,,,,,,,,,,,,,,,,,,,,,,,,,,,,,,,,,,
1720156474,114,0,4304.743652,4275.384766,4364.615234,4400.897461,4234.615234,4223.717773,4241.922852,4331.153809,4211.922852,4231.538574,4561.666504,4537.692383,4391.666504,4492.307617,,,,,,,,,,,,,,,,,,,,,,,,,,,,,,,,,,,,,,,,,,,,,,,,,,,,,,,,,,,,,,,,,,,,,,
1720156474,115,0,4315,4282.94873,4368.974121,4411.922852,4230.769043,4215.769043,4233.846191,4330.256348,4210.512695,4225.128418,4565,4545.384766,4403.077148,4501.025879,,,,,,,,,,,,,,,,,,,,,,,,,,,,,,,,,,,,,,,,,,,,,,,,,,,,,,,,,,,,,,,,,,,,,,
1720156474,116,0,4316.922852,4286.153809,4374.102539,4415,4227.94873,4211.025879,4226.666504,4326.025879,4209.743652,4224.615234,4559.487305,4538.974121,4405,4495.512695,,,,,,,,,,,,,,,,,,,,,,,,,,,,,,,,,,,,,,,,,,,,,,,,,,,,,,,,,,,,,,,,,,,,,,
1720156474,117,0,4321.666504,4291.922852,4376.538574,4412.94873,4229.358887,4207.692383,4237.563965,4333.205078,4219.358887,4235.128418,4555.897461,4538.717773,4406.666504,4493.589844,,,,,,,,,,,,,,,,,,,,,,,,,,,,,,,,,,,,,,,,,,,,,,,,,,,,,,,,,,,,,,,,,,,,,,
1720156474,118,0,4320.128418,4286.922852,4365.897461,4417.307617,4227.436035,4212.563965,4254.743652,4341.538574,4231.794922,4236.025879,4558.077148,4539.743652,4401.410156,4497.820313,,,,,,,,,,,,,,,,,,,,,,,,,,,,,,,,,,,,,,,,,,,,,,,,,,,,,,,,,,,,,,,,,,,,,,
1720156474,119,0,4299.487305,4271.794922,4339.487305,4413.589844,4219.743652,4222.820313,4259.487305,4345.128418,4233.205078,4227.307617,4558.461426,4526.922852,4387.179688,4492.179688,,,,,,,,,,,,,,,,,,,,,,,,,,,,,,,,,,,,,,,,,,,,,,,,,,,,,,,,,,,,,,,,,,,,,,
1720156474,120,0,4283.077148,4265,4318.205078,4398.717773,4223.461426,4230.769043,4264.358887,4345.384766,4231.282227,4225.128418,4545.897461,4511.794922,4373.077148,4474.871582,,,,,,,,,,,,,,,,,,,,,,,,,,,,,,,,,,,,,,,,,,,,,,,,,,,,,,,,,,,,,,,,,,,,,,
1720156474,121,0,4279.615234,4257.179688,4307.05127,4392.94873,4234.102539,4245.641113,4277.94873,4343.077148,4234.743652,4228.846191,4530.128418,4503.077148,4361.153809,4459.358887,,,,,,,,,,,,,,,,,,,,,,,,,,,,,,,,,,,,,,,,,,,,,,,,,,,,,,,,,,,,,,,,,,,,,,
1720156474,122,0,4273.077148,4245.256348,4290.897461,4391.538574,4234.615234,4259.230957,4279.871582,4345.128418,4237.692383,4230.897461,4525.256348,4493.717773,4352.05127,4458.333496,,,,,,,,,,,,,,,,,,,,,,,,,,,,,,,,,,,,,,,,,,,,,,,,,,,,,,,,,,,,,,,,,,,,,,
1720156474,123,0,4265.128418,4243.589844,4274.615234,4385.641113,4236.922852,4257.179688,4270,4341.666504,4235.384766,4231.666504,4529.358887,4488.461426,4352.179688,4461.922852,,,,,,,,,,,,,,,,,,,,,,,,,,,,,,,,,,,,,,,,,,,,,,,,,,,,,,,,,,,,,,,,,,,,,,
1720156474,124,0,4267.692383,4246.538574,4274.102539,4385.641113,4247.179688,4250,4264.230957,4331.538574,4224.102539,4231.538574,4527.563965,4495.641113,4357.307617,4462.307617,4.132747,6.777445,0.970457,0.59926,0.097377,2.465092,7.069971,0.766933,0.47916,0.107616,14.728774,15.247776,0.988153,0.98005,0.227475,8.334192,9.698565,1.087736,0.57766,0.230838,0.822654,0.760452,0.13436,0.086652,0.059566,0.524996,5.355587,0.294071,0.20117,0.152973,1.137177,9.954608,0.424797,0.298763,0.11535,1.560259,3.182697,0.332288,0.237822,0.105997,0.850247,7.234079,0.470159,0.465368,0.133316,1.144016,1.612983,0.416326,0.468236,0.124749,2.877034,6.426494,0.877761,0.940905,0.27871,5.584807,8.23632,1.067347,0.785584,0.214096,2.801717,11.057641,1.21025,0.816911,0.191977,2.619278,6.224599,0.76181,0.470737,0.211124
1720156474,125,0,4279.871582,4246.666504,4286.794922,4391.153809,4249.871582,4248.717773,4260.769043,4329.871582,4214.615234,4228.846191,4521.025879,4504.743652,4357.05127,4466.922852,,,,,,,,,,,,,,,,,,,,,,,,,,,,,,,,,,,,,,,,,,,,,,,,,,,,,,,,,,,,,,,,,,,,,,
1720156474,126,0,4292.563965,4252.94873,4301.794922,4395.897461,4248.461426,4249.230957,4256.410156,4318.589844,4224.102539,4231.025879,4529.102539,4512.05127,4356.922852,4469.871582,,,,,,,,,,,,,,,,,,,,,,,,,,,,,,,,,,,,,,,,,,,,,,,,,,,,,,,,,,,,,,,,,,,,,,
1720156474,127,0,4301.025879,4261.410156,4310.512695,4397.692383,4249.871582,4246.282227,4252.94873,4293.205078,4229.358887,4233.846191,4540.128418,4520.769043,4365.384766,4473.333496,,,,,,,,,,,,,,,,,,,,,,,,,,,,,,,,,,,,,,,,,,,,,,,,,,,,,,,,,,,,,,,,,,,,,,
1720156474,0,0,4305.256348,4262.692383,4305.769043,4398.461426,4247.94873,4243.333496,4254.230957,4297.179688,4219.230957,4231.153809,4545.641113,4525.256348,4378.077148,4482.05127,,,,,,,,,,,,,,,,,,,,,,,,,,,,,,,,,,,,,,,,,,,,,,,,,,,,,,,,,,,,,,,,,,,,,,
1720156474,1,0,4305.641113,4266.666504,4295.897461,4402.820313,4244.102539,4239.615234,4261.153809,4318.846191,4222.563965,4231.538574,4553.333496,4523.333496,4384.102539,4482.05127,,,,,,,,,,,,,,,,,,,,,,,,,,,,,,,,,,,,,,,,,,,,,,,,,,,,,,,,,,,,,,,,,,,,,,
1720156474,2,0,4300.897461,4265.769043,4289.615234,4399.102539,4236.025879,4235,4265.512695,4322.692383,4236.922852,4236.025879,4554.358887,4522.94873,4378.846191,4480.256348,,,,,,,,,,,,,,,,,,,,,,,,,,,,,,,,,,,,,,,,,,,,,,,,,,,,,,,,,,,,,,,,,,,,,,
1720156474,3,0,4294.487305,4253.717773,4278.717773,4386.153809,4223.717773,4231.025879,4260.769043,4323.205078,4235.769043,4234.871582,4547.307617,4522.307617,4373.974121,4481.410156,,,,,,,,,,,,,,,,,,,,,,,,,,,,,,,,,,,,,,,,,,,,,,,,,,,,,,,,,,,,,,,,,,,,,,
1720156474,4,0,4289.358887,4250.769043,4265.256348,4388.205078,4221.794922,4231.282227,4262.94873,4327.436035,4233.589844,4228.077148,4551.153809,4513.846191,4372.436035,4475.384766,,,,,,,,,,,,,,,,,,,,,,,,,,,,,,,,,,,,,,,,,,,,,,,,,,,,,,,,,,,,,,,,,,,,,,
1720156474,5,0,4287.820313,4259.487305,4261.410156,4396.922852,4227.563965,4232.05127,4275.641113,4331.666504,4240.256348,4224.230957,4556.922852,4511.922852,4373.461426,4475.256348,,,,,,,,,,,,,,,,,,,,,,,,,,,,,,,,,,,,,,,,,,,,,,,,,,,,,,,,,,,,,,,,,,,,,,
1720156474,6,0,4290.384766,4262.436035,4268.589844,4393.077148,4230.384766,4233.461426,4282.05127,4336.794922,4242.307617,4226.153809,4553.717773,4522.436035,4379.487305,4481.410156,,,,,,,,,,,,,,,,,,,,,,,,,,,,,,,,,,,,,,,,,,,,,,,,,,,,,,,,,,,,,,,,,,,,,,
1720156474,7,0,4293.974121,4260.641113,4274.615234,4388.846191,4229.743652,4243.974121,4279.615234,4335,4240.256348,4230.769043,4556.282227,4524.487305,4380.384766,4479.743652,,,,,,,,,,,,,,,,,,,,,,,,,,,,,,,,,,,,,,,,,,,,,,,,,,,,,,,,,,,,,,,,,,,,,,
1720156474,8,0,4295.256348,4261.153809,4271.410156,4395.384766,4231.282227,4246.794922,4272.179688,4330.769043,4236.025879,4233.205078,4558.077148,4508.461426,4376.025879,4475.641113,,,,,,,,,,,,,,,,,,,,,,,,,,,,,,,,,,,,,,,,,,,,,,,,,,,,,,,,,,,,,,,,,,,,,,
1720156474,9,0,4292.820313,4264.358887,4265.512695,4401.410156,4238.205078,4235,4263.333496,4331.410156,4233.717773,4234.743652,4553.717773,4501.538574,4378.846191,4480.256348,,,,,,,,,,,,,,,,,,,,,,,,,,,,,,,,,,,,,,,,,,,,,,,,,,,,,,,,,,,,,,,,,,,,,,
1720156474,10,0,4291.794922,4267.563965,4266.794922,4393.205078,4244.871582,4232.563965,4254.743652,4327.820313,4231.794922,4236.922852,4557.820313,4516.666504,4384.743652,4483.589844,,,,,,,,,,,,,,,,,,,,,,,,,,,,,,,,,,,,,,,,,,,,,,,,,,,,,,,,,,,,,,,,,,,,,,
1720156474,11,0,4293.589844,4265.256348,4266.922852,4385.512695,4246.025879,4236.410156,4246.922852,4319.743652,4222.94873,4236.538574,4560.897461,4523.205078,4383.717773,4480.769043,,,,,,,,,,,,,,,,,,,,,,,,,,,,,,,,,,,,,,,,,,,,,,,,,,,,,,,,,,,,,,,,,,,,,,
1720156474,12,0,4297.94873,4261.922852,4260.256348,4392.820313,4244.358887,4232.94873,4242.307617,4315.384766,4214.871582,4233.077148,4554.487305,4508.205078,4378.205078,4482.307617,3.646855,6.721638,0.941482,0.654689,0.099365,1.889591,7.227652,0.808192,0.475328,0.116139,21.719362,17.002235,0.818375,1.037951,0.245099,11.529163,11.241862,1.854906,0.787306,0.288218,0.685708,0.666519,0.167404,0.086437,0.061404,0.571143,6.628172,0.373664,0.247006,0.179398,0.887746,10.019145,0.510511,0.31929,0.124304,0.577907,3.284958,0.198084,0.212339,0.094095,0.764491,7.94208,0.444648,0.508779,0.137726,1.267785,1.888418,0.338113,0.501379,0.139746,2.021655,6.407262,1.020037,0.957798,0.301382,4.966925,9.353299,1.421933,0.87469,0.253947,2.146295,10.787383,1.049689,0.856604,0.182219,2.150562,6.834421,0.775381,0.544641,0.216107
1720156474,13,0,4297.307617,4265.641113,4258.077148,4396.794922,4244.358887,4238.589844,4247.307617,4314.743652,4217.94873,4231.666504,4551.153809,4495.384766,4375.769043,4481.282227,,,,,,,,,,,,,,,,,,,,,,,,,,,,,,,,,,,,,,,,,,,,,,,,,,,,,,,,,,,,,,,,,,,,,,
1720156474,14,0,4287.563965,4261.153809,4253.717773,4381.153809,4240.384766,4244.871582,4251.153809,4322.692383,4221.922852,4228.205078,4545.128418,4493.205078,4374.102539,4473.846191,,,,,,,,,,,,,,,,,,,,,,,,,,,,,,,,,,,,,,,,,,,,,,,,,,,,,,,,,,,,,,,,,,,,,,
1720156474,15,0,4279.230957,4248.589844,4237.436035,4369.743652,4233.333496,4235,4248.205078,4327.05127,4220.897461,4219.615234,4532.179688,4491.153809,4368.461426,4469.615234,,,,,,,,,,,,,,,,,,,,,,,,,,,,,,,,,,,,,,,,,,,,,,,,,,,,,,,,,,,,,,,,,,,,,,
1720156474,16,0,4277.692383,4247.179688,4229.230957,4376.538574,4233.077148,4235.769043,4257.820313,4325.384766,4231.538574,4216.922852,4538.589844,4495.384766,4363.461426,4470.897461,,,,,,,,,,,,,,,,,,,,,,,,,,,,,,,,,,,,,,,,,,,,,,,,,,,,,,,,,,,,,,,,,,,,,,
1720156474,17,0,4277.307617,4251.153809,4235.256348,4379.102539,4233.717773,4250,4272.563965,4333.077148,4240.641113,4222.05127,4553.589844,4503.077148,4373.205078,4478.333496,,,,,,,,,,,,,,,,,,,,,,,,,,,,,,,,,,,,,,,,,,,,,,,,,,,,,,,,,,,,,,,,,,,,,,
1720156474,18,0,4271.410156,4248.846191,4235.641113,4376.538574,4232.820313,4253.077148,4272.563965,4332.692383,4236.922852,4223.717773,4552.692383,4502.563965,4384.615234,4479.487305,,,,,,,,,,,,,,,,,,,,,,,,,,,,,,,,,,,,,,,,,,,,,,,,,,,,,,,,,,,,,,,,,,,,,,
1720156474,19,0,4264.230957,4246.410156,4228.077148,4379.743652,4235.256348,4248.589844,4265,4325.256348,4234.358887,4212.94873,4550,4499.487305,4374.743652,4477.179688,,,,,,,,,,,,,,,,,,,,,,,,,,,,,,,,,,,,,,,,,,,,,,,,,,,,,,,,,,,,,,,,,,,,,,
1720156474,20,0,4271.410156,4249.102539,4228.846191,4383.589844,4237.436035,4247.05127,4265.128418,4327.179688,4231.922852,4201.794922,4546.794922,4497.94873,4364.487305,4482.820313,,,,,,,,,,,,,,,,,,,,,,,,,,,,,,,,,,,,,,,,,,,,,,,,,,,,,,,,,,,,,,,,,,,,,,
1720156474,21,0,4279.487305,4251.282227,4234.102539,4383.974121,4236.922852,4247.179688,4264.230957,4326.153809,4220.512695,4203.846191,4538.846191,4493.461426,4366.922852,4483.077148,,,,,,,,,,,,,,,,,,,,,,,,,,,,,,,,,,,,,,,,,,,,,,,,,,,,,,,,,,,,,,,,,,,,,,
1720156474,22,0,4272.307617,4249.615234,4226.666504,4382.307617,4234.358887,4247.820313,4255.384766,4321.153809,4213.846191,4213.333496,4541.153809,4490.384766,4370.641113,4475.897461,,,,,,,,,,,,,,,,,,,,,,,,,,,,,,,,,,,,,,,,,,,,,,,,,,,,,,,,,,,,,,,,,,,,,,
1720156474,23,0,4265.769043,4247.05127,4216.922852,4379.615234,4230.128418,4240.641113,4247.05127,4322.692383,4224.230957,4222.307617,4549.615234,4495.384766,4375.641113,4475.769043,,,,,,,,,,,,,,,,,,,,,,,,,,,,,,,,,,,,,,,,,,,,,,,,,,,,,,,,,,,,,,,,,,,,,,
1720156474,24,0,4267.820313,4249.230957,4221.282227,4376.410156,4235.641113,4235.769043,4246.153809,4320.512695,4234.871582,4229.487305,4553.974121,4500,4381.282227,4477.692383,,,,,,,,,,,,,,,,,,,,,,,,,,,,,,,,,,,,,,,,,,,,,,,,,,,,,,,,,,,,,,,,,,,,,,
1720156474,25,0,4269.230957,4250,4231.153809,4380,4246.410156,4242.179688,4250.512695,4318.589844,4231.666504,4230.256348,4553.461426,4504.743652,4376.153809,4475.897461,,,,,,,,,,,,,,,,,,,,,,,,,,,,,,,,,,,,,,,,,,,,,,,,,,,,,,,,,,,,,,,,,,,,,,
1720156474,26,0,4274.102539,4246.666504,4234.230957,4386.666504,4242.179688,4245.128418,4251.025879,4327.307617,4230.256348,4227.692383,4550.384766,4508.974121,4370.512695,4470.512695,,,,,,,,,,,,,,,,,,,,,,,,,,,,,,,,,,,,,,,,,,,,,,,,,,,,,,,,,,,,,,,,,,,,,,
1720156474,27,0,4275.384766,4253.974121,4233.461426,4387.179688,4232.563965,4239.615234,4248.589844,4327.307617,4239.615234,4231.282227,4551.410156,4507.94873,4379.358887,4465.384766,,,,,,,,,,,,,,,,,,,,,,,,,,,,,,,,,,,,,,,,,,,,,,,,,,,,,,,,,,,,,,,,,,,,,,
1720156474,28,0,4268.974121,4263.461426,4230.256348,4380.769043,4233.077148,4234.871582,4249.230957,4325.256348,4243.333496,4230.512695,4557.692383,4507.307617,4383.461426,4469.615234,3.55811,7.182737,0.900404,0.700049,0.110336,1.91866,7.609482,0.847663,0.471484,0.126373,33.36515,20.084246,0.700305,1.09638,0.270725,16.221954,13.564622,2.930372,1.025819,0.35335,0.605698,0.637884,0.223518,0.091464,0.065031,0.735631,7.827547,0.499976,0.300843,0.19578,0.788612,9.97735,0.703153,0.365246,0.130794,0.413981,3.307451,0.201668,0.245586,0.09389,0.706484,8.481171,0.578351,0.58649,0.143043,1.448797,2.364928,0.390784,0.586864,0.155716,1.732646,7.382105,1.302964,1.039582,0.332073,5.26696,11.698574,1.836967,1.021975,0.305788,2.054033,11.633443,1.084982,0.970695,0.182025,2.061329,8.146728,0.876999,0.640319,0.224058
1720156474,29,0,4271.025879,4262.307617,4230.641113,4380.897461,4237.179688,4235.641113,4254.230957,4330.769043,4237.307617,4222.05127,4557.307617,4511.538574,4375.769043,4472.05127,,,,,,,,,,,,,,,,,,,,,,,,,,,,,,,,,,,,,,,,,,,,,,,,,,,,,,,,,,,,,,,,,,,,,,
1720156474,30,0,4284.102539,4263.461426,4242.820313,4390.128418,4237.307617,4243.717773,4263.589844,4330.769043,4232.692383,4220.384766,4552.179688,4513.077148,4371.410156,4468.333496,,,,,,,,,,,,,,,,,,,,,,,,,,,,,,,,,,,,,,,,,,,,,,,,,,,,,,,,,,,,,,,,,,,,,,
1720156474,31,0,4291.025879,4268.717773,4252.05127,4395.897461,4238.589844,4249.615234,4262.179688,4327.179688,4223.205078,4213.717773,4550,4507.820313,4368.205078,4469.102539,,,,,,,,,,,,,,,,,,,,,,,,,,,,,,,,,,,,,,,,,,,,,,,,,,,,,,,,,,,,,,,,,,,,,,
1720156474,32,0,4290.128418,4268.205078,4251.025879,4390.512695,4240.512695,4243.717773,4251.666504,4322.179688,4213.846191,4199.358887,4542.179688,4500.512695,4362.179688,4466.153809,,,,,,,,,,,,,,,,,,,,,,,,,,,,,,,,,,,,,,,,,,,,,,,,,,,,,,,,,,,,,,,,,,,,,,
1720156474,33,0,4288.333496,4265.512695,4247.563965,4385.641113,4241.794922,4240.769043,4253.974121,4321.794922,4211.282227,4193.717773,4532.563965,4498.974121,4363.205078,4461.538574,,,,,,,,,,,,,,,,,,,,,,,,,,,,,,,,,,,,,,,,,,,,,,,,,,,,,,,,,,,,,,,,,,,,,,
1720156474,34,0,4282.436035,4265.641113,4238.974121,4388.974121,4244.102539,4246.025879,4262.307617,4325.256348,4206.410156,4193.205078,4535.641113,4499.743652,4369.230957,4462.563965,,,,,,,,,,,,,,,,,,,,,,,,,,,,,,,,,,,,,,,,,,,,,,,,,,,,,,,,,,,,,,,,,,,,,,
1720156474,35,0,4277.563965,4266.153809,4232.436035,4390.384766,4241.922852,4247.820313,4260.512695,4323.205078,4204.230957,4196.794922,4541.153809,4495.641113,4368.589844,4467.05127,,,,,,,,,,,,,,,,,,,,,,,,,,,,,,,,,,,,,,,,,,,,,,,,,,,,,,,,,,,,,,,,,,,,,,
1720156474,36,0,4273.717773,4262.563965,4232.436035,4380.769043,4237.05127,4248.333496,4259.358887,4320.641113,4213.333496,4209.102539,4539.230957,4496.666504,4366.282227,4467.820313,,,,,,,,,,,,,,,,,,,,,,,,,,,,,,,,,,,,,,,,,,,,,,,,,,,,,,,,,,,,,,,,,,,,,,
1720156474,37,0,4263.717773,4251.538574,4228.717773,4372.179688,4234.871582,4249.230957,4264.358887,4327.179688,4225.128418,4220.256348,4545.897461,4503.846191,4365.256348,4467.05127,,,,,,,,,,,,,,,,,,,,,,,,,,,,,,,,,,,,,,,,,,,,,,,,,,,,,,,,,,,,,,,,,,,,,,
1720156474,38,0,4254.102539,4243.461426,4214.358887,4370.128418,4233.461426,4248.077148,4263.205078,4329.230957,4236.282227,4226.282227,4555,4501.794922,4363.461426,4464.871582,,,,,,,,,,,,,,,,,,,,,,,,,,,,,,,,,,,,,,,,,,,,,,,,,,,,,,,,,,,,,,,,,,,,,,
1720156474,39,0,4247.692383,4245.384766,4201.410156,4366.666504,4235.769043,4249.358887,4262.05127,4325.384766,4248.205078,4232.563965,4544.871582,4490.641113,4363.717773,4457.820313,,,,,,,,,,,,,,,,,,,,,,,,,,,,,,,,,,,,,,,,,,,,,,,,,,,,,,,,,,,,,,,,,,,,,,
1720156474,40,0,4247.820313,4246.666504,4203.077148,4363.846191,4239.487305,4253.205078,4263.077148,4332.436035,4252.05127,4236.282227,4535.641113,4490.384766,4364.487305,4456.410156,,,,,,,,,,,,,,,,,,,,,,,,,,,,,,,,,,,,,,,,,,,,,,,,,,,,,,,,,,,,,,,,,,,,,,
1720156474,41,0,4254.358887,4246.922852,4215,4368.846191,4239.230957,4249.871582,4252.94873,4330.384766,4248.205078,4235.641113,4543.717773,4494.358887,4362.436035,4458.461426,,,,,,,,,,,,,,,,,,,,,,,,,,,,,,,,,,,,,,,,,,,,,,,,,,,,,,,,,,,,,,,,,,,,,,
1720156474,42,0,4264.871582,4253.461426,4229.743652,4380.769043,4239.230957,4244.615234,4247.05127,4322.05127,4249.102539,4236.666504,4554.743652,4501.282227,4367.563965,4460.641113,,,,,,,,,,,,,,,,,,,,,,,,,,,,,,,,,,,,,,,,,,,,,,,,,,,,,,,,,,,,,,,,,,,,,,
1720156474,43,0,4279.102539,4266.538574,4243.974121,4393.205078,4246.666504,4244.487305,4249.743652,4325.769043,4250.128418,4237.307617,4563.077148,4519.230957,4379.102539,4468.846191,,,,,,,,,,,,,,,,,,,,,,,,,,,,,,,,,,,,,,,,,,,,,,,,,,,,,,,,,,,,,,,,,,,,,,
1720156474,44,0,4286.153809,4278.846191,4254.615234,4399.230957,4250.641113,4243.461426,4250.384766,4325.897461,4241.025879,4234.871582,4571.922852,4525.256348,4386.922852,4471.922852,3.793848,8.01417,0.847031,0.722088,0.125989,2.416299,7.924956,0.865935,0.464367,0.133803,47.691685,24.15844,0.661234,1.145598,0.301856,21.356546,15.999086,4.050076,1.234485,0.412872,0.590871,0.677566,0.291727,0.100721,0.070462,1.010133,8.774225,0.671282,0.350341,0.19774,0.811928,9.781437,0.951413,0.414492,0.13354,0.559672,3.208031,0.244095,0.290495,0.097916,0.683441,8.575586,0.79901,0.655387,0.149262,1.649705,2.843285,0.519708,0.672813,0.166735,1.930919,9.266006,1.650087,1.134774,0.356716,6.1143,14.889313,2.147014,1.152655,0.35361,2.490982,13.497467,1.23665,1.095986,0.18565,2.279486,9.859683,0.995106,0.724468,0.229135
1720156474,45,0,4283.077148,4279.230957,4252.94873,4397.436035,4247.692383,4242.692383,4255.256348,4326.153809,4232.307617,4230.384766,4571.025879,4520.128418,4392.692383,4471.025879,,,,,,,,,,,,,,,,,,,,,,,,,,,,,,,,,,,,,,,,,,,,,,,,,,,,,,,,,,,,,,,,,,,,,,
1720156474,46,0,4277.05127,4271.282227,4241.282227,4391.538574,4246.922852,4246.666504,4263.846191,4328.461426,4230.769043,4223.589844,4563.589844,4522.05127,4390.769043,4468.077148,,,,,,,,,,,,,,,,,,,,,,,,,,,,,,,,,,,,,,,,,,,,,,,,,,,,,,,,,,,,,,,,,,,,,,
1720156474,47,0,4267.820313,4257.05127,4234.358887,4383.205078,4245.256348,4250.512695,4265.256348,4318.974121,4223.589844,4214.358887,4564.230957,4521.666504,4378.974121,4461.282227,,,,,,,,,,,,,,,,,,,,,,,,,,,,,,,,,,,,,,,,,,,,,,,,,,,,,,,,,,,,,,,,,,,,,,
1720156474,48,0,4267.05127,4247.94873,4235.256348,4379.230957,4243.589844,4253.846191,4262.436035,4312.820313,4214.615234,4204.102539,4561.153809,4512.94873,4371.410156,4464.615234,,,,,,,,,,,,,,,,,,,,,,,,,,,,,,,,,,,,,,,,,,,,,,,,,,,,,,,,,,,,,,,,,,,,,,
1720156474,49,0,4273.846191,4257.94873,4232.692383,4383.717773,4247.563965,4262.563965,4267.563965,4319.358887,4218.974121,4201.922852,4546.922852,4506.282227,4371.025879,4464.487305,,,,,,,,,,,,,,,,,,,,,,,,,,,,,,,,,,,,,,,,,,,,,,,,,,,,,,,,,,,,,,,,,,,,,,
1720156474,50,0,4265.384766,4260.897461,4221.025879,4380.128418,4248.974121,4267.436035,4274.358887,4320.641113,4221.538574,4201.538574,4536.025879,4502.307617,4363.077148,4451.666504,,,,,,,,,,,,,,,,,,,,,,,,,,,,,,,,,,,,,,,,,,,,,,,,,,,,,,,,,,,,,,,,,,,,,,
1720156474,51,0,4251.025879,4245.128418,4212.436035,4372.05127,4245.641113,4263.077148,4270.512695,4321.282227,4216.666504,4198.077148,4535,4498.333496,4355,4450.641113,,,,,,,,,,,,,,,,,,,,,,,,,,,,,,,,,,,,,,,,,,,,,,,,,,,,,,,,,,,,,,,,,,,,,,
1720156474,52,0,4254.871582,4246.666504,4213.461426,4377.436035,4249.230957,4262.436035,4263.974121,4325.384766,4223.205078,4205,4543.974121,4499.102539,4359.230957,4453.589844,,,,,,,,,,,,,,,,,,,,,,,,,,,,,,,,,,,,,,,,,,,,,,,,,,,,,,,,,,,,,,,,,,,,,,
1720156474,53,0,4265.128418,4266.153809,4222.563965,4385.897461,4256.666504,4265.769043,4264.743652,4321.922852,4233.205078,4215.128418,4553.461426,4505.128418,4369.102539,4452.563965,,,,,,,,,,,,,,,,,,,,,,,,,,,,,,,,,,,,,,,,,,,,,,,,,,,,,,,,,,,,,,,,,,,,,,
1720156474,54,0,4268.974121,4264.871582,4230.641113,4381.282227,4253.205078,4259.230957,4261.410156,4320.897461,4232.307617,4215.512695,4551.282227,4514.102539,4375.769043,4461.794922,,,,,,,,,,,,,,,,,,,,,,,,,,,,,,,,,,,,,,,,,,,,,,,,,,,,,,,,,,,,,,,,,,,,,,
1720156474,55,0,4270.897461,4261.410156,4230,4381.282227,4249.358887,4249.615234,4248.589844,4319.102539,4229.743652,4219.358887,4553.461426,4517.820313,4383.589844,4468.589844,,,,,,,,,,,,,,,,,,,,,,,,,,,,,,,,,,,,,,,,,,,,,,,,,,,,,,,,,,,,,,,,,,,,,,
1720156474,56,0,4276.282227,4276.153809,4235.769043,4395.128418,4253.077148,4246.410156,4243.717773,4314.487305,4234.871582,4235.128418,4578.589844,4521.922852,4395.641113,4473.461426,,,,,,,,,,,,,,,,,,,,,,,,,,,,,,,,,,,,,,,,,,,,,,,,,,,,,,,,,,,,,,,,,,,,,,
1720156474,57,0,4283.333496,4283.846191,4251.538574,4400.769043,4253.077148,4244.871582,4247.692383,4316.666504,4237.563965,4246.538574,4591.538574,4525.512695,4406.794922,4480.384766,,,,,,,,,,,,,,,,,,,,,,,,,,,,,,,,,,,,,,,,,,,,,,,,,,,,,,,,,,,,,,,,,,,,,,
1720156474,58,0,4285.641113,4281.666504,4252.94873,4397.179688,4248.846191,4242.307617,4245.769043,4315.384766,4232.436035,4247.307617,4576.922852,4518.461426,4415.256348,4475.512695,,,,,,,,,,,,,,,,,,,,,,,,,,,,,,,,,,,,,,,,,,,,,,,,,,,,,,,,,,,,,,,,,,,,,,
1720156474,59,0,4280.769043,4282.94873,4239.487305,4397.179688,4247.436035,4241.282227,4244.230957,4312.179688,4229.871582,4249.102539,4571.538574,4512.820313,4415.512695,4468.205078,,,,,,,,,,,,,,,,,,,,,,,,,,,,,,,,,,,,,,,,,,,,,,,,,,,,,,,,,,,,,,,,,,,,,,
1720156474,60,0,4275.641113,4282.692383,4236.410156,4392.820313,4249.615234,4245.256348,4249.743652,4312.692383,4229.743652,4250,4575.512695,4513.717773,4405.641113,4465.897461,4.151237,8.960487,0.766258,0.706256,0.140642,3.132183,7.940684,0.835724,0.445226,0.13485,61.160217,28.242292,0.680003,1.16548,0.331621,25.293514,17.623518,4.849375,1.343575,0.450979,0.639412,0.795512,0.352834,0.111511,0.077376,1.373128,9.333275,0.856507,0.384395,0.186424,0.8952,9.516282,1.177944,0.445172,0.133165,0.740241,3.062371,0.278529,0.322956,0.103297,0.704188,8.171366,1.002339,0.673719,0.156656,1.825557,3.127807,0.644532,0.706061,0.169084,2.467858,11.554347,1.950019,1.183523,0.361397,6.999866,18.086458,2.232656,1.208516,0.380766,3.332446,15.857382,1.38236,1.157488,0.185549,2.695611,11.501081,1.044167,0.763354,0.225187
1720156474,61,0,4268.461426,4271.794922,4227.692383,4377.94873,4246.282227,4245.769043,4249.102539,4307.692383,4217.05127,4232.436035,4558.333496,4497.94873,4386.153809,4454.615234,,,,,,,,,,,,,,,,,,,,,,,,,,,,,,,,,,,,,,,,,,,,,,,,,,,,,,,,,,,,,,,,,,,,,,
1720156474,62,0,4245.256348,4250.769043,4192.307617,4361.153809,4232.692383,4233.974121,4236.794922,4300.512695,4192.820313,4197.94873,4524.743652,4464.743652,4350.128418,4429.615234,,,,,,,,,,,,,,,,,,,,,,,,,,,,,,,,,,,,,,,,,,,,,,,,,,,,,,,,,,,,,,,,,,,,,,
1720156474,63,0,4214.358887,4224.230957,4156.025879,4341.153809,4221.410156,4228.461426,4231.025879,4298.333496,4182.692383,4176.410156,4492.307617,4436.538574,4312.692383,4407.307617,,,,,,,,,,,,,,,,,,,,,,,,,,,,,,,,,,,,,,,,,,,,,,,,,,,,,,,,,,,,,,,,,,,,,,
1720156474,64,0,4202.563965,4208.461426,4145.128418,4322.820313,4222.94873,4240.256348,4240.769043,4298.846191,4193.846191,4182.563965,4477.94873,4422.820313,4301.666504,4400.256348,,,,,,,,,,,,,,,,,,,,,,,,,,,,,,,,,,,,,,,,,,,,,,,,,,,,,,,,,,,,,,,,,,,,,,
1720156474,65,0,4216.025879,4215.512695,4157.692383,4329.230957,4231.410156,4252.820313,4251.282227,4307.94873,4215,4199.487305,4495.897461,4433.846191,4325,4413.846191,,,,,,,,,,,,,,,,,,,,,,,,,,,,,,,,,,,,,,,,,,,,,,,,,,,,,,,,,,,,,,,,,,,,,,
1720156474,66,0,4236.794922,4233.974121,4176.153809,4349.230957,4237.436035,4254.871582,4252.94873,4319.615234,4233.333496,4213.846191,4524.358887,4460.641113,4356.025879,4437.05127,,,,,,,,,,,,,,,,,,,,,,,,,,,,,,,,,,,,,,,,,,,,,,,,,,,,,,,,,,,,,,,,,,,,,,
1720156474,67,0,4242.563965,4244.743652,4185.512695,4352.436035,4239.871582,4253.077148,4250.897461,4315.128418,4237.94873,4219.743652,4531.794922,4469.871582,4368.205078,4442.307617,,,,,,,,,,,,,,,,,,,,,,,,,,,,,,,,,,,,,,,,,,,,,,,,,,,,,,,,,,,,,,,,,,,,,,
1720156474,68,0,4244.102539,4245.128418,4192.307617,4353.974121,4238.974121,4246.794922,4244.487305,4312.05127,4234.615234,4219.871582,4534.743652,4474.743652,4367.563965,4444.615234,,,,,,,,,,,,,,,,,,,,,,,,,,,,,,,,,,,,,,,,,,,,,,,,,,,,,,,,,,,,,,,,,,,,,,
1720156475,69,0,4256.794922,4253.589844,4208.205078,4366.922852,4236.794922,4238.717773,4235.641113,4313.333496,4231.922852,4223.846191,4550.512695,4493.974121,4375.769043,4461.282227,,,,,,,,,,,,,,,,,,,,,,,,,,,,,,,,,,,,,,,,,,,,,,,,,,,,,,,,,,,,,,,,,,,,,,
1720156475,70,0,4268.717773,4267.307617,4222.436035,4370.512695,4240.128418,4234.743652,4230,4304.230957,4231.282227,4229.871582,4558.461426,4505.384766,4388.717773,4472.436035,,,,,,,,,,,,,,,,,,,,,,,,,,,,,,,,,,,,,,,,,,,,,,,,,,,,,,,,,,,,,,,,,,,,,,
1720156475,71,0,4271.666504,4268.461426,4222.436035,4365.512695,4247.307617,4232.179688,4229.487305,4296.025879,4230.256348,4232.820313,4553.589844,4499.358887,4389.358887,4473.077148,,,,,,,,,,,,,,,,,,,,,,,,,,,,,,,,,,,,,,,,,,,,,,,,,,,,,,,,,,,,,,,,,,,,,,
1720156475,72,0,4262.307617,4260.256348,4214.871582,4364.487305,4246.153809,4233.461426,4228.974121,4292.563965,4224.102539,4232.563965,4554.230957,4490.769043,4384.743652,4464.102539,,,,,,,,,,,,,,,,,,,,,,,,,,,,,,,,,,,,,,,,,,,,,,,,,,,,,,,,,,,,,,,,,,,,,,
1720156475,73,0,4253.205078,4258.717773,4212.436035,4361.538574,4236.922852,4233.333496,4232.820313,4294.102539,4215,4229.871582,4551.282227,4489.230957,4384.615234,4453.461426,,,,,,,,,,,,,,,,,,,,,,,,,,,,,,,,,,,,,,,,,,,,,,,,,,,,,,,,,,,,,,,,,,,,,,
1720156475,74,0,4256.666504,4261.794922,4211.282227,4356.922852,4233.077148,4233.461426,4242.563965,4300.384766,4218.333496,4229.871582,4542.436035,4490.769043,4383.077148,4452.94873,,,,,,,,,,,,,,,,,,,,,,,,,,,,,,,,,,,,,,,,,,,,,,,,,,,,,,,,,,,,,,,,,,,,,,
1720156475,75,0,4253.974121,4257.05127,4205.897461,4354.743652,4237.179688,4240.512695,4248.974121,4308.077148,4232.820313,4231.538574,4544.871582,4490.512695,4378.974121,4450.897461,,,,,,,,,,,,,,,,,,,,,,,,,,,,,,,,,,,,,,,,,,,,,,,,,,,,,,,,,,,,,,,,,,,,,,
1720156475,76,0,4240.256348,4248.974121,4200.897461,4354.102539,4236.794922,4247.94873,4258.717773,4315.256348,4240.384766,4228.589844,4548.974121,4491.410156,4378.205078,4446.282227,4.443815,9.812151,0.652433,0.645759,0.149893,3.769371,7.627723,0.746549,0.409522,0.129342,69.829872,31.135405,0.734018,1.135772,0.350707,26.595215,17.748411,5.03458,1.306034,0.456416,0.71886,0.989654,0.389196,0.1204,0.085091,1.780879,9.40997,0.99635,0.39597,0.167649,0.98362,9.252562,1.294695,0.442884,0.131947,0.930378,2.962636,0.292144,0.331867,0.109587,0.774675,7.41364,1.114078,0.622262,0.164908,1.980717,3.18609,0.71054,0.66421,0.162122,3.197757,13.546906,2.128293,1.148288,0.34088,7.558403,20.358677,2.09274,1.161588,0.377781,4.321652,18.001015,1.446476,1.11098,0.177094,3.135143,12.617467,0.983143,0.738394,0.209195
1720156475,77,0,4236.922852,4248.333496,4200.384766,4356.794922,4236.153809,4251.922852,4267.179688,4316.538574,4243.974121,4228.077148,4540.256348,4491.282227,4378.717773,4445.384766,,,,,,,,,,,,,,,,,,,,,,,,,,,,,,,,,,,,,,,,,,,,,,,,,,,,,,,,,,,,,,,,,,,,,,
