Timestamp,EEG.Counter,EEG.Interpolated,EEG.AF3,EEG.F7,EEG.F3,EEG.FC5,EEG.T7,EEG.P7,EEG.O1,EEG.O2,EEG.P8,EEG.T8,EEG.FC6,EEG.F4,EEG.F8,EEG.AF4,POW.AF3.Theta,POW.AF3.Alpha,POW.AF3.BetaL,POW.AF3.BetaH,POW.AF3.Gamma,POW.F7.Theta,POW.F7.Alpha,POW.F7.BetaL,POW.F7.BetaH,POW.F7.Gamma,POW.F3.Theta,POW.F3.Alpha,POW.F3.BetaL,POW.F3.BetaH,POW.F3.Gamma,POW.FC5.Theta,POW.FC5.Alpha,POW.FC5.BetaL,POW.FC5.BetaH,POW.FC5.Gamma,POW.T7.Theta,POW.T7.Alpha,POW.T7.BetaL,POW.T7.BetaH,POW.T7.Gamma,POW.P7.Theta,POW.P7.Alpha,POW.P7.BetaL,POW.P7.BetaH,POW.P7.Gamma,POW.O1.Theta,POW.O1.Alpha,POW.O1.BetaL,POW.O1.BetaH,POW.O1.Gamma,POW.O2.Theta,POW.O2.Alpha,POW.O2.BetaL,POW.O2.BetaH,POW.O2.Gamma,POW.P8.Theta,POW.P8.Alpha,POW.P8.BetaL,POW.P8.BetaH,POW.P8.Gamma,POW.T8.Theta,POW.T8.Alpha,POW.T8.BetaL,POW.T8.BetaH,POW.T8.Gamma,POW.FC6.Theta,POW.FC6.Alpha,POW.FC6.BetaL,POW.FC6.BetaH,POW.FC6.Gamma,POW.F4.Theta,POW.F4.Alpha,POW.F4.BetaL,POW.F4.BetaH,POW.F4.Gamma,POW.F8.Theta,POW.F8.Alpha,POW.F8.BetaL,POW.F8.BetaH,POW.F8.Gamma,POW.AF4.Theta,POW.AF4.Alpha,POW.AF4.BetaL,POW.AF4.BetaH,POW.AF4.Gamma
1720417557,0,0,4377.692383,4253.461426,4277.436035,4260.256348,4305.512695,4314.871582,4270.897461,4297.692383,4268.205078,4258.333496,4443.846191,4471.410156,4338.846191,4401.410156,,,,,,,,,,,,,,,,,,,,,,,,,,,,,,,,,,,,,,,,,,,,,,,,,,,,,,,,,,,,,,,,,,,,,,
1720417557,1,0,4394.743652,4243.846191,4267.820313,4254.615234,4299.230957,4304.487305,4266.794922,4288.461426,4260.641113,4245.897461,4417.820313,4458.589844,4323.077148,4364.230957,,,,,,,,,,,,,,,,,,,,,,,,,,,,,,,,,,,,,,,,,,,,,,,,,,,,,,,,,,,,,,,,,,,,,,
1720417557,2,0,4387.692383,4248.205078,4264.102539,4248.846191,4298.974121,4306.922852,4266.282227,4288.846191,4248.974121,4232.692383,4412.563965,4446.794922,4317.820313,4343.589844,,,,,,,,,,,,,,,,,,,,,,,,,,,,,,,,,,,,,,,,,,,,,,,,,,,,,,,,,,,,,,,,,,,,,,
1720417557,3,0,4383.205078,4268.077148,4273.974121,4264.230957,4302.94873,4317.820313,4265.769043,4293.461426,4260.256348,4237.692383,4432.436035,4458.589844,4327.436035,4365.256348,,,,,,,,,,,,,,,,,,,,,,,,,,,,,,,,,,,,,,,,,,,,,,,,,,,,,,,,,,,,,,,,,,,,,,
1720417557,4,0,4395.256348,4267.563965,4284.102539,4268.461426,4305.897461,4316.794922,4265.641113,4297.820313,4285.128418,4261.922852,4437.179688,4467.563965,4328.846191,4386.025879,,,,,,,,,,,,,,,,,,,,,,,,,,,,,,,,,,,,,,,,,,,,,,,,,,,,,,,,,,,,,,,,,,,,,,
1720417557,5,0,4410.256348,4247.692383,4289.615234,4258.717773,4306.538574,4311.922852,4277.563965,4307.820313,4294.615234,4275.769043,4426.666504,4470.384766,4330.641113,4397.692383,,,,,,,,,,,,,,,,,,,,,,,,,,,,,,,,,,,,,,,,,,,,,,,,,,,,,,,,,,,,,,,,,,,,,,
1720417557,6,0,4415.512695,4257.307617,4297.05127,4265,4306.025879,4310.128418,4277.05127,4306.666504,4295,4268.717773,4430,4480,4349.615234,4395.769043,,,,,,,,,,,,,,,,,,,,,,,,,,,,,,,,,,,,,,,,,,,,,,,,,,,,,,,,,,,,,,,,,,,,,,
1720417557,7,0,4408.205078,4285.256348,4294.487305,4281.410156,4310.897461,4312.179688,4266.153809,4297.94873,4294.230957,4267.179688,4450,4484.230957,4359.358887,4392.820313,,,,,,,,,,,,,,,,,,,,,,,,,,,,,,,,,,,,,,,,,,,,,,,,,,,,,,,,,,,,,,,,,,,,,,
1720417557,8,0,4399.230957,4278.846191,4284.743652,4281.153809,4313.077148,4315.769043,4273.205078,4301.666504,4279.230957,4264.358887,4460.256348,4477.563965,4346.794922,4393.717773,14.643733,3.237542,0.907714,0.999849,0.729275,3.142983,1.857378,2.024281,0.51974,0.600939,1.734877,1.241178,0.818295,0.891482,0.439001,3.742055,1.079356,0.560489,0.411413,0.418227,2.021015,1.137601,1.172104,0.209406,0.277606,0.437079,0.543416,0.394458,0.182364,0.096248,2.408448,0.378354,0.816565,0.172572,0.116072,0.200535,0.400654,0.196975,0.087346,0.111765,0.805668,1.653046,0.552657,0.228277,0.134707,1.653772,1.135652,0.537663,0.43576,0.319213,0.943718,0.833094,1.073883,1.437452,1.633484,3.67194,0.809099,1.723323,1.136523,0.588721,2.05071,2.762555,2.028554,0.629874,0.344146,1.842456,0.474647,1.04152,0.763632,0.810395
1720417557,9,0,4401.794922,4259.230957,4287.692383,4270.897461,4311.666504,4313.333496,4273.846191,4296.025879,4261.666504,4252.820313,4453.589844,4475.128418,4346.666504,4383.717773,,,,,,,,,,,,,,,,,,,,,,,,,,,,,,,,,,,,,,,,,,,,,,,,,,,,,,,,,,,,,,,,,,,,,,
1720417557,10,0,4412.692383,4269.743652,4292.436035,4273.333496,4311.538574,4311.410156,4271.153809,4289.615234,4258.589844,4250.769043,4438.589844,4482.436035,4359.230957,4384.230957,,,,,,,,,,,,,,,,,,,,,,,,,,,,,,,,,,,,,,,,,,,,,,,,,,,,,,,,,,,,,,,,,,,,,,
1720417557,11,0,4415.256348,4283.974121,4291.282227,4278.974121,4317.179688,4315.641113,4275.384766,4297.05127,4262.307617,4258.974121,4431.410156,4486.282227,4359.871582,4403.461426,,,,,,,,,,,,,,,,,,,,,,,,,,,,,,,,,,,,,,,,,,,,,,,,,,,,,,,,,,,,,,,,,,,,,,
1720417557,12,0,4407.692383,4279.743652,4295.769043,4281.666504,4323.717773,4314.743652,4271.410156,4297.94873,4266.410156,4260.769043,4444.358887,4480.769043,4356.922852,4410.769043,,,,,,,,,,,,,,,,,,,,,,,,,,,,,,,,,,,,,,,,,,,,,,,,,,,,,,,,,,,,,,,,,,,,,,
1720417557,13,0,4400.512695,4278.077148,4296.410156,4279.358887,4320,4310.256348,4272.307617,4297.94873,4273.589844,4262.692383,4461.410156,4474.487305,4362.692383,4401.025879,,,,,,,,,,,,,,,,,,,,,,,,,,,,,,,,,,,,,,,,,,,,,,,,,,,,,,,,,,,,,,,,,,,,,,
1720417557,14,0,4397.563965,4278.974121,4287.436035,4267.436035,4311.538574,4312.05127,4279.871582,4298.974121,4271.666504,4269.102539,4448.077148,4468.717773,4357.94873,4388.333496,,,,,,,,,,,,,,,,,,,,,,,,,,,,,,,,,,,,,,,,,,,,,,,,,,,,,,,,,,,,,,,,,,,,,,
1720417557,15,0,4397.307617,4274.615234,4290.128418,4268.205078,4306.922852,4312.05127,4279.230957,4296.666504,4262.179688,4263.205078,4426.410156,4468.333496,4349.487305,4385.128418,,,,,,,,,,,,,,,,,,,,,,,,,,,,,,,,,,,,,,,,,,,,,,,,,,,,,,,,,,,,,,,,,,,,,,
1720417557,16,0,4394.487305,4272.307617,4296.794922,4281.282227,4306.025879,4308.589844,4273.846191,4297.563965,4268.717773,4254.615234,4434.358887,4476.282227,4356.410156,4392.563965,,,,,,,,,,,,,,,,,,,,,,,,,,,,,,,,,,,,,,,,,,,,,,,,,,,,,,,,,,,,,,,,,,,,,,
1720417557,17,0,4393.333496,4282.307617,4292.05127,4281.025879,4306.025879,4311.922852,4277.94873,4303.461426,4282.179688,4257.94873,4452.436035,4483.974121,4365.769043,4403.205078,,,,,,,,,,,,,,,,,,,,,,,,,,,,,,,,,,,,,,,,,,,,,,,,,,,,,,,,,,,,,,,,,,,,,,
1720417557,18,0,4398.846191,4291.153809,4296.922852,4276.538574,4307.05127,4316.153809,4287.563965,4305.769043,4285.128418,4263.974121,4468.846191,4492.692383,4372.436035,4420,,,,,,,,,,,,,,,,,,,,,,,,,,,,,,,,,,,,,,,,,,,,,,,,,,,,,,,,,,,,,,,,,,,,,,
1720417557,19,0,4409.615234,4279.102539,4310.384766,4272.179688,4308.846191,4314.102539,4287.820313,4301.410156,4287.179688,4264.102539,4465.897461,4494.615234,4367.563965,4422.563965,,,,,,,,,,,,,,,,,,,,,,,,,,,,,,,,,,,,,,,,,,,,,,,,,,,,,,,,,,,,,,,,,,,,,,
1720417557,20,0,4411.282227,4278.846191,4309.743652,4277.692383,4307.692383,4310.256348,4281.282227,4298.077148,4291.282227,4265.769043,4440,4484.358887,4356.538574,4394.615234,,,,,,,,,,,,,,,,,,,,,,,,,,,,,,,,,,,,,,,,,,,,,,,,,,,,,,,,,,,,,,,,,,,,,,
1720417557,21,0,4399.615234,4291.153809,4297.179688,4293.205078,4305.769043,4308.589844,4277.820313,4295.641113,4283.589844,4267.307617,4428.589844,4474.102539,4354.230957,4385.641113,,,,,,,,,,,,,,,,,,,,,,,,,,,,,,,,,,,,,,,,,,,,,,,,,,,,,,,,,,,,,,,,,,,,,,
1720417557,22,0,4386.794922,4273.077148,4281.538574,4282.307617,4307.307617,4307.820313,4271.282227,4288.205078,4267.05127,4260.897461,4431.025879,4461.922852,4350.384766,4401.025879,,,,,,,,,,,,,,,,,,,,,,,,,,,,,,,,,,,,,,,,,,,,,,,,,,,,,,,,,,,,,,,,,,,,,,
1720417557,23,0,4385,4263.717773,4276.666504,4267.307617,4310.641113,4306.794922,4264.743652,4278.717773,4260.512695,4261.410156,4437.563965,4453.974121,4348.205078,4390.128418,,,,,,,,,,,,,,,,,,,,,,,,,,,,,,,,,,,,,,,,,,,,,,,,,,,,,,,,,,,,,,,,,,,,,,
1720417557,24,0,4390.641113,4281.282227,4289.615234,4279.615234,4311.025879,4306.666504,4271.153809,4286.922852,4262.692383,4265.897461,4448.717773,4463.461426,4357.94873,4381.538574,17.000435,3.260773,0.833003,1.01933,0.716577,3.407799,1.889211,2.076996,0.490398,0.587801,1.920084,1.201319,0.764765,0.948871,0.445695,3.651952,1.240431,0.436105,0.325169,0.407855,1.739343,1.01302,1.057473,0.219856,0.262406,0.458467,0.587249,0.41475,0.195343,0.088033,1.809602,0.406417,0.644845,0.130712,0.11334,0.160194,0.434126,0.19377,0.097975,0.104738,0.719089,1.950078,0.653257,0.237127,0.134664,1.930934,1.598507,0.819139,0.500409,0.294024,0.993704,0.71363,1.140375,1.47488,1.599701,3.993255,0.748028,1.51744,1.270058,0.543601,2.587932,3.276378,2.423707,0.796844,0.397976,2.237555,0.431067,1.059223,0.863501,0.764627
1720417557,25,0,4390.897461,4270.769043,4289.487305,4276.025879,4301.794922,4305.769043,4263.461426,4292.94873,4257.820313,4257.94873,4428.589844,4464.743652,4353.077148,4389.615234,,,,,,,,,,,,,,,,,,,,,,,,,,,,,,,,,,,,,,,,,,,,,,,,,,,,,,,,,,,,,,,,,,,,,,
1720417557,26,0,4396.794922,4267.692383,4287.692383,4271.666504,4293.846191,4307.820313,4247.307617,4286.025879,4264.230957,4261.282227,4412.820313,4466.538574,4347.307617,4394.102539,,,,,,,,,,,,,,,,,,,,,,,,,,,,,,,,,,,,,,,,,,,,,,,,,,,,,,,,,,,,,,,,,,,,,,
1720417557,27,0,4409.615234,4300.384766,4313.333496,4298.846191,4295.128418,4311.666504,4267.307617,4297.05127,4292.820313,4285,4457.820313,4496.282227,4373.717773,4407.05127,,,,,,,,,,,,,,,,,,,,,,,,,,,,,,,,,,,,,,,,,,,,,,,,,,,,,,,,,,,,,,,,,,,,,,
1720417557,28,0,4403.077148,4297.820313,4321.282227,4297.563965,4296.282227,4310.897461,4279.230957,4308.461426,4301.538574,4286.922852,4482.820313,4503.333496,4386.922852,4411.153809,,,,,,,,,,,,,,,,,,,,,,,,,,,,,,,,,,,,,,,,,,,,,,,,,,,,,,,,,,,,,,,,,,,,,,
1720417557,29,0,4385.256348,4270.641113,4298.846191,4275.769043,4294.358887,4310,4260.897461,4300.641113,4283.717773,4266.282227,4451.282227,4479.102539,4367.94873,4400.897461,,,,,,,,,,,,,,,,,,,,,,,,,,,,,,,,,,,,,,,,,,,,,,,,,,,,,,,,,,,,,,,,,,,,,,
1720417557,30,0,4389.487305,4275.897461,4295.897461,4285.128418,4293.333496,4310.256348,4265.384766,4299.615234,4279.102539,4262.94873,4449.743652,4483.077148,4364.615234,4408.974121,,,,,,,,,,,,,,,,,,,,,,,,,,,,,,,,,,,,,,,,,,,,,,,,,,,,,,,,,,,,,,,,,,,,,,
1720417557,31,0,4399.358887,4284.743652,4303.589844,4290.641113,4295.769043,4310.384766,4277.436035,4301.922852,4283.077148,4264.743652,4465.384766,4494.743652,4371.922852,4413.333496,,,,,,,,,,,,,,,,,,,,,,,,,,,,,,,,,,,,,,,,,,,,,,,,,,,,,,,,,,,,,,,,,,,,,,
1720417557,32,0,4392.94873,4281.282227,4298.333496,4284.743652,4303.205078,4314.230957,4267.436035,4294.743652,4277.307617,4258.589844,4448.077148,4478.077148,4364.871582,4401.922852,,,,,,,,,,,,,,,,,,,,,,,,,,,,,,,,,,,,,,,,,,,,,,,,,,,,,,,,,,,,,,,,,,,,,,
1720417557,33,0,4392.05127,4282.436035,4299.102539,4291.153809,4305.384766,4312.692383,4267.436035,4292.692383,4273.717773,4265.897461,4434.487305,4466.025879,4361.666504,4398.461426,,,,,,,,,,,,,,,,,,,,,,,,,,,,,,,,,,,,,,,,,,,,,,,,,,,,,,,,,,,,,,,,,,,,,,
1720417557,34,0,4396.410156,4279.230957,4300.384766,4285.384766,4297.563965,4298.333496,4273.205078,4291.410156,4273.717773,4276.794922,4436.922852,4469.743652,4370.384766,4386.794922,,,,,,,,,,,,,,,,,,,,,,,,,,,,,,,,,,,,,,,,,,,,,,,,,,,,,,,,,,,,,,,,,,,,,,
1720417557,35,0,4393.974121,4276.666504,4297.179688,4271.153809,4293.974121,4294.871582,4267.563965,4288.717773,4274.743652,4280.384766,4445.256348,4473.846191,4373.461426,4385.256348,,,,,,,,,,,,,,,,,,,,,,,,,,,,,,,,,,,,,,,,,,,,,,,,,,,,,,,,,,,,,,,,,,,,,,
1720417557,36,0,4393.077148,4281.666504,4301.410156,4287.692383,4295.128418,4301.538574,4269.358887,4294.358887,4281.410156,4281.153809,4463.461426,4476.025879,4369.102539,4405,,,,,,,,,,,,,,,,,,,,,,,,,,,,,,,,,,,,,,,,,,,,,,,,,,,,,,,,,,,,,,,,,,,,,,
1720417557,37,0,4388.205078,4280.128418,4297.307617,4298.333496,4298.589844,4297.820313,4267.692383,4291.153809,4278.205078,4271.794922,4454.358887,4461.025879,4356.794922,4390.641113,,,,,,,,,,,,,,,,,,,,,,,,,,,,,,,,,,,,,,,,,,,,,,,,,,,,,,,,,,,,,,,,,,,,,,
1720417557,38,0,4379.230957,4276.538574,4287.05127,4282.563965,4301.282227,4297.179688,4262.820313,4284.230957,4263.205078,4261.282227,4426.666504,4446.922852,4345.256348,4371.794922,,,,,,,,,,,,,,,,,,,,,,,,,,,,,,,,,,,,,,,,,,,,,,,,,,,,,,,,,,,,,,,,,,,,,,
1720417557,39,0,4389.102539,4280.256348,4291.410156,4275.897461,4296.153809,4303.205078,4268.205078,4287.436035,4259.871582,4261.282227,4426.025879,4459.743652,4341.282227,4386.666504,,,,,,,,,,,,,,,,,,,,,,,,,,,,,,,,,,,,,,,,,,,,,,,,,,,,,,,,,,,,,,,,,,,,,,
1720417557,40,0,4408.333496,4283.461426,4307.179688,4283.333496,4291.538574,4303.461426,4270.512695,4289.358887,4272.820313,4263.461426,4443.717773,4476.025879,4345,4394.230957,17.513533,3.060459,0.811636,1.002222,0.71191,3.419622,2.054489,2.151692,0.468605,0.568683,1.924369,1.246571,0.782386,0.975383,0.451474,3.287403,1.414566,0.376482,0.265364,0.411235,1.320412,0.830822,0.871868,0.228858,0.237877,0.461038,0.673295,0.410412,0.19937,0.089217,1.192916,0.450158,0.529419,0.111069,0.120183,0.143723,0.478083,0.211744,0.108631,0.104193,0.678951,2.237505,0.796913,0.245906,0.13898,2.103127,2.038499,1.167602,0.561603,0.282705,1.026151,0.622058,1.301095,1.501603,1.571156,3.889408,0.870546,1.433676,1.353427,0.490608,3.152531,3.656451,2.724954,0.942407,0.46136,2.450679,0.593197,1.1179,0.990532,0.747216
1720417557,41,0,4404.358887,4282.179688,4312.94873,4286.153809,4294.743652,4305,4271.410156,4294.487305,4282.820313,4263.461426,4448.974121,4480,4351.410156,4388.589844,,,,,,,,,,,,,,,,,,,,,,,,,,,,,,,,,,,,,,,,,,,,,,,,,,,,,,,,,,,,,,,,,,,,,,
1720417557,42,0,4384.358887,4280.641113,4298.461426,4283.077148,4295.256348,4309.358887,4271.922852,4298.333496,4283.461426,4262.563965,4437.692383,4470.769043,4343.461426,4377.563965,,,,,,,,,,,,,,,,,,,,,,,,,,,,,,,,,,,,,,,,,,,,,,,,,,,,,,,,,,,,,,,,,,,,,,
1720417557,43,0,4377.563965,4279.871582,4290,4291.410156,4290.128418,4308.589844,4275.256348,4298.077148,4289.102539,4266.922852,4428.589844,4459.487305,4332.820313,4370.641113,,,,,,,,,,,,,,,,,,,,,,,,,,,,,,,,,,,,,,,,,,,,,,,,,,,,,,,,,,,,,,,,,,,,,,
1720417557,44,0,4384.358887,4280.512695,4300.384766,4293.333496,4290.128418,4310.256348,4280.897461,4301.282227,4298.333496,4274.871582,4434.102539,4466.410156,4342.179688,4383.717773,,,,,,,,,,,,,,,,,,,,,,,,,,,,,,,,,,,,,,,,,,,,,,,,,,,,,,,,,,,,,,,,,,,,,,
1720417557,45,0,4402.179688,4284.102539,4310.641113,4281.025879,4294.743652,4311.410156,4277.563965,4302.436035,4297.94873,4270.256348,4451.666504,4479.871582,4353.333496,4392.179688,,,,,,,,,,,,,,,,,,,,,,,,,,,,,,,,,,,,,,,,,,,,,,,,,,,,,,,,,,,,,,,,,,,,,,
1720417557,46,0,4413.589844,4279.743652,4308.846191,4280.512695,4299.615234,4305.128418,4272.563965,4297.436035,4290.641113,4262.05127,4459.102539,4477.179688,4350.128418,4388.717773,,,,,,,,,,,,,,,,,,,,,,,,,,,,,,,,,,,,,,,,,,,,,,,,,,,,,,,,,,,,,,,,,,,,,,
1720417557,47,0,4396.282227,4278.077148,4300.128418,4293.974121,4296.538574,4300.769043,4272.94873,4290,4285.512695,4272.692383,4440,4465.769043,4343.333496,4397.179688,,,,,,,,,,,,,,,,,,,,,,,,,,,,,,,,,,,,,,,,,,,,,,,,,,,,,,,,,,,,,,,,,,,,,,
1720417557,48,0,4381.922852,4291.410156,4297.307617,4298.205078,4288.974121,4299.102539,4270.256348,4284.743652,4282.179688,4281.410156,4423.077148,4464.871582,4343.846191,4403.846191,,,,,,,,,,,,,,,,,,,,,,,,,,,,,,,,,,,,,,,,,,,,,,,,,,,,,,,,,,,,,,,,,,,,,,
1720417557,49,0,4388.717773,4295.897461,4303.461426,4291.666504,4288.974121,4298.846191,4267.692383,4285.384766,4281.282227,4273.846191,4436.922852,4468.461426,4347.94873,4396.025879,,,,,,,,,,,,,,,,,,,,,,,,,,,,,,,,,,,,,,,,,,,,,,,,,,,,,,,,,,,,,,,,,,,,,,
1720417557,50,0,4388.974121,4288.077148,4307.820313,4295.897461,4292.94873,4304.358887,4266.794922,4291.025879,4281.794922,4260.512695,4443.846191,4468.461426,4343.846191,4390.256348,,,,,,,,,,,,,,,,,,,,,,,,,,,,,,,,,,,,,,,,,,,,,,,,,,,,,,,,,,,,,,,,,,,,,,
1720417557,51,0,4382.820313,4288.205078,4305.897461,4298.077148,4295.256348,4309.102539,4258.846191,4287.820313,4278.846191,4247.820313,4425.384766,4468.717773,4333.205078,4377.563965,,,,,,,,,,,,,,,,,,,,,,,,,,,,,,,,,,,,,,,,,,,,,,,,,,,,,,,,,,,,,,,,,,,,,,
1720417557,52,0,4392.436035,4295.512695,4309.871582,4293.717773,4295.512695,4309.871582,4263.589844,4290,4277.692383,4249.230957,4432.563965,4476.153809,4338.846191,4380.384766,,,,,,,,,,,,,,,,,,,,,,,,,,,,,,,,,,,,,,,,,,,,,,,,,,,,,,,,,,,,,,,,,,,,,,
1720417557,53,0,4398.333496,4297.307617,4312.563965,4295.128418,4295.256348,4311.282227,4275,4302.820313,4283.589844,4273.333496,4459.615234,4485.128418,4360.128418,4408.589844,,,,,,,,,,,,,,,,,,,,,,,,,,,,,,,,,,,,,,,,,,,,,,,,,,,,,,,,,,,,,,,,,,,,,,
1720417557,54,0,4386.025879,4288.461426,4301.794922,4287.05127,4295.256348,4311.538574,4262.692383,4294.358887,4281.538574,4286.666504,4447.05127,4471.538574,4359.358887,4396.025879,,,,,,,,,,,,,,,,,,,,,,,,,,,,,,,,,,,,,,,,,,,,,,,,,,,,,,,,,,,,,,,,,,,,,,
1720417557,55,0,4375.897461,4276.538574,4291.025879,4277.692383,4296.025879,4308.077148,4260.256348,4284.102539,4273.717773,4269.102539,4420.897461,4456.282227,4342.179688,4372.436035,,,,,,,,,,,,,,,,,,,,,,,,,,,,,,,,,,,,,,,,,,,,,,,,,,,,,,,,,,,,,,,,,,,,,,
1720417557,56,0,4372.563965,4272.820313,4289.871582,4278.846191,4292.692383,4307.307617,4273.333496,4293.974121,4276.153809,4262.179688,4434.230957,4462.692383,4345.384766,4387.94873,15.947584,2.725948,0.896996,0.972486,0.717925,3.18055,2.229927,2.186273,0.446437,0.542751,1.744919,1.321276,0.850783,0.966407,0.450417,2.732912,1.525931,0.374373,0.233716,0.419836,0.913048,0.645554,0.653803,0.239815,0.20731,0.444609,0.747747,0.37708,0.194685,0.100773,0.750951,0.518857,0.508389,0.122471,0.139944,0.162016,0.528428,0.252264,0.121864,0.11142,0.703938,2.487812,0.973182,0.290342,0.149751,2.147135,2.319454,1.521671,0.625132,0.286581,1.073311,0.566197,1.52624,1.534922,1.560521,3.421341,1.121991,1.476643,1.360369,0.442173,3.567017,3.722636,2.825457,1.026941,0.515176,2.482011,0.894975,1.21054,1.148566,0.768144
1720417557,57,0,4378.461426,4279.871582,4299.102539,4282.436035,4291.282227,4310.128418,4271.410156,4301.794922,4283.205078,4282.436035,4460.128418,4475.384766,4360.512695,4399.743652,,,,,,,,,,,,,,,,,,,,,,,,,,,,,,,,,,,,,,,,,,,,,,,,,,,,,,,,,,,,,,,,,,,,,,
1720417557,58,0,4379.871582,4284.743652,4307.94873,4293.846191,4292.94873,4309.615234,4270.384766,4302.307617,4283.077148,4287.436035,4464.871582,4484.871582,4360.384766,4393.717773,,,,,,,,,,,,,,,,,,,,,,,,,,,,,,,,,,,,,,,,,,,,,,,,,,,,,,,,,,,,,,,,,,,,,,
1720417558,59,0,4379.871582,4288.077148,4307.05127,4306.282227,4290.512695,4306.025879,4268.333496,4301.794922,4283.333496,4275.384766,4450.897461,4481.922852,4356.282227,4386.922852,,,,,,,,,,,,,,,,,,,,,,,,,,,,,,,,,,,,,,,,,,,,,,,,,,,,,,,,,,,,,,,,,,,,,,
1720417558,60,0,4401.153809,4296.922852,4306.538574,4302.820313,4288.077148,4306.410156,4258.717773,4300.256348,4290.128418,4281.666504,4439.871582,4479.358887,4366.025879,4384.230957,,,,,,,,,,,,,,,,,,,,,,,,,,,,,,,,,,,,,,,,,,,,,,,,,,,,,,,,,,,,,,,,,,,,,,
1720417558,61,0,4413.333496,4295,4309.230957,4304.358887,4286.922852,4305.769043,4264.743652,4303.717773,4293.717773,4291.410156,4455.769043,4483.077148,4368.846191,4390.897461,,,,,,,,,,,,,,,,,,,,,,,,,,,,,,,,,,,,,,,,,,,,,,,,,,,,,,,,,,,,,,,,,,,,,,
1720417558,62,0,4386.794922,4281.666504,4299.871582,4313.846191,4282.436035,4298.461426,4269.487305,4300.128418,4281.538574,4272.05127,4449.615234,4463.461426,4345,4388.333496,,,,,,,,,,,,,,,,,,,,,,,,,,,,,,,,,,,,,,,,,,,,,,,,,,,,,,,,,,,,,,,,,,,,,,
1720417558,63,0,4362.179688,4283.717773,4284.615234,4298.846191,4280.641113,4293.974121,4261.538574,4283.333496,4260.128418,4249.102539,4407.307617,4434.743652,4323.333496,4361.666504,,,,,,,,,,,,,,,,,,,,,,,,,,,,,,,,,,,,,,,,,,,,,,,,,,,,,,,,,,,,,,,,,,,,,,
1720417558,64,0,4380.641113,4297.179688,4294.358887,4288.077148,4286.666504,4301.153809,4267.94873,4285,4258.589844,4249.358887,4403.846191,4445,4326.025879,4358.974121,,,,,,,,,,,,,,,,,,,,,,,,,,,,,,,,,,,,,,,,,,,,,,,,,,,,,,,,,,,,,,,,,,,,,,
1720417558,65,0,4400.512695,4298.461426,4312.563965,4308.846191,4294.102539,4305.128418,4270.128418,4296.794922,4275,4263.461426,4430.641113,4471.025879,4338.717773,4387.436035,,,,,,,,,,,,,,,,,,,,,,,,,,,,,,,,,,,,,,,,,,,,,,,,,,,,,,,,,,,,,,,,,,,,,,
1720417558,66,0,4394.743652,4299.358887,4316.922852,4315.641113,4289.615234,4298.333496,4264.358887,4295.256348,4277.94873,4273.205078,4436.410156,4479.487305,4349.358887,4398.205078,,,,,,,,,,,,,,,,,,,,,,,,,,,,,,,,,,,,,,,,,,,,,,,,,,,,,,,,,,,,,,,,,,,,,,
1720417558,67,0,4385.769043,4309.743652,4319.615234,4305.897461,4283.077148,4298.846191,4274.487305,4295.512695,4278.846191,4273.077148,4454.487305,4490.512695,4362.179688,4396.410156,,,,,,,,,,,,,,,,,,,,,,,,,,,,,,,,,,,,,,,,,,,,,,,,,,,,,,,,,,,,,,,,,,,,,,
1720417558,68,0,4397.05127,4316.153809,4326.538574,4320.128418,4284.358887,4308.974121,4280.769043,4301.794922,4296.538574,4287.563965,4486.153809,4503.333496,4378.333496,4407.307617,,,,,,,,,,,,,,,,,,,,,,,,,,,,,,,,,,,,,,,,,,,,,,,,,,,,,,,,,,,,,,,,,,,,,,
1720417558,69,0,4407.820313,4312.05127,4326.538574,4330.256348,4283.205078,4310.128418,4282.436035,4310.128418,4303.589844,4307.436035,4481.666504,4503.717773,4379.615234,4422.820313,,,,,,,,,,,,,,,,,,,,,,,,,,,,,,,,,,,,,,,,,,,,,,,,,,,,,,,,,,,,,,,,,,,,,,
1720417558,70,0,4389.102539,4299.230957,4315.641113,4310.897461,4276.025879,4302.692383,4281.282227,4307.563965,4294.743652,4291.794922,4452.820313,4492.692383,4361.666504,4407.692383,,,,,,,,,,,,,,,,,,,,,,,,,,,,,,,,,,,,,,,,,,,,,,,,,,,,,,,,,,,,,,,,,,,,,,
1720417558,71,0,4378.077148,4298.077148,4307.436035,4308.461426,4277.563965,4305.641113,4276.282227,4300.769043,4297.05127,4273.333496,4435.641113,4483.461426,4355.128418,4384.615234,,,,,,,,,,,,,,,,,,,,,,,,,,,,,,,,,,,,,,,,,,,,,,,,,,,,,,,,,,,,,,,,,,,,,,
1720417558,72,0,4390.897461,4309.871582,4312.820313,4326.282227,4290.256348,4311.410156,4281.410156,4305,4303.974121,4289.358887,4452.94873,4495.128418,4370.641113,4391.666504,13.270459,2.365325,1.088398,0.959343,0.731976,2.782339,2.299222,2.117998,0.422106,0.521541,1.453067,1.392871,0.952778,0.940762,0.441254,2.092058,1.518718,0.410728,0.231533,0.433453,0.636532,0.506111,0.448882,0.252354,0.17563,0.41458,0.784814,0.32243,0.185051,0.120362,0.55508,0.613865,0.570272,0.159308,0.172556,0.211954,0.590961,0.303977,0.140194,0.124486,0.797925,2.701121,1.161078,0.407302,0.168403,2.066094,2.351307,1.812487,0.701389,0.30335,1.160025,0.567915,1.795077,1.595379,1.573974,2.761028,1.45695,1.644639,1.30393,0.408135,3.706283,3.422807,2.695233,1.032825,0.543218,2.346483,1.274023,1.346641,1.334385,0.818144
1720417558,73,0,4384.871582,4300.128418,4313.333496,4311.666504,4294.743652,4297.820313,4278.077148,4300.769043,4294.102539,4289.358887,4475.384766,4496.410156,4372.179688,4401.410156,,,,,,,,,,,,,,,,,,,,,,,,,,,,,,,,,,,,,,,,,,,,,,,,,,,,,,,,,,,,,,,,,,,,,,
1720417558,74,0,4372.692383,4293.974121,4306.153809,4298.717773,4288.974121,4291.538574,4268.974121,4297.692383,4285.384766,4268.077148,4463.461426,4483.205078,4361.538574,4409.358887,,,,,,,,,,,,,,,,,,,,,,,,,,,,,,,,,,,,,,,,,,,,,,,,,,,,,,,,,,,,,,,,,,,,,,
1720417558,75,0,4380.384766,4317.94873,4315,4326.282227,4293.846191,4306.153809,4274.358887,4306.282227,4292.307617,4283.589844,4451.410156,4495.384766,4368.589844,4411.025879,,,,,,,,,,,,,,,,,,,,,,,,,,,,,,,,,,,,,,,,,,,,,,,,,,,,,,,,,,,,,,,,,,,,,,
1720417558,76,0,4369.615234,4316.025879,4317.563965,4328.077148,4299.230957,4305.512695,4273.077148,4301.538574,4289.230957,4296.153809,4451.666504,4502.820313,4368.589844,4394.102539,,,,,,,,,,,,,,,,,,,,,,,,,,,,,,,,,,,,,,,,,,,,,,,,,,,,,,,,,,,,,,,,,,,,,,
1720417558,77,0,4350.128418,4286.794922,4296.410156,4298.589844,4286.794922,4293.461426,4256.922852,4290.512695,4272.820313,4270.769043,4444.743652,4477.436035,4352.94873,4387.307617,,,,,,,,,,,,,,,,,,,,,,,,,,,,,,,,,,,,,,,,,,,,,,,,,,,,,,,,,,,,,,,,,,,,,,
1720417558,78,0,4365.128418,4288.717773,4296.538574,4300,4270.128418,4296.666504,4260.256348,4298.205078,4271.410156,4262.94873,4447.307617,4472.563965,4350.769043,4399.487305,,,,,,,,,,,,,,,,,,,,,,,,,,,,,,,,,,,,,,,,,,,,,,,,,,,,,,,,,,,,,,,,,,,,,,
1720417558,79,0,4373.461426,4313.589844,4315.769043,4315.384766,4275.769043,4301.153809,4275.769043,4304.230957,4287.820313,4284.615234,4461.666504,4496.922852,4365,4400.512695,,,,,,,,,,,,,,,,,,,,,,,,,,,,,,,,,,,,,,,,,,,,,,,,,,,,,,,,,,,,,,,,,,,,,,
1720417558,80,0,4358.333496,4322.692383,4315.128418,4313.974121,4286.538574,4301.794922,4276.666504,4297.436035,4296.410156,4291.922852,4464.487305,4500,4374.743652,4401.794922,,,,,,,,,,,,,,,,,,,,,,,,,,,,,,,,,,,,,,,,,,,,,,,,,,,,,,,,,,,,,,,,,,,,,,
1720417558,81,0,4375.512695,4314.102539,4311.538574,4310.641113,4281.922852,4306.666504,4285.256348,4305.512695,4295.769043,4287.307617,4469.871582,4497.692383,4383.717773,4426.282227,,,,,,,,,,,,,,,,,,,,,,,,,,,,,,,,,,,,,,,,,,,,,,,,,,,,,,,,,,,,,,,,,,,,,,
1720417558,82,0,4396.410156,4303.974121,4315,4307.179688,4278.077148,4302.94873,4293.205078,4310.384766,4299.487305,4289.743652,4464.743652,4504.743652,4383.461426,4419.871582,,,,,,,,,,,,,,,,,,,,,,,,,,,,,,,,,,,,,,,,,,,,,,,,,,,,,,,,,,,,,,,,,,,,,,
1720417558,83,0,4376.282227,4294.102539,4308.205078,4306.666504,4279.230957,4297.436035,4254.871582,4301.410156,4295.384766,4287.94873,4438.846191,4492.563965,4365,4386.538574,,,,,,,,,,,,,,,,,,,,,,,,,,,,,,,,,,,,,,,,,,,,,,,,,,,,,,,,,,,,,,,,,,,,,,
1720417558,84,0,4368.461426,4292.436035,4306.282227,4309.615234,4280.512695,4302.05127,4222.179688,4301.794922,4283.717773,4277.692383,4448.589844,4482.692383,4360.641113,4391.666504,,,,,,,,,,,,,,,,,,,,,,,,,,,,,,,,,,,,,,,,,,,,,,,,,,,,,,,,,,,,,,,,,,,,,,
1720417558,85,0,4383.717773,4300.512695,4310.256348,4296.153809,4288.589844,4302.692383,4243.205078,4301.410156,4284.871582,4277.436035,4466.282227,4490.769043,4371.794922,4403.077148,,,,,,,,,,,,,,,,,,,,,,,,,,,,,,,,,,,,,,,,,,,,,,,,,,,,,,,,,,,,,,,,,,,,,,
1720417558,86,0,4382.436035,4301.025879,4309.871582,4292.307617,4293.077148,4301.410156,4248.589844,4295.128418,4291.025879,4290.897461,4449.743652,4494.102539,4372.179688,4398.333496,,,,,,,,,,,,,,,,,,,,,,,,,,,,,,,,,,,,,,,,,,,,,,,,,,,,,,,,,,,,,,,,,,,,,,
1720417558,87,0,4374.743652,4300.769043,4312.05127,4312.436035,4283.846191,4304.743652,4230.256348,4292.820313,4283.589844,4290.512695,4433.589844,4485.384766,4356.538574,4404.358887,,,,,,,,,,,,,,,,,,,,,,,,,,,,,,,,,,,,,,,,,,,,,,,,,,,,,,,,,,,,,,,,,,,,,,
1720417558,88,0,4375,4308.333496,4311.666504,4318.205078,4278.077148,4307.563965,4260.256348,4295.641113,4276.538574,4275.384766,4434.230957,4478.461426,4344.487305,4393.333496,10.037983,2.059643,1.332591,0.987423,0.750211,2.358834,2.194273,1.931763,0.401892,0.518434,1.150568,1.43731,1.068736,0.923407,0.429259,1.517547,1.379976,0.47148,0.257685,0.455163,0.536503,0.432184,0.295515,0.262289,0.148018,0.375758,0.782058,0.261597,0.174583,0.142501,0.561227,0.726934,0.663044,0.205875,0.213745,0.271023,0.681032,0.353949,0.164205,0.139468,0.95893,2.89133,1.337614,0.607792,0.194677,1.901701,2.141489,1.982509,0.802205,0.330373,1.282765,0.63276,2.076358,1.69037,1.613131,2.126915,1.823769,1.914645,1.226223,0.396747,3.523658,2.842339,2.397268,0.975881,0.541236,2.123982,1.635654,1.517475,1.527165,0.876612
1720417558,89,0,4372.563965,4308.717773,4306.410156,4310.897461,4288.461426,4309.743652,4301.794922,4300.256348,4278.589844,4275.641113,4443.461426,4478.077148,4350.897461,4372.692383,,,,,,,,,,,,,,,,,,,,,,,,,,,,,,,,,,,,,,,,,,,,,,,,,,,,,,,,,,,,,,,,,,,,,,
1720417558,90,0,4370.128418,4300,4302.692383,4307.94873,4296.922852,4312.692383,4293.717773,4301.922852,4279.743652,4284.230957,4444.487305,4475.128418,4357.307617,4386.922852,,,,,,,,,,,,,,,,,,,,,,,,,,,,,,,,,,,,,,,,,,,,,,,,,,,,,,,,,,,,,,,,,,,,,,
1720417558,91,0,4369.871582,4299.102539,4304.358887,4303.589844,4288.461426,4312.820313,4280.512695,4296.666504,4283.974121,4277.94873,4438.077148,4471.153809,4355.512695,4407.820313,,,,,,,,,,,,,,,,,,,,,,,,,,,,,,,,,,,,,,,,,,,,,,,,,,,,,,,,,,,,,,,,,,,,,,
1720417558,92,0,4363.974121,4296.153809,4312.05127,4305.256348,4276.922852,4309.102539,4292.94873,4299.743652,4292.563965,4273.717773,4441.666504,4475.897461,4357.307617,4401.922852,,,,,,,,,,,,,,,,,,,,,,,,,,,,,,,,,,,,,,,,,,,,,,,,,,,,,,,,,,,,,,,,,,,,,,
1720417558,93,0,4359.615234,4293.717773,4308.333496,4308.589844,4281.153809,4310.128418,4291.538574,4306.666504,4294.743652,4282.563965,4445.128418,4479.230957,4364.102539,4391.666504,,,,,,,,,,,,,,,,,,,,,,,,,,,,,,,,,,,,,,,,,,,,,,,,,,,,,,,,,,,,,,,,,,,,,,
1720417558,94,0,4362.692383,4306.922852,4296.025879,4310.256348,4297.692383,4310.769043,4281.794922,4299.358887,4294.487305,4282.563965,4436.794922,4475.256348,4360.897461,4388.333496,,,,,,,,,,,,,,,,,,,,,,,,,,,,,,,,,,,,,,,,,,,,,,,,,,,,,,,,,,,,,,,,,,,,,,
1720417558,95,0,4368.205078,4303.717773,4302.820313,4315,4297.820313,4308.589844,4284.743652,4301.922852,4292.820313,4280.641113,4438.205078,4477.307617,4355.256348,4395.256348,,,,,,,,,,,,,,,,,,,,,,,,,,,,,,,,,,,,,,,,,,,,,,,,,,,,,,,,,,,,,,,,,,,,,,
1720417558,96,0,4362.436035,4284.487305,4304.615234,4303.461426,4283.717773,4305.512695,4283.717773,4303.717773,4284.487305,4278.461426,4438.205078,4472.307617,4354.871582,4397.307617,,,,,,,,,,,,,,,,,,,,,,,,,,,,,,,,,,,,,,,,,,,,,,,,,,,,,,,,,,,,,,,,,,,,,,
1720417558,97,0,4343.589844,4281.153809,4277.692383,4288.461426,4278.846191,4300.256348,4278.461426,4290.128418,4271.922852,4266.922852,4416.410156,4450.128418,4345.256348,4377.436035,,,,,,,,,,,,,,,,,,,,,,,,,,,,,,,,,,,,,,,,,,,,,,,,,,,,,,,,,,,,,,,,,,,,,,
1720417558,98,0,4345.384766,4295.384766,4271.538574,4306.922852,4281.025879,4300,4282.563965,4291.153809,4273.461426,4266.282227,4427.307617,4445.512695,4343.461426,4378.333496,,,,,,,,,,,,,,,,,,,,,,,,,,,,,,,,,,,,,,,,,,,,,,,,,,,,,,,,,,,,,,,,,,,,,,
1720417558,99,0,4373.077148,4307.05127,4291.794922,4316.794922,4281.922852,4305.256348,4286.538574,4298.077148,4286.666504,4280,4450,4456.922852,4352.820313,4396.025879,,,,,,,,,,,,,,,,,,,,,,,,,,,,,,,,,,,,,,,,,,,,,,,,,,,,,,,,,,,,,,,,,,,,,,
1720417558,100,0,4386.666504,4302.307617,4291.794922,4294.615234,4277.692383,4308.846191,4286.025879,4297.307617,4287.563965,4285.128418,4432.05127,4460.256348,4355.512695,4381.538574,,,,,,,,,,,,,,,,,,,,,,,,,,,,,,,,,,,,,,,,,,,,,,,,,,,,,,,,,,,,,,,,,,,,,,
1720417558,101,0,4385.897461,4305.769043,4287.436035,4298.461426,4275,4305.897461,4285.256348,4297.692383,4280.897461,4280.384766,4421.282227,4459.358887,4355.256348,4371.410156,,,,,,,,,,,,,,,,,,,,,,,,,,,,,,,,,,,,,,,,,,,,,,,,,,,,,,,,,,,,,,,,,,,,,,
1720417558,102,0,4399.230957,4312.436035,4297.94873,4312.563965,4278.974121,4302.436035,4287.05127,4299.487305,4286.794922,4280.256348,4430.256348,4460.897461,4351.153809,4393.333496,,,,,,,,,,,,,,,,,,,,,,,,,,,,,,,,,,,,,,,,,,,,,,,,,,,,,,,,,,,,,,,,,,,,,,
1720417558,103,0,4409.615234,4301.025879,4299.871582,4293.589844,4282.692383,4301.666504,4288.974121,4297.05127,4293.974121,4283.205078,4426.922852,4462.94873,4344.230957,4403.589844,,,,,,,,,,,,,,,,,,,,,,,,,,,,,,,,,,,,,,,,,,,,,,,,,,,,,,,,,,,,,,,,,,,,,,
1720417558,104,0,4402.563965,4293.974121,4297.820313,4295.128418,4280.384766,4301.025879,4287.05127,4296.410156,4284.871582,4280.256348,4428.589844,4466.666504,4341.282227,4393.974121,7.370342,1.813066,1.534417,1.06258,0.770672,1.999877,1.908191,1.654615,0.396442,0.538275,0.915264,1.42672,1.170393,0.927665,0.419811,1.086153,1.144615,0.54755,0.306577,0.487859,0.546561,0.411796,0.212267,0.26438,0.128902,0.334413,0.752356,0.208059,0.16495,0.160771,0.671632,0.855724,0.737819,0.244557,0.256335,0.316764,0.81023,0.391876,0.191264,0.15287,1.14784,3.081932,1.481464,0.857874,0.226469,1.674734,1.813565,2.001241,0.928109,0.36831,1.42935,0.783523,2.325609,1.812178,1.67464,1.692491,2.170033,2.226825,1.169427,0.411445,3.153069,2.175077,2.038461,0.900369,0.518833,1.923894,1.880933,1.684935,1.689173,0.92433
1720417558,105,0,4408.974121,4307.692383,4307.820313,4324.871582,4276.282227,4302.94873,4283.333496,4297.94873,4276.794922,4274.358887,4444.487305,4471.794922,4346.922852,4394.102539,,,,,,,,,,,,,,,,,,,,,,,,,,,,,,,,,,,,,,,,,,,,,,,,,,,,,,,,,,,,,,,,,,,,,,
1720417558,106,0,4421.666504,4321.538574,4314.358887,4324.615234,4278.461426,4305.641113,4287.94873,4302.307617,4290.256348,4279.743652,4455.512695,4483.974121,4362.307617,4409.871582,,,,,,,,,,,,,,,,,,,,,,,,,,,,,,,,,,,,,,,,,,,,,,,,,,,,,,,,,,,,,,,,,,,,,,
1720417558,107,0,4404.615234,4315.641113,4308.846191,4302.05127,4280.128418,4311.025879,4288.205078,4307.179688,4304.743652,4291.538574,4459.230957,4492.05127,4373.717773,4415.897461,,,,,,,,,,,,,,,,,,,,,,,,,,,,,,,,,,,,,,,,,,,,,,,,,,,,,,,,,,,,,,,,,,,,,,
1720417558,108,0,4389.743652,4310.128418,4307.692383,4302.94873,4277.692383,4312.307617,4277.436035,4296.794922,4300,4285,4457.436035,4479.743652,4365.641113,4400.128418,,,,,,,,,,,,,,,,,,,,,,,,,,,,,,,,,,,,,,,,,,,,,,,,,,,,,,,,,,,,,,,,,,,,,,
1720417558,109,0,4404.487305,4315.897461,4314.871582,4320.641113,4277.94873,4310.641113,4285.641113,4296.538574,4290.769043,4277.563965,4455.384766,4474.230957,4361.666504,4401.025879,,,,,,,,,,,,,,,,,,,,,,,,,,,,,,,,,,,,,,,,,,,,,,,,,,,,,,,,,,,,,,,,,,,,,,
1720417558,110,0,4405.128418,4329.358887,4317.94873,4328.589844,4280,4311.153809,4292.307617,4305.641113,4299.230957,4293.717773,4457.820313,4486.794922,4376.538574,4419.615234,,,,,,,,,,,,,,,,,,,,,,,,,,,,,,,,,,,,,,,,,,,,,,,,,,,,,,,,,,,,,,,,,,,,,,
1720417558,111,0,4386.922852,4328.333496,4313.589844,4323.589844,4278.333496,4309.871582,4281.025879,4296.025879,4304.871582,4306.538574,4461.153809,4491.538574,4383.205078,4409.871582,,,,,,,,,,,,,,,,,,,,,,,,,,,,,,,,,,,,,,,,,,,,,,,,,,,,,,,,,,,,,,,,,,,,,,
1720417558,112,0,4388.589844,4310.256348,4307.692383,4321.282227,4277.692383,4305.256348,4282.563965,4292.307617,4296.153809,4295.897461,4465,4487.179688,4377.179688,4403.333496,,,,,,,,,,,,,,,,,,,,,,,,,,,,,,,,,,,,,,,,,,,,,,,,,,,,,,,,,,,,,,,,,,,,,,
1720417558,113,0,4398.461426,4313.461426,4309.615234,4328.077148,4280.512695,4301.410156,4286.794922,4295.769043,4291.410156,4281.410156,4463.717773,4485,4380.769043,4418.717773,,,,,,,,,,,,,,,,,,,,,,,,,,,,,,,,,,,,,,,,,,,,,,,,,,,,,,,,,,,,,,,,,,,,,,
1720417558,114,0,4402.94873,4328.077148,4322.05127,4328.974121,4281.282227,4306.025879,4283.717773,4294.230957,4292.94873,4279.230957,4458.717773,4487.179688,4385.384766,4415.769043,,,,,,,,,,,,,,,,,,,,,,,,,,,,,,,,,,,,,,,,,,,,,,,,,,,,,,,,,,,,,,,,,,,,,,
1720417558,115,0,4402.179688,4325.384766,4324.743652,4326.666504,4276.282227,4312.05127,4287.94873,4295.512695,4292.05127,4275.641113,4455.641113,4483.717773,4371.794922,4408.589844,,,,,,,,,,,,,,,,,,,,,,,,,,,,,,,,,,,,,,,,,,,,,,,,,,,,,,,,,,,,,,,,,,,,,,
1720417558,116,0,4396.153809,4319.615234,4319.230957,4336.153809,4268.333496,4312.307617,4293.974121,4301.282227,4294.615234,4279.102539,4466.282227,4485,4367.94873,4424.615234,,,,,,,,,,,,,,,,,,,,,,,,,,,,,,,,,,,,,,,,,,,,,,,,,,,,,,,,,,,,,,,,,,,,,,
1720417558,117,0,4402.307617,4323.333496,4325.384766,4341.794922,4261.153809,4310.897461,4292.179688,4304.102539,4300.384766,4294.230957,4478.589844,4503.589844,4385.769043,4441.666504,,,,,,,,,,,,,,,,,,,,,,,,,,,,,,,,,,,,,,,,,,,,,,,,,,,,,,,,,,,,,,,,,,,,,,
1720417558,118,0,4412.179688,4330.769043,4331.410156,4335.769043,4253.717773,4310.769043,4291.025879,4300.641113,4296.922852,4299.487305,4476.794922,4513.974121,4393.717773,4436.410156,,,,,,,,,,,,,,,,,,,,,,,,,,,,,,,,,,,,,,,,,,,,,,,,,,,,,,,,,,,,,,,,,,,,,,
1720417558,119,0,4409.230957,4340,4332.94873,4336.538574,4244.871582,4307.179688,4288.846191,4296.410156,4292.563965,4300.897461,4481.922852,4509.615234,4391.666504,4430.384766,,,,,,,,,,,,,,,,,,,,,,,,,,,,,,,,,,,,,,,,,,,,,,,,,,,,,,,,,,,,,,,,,,,,,,
1720417558,120,0,4404.615234,4335,4331.153809,4342.692383,4244.743652,4299.230957,4288.461426,4298.333496,4294.487305,4304.102539,4486.025879,4504.487305,4391.538574,4433.717773,5.382106,1.573431,1.607541,1.15962,0.794404,1.699346,1.500146,1.336258,0.417486,0.573909,0.784572,1.343983,1.234001,0.950456,0.415093,0.845851,0.885606,0.627727,0.369535,0.533547,0.589334,0.413103,0.196696,0.255031,0.121642,0.292341,0.713574,0.170015,0.155069,0.170761,0.841409,1.013468,0.794045,0.270116,0.297432,0.330748,0.970653,0.412296,0.215975,0.163433,1.300369,3.286042,1.578606,1.091028,0.260189,1.425669,1.551512,1.891789,1.063738,0.420112,1.540554,1.047847,2.506312,1.94888,1.742771,1.482761,2.447052,2.500377,1.158559,0.448777,2.742521,1.656092,1.725319,0.857477,0.49358,1.804525,1.961067,1.79855,1.785823,0.952037
1720417558,121,0,4390,4312.179688,4308.333496,4327.563965,4251.922852,4298.974121,4292.307617,4299.871582,4292.692383,4296.538574,4462.05127,4486.666504,4373.717773,4409.230957,,,,,,,,,,,,,,,,,,,,,,,,,,,,,,,,,,,,,,,,,,,,,,,,,,,,,,,,,,,,,,,,,,,,,,
1720417558,122,0,4367.05127,4304.871582,4280.512695,4306.153809,4251.153809,4302.563965,4286.922852,4288.846191,4290,4287.820313,4434.102539,4456.922852,4351.025879,4373.589844,,,,,,,,,,,,,,,,,,,,,,,,,,,,,,,,,,,,,,,,,,,,,,,,,,,,,,,,,,,,,,,,,,,,,,
1720417558,123,0,4366.153809,4309.102539,4286.410156,4315.769043,4248.717773,4298.846191,4288.461426,4290.384766,4292.179688,4288.077148,4441.282227,4454.743652,4357.820313,4387.94873,,,,,,,,,,,,,,,,,,,,,,,,,,,,,,,,,,,,,,,,,,,,,,,,,,,,,,,,,,,,,,,,,,,,,,
1720417558,124,0,4371.666504,4305,4304.358887,4331.666504,4257.563965,4295.384766,4292.94873,4298.333496,4295.512695,4284.615234,4451.410156,4465.384766,4367.436035,4411.922852,,,,,,,,,,,,,,,,,,,,,,,,,,,,,,,,,,,,,,,,,,,,,,,,,,,,,,,,,,,,,,,,,,,,,,
1720417558,125,0,4368.461426,4310.897461,4304.358887,4325.641113,4262.307617,4295.641113,4287.820313,4289.487305,4294.871582,4274.743652,4439.487305,4466.794922,4361.794922,4398.589844,,,,,,,,,,,,,,,,,,,,,,,,,,,,,,,,,,,,,,,,,,,,,,,,,,,,,,,,,,,,,,,,,,,,,,
1720417558,126,0,4374.358887,4326.025879,4306.025879,4323.461426,4257.05127,4293.461426,4286.538574,4288.333496,4288.205078,4270.897461,4435.897461,4481.410156,4363.717773,4396.025879,,,,,,,,,,,,,,,,,,,,,,,,,,,,,,,,,,,,,,,,,,,,,,,,,,,,,,,,,,,,,,,,,,,,,,
1720417558,127,0,4380.256348,4326.794922,4314.615234,4330.512695,4254.615234,4295.384766,4287.436035,4292.563965,4278.461426,4269.487305,4447.563965,4495.128418,4367.436035,4403.205078,,,,,,,,,,,,,,,,,,,,,,,,,,,,,,,,,,,,,,,,,,,,,,,,,,,,,,,,,,,,,,,,,,,,,,
1720417558,0,0,4383.333496,4324.230957,4324.871582,4327.179688,4258.974121,4306.282227,4290.641113,4290.384766,4280.769043,4274.615234,4462.820313,4499.358887,4365.256348,4407.436035,,,,,,,,,,,,,,,,,,,,,,,,,,,,,,,,,,,,,,,,,,,,,,,,,,,,,,,,,,,,,,,,,,,,,,
1720417558,1,0,4391.025879,4328.205078,4332.94873,4324.615234,4263.333496,4308.717773,4291.922852,4288.461426,4290.769043,4288.846191,4464.487305,4502.05127,4368.846191,4412.179688,,,,,,,,,,,,,,,,,,,,,,,,,,,,,,,,,,,,,,,,,,,,,,,,,,,,,,,,,,,,,,,,,,,,,,
1720417558,2,0,4387.94873,4326.666504,4326.282227,4334.743652,4262.436035,4301.538574,4289.230957,4287.307617,4289.230957,4295,4453.461426,4497.563965,4372.94873,4397.436035,,,,,,,,,,,,,,,,,,,,,,,,,,,,,,,,,,,,,,,,,,,,,,,,,,,,,,,,,,,,,,,,,,,,,,
1720417558,3,0,4369.102539,4321.153809,4311.794922,4340.641113,4262.179688,4301.282227,4289.871582,4285.128418,4280.897461,4285.256348,4443.077148,4486.025879,4365.641113,4393.589844,,,,,,,,,,,,,,,,,,,,,,,,,,,,,,,,,,,,,,,,,,,,,,,,,,,,,,,,,,,,,,,,,,,,,,
1720417558,4,0,4366.538574,4326.153809,4310,4343.717773,4264.871582,4304.487305,4289.487305,4283.974121,4279.102539,4274.743652,4446.794922,4483.846191,4359.102539,4416.153809,,,,,,,,,,,,,,,,,,,,,,,,,,,,,,,,,,,,,,,,,,,,,,,,,,,,,,,,,,,,,,,,,,,,,,
1720417558,5,0,4377.436035,4323.205078,4315,4333.205078,4264.358887,4301.538574,4289.358887,4284.743652,4283.205078,4279.230957,4458.333496,4484.615234,4359.487305,4412.436035,,,,,,,,,,,,,,,,,,,,,,,,,,,,,,,,,,,,,,,,,,,,,,,,,,,,,,,,,,,,,,,,,,,,,,
1720417558,6,0,4368.717773,4305.128418,4303.974121,4311.538574,4262.307617,4297.436035,4293.205078,4288.974121,4281.922852,4282.179688,4444.358887,4469.230957,4349.743652,4384.743652,,,,,,,,,,,,,,,,,,,,,,,,,,,,,,,,,,,,,,,,,,,,,,,,,,,,,,,,,,,,,,,,,,,,,,
1720417558,7,0,4353.974121,4307.692383,4294.743652,4318.974121,4261.922852,4293.461426,4289.102539,4291.282227,4278.077148,4269.358887,4421.538574,4462.94873,4339.358887,4381.025879,,,,,,,,,,,,,,,,,,,,,,,,,,,,,,,,,,,,,,,,,,,,,,,,,,,,,,,,,,,,,,,,,,,,,,
1720417558,8,0,4354.102539,4325.384766,4300.512695,4335.897461,4254.102539,4285.769043,4277.563965,4281.153809,4282.179688,4262.436035,4420.256348,4467.307617,4344.102539,4380.769043,4.383386,1.328451,1.52492,1.238064,0.822993,1.476529,1.06545,1.039736,0.472704,0.611262,0.781449,1.198695,1.243846,0.972424,0.415158,0.754305,0.659949,0.69891,0.437755,0.591198,0.580175,0.406617,0.230844,0.23559,0.128398,0.263845,0.675501,0.147917,0.143014,0.171479,1.111224,1.236189,0.884757,0.292529,0.342044,0.310274,1.129931,0.415928,0.232644,0.171529,1.375538,3.481899,1.621543,1.236642,0.291526,1.159362,1.491054,1.713677,1.17698,0.485606,1.606035,1.42528,2.589059,2.085894,1.78997,1.475594,2.620682,2.655389,1.190547,0.499454,2.392438,1.443315,1.510794,0.877594,0.480016,1.802858,1.895259,1.814774,1.800331,0.964775
1720417558,9,0,4360.641113,4321.025879,4310.256348,4327.94873,4243.333496,4278.205078,4285.128418,4282.563965,4286.666504,4265.256348,4428.974121,4474.487305,4353.205078,4378.717773,,,,,,,,,,,,,,,,,,,,,,,,,,,,,,,,,,,,,,,,,,,,,,,,,,,,,,,,,,,,,,,,,,,,,,
1720417558,10,0,4361.538574,4315.897461,4318.974121,4323.717773,4247.307617,4281.922852,4290.256348,4291.025879,4284.230957,4267.436035,4438.846191,4487.436035,4358.589844,4399.487305,,,,,,,,,,,,,,,,,,,,,,,,,,,,,,,,,,,,,,,,,,,,,,,,,,,,,,,,,,,,,,,,,,,,,,
1720417558,11,0,4349.358887,4323.846191,4316.025879,4332.820313,4252.820313,4290.897461,4276.922852,4279.358887,4278.205078,4268.205078,4440.512695,4482.820313,4353.974121,4403.974121,,,,,,,,,,,,,,,,,,,,,,,,,,,,,,,,,,,,,,,,,,,,,,,,,,,,,,,,,,,,,,,,,,,,,,
1720417558,12,0,4336.666504,4318.589844,4307.94873,4326.922852,4251.025879,4295.128418,4282.94873,4278.974121,4278.333496,4275,4428.333496,4465.897461,4339.230957,4390.641113,,,,,,,,,,,,,,,,,,,,,,,,,,,,,,,,,,,,,,,,,,,,,,,,,,,,,,,,,,,,,,,,,,,,,,
1720417558,13,0,4339.615234,4308.205078,4306.538574,4323.077148,4252.563965,4295.769043,4294.230957,4288.589844,4286.922852,4283.589844,4428.461426,4464.743652,4335.384766,4381.410156,,,,,,,,,,,,,,,,,,,,,,,,,,,,,,,,,,,,,,,,,,,,,,,,,,,,,,,,,,,,,,,,,,,,,,
1720417558,14,0,4343.846191,4309.358887,4301.538574,4324.871582,4251.153809,4294.230957,4288.846191,4281.410156,4287.820313,4281.666504,4447.307617,4468.077148,4351.282227,4377.436035,,,,,,,,,,,,,,,,,,,,,,,,,,,,,,,,,,,,,,,,,,,,,,,,,,,,,,,,,,,,,,,,,,,,,,
1720417558,15,0,4338.846191,4310.641113,4294.871582,4312.436035,4246.025879,4293.717773,4287.563965,4276.025879,4283.461426,4278.974121,4447.307617,4461.153809,4360.641113,4382.436035,,,,,,,,,,,,,,,,,,,,,,,,,,,,,,,,,,,,,,,,,,,,,,,,,,,,,,,,,,,,,,,,,,,,,,
1720417558,16,0,4335.256348,4302.94873,4292.179688,4307.05127,4248.589844,4297.05127,4291.410156,4280.897461,4290.769043,4282.563965,4428.077148,4456.282227,4350.256348,4375.769043,,,,,,,,,,,,,,,,,,,,,,,,,,,,,,,,,,,,,,,,,,,,,,,,,,,,,,,,,,,,,,,,,,,,,,
1720417558,17,0,4327.692383,4292.307617,4280.641113,4314.358887,4249.743652,4296.794922,4288.333496,4281.282227,4298.205078,4287.179688,4420.512695,4447.94873,4338.846191,4357.692383,,,,,,,,,,,,,,,,,,,,,,,,,,,,,,,,,,,,,,,,,,,,,,,,,,,,,,,,,,,,,,,,,,,,,,
1720417558,18,0,4316.794922,4291.538574,4269.743652,4307.436035,4243.717773,4289.487305,4288.589844,4283.589844,4290,4278.589844,4412.179688,4436.153809,4328.974121,4354.487305,,,,,,,,,,,,,,,,,,,,,,,,,,,,,,,,,,,,,,,,,,,,,,,,,,,,,,,,,,,,,,,,,,,,,,
1720417558,19,0,4323.974121,4300.641113,4279.743652,4296.794922,4246.794922,4287.94873,4289.102539,4287.307617,4287.436035,4267.563965,4405.512695,4439.487305,4319.871582,4363.846191,,,,,,,,,,,,,,,,,,,,,,,,,,,,,,,,,,,,,,,,,,,,,,,,,,,,,,,,,,,,,,,,,,,,,,
1720417558,20,0,4342.692383,4313.589844,4295.128418,4315.769043,4251.153809,4292.820313,4285.769043,4284.358887,4294.102539,4271.538574,4419.871582,4448.461426,4326.282227,4366.794922,,,,,,,,,,,,,,,,,,,,,,,,,,,,,,,,,,,,,,,,,,,,,,,,,,,,,,,,,,,,,,,,,,,,,,
1720417558,21,0,4354.230957,4327.307617,4306.538574,4339.230957,4252.307617,4293.589844,4293.077148,4288.717773,4288.077148,4273.205078,4428.846191,4461.538574,4341.410156,4373.205078,,,,,,,,,,,,,,,,,,,,,,,,,,,,,,,,,,,,,,,,,,,,,,,,,,,,,,,,,,,,,,,,,,,,,,
1720417558,22,0,4354.487305,4323.974121,4313.333496,4327.307617,4267.692383,4291.666504,4296.538574,4286.282227,4277.94873,4265.512695,4423.974121,4474.871582,4344.871582,4376.922852,,,,,,,,,,,,,,,,,,,,,,,,,,,,,,,,,,,,,,,,,,,,,,,,,,,,,,,,,,,,,,,,,,,,,,
1720417558,23,0,4348.077148,4305.384766,4308.077148,4305,4279.102539,4292.436035,4297.179688,4279.230957,4277.563965,4263.846191,4425.128418,4475.512695,4339.487305,4375.256348,,,,,,,,,,,,,,,,,,,,,,,,,,,,,,,,,,,,,,,,,,,,,,,,,,,,,,,,,,,,,,,,,,,,,,
1720417558,24,0,4347.820313,4308.846191,4302.307617,4310.512695,4270.641113,4293.717773,4300.641113,4284.487305,4279.230957,4265,4431.794922,4469.743652,4338.717773,4374.615234,3.840672,1.170251,1.32036,1.26239,0.855065,1.264118,0.697666,0.823669,0.557297,0.637703,0.886442,1.043703,1.198719,0.966726,0.419978,0.757179,0.486974,0.743801,0.504781,0.656699,0.591073,0.380395,0.298829,0.211608,0.149053,0.256748,0.639261,0.141769,0.129392,0.164705,1.473895,1.542137,1.065885,0.324541,0.395368,0.259736,1.24405,0.408165,0.236528,0.177652,1.324669,3.600536,1.605425,1.251599,0.316493,0.908698,1.640568,1.545973,1.232927,0.556714,1.591679,1.859634,2.565608,2.20139,1.781995,1.566286,2.69797,2.651022,1.238569,0.548663,2.166237,1.52882,1.3979,0.956296,0.481179,1.856936,1.768566,1.71694,1.7375,0.9747
1720417558,25,0,4343.974121,4315.897461,4294.743652,4316.922852,4263.974121,4292.94873,4297.436035,4283.717773,4278.077148,4261.282227,4432.05127,4456.153809,4335.384766,4351.538574,,,,,,,,,,,,,,,,,,,,,,,,,,,,,,,,,,,,,,,,,,,,,,,,,,,,,,,,,,,,,,,,,,,,,,
1720417558,26,0,4322.820313,4295.512695,4279.615234,4298.974121,4264.102539,4291.794922,4298.717773,4280.641113,4278.205078,4268.333496,4424.358887,4441.666504,4326.538574,4335.256348,,,,,,,,,,,,,,,,,,,,,,,,,,,,,,,,,,,,,,,,,,,,,,,,,,,,,,,,,,,,,,,,,,,,,,
1720417558,27,0,4315.128418,4289.102539,4280.641113,4295.384766,4262.820313,4293.333496,4302.563965,4282.94873,4280.128418,4280.384766,4411.410156,4443.974121,4326.922852,4360.512695,,,,,,,,,,,,,,,,,,,,,,,,,,,,,,,,,,,,,,,,,,,,,,,,,,,,,,,,,,,,,,,,,,,,,,
1720417558,28,0,4336.538574,4306.794922,4298.974121,4307.563965,4265.384766,4294.871582,4305,4285.128418,4280.256348,4272.05127,4411.538574,4462.307617,4335.128418,4388.205078,,,,,,,,,,,,,,,,,,,,,,,,,,,,,,,,,,,,,,,,,,,,,,,,,,,,,,,,,,,,,,,,,,,,,,
1720417558,29,0,4345.512695,4307.692383,4302.307617,4305.512695,4265.128418,4292.94873,4306.794922,4285.256348,4284.615234,4264.743652,4429.743652,4468.333496,4334.871582,4379.230957,,,,,,,,,,,,,,,,,,,,,,,,,,,,,,,,,,,,,,,,,,,,,,,,,,,,,,,,,,,,,,,,,,,,,,
1720417558,30,0,4336.025879,4300.256348,4296.666504,4302.436035,4263.205078,4290.769043,4307.436035,4286.666504,4292.436035,4275.256348,4431.282227,4457.307617,4331.922852,4356.410156,,,,,,,,,,,,,,,,,,,,,,,,,,,,,,,,,,,,,,,,,,,,,,,,,,,,,,,,,,,,,,,,,,,,,,
1720417558,31,0,4332.436035,4310.256348,4293.205078,4306.666504,4270.128418,4290.641113,4309.871582,4288.974121,4296.025879,4283.717773,4421.025879,4455.384766,4341.153809,4351.794922,,,,,,,,,,,,,,,,,,,,,,,,,,,,,,,,,,,,,,,,,,,,,,,,,,,,,,,,,,,,,,,,,,,,,,
1720417558,32,0,4331.794922,4318.077148,4285.128418,4298.461426,4279.743652,4292.307617,4312.05127,4289.487305,4295,4279.102539,4434.358887,4461.666504,4346.025879,4368.333496,,,,,,,,,,,,,,,,,,,,,,,,,,,,,,,,,,,,,,,,,,,,,,,,,,,,,,,,,,,,,,,,,,,,,,
1720417558,33,0,4333.461426,4312.94873,4286.794922,4289.615234,4283.846191,4291.922852,4308.461426,4288.974121,4290.769043,4273.205078,4441.794922,4467.563965,4339.358887,4378.461426,,,,,,,,,,,,,,,,,,,,,,,,,,,,,,,,,,,,,,,,,,,,,,,,,,,,,,,,,,,,,,,,,,,,,,
1720417558,34,0,4338.974121,4314.102539,4291.025879,4293.974121,4293.589844,4285.897461,4304.743652,4289.615234,4285,4274.615234,4426.025879,4470.897461,4343.205078,4363.717773,,,,,,,,,,,,,,,,,,,,,,,,,,,,,,,,,,,,,,,,,,,,,,,,,,,,,,,,,,,,,,,,,,,,,,
1720417558,35,0,4337.820313,4315.769043,4281.538574,4294.487305,4313.974121,4284.743652,4311.410156,4297.436035,4282.820313,4280.384766,4432.692383,4474.871582,4352.179688,4360.897461,,,,,,,,,,,,,,,,,,,,,,,,,,,,,,,,,,,,,,,,,,,,,,,,,,,,,,,,,,,,,,,,,,,,,,
1720417558,36,0,4328.205078,4307.563965,4278.589844,4292.307617,4332.436035,4291.538574,4308.589844,4292.05127,4281.282227,4278.974121,4452.563965,4470.641113,4351.153809,4365.897461,,,,,,,,,,,,,,,,,,,,,,,,,,,,,,,,,,,,,,,,,,,,,,,,,,,,,,,,,,,,,,,,,,,,,,
1720417558,37,0,4325.384766,4308.974121,4285.128418,4296.666504,4339.871582,4293.717773,4304.487305,4283.717773,4277.563965,4273.846191,4437.436035,4464.871582,4345,4365.769043,,,,,,,,,,,,,,,,,,,,,,,,,,,,,,,,,,,,,,,,,,,,,,,,,,,,,,,,,,,,,,,,,,,,,,
1720417558,38,0,4329.743652,4316.922852,4280.128418,4294.358887,4337.179688,4294.102539,4311.922852,4294.102539,4276.794922,4274.358887,4414.743652,4466.153809,4338.846191,4374.487305,,,,,,,,,,,,,,,,,,,,,,,,,,,,,,,,,,,,,,,,,,,,,,,,,,,,,,,,,,,,,,,,,,,,,,
1720417558,39,0,4328.333496,4313.974121,4274.743652,4289.102539,4339.358887,4297.436035,4310.897461,4294.102539,4281.538574,4280.128418,4425.512695,4463.717773,4341.794922,4375.128418,,,,,,,,,,,,,,,,,,,,,,,,,,,,,,,,,,,,,,,,,,,,,,,,,,,,,,,,,,,,,,,,,,,,,,
1720417558,40,0,4326.153809,4310.897461,4288.717773,4298.717773,4341.153809,4290.641113,4307.820313,4289.358887,4283.846191,4279.358887,4443.846191,4469.358887,4352.563965,4368.333496,3.615267,1.244632,1.067813,1.218436,0.884064,1.095593,0.45175,0.718701,0.653739,0.645842,1.106402,0.976873,1.124936,0.915065,0.429948,0.832706,0.371191,0.750665,0.569214,0.722699,0.616953,0.338041,0.384235,0.18807,0.180103,0.280656,0.604393,0.153132,0.118124,0.153554,1.884612,1.897611,1.34728,0.369912,0.455112,0.194322,1.272739,0.39148,0.226047,0.181909,1.192256,3.552763,1.529089,1.138661,0.331906,0.684483,1.895602,1.451275,1.21099,0.617471,1.545477,2.279806,2.450057,2.260552,1.69818,1.714917,2.760642,2.521163,1.271819,0.579515,2.004564,1.777059,1.347961,1.059941,0.487459,1.919262,1.701953,1.528666,1.627144,0.99175
1720417558,41,0,4325.897461,4318.974121,4293.333496,4304.102539,4331.666504,4277.436035,4306.794922,4290.384766,4277.692383,4265.897461,4440,4477.436035,4350.128418,4371.282227,,,,,,,,,,,,,,,,,,,,,,,,,,,,,,,,,,,,,,,,,,,,,,,,,,,,,,,,,,,,,,,,,,,,,,
1720417558,42,0,4329.102539,4319.743652,4285.769043,4293.077148,4325.256348,4280.897461,4305.897461,4289.102539,4276.538574,4260.769043,4432.820313,4475.384766,4341.282227,4376.666504,,,,,,,,,,,,,,,,,,,,,,,,,,,,,,,,,,,,,,,,,,,,,,,,,,,,,,,,,,,,,,,,,,,,,,
1720417558,43,0,4335.512695,4312.307617,4287.179688,4285.512695,4327.436035,4287.05127,4310.897461,4292.820313,4283.717773,4275.256348,4437.307617,4472.692383,4347.436035,4373.333496,,,,,,,,,,,,,,,,,,,,,,,,,,,,,,,,,,,,,,,,,,,,,,,,,,,,,,,,,,,,,,,,,,,,,,
1720417558,44,0,4332.179688,4308.717773,4284.358887,4285.512695,4325.897461,4280.384766,4310.897461,4292.436035,4276.922852,4276.666504,4428.974121,4470.128418,4344.743652,4362.94873,,,,,,,,,,,,,,,,,,,,,,,,,,,,,,,,,,,,,,,,,,,,,,,,,,,,,,,,,,,,,,,,,,,,,,
1720417558,45,0,4319.615234,4306.025879,4276.922852,4287.436035,4317.692383,4277.307617,4304.102539,4285.769043,4261.025879,4258.974121,4401.282227,4463.589844,4326.922852,4351.410156,,,,,,,,,,,,,,,,,,,,,,,,,,,,,,,,,,,,,,,,,,,,,,,,,,,,,,,,,,,,,,,,,,,,,,
1720417558,46,0,4318.717773,4307.436035,4280.512695,4292.436035,4317.94873,4279.615234,4310.769043,4292.05127,4269.615234,4266.666504,4407.692383,4465.897461,4331.282227,4359.871582,,,,,,,,,,,,,,,,,,,,,,,,,,,,,,,,,,,,,,,,,,,,,,,,,,,,,,,,,,,,,,,,,,,,,,
1720417558,47,0,4328.974121,4310.641113,4289.358887,4297.307617,4325.384766,4279.487305,4314.743652,4301.666504,4292.436035,4280.256348,4452.436035,4479.230957,4348.717773,4380.256348,,,,,,,,,,,,,,,,,,,,,,,,,,,,,,,,,,,,,,,,,,,,,,,,,,,,,,,,,,,,,,,,,,,,,,
1720417558,48,0,4328.846191,4310,4290.769043,4292.94873,4328.717773,4284.487305,4295.128418,4294.487305,4292.179688,4267.692383,4455.384766,4486.025879,4346.282227,4381.153809,,,,,,,,,,,,,,,,,,,,,,,,,,,,,,,,,,,,,,,,,,,,,,,,,,,,,,,,,,,,,,,,,,,,,,
1720417558,49,0,4318.205078,4310,4288.205078,4288.846191,4326.410156,4289.743652,4289.230957,4292.94873,4280.384766,4267.436035,4421.025879,4487.05127,4336.794922,4382.307617,,,,,,,,,,,,,,,,,,,,,,,,,,,,,,,,,,,,,,,,,,,,,,,,,,,,,,,,,,,,,,,,,,,,,,
1720417558,50,0,4305.769043,4306.538574,4286.282227,4288.461426,4322.692383,4282.307617,4294.230957,4294.871582,4279.871582,4278.846191,4424.871582,4487.179688,4339.487305,4388.461426,,,,,,,,,,,,,,,,,,,,,,,,,,,,,,,,,,,,,,,,,,,,,,,,,,,,,,,,,,,,,,,,,,,,,,
1720417558,51,0,4303.333496,4304.615234,4294.230957,4291.922852,4326.538574,4277.179688,4294.230957,4289.743652,4281.410156,4277.94873,4452.820313,4488.717773,4349.102539,4388.846191,,,,,,,,,,,,,,,,,,,,,,,,,,,,,,,,,,,,,,,,,,,,,,,,,,,,,,,,,,,,,,,,,,,,,,
1720417558,52,0,4305.384766,4313.205078,4299.102539,4299.102539,4330,4287.94873,4300,4291.538574,4277.179688,4272.692383,4441.922852,4483.717773,4348.846191,4386.794922,,,,,,,,,,,,,,,,,,,,,,,,,,,,,,,,,,,,,,,,,,,,,,,,,,,,,,,,,,,,,,,,,,,,,,
1720417558,53,0,4296.410156,4318.974121,4283.974121,4295.769043,4327.563965,4292.436035,4300.897461,4289.871582,4275,4270.641113,4416.538574,4472.563965,4339.871582,4378.461426,,,,,,,,,,,,,,,,,,,,,,,,,,,,,,,,,,,,,,,,,,,,,,,,,,,,,,,,,,,,,,,,,,,,,,
1720417558,54,0,4290.256348,4312.179688,4278.974121,4294.871582,4323.717773,4285.512695,4300.128418,4288.205078,4279.230957,4270.384766,4425,4476.922852,4338.846191,4373.333496,,,,,,,,,,,,,,,,,,,,,,,,,,,,,,,,,,,,,,,,,,,,,,,,,,,,,,,,,,,,,,,,,,,,,,
1720417558,55,0,4292.563965,4303.717773,4286.538574,4301.153809,4322.692383,4283.205078,4302.692383,4291.538574,4282.820313,4271.153809,4434.358887,4483.077148,4345.256348,4373.974121,,,,,,,,,,,,,,,,,,,,,,,,,,,,,,,,,,,,,,,,,,,,,,,,,,,,,,,,,,,,,,,,,,,,,,
1720417558,56,0,4288.077148,4297.179688,4274.358887,4297.179688,4318.846191,4284.871582,4302.563965,4289.871582,4279.487305,4264.871582,4421.666504,4472.307617,4339.871582,4368.461426,3.719663,1.6082,0.847587,1.109338,0.899898,0.957905,0.354515,0.741493,0.736977,0.637006,1.37762,1.111039,1.086239,0.817862,0.44337,0.90318,0.319078,0.724893,0.628063,0.779983,0.777954,0.294246,0.46974,0.168129,0.213807,0.330042,0.575795,0.17951,0.113486,0.140871,2.240349,2.213709,1.667294,0.418282,0.509048,0.12907,1.198945,0.364178,0.202944,0.183568,1.01495,3.287952,1.389264,0.940536,0.335822,0.513784,2.124429,1.446234,1.112007,0.649895,1.497906,2.636043,2.274195,2.22269,1.544988,1.874895,2.920698,2.359128,1.270533,0.578486,1.87323,2.016555,1.313025,1.148903,0.484681,1.948724,1.777858,1.31509,1.513394,1.016515
1720417558,57,0,4282.563965,4290,4262.436035,4282.05127,4309.102539,4279.615234,4301.153809,4287.820313,4275.769043,4258.589844,4413.333496,4463.846191,4329.102539,4363.333496,,,,,,,,,,,,,,,,,,,,,,,,,,,,,,,,,,,,,,,,,,,,,,,,,,,,,,,,,,,,,,,,,,,,,,
1720417558,58,0,4287.307617,4285.897461,4267.05127,4271.922852,4302.692383,4274.230957,4299.230957,4285.384766,4276.410156,4259.743652,4409.230957,4464.358887,4325,4369.230957,,,,,,,,,,,,,,,,,,,,,,,,,,,,,,,,,,,,,,,,,,,,,,,,,,,,,,,,,,,,,,,,,,,,,,
1720417559,59,0,4299.102539,4300.128418,4276.282227,4288.205078,4311.538574,4280.512695,4299.230957,4286.666504,4280.256348,4264.230957,4413.077148,4468.717773,4326.410156,4379.487305,,,,,,,,,,,,,,,,,,,,,,,,,,,,,,,,,,,,,,,,,,,,,,,,,,,,,,,,,,,,,,,,,,,,,,
1720417559,60,0,4302.179688,4314.230957,4282.307617,4306.666504,4322.820313,4285.512695,4301.538574,4290.256348,4280.512695,4273.461426,4426.666504,4473.974121,4332.436035,4390.128418,,,,,,,,,,,,,,,,,,,,,,,,,,,,,,,,,,,,,,,,,,,,,,,,,,,,,,,,,,,,,,,,,,,,,,
1720417559,61,0,4291.794922,4293.974121,4279.743652,4299.743652,4320.769043,4279.102539,4301.666504,4282.436035,4271.666504,4272.94873,4431.410156,4468.846191,4338.205078,4392.692383,,,,,,,,,,,,,,,,,,,,,,,,,,,,,,,,,,,,,,,,,,,,,,,,,,,,,,,,,,,,,,,,,,,,,,
1720417559,62,0,4292.436035,4269.487305,4277.05127,4290.128418,4316.538574,4274.871582,4300.384766,4275.512695,4266.538574,4260.512695,4429.230957,4461.666504,4342.179688,4381.794922,,,,,,,,,,,,,,,,,,,,,,,,,,,,,,,,,,,,,,,,,,,,,,,,,,,,,,,,,,,,,,,,,,,,,,
1720417559,63,0,4309.871582,4282.563965,4284.615234,4296.538574,4315.256348,4278.077148,4308.461426,4286.538574,4271.794922,4265.512695,4426.025879,4470,4344.358887,4388.846191,,,,,,,,,,,,,,,,,,,,,,,,,,,,,,,,,,,,,,,,,,,,,,,,,,,,,,,,,,,,,,,,,,,,,,
1720417559,64,0,4311.922852,4304.743652,4291.538574,4303.333496,4311.025879,4283.205078,4307.307617,4290,4277.307617,4281.922852,4419.102539,4474.743652,4343.717773,4396.410156,,,,,,,,,,,,,,,,,,,,,,,,,,,,,,,,,,,,,,,,,,,,,,,,,,,,,,,,,,,,,,,,,,,,,,
1720417559,65,0,4295.512695,4294.358887,4291.794922,4304.230957,4313.974121,4290.512695,4301.666504,4283.077148,4278.461426,4280.769043,4418.461426,4468.974121,4343.461426,4374.487305,,,,,,,,,,,,,,,,,,,,,,,,,,,,,,,,,,,,,,,,,,,,,,,,,,,,,,,,,,,,,,,,,,,,,,
1720417559,66,0,4300.384766,4276.666504,4295.897461,4309.102539,4318.461426,4295.128418,4312.179688,4295.128418,4277.05127,4264.487305,4432.94873,4476.025879,4347.436035,4372.563965,,,,,,,,,,,,,,,,,,,,,,,,,,,,,,,,,,,,,,,,,,,,,,,,,,,,,,,,,,,,,,,,,,,,,,
1720417559,67,0,4322.692383,4287.05127,4297.436035,4315.512695,4317.179688,4295.512695,4310.641113,4298.974121,4278.333496,4264.743652,4433.717773,4478.205078,4347.179688,4395.384766,,,,,,,,,,,,,,,,,,,,,,,,,,,,,,,,,,,,,,,,,,,,,,,,,,,,,,,,,,,,,,,,,,,,,,
1720417559,68,0,4315.256348,4297.05127,4283.461426,4309.487305,4316.538574,4292.307617,4304.358887,4288.205078,4276.794922,4277.820313,4410.897461,4461.922852,4335.641113,4388.717773,,,,,,,,,,,,,,,,,,,,,,,,,,,,,,,,,,,,,,,,,,,,,,,,,,,,,,,,,,,,,,,,,,,,,,
1720417559,69,0,4290.512695,4282.307617,4273.205078,4294.743652,4312.692383,4286.922852,4309.102539,4290.512695,4270.512695,4272.820313,4399.871582,4453.589844,4327.179688,4363.461426,,,,,,,,,,,,,,,,,,,,,,,,,,,,,,,,,,,,,,,,,,,,,,,,,,,,,,,,,,,,,,,,,,,,,,
1720417559,70,0,4285.897461,4273.333496,4277.563965,4288.846191,4310.128418,4286.794922,4306.025879,4292.436035,4271.922852,4265.641113,4411.538574,4457.179688,4327.05127,4360.512695,,,,,,,,,,,,,,,,,,,,,,,,,,,,,,,,,,,,,,,,,,,,,,,,,,,,,,,,,,,,,,,,,,,,,,
1720417559,71,0,4295.256348,4277.436035,4282.692383,4296.410156,4317.179688,4287.179688,4302.179688,4290.256348,4280.641113,4274.230957,4419.487305,4460.512695,4327.692383,4374.615234,,,,,,,,,,,,,,,,,,,,,,,,,,,,,,,,,,,,,,,,,,,,,,,,,,,,,,,,,,,,,,,,,,,,,,
1720417559,72,0,4291.410156,4266.666504,4277.307617,4291.922852,4315.384766,4282.820313,4306.282227,4292.05127,4278.717773,4271.025879,4411.922852,4462.94873,4325.769043,4374.230957,3.948467,2.1831,0.721037,0.960333,0.890833,0.932483,0.396485,0.886502,0.783339,0.617791,1.667318,1.474695,1.161292,0.702178,0.455864,0.980556,0.325113,0.694213,0.674216,0.818954,1.133576,0.301934,0.54253,0.153163,0.239977,0.389521,0.561305,0.214305,0.117869,0.128089,2.455466,2.378476,1.90457,0.447396,0.538661,0.077839,1.036404,0.324086,0.171754,0.181394,0.854116,2.831176,1.19691,0.719125,0.328036,0.422099,2.229262,1.493875,0.959358,0.642498,1.486014,2.89306,2.080655,2.066738,1.355079,2.051307,3.222539,2.270467,1.239207,0.541072,1.757401,2.121866,1.269546,1.198522,0.464168,1.933487,1.981605,1.15535,1.433544,1.041719
1720417559,73,0,4286.538574,4261.153809,4277.436035,4285.512695,4303.333496,4285,4305.512695,4292.05127,4275.512695,4267.692383,4414.743652,4468.333496,4325.769043,4364.102539,,,,,,,,,,,,,,,,,,,,,,,,,,,,,,,,,,,,,,,,,,,,,,,,,,,,,,,,,,,,,,,,,,,,,,
1720417559,74,0,4295.512695,4275.384766,4287.05127,4295.512695,4305.769043,4295.769043,4307.436035,4294.230957,4282.820313,4280.512695,4420.384766,4472.94873,4326.282227,4370.256348,,,,,,,,,,,,,,,,,,,,,,,,,,,,,,,,,,,,,,,,,,,,,,,,,,,,,,,,,,,,,,,,,,,,,,
1720417559,75,0,4299.102539,4281.153809,4285,4296.538574,4313.589844,4296.025879,4316.666504,4298.589844,4282.179688,4275.897461,4415,4470.641113,4326.410156,4377.692383,,,,,,,,,,,,,,,,,,,,,,,,,,,,,,,,,,,,,,,,,,,,,,,,,,,,,,,,,,,,,,,,,,,,,,
1720417559,76,0,4299.743652,4277.563965,4274.871582,4289.743652,4308.077148,4290.897461,4308.717773,4290.769043,4275.512695,4264.871582,4415.256348,4464.487305,4331.282227,4361.666504,,,,,,,,,,,,,,,,,,,,,,,,,,,,,,,,,,,,,,,,,,,,,,,,,,,,,,,,,,,,,,,,,,,,,,
1720417559,77,0,4304.358887,4271.025879,4274.743652,4285.897461,4306.410156,4293.589844,4303.846191,4287.436035,4274.871582,4270.384766,4413.461426,4466.025879,4332.563965,4353.461426,,,,,,,,,,,,,,,,,,,,,,,,,,,,,,,,,,,,,,,,,,,,,,,,,,,,,,,,,,,,,,,,,,,,,,
1720417559,78,0,4306.410156,4262.820313,4280.512695,4282.179688,4312.563965,4289.871582,4310.256348,4294.871582,4276.410156,4270.641113,4412.563965,4468.717773,4326.794922,4364.102539,,,,,,,,,,,,,,,,,,,,,,,,,,,,,,,,,,,,,,,,,,,,,,,,,,,,,,,,,,,,,,,,,,,,,,
1720417559,79,0,4300.256348,4266.538574,4277.94873,4282.692383,4303.974121,4281.922852,4309.102539,4293.077148,4279.358887,4264.615234,4418.974121,4459.743652,4327.436035,4366.153809,,,,,,,,,,,,,,,,,,,,,,,,,,,,,,,,,,,,,,,,,,,,,,,,,,,,,,,,,,,,,,,,,,,,,,
1720417559,80,0,4300.769043,4279.871582,4275.512695,4291.538574,4288.205078,4288.205078,4310.384766,4295.384766,4279.743652,4273.846191,4421.794922,4458.461426,4331.922852,4367.94873,,,,,,,,,,,,,,,,,,,,,,,,,,,,,,,,,,,,,,,,,,,,,,,,,,,,,,,,,,,,,,,,,,,,,,
1720417559,81,0,4309.358887,4281.922852,4281.794922,4297.820313,4291.410156,4298.333496,4310.128418,4297.307617,4281.794922,4283.717773,4417.692383,4468.333496,4331.410156,4377.436035,,,,,,,,,,,,,,,,,,,,,,,,,,,,,,,,,,,,,,,,,,,,,,,,,,,,,,,,,,,,,,,,,,,,,,
1720417559,82,0,4305.384766,4268.333496,4278.333496,4284.358887,4292.05127,4286.153809,4308.589844,4290.769043,4278.717773,4275.256348,4410,4461.410156,4324.230957,4374.487305,,,,,,,,,,,,,,,,,,,,,,,,,,,,,,,,,,,,,,,,,,,,,,,,,,,,,,,,,,,,,,,,,,,,,,
1720417559,83,0,4293.974121,4261.153809,4264.871582,4264.871582,4277.94873,4277.436035,4308.461426,4287.179688,4268.333496,4263.717773,4405.128418,4442.692383,4316.666504,4357.820313,,,,,,,,,,,,,,,,,,,,,,,,,,,,,,,,,,,,,,,,,,,,,,,,,,,,,,,,,,,,,,,,,,,,,,
1720417559,84,0,4290.128418,4265.128418,4260.256348,4261.282227,4281.025879,4290.256348,4305.256348,4286.794922,4266.922852,4262.307617,4405.897461,4438.974121,4316.153809,4350.128418,,,,,,,,,,,,,,,,,,,,,,,,,,,,,,,,,,,,,,,,,,,,,,,,,,,,,,,,,,,,,,,,,,,,,,
1720417559,85,0,4301.538574,4266.282227,4270.512695,4277.05127,4296.153809,4298.077148,4309.102539,4288.205078,4278.974121,4268.717773,4416.153809,4454.102539,4326.025879,4357.94873,,,,,,,,,,,,,,,,,,,,,,,,,,,,,,,,,,,,,,,,,,,,,,,,,,,,,,,,,,,,,,,,,,,,,,
1720417559,86,0,4331.153809,4265.769043,4286.282227,4284.358887,4295.897461,4301.666504,4314.871582,4292.307617,4288.589844,4270.897461,4431.025879,4468.461426,4337.307617,4374.358887,,,,,,,,,,,,,,,,,,,,,,,,,,,,,,,,,,,,,,,,,,,,,,,,,,,,,,,,,,,,,,,,,,,,,,
1720417559,87,0,4365.256348,4270,4294.230957,4275.384766,4293.717773,4304.615234,4315,4294.871582,4288.589844,4273.461426,4426.025879,4471.538574,4338.205078,4386.410156,,,,,,,,,,,,,,,,,,,,,,,,,,,,,,,,,,,,,,,,,,,,,,,,,,,,,,,,,,,,,,,,,,,,,,
1720417559,88,0,4383.205078,4280.256348,4293.589844,4279.615234,4300.769043,4296.794922,4316.538574,4294.230957,4291.538574,4282.692383,4414.487305,4473.846191,4338.846191,4373.717773,4.172196,2.794399,0.706006,0.807708,0.849251,0.92199,0.542081,1.110309,0.78244,0.594328,1.923945,1.984666,1.387218,0.603823,0.462293,1.021182,0.377562,0.68707,0.700336,0.831139,1.742337,0.440982,0.594361,0.144771,0.250086,0.441372,0.568071,0.247736,0.131084,0.115588,2.439681,2.311512,1.948833,0.437734,0.528087,0.047895,0.823541,0.271211,0.138039,0.174556,0.749021,2.267555,0.976503,0.528846,0.310803,0.41501,2.184792,1.512843,0.785076,0.596703,1.510976,3.017509,1.919233,1.808894,1.179226,2.205046,3.601533,2.312351,1.195796,0.475029,1.640214,2.052325,1.225956,1.20274,0.428942,1.886808,2.217228,1.117283,1.397315,1.055979
1720417559,89,0,4380.384766,4285.897461,4299.230957,4290,4303.974121,4293.974121,4320,4293.589844,4290.256348,4283.846191,4428.205078,4479.358887,4342.179688,4363.846191,,,,,,,,,,,,,,,,,,,,,,,,,,,,,,,,,,,,,,,,,,,,,,,,,,,,,,,,,,,,,,,,,,,,,,
1720417559,90,0,4385.897461,4284.871582,4308.846191,4288.589844,4302.692383,4300.384766,4317.692383,4290.256348,4283.077148,4276.922852,4443.974121,4481.282227,4343.974121,4388.974121,,,,,,,,,,,,,,,,,,,,,,,,,,,,,,,,,,,,,,,,,,,,,,,,,,,,,,,,,,,,,,,,,,,,,,
1720417559,91,0,4393.333496,4282.692383,4304.743652,4286.282227,4301.153809,4297.307617,4322.307617,4292.94873,4283.846191,4277.563965,4437.692383,4478.333496,4347.94873,4411.794922,,,,,,,,,,,,,,,,,,,,,,,,,,,,,,,,,,,,,,,,,,,,,,,,,,,,,,,,,,,,,,,,,,,,,,
1720417559,92,0,4368.333496,4276.666504,4292.436035,4289.102539,4303.333496,4296.538574,4322.05127,4296.666504,4290.256348,4286.666504,4433.846191,4476.410156,4350,4395.769043,,,,,,,,,,,,,,,,,,,,,,,,,,,,,,,,,,,,,,,,,,,,,,,,,,,,,,,,,,,,,,,,,,,,,,
1720417559,93,0,4339.230957,4271.282227,4285.897461,4283.333496,4310.897461,4309.615234,4311.153809,4287.05127,4293.461426,4283.974121,4437.563965,4471.794922,4345.384766,4370,,,,,,,,,,,,,,,,,,,,,,,,,,,,,,,,,,,,,,,,,,,,,,,,,,,,,,,,,,,,,,,,,,,,,,
1720417559,94,0,4345.256348,4264.615234,4280.384766,4270.641113,4308.717773,4312.307617,4318.077148,4289.102539,4292.307617,4278.846191,4428.333496,4470,4339.358887,4373.333496,,,,,,,,,,,,,,,,,,,,,,,,,,,,,,,,,,,,,,,,,,,,,,,,,,,,,,,,,,,,,,,,,,,,,,
1720417559,95,0,4348.461426,4261.282227,4276.410156,4268.974121,4296.025879,4302.820313,4324.743652,4295.128418,4298.717773,4284.487305,4426.282227,4469.743652,4342.94873,4381.153809,,,,,,,,,,,,,,,,,,,,,,,,,,,,,,,,,,,,,,,,,,,,,,,,,,,,,,,,,,,,,,,,,,,,,,
1720417559,96,0,4334.487305,4266.153809,4280.897461,4276.410156,4294.615234,4297.692383,4317.563965,4289.743652,4304.743652,4287.179688,4437.05127,4463.077148,4345.769043,4370.897461,,,,,,,,,,,,,,,,,,,,,,,,,,,,,,,,,,,,,,,,,,,,,,,,,,,,,,,,,,,,,,,,,,,,,,
1720417559,97,0,4340.769043,4265.128418,4286.025879,4281.153809,4303.077148,4297.307617,4317.94873,4292.563965,4301.794922,4288.589844,4430.512695,4465.641113,4339.743652,4368.461426,,,,,,,,,,,,,,,,,,,,,,,,,,,,,,,,,,,,,,,,,,,,,,,,,,,,,,,,,,,,,,,,,,,,,,
1720417559,98,0,4351.538574,4262.692383,4281.410156,4278.333496,4300.769043,4296.153809,4320.641113,4294.487305,4300.128418,4291.282227,4412.563965,4470.384766,4335.641113,4373.333496,,,,,,,,,,,,,,,,,,,,,,,,,,,,,,,,,,,,,,,,,,,,,,,,,,,,,,,,,,,,,,,,,,,,,,
1720417559,99,0,4348.333496,4272.94873,4281.282227,4279.871582,4294.871582,4295.897461,4320,4289.615234,4303.077148,4294.871582,4418.333496,4470.256348,4339.615234,4373.846191,,,,,,,,,,,,,,,,,,,,,,,,,,,,,,,,,,,,,,,,,,,,,,,,,,,,,,,,,,,,,,,,,,,,,,
1720417559,100,0,4353.589844,4278.333496,4288.589844,4281.153809,4295.128418,4294.615234,4323.077148,4294.487305,4300.769043,4292.820313,4445.512695,4476.025879,4344.743652,4380.897461,,,,,,,,,,,,,,,,,,,,,,,,,,,,,,,,,,,,,,,,,,,,,,,,,,,,,,,,,,,,,,,,,,,,,,
1720417559,101,0,4358.846191,4263.461426,4289.230957,4275.641113,4292.820313,4295.256348,4324.743652,4297.563965,4294.230957,4284.615234,4449.615234,4481.538574,4343.461426,4387.563965,,,,,,,,,,,,,,,,,,,,,,,,,,,,,,,,,,,,,,,,,,,,,,,,,,,,,,,,,,,,,,,,,,,,,,
1720417559,102,0,4362.820313,4260.641113,4293.461426,4286.282227,4296.410156,4298.077148,4323.717773,4292.692383,4295.897461,4286.025879,4436.666504,4479.615234,4342.436035,4386.153809,,,,,,,,,,,,,,,,,,,,,,,,,,,,,,,,,,,,,,,,,,,,,,,,,,,,,,,,,,,,,,,,,,,,,,
1720417559,103,0,4377.820313,4269.358887,4298.846191,4290.897461,4303.589844,4295.641113,4327.692383,4296.538574,4289.871582,4290.128418,4427.307617,4471.538574,4340.128418,4380.512695,,,,,,,,,,,,,,,,,,,,,,,,,,,,,,,,,,,,,,,,,,,,,,,,,,,,,,,,,,,,,,,,,,,,,,
1720417559,104,0,4380.769043,4263.974121,4289.230957,4271.538574,4299.871582,4295.641113,4323.205078,4295,4275.256348,4284.743652,4413.461426,4464.871582,4333.461426,4372.436035,4.155732,3.247616,0.758561,0.678487,0.77953,0.896026,0.738246,1.340306,0.744758,0.571777,2.072636,2.483766,1.715019,0.542487,0.457619,1.034732,0.46188,0.714942,0.702297,0.811726,2.561386,0.75308,0.619503,0.146128,0.241707,0.474532,0.596505,0.272775,0.151358,0.104088,2.183266,2.007091,1.758054,0.383553,0.473607,0.039709,0.608603,0.210606,0.106688,0.164015,0.70051,1.702896,0.75143,0.39639,0.287821,0.469867,2.035512,1.43256,0.613626,0.527902,1.500726,3.007901,1.80947,1.50267,1.06331,2.245749,3.921213,2.445427,1.149429,0.396691,1.524402,1.85175,1.183353,1.159887,0.388286,1.75755,2.369362,1.210707,1.380917,1.049242
1720417559,105,0,4370.897461,4257.820313,4292.05127,4271.282227,4291.538574,4303.974121,4323.589844,4292.820313,4281.025879,4284.230957,4425.512695,4476.538574,4336.538574,4382.05127,,,,,,,,,,,,,,,,,,,,,,,,,,,,,,,,,,,,,,,,,,,,,,,,,,,,,,,,,,,,,,,,,,,,,,
1720417559,106,0,4375.256348,4266.410156,4308.846191,4286.410156,4290,4304.102539,4331.666504,4302.307617,4296.025879,4293.077148,4459.871582,4491.666504,4344.358887,4398.589844,,,,,,,,,,,,,,,,,,,,,,,,,,,,,,,,,,,,,,,,,,,,,,,,,,,,,,,,,,,,,,,,,,,,,,
1720417559,107,0,4380.641113,4274.358887,4303.717773,4283.333496,4292.436035,4297.692383,4326.666504,4299.871582,4297.436035,4301.538574,4468.846191,4487.179688,4345.256348,4391.282227,,,,,,,,,,,,,,,,,,,,,,,,,,,,,,,,,,,,,,,,,,,,,,,,,,,,,,,,,,,,,,,,,,,,,,
1720417559,108,0,4367.05127,4269.743652,4292.563965,4278.333496,4293.589844,4298.461426,4323.717773,4293.974121,4298.589844,4306.538574,4444.615234,4482.05127,4342.820313,4384.871582,,,,,,,,,,,,,,,,,,,,,,,,,,,,,,,,,,,,,,,,,,,,,,,,,,,,,,,,,,,,,,,,,,,,,,
1720417559,109,0,4353.589844,4260.512695,4295.384766,4276.282227,4295.641113,4304.358887,4324.230957,4292.563965,4303.589844,4300.897461,4422.692383,4476.153809,4340,4396.538574,,,,,,,,,,,,,,,,,,,,,,,,,,,,,,,,,,,,,,,,,,,,,,,,,,,,,,,,,,,,,,,,,,,,,,
1720417559,110,0,4355.641113,4253.846191,4295,4262.820313,4292.94873,4309.615234,4323.205078,4289.230957,4300.256348,4291.410156,4430.641113,4465.384766,4333.846191,4397.94873,,,,,,,,,,,,,,,,,,,,,,,,,,,,,,,,,,,,,,,,,,,,,,,,,,,,,,,,,,,,,,,,,,,,,,
1720417559,111,0,4354.102539,4251.025879,4290,4261.153809,4287.05127,4310.641113,4321.922852,4293.974121,4294.871582,4294.743652,4445.256348,4471.666504,4329.358887,4388.205078,,,,,,,,,,,,,,,,,,,,,,,,,,,,,,,,,,,,,,,,,,,,,,,,,,,,,,,,,,,,,,,,,,,,,,
1720417559,112,0,4348.461426,4245.384766,4285.512695,4260.897461,4288.846191,4306.025879,4321.538574,4296.794922,4296.153809,4298.205078,4439.358887,4479.615234,4330,4381.922852,,,,,,,,,,,,,,,,,,,,,,,,,,,,,,,,,,,,,,,,,,,,,,,,,,,,,,,,,,,,,,,,,,,,,,
1720417559,113,0,4357.563965,4242.692383,4289.615234,4253.717773,4293.205078,4305,4334.743652,4294.743652,4303.205078,4298.974121,4432.179688,4482.05127,4331.794922,4384.871582,,,,,,,,,,,,,,,,,,,,,,,,,,,,,,,,,,,,,,,,,,,,,,,,,,,,,,,,,,,,,,,,,,,,,,
1720417559,114,0,4372.94873,4258.205078,4307.05127,4270.384766,4291.538574,4307.94873,4353.333496,4299.615234,4313.077148,4312.05127,4447.820313,4494.358887,4339.230957,4396.794922,,,,,,,,,,,,,,,,,,,,,,,,,,,,,,,,,,,,,,,,,,,,,,,,,,,,,,,,,,,,,,,,,,,,,,
1720417559,115,0,4372.05127,4265.641113,4311.922852,4283.077148,4288.205078,4306.410156,4357.436035,4305.384766,4312.179688,4313.205078,4456.025879,4494.358887,4345.641113,4400.769043,,,,,,,,,,,,,,,,,,,,,,,,,,,,,,,,,,,,,,,,,,,,,,,,,,,,,,,,,,,,,,,,,,,,,,
1720417559,116,0,4353.333496,4254.743652,4296.025879,4266.666504,4289.102539,4302.820313,4351.410156,4302.05127,4300.384766,4298.333496,4438.077148,4477.179688,4336.410156,4393.589844,,,,,,,,,,,,,,,,,,,,,,,,,,,,,,,,,,,,,,,,,,,,,,,,,,,,,,,,,,,,,,,,,,,,,,
1720417559,117,0,4348.333496,4254.358887,4290.512695,4259.743652,4291.794922,4302.692383,4349.230957,4296.410156,4294.102539,4294.230957,4432.05127,4473.077148,4323.589844,4393.974121,,,,,,,,,,,,,,,,,,,,,,,,,,,,,,,,,,,,,,,,,,,,,,,,,,,,,,,,,,,,,,,,,,,,,,
1720417559,118,0,4366.153809,4260.512695,4302.563965,4268.333496,4296.794922,4306.410156,4347.436035,4293.077148,4294.615234,4293.205078,4440.256348,4480,4326.153809,4399.358887,,,,,,,,,,,,,,,,,,,,,,,,,,,,,,,,,,,,,,,,,,,,,,,,,,,,,,,,,,,,,,,,,,,,,,
1720417559,119,0,4377.436035,4250.512695,4314.102539,4265.897461,4296.922852,4310.897461,4353.333496,4297.692383,4295.769043,4293.717773,4438.717773,4487.820313,4335.128418,4402.307617,,,,,,,,,,,,,,,,,,,,,,,,,,,,,,,,,,,,,,,,,,,,,,,,,,,,,,,,,,,,,,,,,,,,,,
1720417559,120,0,4374.230957,4252.692383,4323.717773,4271.025879,4288.717773,4311.410156,4360.256348,4305.384766,4296.410156,4303.589844,4436.538574,4502.563965,4342.820313,4412.692383,3.980697,3.488488,0.835748,0.589245,0.698949,0.816204,0.937439,1.496704,0.696563,0.552042,2.087571,2.825718,2.030231,0.517612,0.439009,0.992302,0.569886,0.763339,0.687316,0.762253,3.480346,1.202401,0.615945,0.159182,0.219975,0.479436,0.634928,0.289859,0.176044,0.096139,1.759075,1.543664,1.384112,0.298207,0.386723,0.052624,0.428547,0.155275,0.081969,0.151868,0.675472,1.215429,0.558165,0.321688,0.262964,0.550779,1.828704,1.239232,0.462933,0.458815,1.398596,2.885928,1.734953,1.221725,1.02865,2.123302,4.056554,2.570041,1.101255,0.323731,1.395982,1.619696,1.130461,1.074159,0.3518,1.560192,2.373871,1.388841,1.352674,1.020145
1720417559,121,0,4376.538574,4275,4327.563965,4283.461426,4290.641113,4311.025879,4350.512695,4294.487305,4292.692383,4304.102539,4445.897461,4505.641113,4345.384766,4413.589844,,,,,,,,,,,,,,,,,,,,,,,,,,,,,,,,,,,,,,,,,,,,,,,,,,,,,,,,,,,,,,,,,,,,,,
1720417559,122,0,4386.410156,4276.282227,4326.922852,4278.974121,4297.94873,4311.282227,4350.769043,4291.282227,4287.820313,4291.538574,4448.717773,4502.563965,4338.717773,4405.641113,,,,,,,,,,,,,,,,,,,,,,,,,,,,,,,,,,,,,,,,,,,,,,,,,,,,,,,,,,,,,,,,,,,,,,
1720417559,123,0,4387.307617,4264.487305,4334.358887,4278.846191,4292.563965,4309.487305,4358.333496,4304.615234,4292.436035,4292.563965,4441.153809,4508.205078,4337.307617,4411.666504,,,,,,,,,,,,,,,,,,,,,,,,,,,,,,,,,,,,,,,,,,,,,,,,,,,,,,,,,,,,,,,,,,,,,,
1720417559,124,0,4378.333496,4264.102539,4337.307617,4287.307617,4281.153809,4309.230957,4352.307617,4304.871582,4303.589844,4298.077148,4447.692383,4507.179688,4345.384766,4415.897461,,,,,,,,,,,,,,,,,,,,,,,,,,,,,,,,,,,,,,,,,,,,,,,,,,,,,,,,,,,,,,,,,,,,,,
1720417559,125,0,4373.974121,4260.641113,4327.563965,4275.769043,4278.717773,4311.410156,4353.589844,4304.615234,4308.589844,4293.974121,4449.615234,4499.871582,4342.436035,4412.820313,,,,,,,,,,,,,,,,,,,,,,,,,,,,,,,,,,,,,,,,,,,,,,,,,,,,,,,,,,,,,,,,,,,,,,
1720417559,126,0,4371.794922,4248.974121,4320.384766,4259.615234,4284.743652,4315.512695,4358.333496,4303.717773,4310.641113,4300.897461,4426.794922,4489.743652,4329.615234,4407.436035,,,,,,,,,,,,,,,,,,,,,,,,,,,,,,,,,,,,,,,,,,,,,,,,,,,,,,,,,,,,,,,,,,,,,,
1720417559,127,0,4374.487305,4249.871582,4329.358887,4274.102539,4285,4320.384766,4355.897461,4299.871582,4313.846191,4308.589844,4414.487305,4491.538574,4329.871582,4401.538574,,,,,,,,,,,,,,,,,,,,,,,,,,,,,,,,,,,,,,,,,,,,,,,,,,,,,,,,,,,,,,,,,,,,,,
1720417559,0,0,4387.820313,4260.256348,4340.256348,4286.794922,4283.717773,4318.333496,4356.794922,4305,4309.743652,4293.846191,4429.743652,4507.94873,4336.922852,4404.615234,,,,,,,,,,,,,,,,,,,,,,,,,,,,,,,,,,,,,,,,,,,,,,,,,,,,,,,,,,,,,,,,,,,,,,
1720417559,1,0,4390.256348,4261.410156,4338.846191,4280.641113,4288.589844,4312.692383,4356.538574,4301.922852,4297.307617,4277.179688,4450,4512.692383,4339.743652,4418.846191,,,,,,,,,,,,,,,,,,,,,,,,,,,,,,,,,,,,,,,,,,,,,,,,,,,,,,,,,,,,,,,,,,,,,,
1720417559,2,0,4390.128418,4265.641113,4343.846191,4282.563965,4288.846191,4310.897461,4351.282227,4291.282227,4291.410156,4287.436035,4454.230957,4508.974121,4342.307617,4427.692383,,,,,,,,,,,,,,,,,,,,,,,,,,,,,,,,,,,,,,,,,,,,,,,,,,,,,,,,,,,,,,,,,,,,,,
1720417559,3,0,4396.282227,4264.487305,4347.307617,4272.05127,4277.05127,4309.871582,4354.615234,4297.436035,4292.179688,4299.230957,4438.077148,4511.153809,4337.179688,4420.769043,,,,,,,,,,,,,,,,,,,,,,,,,,,,,,,,,,,,,,,,,,,,,,,,,,,,,,,,,,,,,,,,,,,,,,
1720417559,4,0,4384.230957,4247.179688,4334.487305,4263.461426,4277.307617,4312.179688,4353.589844,4301.410156,4295.128418,4287.820313,4421.282227,4505.641113,4325.256348,4415.512695,,,,,,,,,,,,,,,,,,,,,,,,,,,,,,,,,,,,,,,,,,,,,,,,,,,,,,,,,,,,,,,,,,,,,,
1720417559,5,0,4371.410156,4242.436035,4331.538574,4300.512695,4293.717773,4319.871582,4348.333496,4295.256348,4304.230957,4284.102539,4420.512695,4496.410156,4326.282227,4422.436035,,,,,,,,,,,,,,,,,,,,,,,,,,,,,,,,,,,,,,,,,,,,,,,,,,,,,,,,,,,,,,,,,,,,,,
1720417559,6,0,4385.512695,4251.282227,4344.743652,4333.846191,4294.871582,4320.769043,4357.436035,4307.179688,4311.666504,4296.666504,4433.846191,4507.94873,4336.922852,4428.333496,,,,,,,,,,,,,,,,,,,,,,,,,,,,,,,,,,,,,,,,,,,,,,,,,,,,,,,,,,,,,,,,,,,,,,
1720417559,7,0,4390.512695,4251.153809,4343.717773,4315.256348,4287.563965,4315.384766,4358.717773,4311.153809,4308.205078,4296.538574,4438.077148,4511.794922,4332.436035,4418.974121,,,,,,,,,,,,,,,,,,,,,,,,,,,,,,,,,,,,,,,,,,,,,,,,,,,,,,,,,,,,,,,,,,,,,,
1720417559,8,0,4375.256348,4243.333496,4335.641113,4297.94873,4293.333496,4320.512695,4351.025879,4300.512695,4305.769043,4286.153809,4426.922852,4502.179688,4320.512695,4410,3.889498,3.696754,0.929793,0.544483,0.629642,0.702669,1.094602,1.524445,0.663798,0.535352,1.999643,2.940883,2.199398,0.514375,0.408009,0.907431,0.694373,0.800397,0.669071,0.692078,4.291928,1.677564,0.587613,0.182847,0.195393,0.469074,0.658473,0.303962,0.203059,0.095443,1.265538,1.040499,0.944114,0.209765,0.289946,0.083218,0.299541,0.118821,0.067685,0.140541,0.674527,0.855585,0.440945,0.291736,0.239074,0.627924,1.593328,0.976487,0.345673,0.408295,1.198361,2.676787,1.648582,1.031416,1.062735,1.846016,3.939983,2.555575,1.046082,0.268268,1.244858,1.450475,1.047223,0.951988,0.322938,1.344428,2.243601,1.567671,1.290311,0.976969
1720417559,9,0,4381.025879,4242.820313,4343.461426,4305.641113,4295.512695,4323.974121,4348.846191,4301.410156,4308.333496,4290.897461,4428.461426,4505.641113,4325.897461,4410.384766,,,,,,,,,,,,,,,,,,,,,,,,,,,,,,,,,,,,,,,,,,,,,,,,,,,,,,,,,,,,,,,,,,,,,,
1720417559,10,0,4400.512695,4257.05127,4353.205078,4315.128418,4280.384766,4318.077148,4350.641113,4305.897461,4311.025879,4302.820313,4449.871582,4514.230957,4337.436035,4418.846191,,,,,,,,,,,,,,,,,,,,,,,,,,,,,,,,,,,,,,,,,,,,,,,,,,,,,,,,,,,,,,,,,,,,,,
1720417559,11,0,4404.102539,4263.461426,4357.436035,4323.205078,4277.05127,4318.974121,4356.922852,4312.436035,4317.94873,4306.025879,4457.692383,4518.589844,4335.384766,4433.205078,,,,,,,,,,,,,,,,,,,,,,,,,,,,,,,,,,,,,,,,,,,,,,,,,,,,,,,,,,,,,,,,,,,,,,
1720417559,12,0,4395.128418,4247.307617,4357.563965,4318.461426,4291.025879,4327.692383,4357.436035,4316.794922,4327.307617,4298.461426,4439.358887,4519.358887,4327.05127,4428.333496,,,,,,,,,,,,,,,,,,,,,,,,,,,,,,,,,,,,,,,,,,,,,,,,,,,,,,,,,,,,,,,,,,,,,,
1720417559,13,0,4381.666504,4236.282227,4346.025879,4305.256348,4291.922852,4327.94873,4357.307617,4316.025879,4331.538574,4290.769043,4434.743652,4515,4325.256348,4411.153809,,,,,,,,,,,,,,,,,,,,,,,,,,,,,,,,,,,,,,,,,,,,,,,,,,,,,,,,,,,,,,,,,,,,,,
1720417559,14,0,4372.692383,4246.794922,4338.589844,4308.846191,4287.692383,4322.94873,4360.512695,4317.179688,4334.743652,4299.615234,4442.563965,4512.94873,4329.230957,4416.410156,,,,,,,,,,,,,,,,,,,,,,,,,,,,,,,,,,,,,,,,,,,,,,,,,,,,,,,,,,,,,,,,,,,,,,
1720417559,15,0,4391.538574,4261.794922,4360.512695,4328.077148,4293.717773,4326.282227,4358.717773,4318.846191,4338.333496,4312.05127,4452.563965,4531.922852,4342.820313,4446.538574,,,,,,,,,,,,,,,,,,,,,,,,,,,,,,,,,,,,,,,,,,,,,,,,,,,,,,,,,,,,,,,,,,,,,,
1720417559,16,0,4416.666504,4263.717773,4381.794922,4336.538574,4295.512695,4328.589844,4356.538574,4314.615234,4330.512695,4303.333496,4470.384766,4549.615234,4353.717773,4463.461426,,,,,,,,,,,,,,,,,,,,,,,,,,,,,,,,,,,,,,,,,,,,,,,,,,,,,,,,,,,,,,,,,,,,,,
1720417559,17,0,4414.743652,4254.230957,4370.384766,4325.384766,4291.666504,4327.05127,4359.358887,4310.384766,4316.410156,4289.230957,4471.410156,4536.153809,4344.358887,4452.307617,,,,,,,,,,,,,,,,,,,,,,,,,,,,,,,,,,,,,,,,,,,,,,,,,,,,,,,,,,,,,,,,,,,,,,
1720417559,18,0,4413.461426,4248.077148,4363.846191,4323.589844,4296.922852,4326.794922,4354.615234,4307.692383,4319.871582,4299.743652,4459.102539,4526.666504,4341.282227,4441.794922,,,,,,,,,,,,,,,,,,,,,,,,,,,,,,,,,,,,,,,,,,,,,,,,,,,,,,,,,,,,,,,,,,,,,,
1720417559,19,0,4425,4249.358887,4372.692383,4330,4296.666504,4329.102539,4352.820313,4305.384766,4333.077148,4316.538574,4454.871582,4537.692383,4351.794922,4445.769043,,,,,,,,,,,,,,,,,,,,,,,,,,,,,,,,,,,,,,,,,,,,,,,,,,,,,,,,,,,,,,,,,,,,,,
1720417559,20,0,4411.025879,4238.077148,4357.179688,4311.794922,4280.897461,4330.897461,4365.256348,4312.05127,4330,4308.846191,4448.717773,4532.563965,4338.333496,4448.077148,,,,,,,,,,,,,,,,,,,,,,,,,,,,,,,,,,,,,,,,,,,,,,,,,,,,,,,,,,,,,,,,,,,,,,
1720417559,21,0,4384.487305,4224.102539,4334.230957,4295.769043,4274.615234,4329.743652,4359.871582,4309.871582,4322.436035,4297.05127,4437.179688,4508.077148,4313.846191,4433.077148,,,,,,,,,,,,,,,,,,,,,,,,,,,,,,,,,,,,,,,,,,,,,,,,,,,,,,,,,,,,,,,,,,,,,,
1720417559,22,0,4392.563965,4236.410156,4342.692383,4315.897461,4283.589844,4328.205078,4348.974121,4306.666504,4333.589844,4303.717773,4444.615234,4508.589844,4321.282227,4425.384766,,,,,,,,,,,,,,,,,,,,,,,,,,,,,,,,,,,,,,,,,,,,,,,,,,,,,,,,,,,,,,,,,,,,,,
1720417559,23,0,4408.589844,4244.871582,4355.769043,4329.487305,4284.358887,4329.871582,4356.666504,4317.179688,4342.692383,4306.538574,4456.282227,4527.05127,4337.307617,4440.384766,,,,,,,,,,,,,,,,,,,,,,,,,,,,,,,,,,,,,,,,,,,,,,,,,,,,,,,,,,,,,,,,,,,,,,
1720417559,24,0,4401.410156,4233.589844,4355.128418,4324.871582,4278.589844,4331.666504,4360.512695,4316.282227,4336.025879,4293.717773,4455.641113,4531.025879,4330.384766,4455.897461,4.146788,4.119629,1.063692,0.533433,0.588008,0.584308,1.174983,1.416103,0.658955,0.521582,1.877562,2.845339,2.134899,0.512355,0.370932,0.810254,0.820362,0.789041,0.662797,0.61376,4.788694,2.037297,0.541455,0.210959,0.178425,0.457691,0.638931,0.319768,0.229226,0.10378,0.844841,0.631856,0.567603,0.143969,0.206675,0.121732,0.216966,0.103325,0.064197,0.131734,0.699466,0.643602,0.404981,0.294883,0.217528,0.669947,1.343191,0.709683,0.272661,0.381878,0.953042,2.402342,1.49995,0.965178,1.126407,1.477264,3.576108,2.321157,0.982105,0.233945,1.101859,1.383886,0.914399,0.803941,0.299412,1.162669,2.028556,1.666349,1.188897,0.931927
1720417559,25,0,4395.641113,4231.538574,4354.358887,4329.487305,4277.820313,4328.717773,4358.589844,4312.820313,4333.589844,4288.974121,4455.641113,4528.974121,4323.333496,4455.897461,,,,,,,,,,,,,,,,,,,,,,,,,,,,,,,,,,,,,,,,,,,,,,,,,,,,,,,,,,,,,,,,,,,,,,
1720417559,26,0,4399.358887,4233.846191,4351.410156,4323.974121,4279.230957,4328.974121,4356.410156,4319.230957,4339.871582,4299.358887,4459.230957,4531.282227,4332.563965,4443.333496,,,,,,,,,,,,,,,,,,,,,,,,,,,,,,,,,,,,,,,,,,,,,,,,,,,,,,,,,,,,,,,,,,,,,,
1720417559,27,0,4402.692383,4230.256348,4351.666504,4309.615234,4286.794922,4335.512695,4355.512695,4319.743652,4342.436035,4307.307617,4461.153809,4537.307617,4342.692383,4448.974121,,,,,,,,,,,,,,,,,,,,,,,,,,,,,,,,,,,,,,,,,,,,,,,,,,,,,,,,,,,,,,,,,,,,,,
1720417559,28,0,4407.05127,4239.102539,4361.538574,4320.256348,4290,4338.974121,4362.563965,4318.717773,4342.05127,4304.871582,4459.230957,4544.615234,4339.615234,4473.461426,,,,,,,,,,,,,,,,,,,,,,,,,,,,,,,,,,,,,,,,,,,,,,,,,,,,,,,,,,,,,,,,,,,,,,
1720417559,29,0,4405.256348,4248.717773,4366.538574,4335.512695,4281.922852,4340.256348,4366.153809,4321.153809,4343.846191,4305.897461,4457.94873,4543.589844,4337.179688,4472.05127,,,,,,,,,,,,,,,,,,,,,,,,,,,,,,,,,,,,,,,,,,,,,,,,,,,,,,,,,,,,,,,,,,,,,,
1720417559,30,0,4397.563965,4232.94873,4361.666504,4329.102539,4282.692383,4339.102539,4357.563965,4313.717773,4344.615234,4315,4459.230957,4533.461426,4342.05127,4454.230957,,,,,,,,,,,,,,,,,,,,,,,,,,,,,,,,,,,,,,,,,,,,,,,,,,,,,,,,,,,,,,,,,,,,,,
1720417559,31,0,4400.384766,4218.461426,4354.102539,4320.256348,4288.846191,4338.846191,4361.025879,4313.717773,4339.487305,4312.94873,4462.436035,4529.743652,4338.717773,4451.666504,,,,,,,,,,,,,,,,,,,,,,,,,,,,,,,,,,,,,,,,,,,,,,,,,,,,,,,,,,,,,,,,,,,,,,
1720417559,32,0,4403.205078,4223.205078,4345.641113,4314.102539,4283.974121,4334.871582,4364.102539,4323.846191,4338.974121,4298.589844,4454.487305,4531.410156,4328.717773,4444.102539,,,,,,,,,,,,,,,,,,,,,,,,,,,,,,,,,,,,,,,,,,,,,,,,,,,,,,,,,,,,,,,,,,,,,,
1720417559,33,0,4388.333496,4217.563965,4336.153809,4304.230957,4279.743652,4327.436035,4352.307617,4314.230957,4342.563965,4293.205078,4440.897461,4518.461426,4320.641113,4430,,,,,,,,,,,,,,,,,,,,,,,,,,,,,,,,,,,,,,,,,,,,,,,,,,,,,,,,,,,,,,,,,,,,,,
1720417559,34,0,4369.230957,4204.871582,4329.230957,4303.461426,4280,4328.717773,4354.615234,4308.846191,4338.846191,4297.05127,4442.179688,4501.922852,4315.641113,4437.692383,,,,,,,,,,,,,,,,,,,,,,,,,,,,,,,,,,,,,,,,,,,,,,,,,,,,,,,,,,,,,,,,,,,,,,
1720417559,35,0,4359.615234,4204.743652,4321.922852,4306.794922,4275.256348,4334.358887,4359.358887,4315.384766,4336.025879,4300,4441.282227,4496.025879,4310.769043,4436.922852,,,,,,,,,,,,,,,,,,,,,,,,,,,,,,,,,,,,,,,,,,,,,,,,,,,,,,,,,,,,,,,,,,,,,,
1720417559,36,0,4357.436035,4211.666504,4325.384766,4308.589844,4277.563965,4330.384766,4358.205078,4316.794922,4342.692383,4301.666504,4435.384766,4504.871582,4312.307617,4420.897461,,,,,,,,,,,,,,,,,,,,,,,,,,,,,,,,,,,,,,,,,,,,,,,,,,,,,,,,,,,,,,,,,,,,,,
1720417559,37,0,4354.871582,4212.179688,4335.897461,4308.077148,4281.666504,4325.769043,4361.282227,4317.692383,4346.666504,4299.743652,4437.820313,4517.692383,4316.025879,4423.717773,,,,,,,,,,,,,,,,,,,,,,,,,,,,,,,,,,,,,,,,,,,,,,,,,,,,,,,,,,,,,,,,,,,,,,
1720417559,38,0,4348.333496,4206.538574,4328.846191,4298.205078,4265.769043,4325.256348,4356.666504,4313.077148,4334.743652,4291.922852,4438.077148,4510.384766,4305.641113,4431.922852,,,,,,,,,,,,,,,,,,,,,,,,,,,,,,,,,,,,,,,,,,,,,,,,,,,,,,,,,,,,,,,,,,,,,,
1720417559,39,0,4347.563965,4199.615234,4318.205078,4289.230957,4248.717773,4321.410156,4356.282227,4309.230957,4322.436035,4290.128418,4430.384766,4498.974121,4291.538574,4432.692383,,,,,,,,,,,,,,,,,,,,,,,,,,,,,,,,,,,,,,,,,,,,,,,,,,,,,,,,,,,,,,,,,,,,,,
1720417559,40,0,4353.333496,4197.179688,4328.717773,4293.974121,4252.563965,4321.410156,4361.025879,4309.871582,4329.102539,4293.461426,4429.871582,4508.205078,4292.05127,4429.615234,4.827769,4.87442,1.260052,0.548111,0.576043,0.498167,1.162869,1.215347,0.684732,0.510923,1.798883,2.614546,1.850065,0.505611,0.33806,0.735902,0.932388,0.715965,0.686144,0.545833,4.814268,2.173205,0.485112,0.234534,0.174682,0.457505,0.565994,0.339927,0.25047,0.118356,0.591012,0.400138,0.332059,0.112995,0.151161,0.158551,0.167239,0.104365,0.068652,0.126077,0.746237,0.577285,0.423448,0.324481,0.198441,0.662237,1.078426,0.498022,0.248891,0.372134,0.746324,2.079139,1.275701,1.030775,1.176675,1.139685,3.051092,1.905411,0.92279,0.218204,1.014062,1.383503,0.732486,0.652149,0.278563,1.068238,1.796769,1.640856,1.059241,0.892664
1720417559,41,0,4360,4210,4344.871582,4305.897461,4264.487305,4330.128418,4362.436035,4313.077148,4343.077148,4294.358887,4431.025879,4524.487305,4298.077148,4425.384766,,,,,,,,,,,,,,,,,,,,,,,,,,,,,,,,,,,,,,,,,,,,,,,,,,,,,,,,,,,,,,,,,,,,,,
1720417559,42,0,4364.615234,4216.025879,4344.487305,4311.794922,4267.05127,4329.230957,4360.384766,4313.717773,4340.384766,4293.205078,4428.077148,4525.256348,4295.256348,4428.461426,,,,,,,,,,,,,,,,,,,,,,,,,,,,,,,,,,,,,,,,,,,,,,,,,,,,,,,,,,,,,,,,,,,,,,
1720417559,43,0,4358.717773,4205.256348,4337.307617,4308.589844,4262.436035,4324.102539,4355.897461,4309.358887,4330.384766,4291.794922,4428.974121,4514.358887,4291.922852,4436.282227,,,,,,,,,,,,,,,,,,,,,,,,,,,,,,,,,,,,,,,,,,,,,,,,,,,,,,,,,,,,,,,,,,,,,,
1720417559,44,0,4348.846191,4206.153809,4336.153809,4308.205078,4265,4329.358887,4353.974121,4309.102539,4336.794922,4300.512695,4430.384766,4509.871582,4293.461426,4429.358887,,,,,,,,,,,,,,,,,,,,,,,,,,,,,,,,,,,,,,,,,,,,,,,,,,,,,,,,,,,,,,,,,,,,,,
1720417559,45,0,4348.717773,4212.692383,4334.230957,4314.358887,4273.846191,4333.974121,4358.717773,4311.922852,4343.974121,4309.487305,4437.307617,4512.05127,4295.897461,4420,,,,,,,,,,,,,,,,,,,,,,,,,,,,,,,,,,,,,,,,,,,,,,,,,,,,,,,,,,,,,,,,,,,,,,
1720417559,46,0,4350.512695,4208.717773,4326.666504,4307.563965,4272.563965,4328.205078,4356.153809,4309.230957,4339.615234,4308.205078,4441.538574,4512.307617,4300.256348,4438.077148,,,,,,,,,,,,,,,,,,,,,,,,,,,,,,,,,,,,,,,,,,,,,,,,,,,,,,,,,,,,,,,,,,,,,,
1720417559,47,0,4343.077148,4208.333496,4323.461426,4295,4262.05127,4327.692383,4348.717773,4305.128418,4339.743652,4301.282227,4433.077148,4503.717773,4297.05127,4450.769043,,,,,,,,,,,,,,,,,,,,,,,,,,,,,,,,,,,,,,,,,,,,,,,,,,,,,,,,,,,,,,,,,,,,,,
1720417559,48,0,4339.102539,4217.820313,4331.025879,4305.384766,4261.410156,4337.692383,4358.717773,4321.666504,4350.128418,4299.615234,4437.05127,4506.666504,4292.94873,4445.384766,,,,,,,,,,,,,,,,,,,,,,,,,,,,,,,,,,,,,,,,,,,,,,,,,,,,,,,,,,,,,,,,,,,,,,
1720417559,49,0,4337.307617,4216.153809,4332.692383,4311.666504,4267.820313,4338.077148,4362.179688,4325.384766,4352.820313,4298.717773,4440,4513.846191,4294.230957,4439.358887,,,,,,,,,,,,,,,,,,,,,,,,,,,,,,,,,,,,,,,,,,,,,,,,,,,,,,,,,,,,,,,,,,,,,,
1720417559,50,0,4332.692383,4211.794922,4331.153809,4301.666504,4264.358887,4329.487305,4351.025879,4305,4343.205078,4291.666504,4427.179688,4508.205078,4293.974121,4436.025879,,,,,,,,,,,,,,,,,,,,,,,,,,,,,,,,,,,,,,,,,,,,,,,,,,,,,,,,,,,,,,,,,,,,,,
1720417559,51,0,4337.05127,4212.563965,4339.102539,4301.282227,4259.615234,4324.487305,4353.461426,4309.230957,4337.563965,4295.769043,4430.256348,4518.077148,4298.461426,4436.922852,,,,,,,,,,,,,,,,,,,,,,,,,,,,,,,,,,,,,,,,,,,,,,,,,,,,,,,,,,,,,,,,,,,,,,
1720417559,52,0,4341.666504,4211.922852,4348.974121,4306.666504,4264.487305,4324.743652,4358.333496,4317.94873,4342.94873,4310.384766,4448.333496,4532.94873,4302.179688,4443.717773,,,,,,,,,,,,,,,,,,,,,,,,,,,,,,,,,,,,,,,,,,,,,,,,,,,,,,,,,,,,,,,,,,,,,,
1720417559,53,0,4335.384766,4211.025879,4342.692383,4303.974121,4267.307617,4327.563965,4357.94873,4311.153809,4342.436035,4307.179688,4449.102539,4521.282227,4289.487305,4450.256348,,,,,,,,,,,,,,,,,,,,,,,,,,,,,,,,,,,,,,,,,,,,,,,,,,,,,,,,,,,,,,,,,,,,,,
1720417559,54,0,4333.589844,4205.512695,4329.358887,4300.641113,4265.897461,4326.410156,4357.179688,4310,4330.384766,4289.358887,4435.128418,4506.666504,4274.871582,4445.512695,,,,,,,,,,,,,,,,,,,,,,,,,,,,,,,,,,,,,,,,,,,,,,,,,,,,,,,,,,,,,,,,,,,,,,
1720417559,55,0,4335.897461,4202.307617,4326.025879,4297.820313,4265.769043,4323.077148,4353.077148,4310.897461,4328.333496,4286.282227,4426.666504,4510.641113,4278.205078,4442.05127,,,,,,,,,,,,,,,,,,,,,,,,,,,,,,,,,,,,,,,,,,,,,,,,,,,,,,,,,,,,,,,,,,,,,,
1720417559,56,0,4324.102539,4200.256348,4322.820313,4294.230957,4266.282227,4325.128418,4351.410156,4309.230957,4338.846191,4294.615234,4427.94873,4511.922852,4285.384766,4449.615234,5.752485,5.829899,1.519011,0.592748,0.584545,0.490375,1.07678,0.998013,0.73351,0.501781,1.820848,2.354273,1.454502,0.504082,0.320903,0.717483,1.018909,0.611454,0.756269,0.508118,4.355215,2.043466,0.425841,0.247406,0.18379,0.47352,0.456025,0.359774,0.262906,0.132818,0.530586,0.337567,0.237508,0.112363,0.124757,0.185396,0.143009,0.117725,0.076452,0.123581,0.798072,0.633663,0.474509,0.371484,0.182,0.608208,0.8099,0.378567,0.269223,0.368482,0.641898,1.732621,1.012904,1.196704,1.184203,0.928459,2.51483,1.4338,0.882585,0.218509,1.000758,1.37955,0.533081,0.521132,0.261836,1.088044,1.628088,1.50727,0.917934,0.862947
1720417559,57,0,4310.128418,4188.461426,4314.871582,4293.461426,4266.153809,4325.897461,4357.94873,4313.846191,4343.205078,4298.974121,4430.128418,4501.282227,4281.153809,4446.794922,,,,,,,,,,,,,,,,,,,,,,,,,,,,,,,,,,,,,,,,,,,,,,,,,,,,,,,,,,,,,,,,,,,,,,
1720417559,58,0,4318.974121,4183.717773,4318.205078,4294.358887,4266.025879,4319.102539,4353.205078,4310.641113,4339.230957,4302.94873,4432.05127,4498.205078,4277.563965,4433.333496,,,,,,,,,,,,,,,,,,,,,,,,,,,,,,,,,,,,,,,,,,,,,,,,,,,,,,,,,,,,,,,,,,,,,,
1720417560,59,0,4344.615234,4198.077148,4333.077148,4298.205078,4264.358887,4315.256348,4347.179688,4305.384766,4341.666504,4306.410156,4441.922852,4511.025879,4283.205078,4441.794922,,,,,,,,,,,,,,,,,,,,,,,,,,,,,,,,,,,,,,,,,,,,,,,,,,,,,,,,,,,,,,,,,,,,,,
1720417560,60,0,4356.153809,4213.589844,4341.794922,4304.358887,4261.794922,4321.922852,4350.769043,4320.384766,4350,4311.794922,4449.615234,4531.922852,4294.230957,4465,,,,,,,,,,,,,,,,,,,,,,,,,,,,,,,,,,,,,,,,,,,,,,,,,,,,,,,,,,,,,,,,,,,,,,
1720417560,61,0,4342.05127,4217.05127,4345.769043,4308.846191,4260.897461,4327.692383,4345,4322.436035,4355.641113,4322.563965,4456.794922,4539.743652,4302.563965,4466.666504,,,,,,,,,,,,,,,,,,,,,,,,,,,,,,,,,,,,,,,,,,,,,,,,,,,,,,,,,,,,,,,,,,,,,,
1720417560,62,0,4330.512695,4213.333496,4344.102539,4309.743652,4263.077148,4327.94873,4344.615234,4315.384766,4357.692383,4331.410156,4459.615234,4535.641113,4302.692383,4460.256348,,,,,,,,,,,,,,,,,,,,,,,,,,,,,,,,,,,,,,,,,,,,,,,,,,,,,,,,,,,,,,,,,,,,,,
1720417560,63,0,4334.358887,4209.102539,4332.94873,4301.794922,4263.717773,4326.410156,4346.410156,4317.307617,4353.461426,4336.794922,4436.538574,4528.461426,4294.487305,4457.307617,,,,,,,,,,,,,,,,,,,,,,,,,,,,,,,,,,,,,,,,,,,,,,,,,,,,,,,,,,,,,,,,,,,,,,
1720417560,64,0,4334.615234,4203.333496,4328.846191,4291.282227,4266.025879,4322.307617,4340.128418,4311.025879,4344.102539,4339.615234,4422.563965,4522.307617,4288.717773,4456.410156,,,,,,,,,,,,,,,,,,,,,,,,,,,,,,,,,,,,,,,,,,,,,,,,,,,,,,,,,,,,,,,,,,,,,,
1720417560,65,0,4328.333496,4199.358887,4332.05127,4287.436035,4273.589844,4318.846191,4340.128418,4305.384766,4334.871582,4335.897461,4441.794922,4519.615234,4290,4464.743652,,,,,,,,,,,,,,,,,,,,,,,,,,,,,,,,,,,,,,,,,,,,,,,,,,,,,,,,,,,,,,,,,,,,,,
1720417560,66,0,4331.282227,4207.307617,4338.077148,4298.077148,4277.05127,4320.384766,4341.153809,4307.563965,4333.205078,4334.487305,4449.615234,4522.436035,4289.871582,4477.436035,,,,,,,,,,,,,,,,,,,,,,,,,,,,,,,,,,,,,,,,,,,,,,,,,,,,,,,,,,,,,,,,,,,,,,
1720417560,67,0,4333.333496,4221.794922,4349.743652,4319.615234,4276.666504,4323.974121,4343.461426,4313.846191,4334.487305,4335.897461,4445.128418,4532.94873,4288.077148,4481.153809,,,,,,,,,,,,,,,,,,,,,,,,,,,,,,,,,,,,,,,,,,,,,,,,,,,,,,,,,,,,,,,,,,,,,,
1720417560,68,0,4331.794922,4219.358887,4351.025879,4317.94873,4277.179688,4325.384766,4347.05127,4311.410156,4335,4329.615234,4450.384766,4535.128418,4281.410156,4472.563965,,,,,,,,,,,,,,,,,,,,,,,,,,,,,,,,,,,,,,,,,,,,,,,,,,,,,,,,,,,,,,,,,,,,,,
1720417560,69,0,4331.153809,4195.128418,4331.153809,4289.487305,4275.897461,4325.512695,4346.025879,4302.563965,4337.94873,4323.717773,4438.589844,4515,4266.282227,4455.769043,,,,,,,,,,,,,,,,,,,,,,,,,,,,,,,,,,,,,,,,,,,,,,,,,,,,,,,,,,,,,,,,,,,,,,
1720417560,70,0,4313.077148,4181.666504,4314.358887,4283.846191,4277.05127,4328.333496,4345.512695,4302.179688,4344.615234,4328.846191,4424.743652,4495.769043,4261.282227,4445.384766,,,,,,,,,,,,,,,,,,,,,,,,,,,,,,,,,,,,,,,,,,,,,,,,,,,,,,,,,,,,,,,,,,,,,,
1720417560,71,0,4297.436035,4193.717773,4317.692383,4300.256348,4275.256348,4335.384766,4349.743652,4301.025879,4353.717773,4330.769043,4429.230957,4496.538574,4264.487305,4445.897461,,,,,,,,,,,,,,,,,,,,,,,,,,,,,,,,,,,,,,,,,,,,,,,,,,,,,,,,,,,,,,,,,,,,,,
1720417560,72,0,4311.282227,4199.358887,4325.512695,4293.461426,4267.563965,4337.94873,4352.05127,4298.846191,4357.179688,4326.922852,4426.025879,4505.897461,4265.769043,4446.410156,6.577891,6.663851,1.799275,0.671653,0.599747,0.582302,0.960966,0.82942,0.787581,0.490731,1.910343,2.158194,1.092967,0.52063,0.325512,0.77252,1.074354,0.529868,0.876606,0.510199,3.532235,1.706424,0.371889,0.247193,0.201344,0.49157,0.339335,0.367172,0.263763,0.140865,0.575167,0.367602,0.223191,0.126747,0.11823,0.207135,0.141904,0.138585,0.084006,0.124351,0.840943,0.772129,0.536725,0.422601,0.16968,0.533344,0.577676,0.352696,0.3189,0.365551,0.6619,1.408973,0.772553,1.404596,1.13944,0.880338,2.127328,1.046499,0.865861,0.23537,1.078738,1.334905,0.362076,0.429551,0.255665,1.199612,1.586719,1.321244,0.784552,0.843888
1720417560,73,0,4320.256348,4188.205078,4327.563965,4280.641113,4271.153809,4329.230957,4349.230957,4302.179688,4355,4330.384766,4428.461426,4511.794922,4280.384766,4449.615234,,,,,,,,,,,,,,,,,,,,,,,,,,,,,,,,,,,,,,,,,,,,,,,,,,,,,,,,,,,,,,,,,,,,,,
1720417560,74,0,4317.692383,4193.205078,4334.102539,4293.589844,4283.205078,4325.128418,4345.512695,4305.128418,4357.436035,4338.974121,4457.820313,4516.666504,4303.589844,4471.410156,,,,,,,,,,,,,,,,,,,,,,,,,,,,,,,,,,,,,,,,,,,,,,,,,,,,,,,,,,,,,,,,,,,,,,
1720417560,75,0,4326.922852,4213.461426,4342.563965,4309.102539,4278.717773,4330,4344.871582,4300.769043,4362.692383,4341.410156,4467.563965,4517.820313,4305.641113,4490.512695,,,,,,,,,,,,,,,,,,,,,,,,,,,,,,,,,,,,,,,,,,,,,,,,,,,,,,,,,,,,,,,,,,,,,,
1720417560,76,0,4324.102539,4207.307617,4337.179688,4298.461426,4275.128418,4326.282227,4351.922852,4302.692383,4353.333496,4329.487305,4440.769043,4512.179688,4287.436035,4476.666504,,,,,,,,,,,,,,,,,,,,,,,,,,,,,,,,,,,,,,,,,,,,,,,,,,,,,,,,,,,,,,,,,,,,,,
1720417560,77,0,4308.333496,4181.666504,4322.179688,4280.256348,4284.871582,4314.743652,4349.487305,4302.307617,4340.769043,4319.358887,4425.128418,4503.205078,4278.717773,4449.743652,,,,,,,,,,,,,,,,,,,,,,,,,,,,,,,,,,,,,,,,,,,,,,,,,,,,,,,,,,,,,,,,,,,,,,
1720417560,78,0,4313.077148,4166.153809,4314.102539,4274.230957,4276.153809,4308.077148,4338.589844,4288.589844,4342.94873,4324.487305,4422.820313,4493.717773,4278.077148,4438.974121,,,,,,,,,,,,,,,,,,,,,,,,,,,,,,,,,,,,,,,,,,,,,,,,,,,,,,,,,,,,,,,,,,,,,,
1720417560,79,0,4317.563965,4167.179688,4309.871582,4278.461426,4261.794922,4308.589844,4345.897461,4291.025879,4343.717773,4328.717773,4415.641113,4485.512695,4275.256348,4447.179688,,,,,,,,,,,,,,,,,,,,,,,,,,,,,,,,,,,,,,,,,,,,,,,,,,,,,,,,,,,,,,,,,,,,,,
1720417560,80,0,4301.025879,4180.256348,4307.820313,4288.846191,4270.384766,4314.102539,4354.487305,4297.563965,4340.641113,4325.641113,4416.153809,4481.922852,4272.94873,4449.615234,,,,,,,,,,,,,,,,,,,,,,,,,,,,,,,,,,,,,,,,,,,,,,,,,,,,,,,,,,,,,,,,,,,,,,
1720417560,81,0,4300.256348,4186.794922,4321.666504,4297.436035,4280.512695,4321.538574,4350.769043,4293.333496,4347.307617,4325.641113,4435.128418,4494.871582,4277.307617,4438.461426,,,,,,,,,,,,,,,,,,,,,,,,,,,,,,,,,,,,,,,,,,,,,,,,,,,,,,,,,,,,,,,,,,,,,,
1720417560,82,0,4327.436035,4184.230957,4338.717773,4297.563965,4275.769043,4324.871582,4351.666504,4297.179688,4349.615234,4327.179688,4445.128418,4515.256348,4283.589844,4450.897461,,,,,,,,,,,,,,,,,,,,,,,,,,,,,,,,,,,,,,,,,,,,,,,,,,,,,,,,,,,,,,,,,,,,,,
1720417560,83,0,4340.384766,4186.538574,4334.230957,4293.461426,4273.846191,4323.205078,4351.282227,4298.205078,4341.153809,4325.256348,4430.128418,4511.282227,4284.358887,4474.487305,,,,,,,,,,,,,,,,,,,,,,,,,,,,,,,,,,,,,,,,,,,,,,,,,,,,,,,,,,,,,,,,,,,,,,
1720417560,84,0,4327.563965,4198.077148,4323.589844,4297.05127,4281.794922,4319.230957,4347.94873,4289.615234,4339.230957,4324.743652,4427.94873,4496.410156,4288.589844,4471.794922,,,,,,,,,,,,,,,,,,,,,,,,,,,,,,,,,,,,,,,,,,,,,,,,,,,,,,,,,,,,,,,,,,,,,,
1720417560,85,0,4326.538574,4203.717773,4328.717773,4307.692383,4281.153809,4317.820313,4353.589844,4291.025879,4338.974121,4316.282227,4436.794922,4503.589844,4289.230957,4465.641113,,,,,,,,,,,,,,,,,,,,,,,,,,,,,,,,,,,,,,,,,,,,,,,,,,,,,,,,,,,,,,,,,,,,,,
1720417560,86,0,4339.743652,4200.897461,4338.461426,4310.384766,4276.282227,4317.436035,4351.794922,4293.589844,4335.769043,4312.05127,4432.05127,4515.897461,4283.589844,4469.871582,,,,,,,,,,,,,,,,,,,,,,,,,,,,,,,,,,,,,,,,,,,,,,,,,,,,,,,,,,,,,,,,,,,,,,
1720417560,87,0,4348.461426,4206.153809,4344.487305,4307.05127,4279.615234,4314.358887,4342.692383,4288.333496,4344.358887,4328.333496,4432.05127,4518.333496,4286.538574,4472.692383,,,,,,,,,,,,,,,,,,,,,,,,,,,,,,,,,,,,,,,,,,,,,,,,,,,,,,,,,,,,,,,,,,,,,,
1720417560,88,0,4355.128418,4213.461426,4347.692383,4309.102539,4281.153809,4310.897461,4347.692383,4297.179688,4357.05127,4339.487305,4449.358887,4522.692383,4297.179688,4477.436035,6.928455,7.013619,2.034542,0.778589,0.609774,0.766333,0.864129,0.731668,0.829857,0.476008,2.023539,2.066282,0.873405,0.563724,0.348908,0.890144,1.089445,0.510226,1.029447,0.547023,2.605349,1.29198,0.334815,0.237199,0.22197,0.508168,0.244263,0.35142,0.253059,0.139661,0.649344,0.407232,0.224575,0.140844,0.120665,0.224014,0.160614,0.160726,0.089644,0.129401,0.883453,0.958006,0.59158,0.463501,0.164938,0.48741,0.439097,0.389046,0.380837,0.364591,0.799714,1.165794,0.612007,1.599679,1.051435,0.991184,1.982403,0.826638,0.86638,0.271078,1.215391,1.284028,0.25967,0.387246,0.265894,1.408724,1.67453,1.131945,0.680836,0.832028
1720417560,89,0,4359.743652,4209.615234,4341.153809,4312.94873,4277.307617,4310.384766,4349.358887,4302.307617,4360.384766,4328.846191,4453.717773,4521.922852,4300.256348,4472.179688,,,,,,,,,,,,,,,,,,,,,,,,,,,,,,,,,,,,,,,,,,,,,,,,,,,,,,,,,,,,,,,,,,,,,,
1720417560,90,0,4355,4202.05127,4337.05127,4306.538574,4277.05127,4310.897461,4346.538574,4294.871582,4358.589844,4326.153809,4438.589844,4514.487305,4290.769043,4459.487305,,,,,,,,,,,,,,,,,,,,,,,,,,,,,,,,,,,,,,,,,,,,,,,,,,,,,,,,,,,,,,,,,,,,,,
1720417560,91,0,4349.871582,4208.077148,4349.615234,4306.153809,4280,4309.102539,4347.307617,4293.205078,4353.846191,4343.974121,4435.641113,4513.077148,4281.794922,4463.974121,,,,,,,,,,,,,,,,,,,,,,,,,,,,,,,,,,,,,,,,,,,,,,,,,,,,,,,,,,,,,,,,,,,,,,
1720417560,92,0,4346.538574,4216.794922,4357.563965,4315.641113,4279.615234,4305.897461,4343.077148,4289.102539,4344.230957,4359.871582,4437.563965,4508.077148,4278.461426,4467.436035,,,,,,,,,,,,,,,,,,,,,,,,,,,,,,,,,,,,,,,,,,,,,,,,,,,,,,,,,,,,,,,,,,,,,,
1720417560,93,0,4334.487305,4213.974121,4347.307617,4313.974121,4280.256348,4305.769043,4345,4286.025879,4335,4363.077148,4426.025879,4495.641113,4280.384766,4456.794922,,,,,,,,,,,,,,,,,,,,,,,,,,,,,,,,,,,,,,,,,,,,,,,,,,,,,,,,,,,,,,,,,,,,,,
1720417560,94,0,4335.128418,4213.717773,4346.538574,4309.102539,4283.461426,4311.666504,4347.307617,4286.538574,4332.692383,4345.128418,4419.615234,4492.563965,4279.743652,4455.384766,,,,,,,,,,,,,,,,,,,,,,,,,,,,,,,,,,,,,,,,,,,,,,,,,,,,,,,,,,,,,,,,,,,,,,
1720417560,95,0,4349.615234,4219.230957,4356.922852,4314.487305,4280.641113,4313.846191,4343.333496,4286.666504,4332.820313,4312.94873,4427.436035,4500,4275.256348,4458.717773,,,,,,,,,,,,,,,,,,,,,,,,,,,,,,,,,,,,,,,,,,,,,,,,,,,,,,,,,,,,,,,,,,,,,,
1720417560,96,0,4342.179688,4220.769043,4359.615234,4319.102539,4277.94873,4311.282227,4344.102539,4288.846191,4335.384766,4299.871582,4436.794922,4506.410156,4282.179688,4455.641113,,,,,,,,,,,,,,,,,,,,,,,,,,,,,,,,,,,,,,,,,,,,,,,,,,,,,,,,,,,,,,,,,,,,,,
1720417560,97,0,4332.179688,4216.922852,4362.820313,4323.461426,4279.615234,4312.563965,4346.666504,4294.743652,4346.025879,4309.230957,4445.641113,4513.461426,4297.820313,4461.153809,,,,,,,,,,,,,,,,,,,,,,,,,,,,,,,,,,,,,,,,,,,,,,,,,,,,,,,,,,,,,,,,,,,,,,
1720417560,98,0,4347.179688,4218.461426,4370.384766,4327.94873,4279.230957,4313.205078,4346.410156,4298.589844,4353.846191,4312.307617,4448.974121,4523.333496,4305.384766,4468.717773,,,,,,,,,,,,,,,,,,,,,,,,,,,,,,,,,,,,,,,,,,,,,,,,,,,,,,,,,,,,,,,,,,,,,,
1720417560,99,0,4351.282227,4220.256348,4364.102539,4317.820313,4282.05127,4311.922852,4342.692383,4292.692383,4351.538574,4306.666504,4434.871582,4518.717773,4295,4463.717773,,,,,,,,,,,,,,,,,,,,,,,,,,,,,,,,,,,,,,,,,,,,,,,,,,,,,,,,,,,,,,,,,,,,,,
1720417560,100,0,4333.717773,4217.307617,4352.05127,4305.897461,4289.102539,4305.897461,4337.820313,4286.025879,4348.717773,4312.820313,4424.230957,4503.205078,4285.256348,4459.487305,,,,,,,,,,,,,,,,,,,,,,,,,,,,,,,,,,,,,,,,,,,,,,,,,,,,,,,,,,,,,,,,,,,,,,
1720417560,101,0,4337.307617,4223.205078,4357.563965,4318.077148,4290.512695,4296.922852,4336.153809,4290.641113,4351.282227,4325.769043,4431.282227,4501.794922,4292.307617,4464.871582,,,,,,,,,,,,,,,,,,,,,,,,,,,,,,,,,,,,,,,,,,,,,,,,,,,,,,,,,,,,,,,,,,,,,,
1720417560,102,0,4352.692383,4235,4369.871582,4335.512695,4288.717773,4293.077148,4338.077148,4298.589844,4349.871582,4332.820313,4448.589844,4515,4306.794922,4477.94873,,,,,,,,,,,,,,,,,,,,,,,,,,,,,,,,,,,,,,,,,,,,,,,,,,,,,,,,,,,,,,,,,,,,,,
1720417560,103,0,4351.282227,4236.153809,4370.641113,4332.179688,4294.358887,4293.077148,4335.384766,4291.153809,4346.666504,4327.563965,4461.922852,4525.384766,4311.666504,4483.333496,,,,,,,,,,,,,,,,,,,,,,,,,,,,,,,,,,,,,,,,,,,,,,,,,,,,,,,,,,,,,,,,,,,,,,
1720417560,104,0,4353.205078,4233.205078,4365.769043,4323.333496,4296.410156,4293.461426,4338.717773,4286.025879,4346.922852,4317.563965,4452.05127,4528.846191,4304.743652,4474.358887,6.674281,6.694355,2.16074,0.893115,0.608981,1.033611,0.821599,0.685247,0.857998,0.460461,2.084513,2.06861,0.823765,0.636845,0.380612,1.025158,1.054099,0.548455,1.182887,0.60179,1.780372,0.929502,0.323069,0.223276,0.241738,0.515385,0.189577,0.311824,0.233312,0.130931,0.677474,0.419103,0.218584,0.146992,0.12664,0.242464,0.19508,0.175877,0.094658,0.139235,0.897536,1.174897,0.624302,0.482078,0.17054,0.518906,0.415726,0.451591,0.436486,0.367538,0.992934,1.020211,0.555311,1.741272,0.938969,1.196602,2.075127,0.765797,0.874912,0.324882,1.410755,1.300974,0.241319,0.38811,0.292084,1.630819,1.826885,0.96614,0.629335,0.820292
1720417560,105,0,4355.256348,4235.897461,4362.94873,4325.769043,4286.538574,4296.153809,4344.743652,4298.077148,4345.512695,4310,4435,4526.025879,4296.410156,4465,,,,,,,,,,,,,,,,,,,,,,,,,,,,,,,,,,,,,,,,,,,,,,,,,,,,,,,,,,,,,,,,,,,,,,
1720417560,106,0,4340.256348,4235.384766,4359.230957,4325.641113,4284.102539,4296.922852,4335.384766,4295.512695,4342.692383,4299.871582,4416.282227,4512.94873,4288.205078,4455.512695,,,,,,,,,,,,,,,,,,,,,,,,,,,,,,,,,,,,,,,,,,,,,,,,,,,,,,,,,,,,,,,,,,,,,,
1720417560,107,0,4331.025879,4228.717773,4355.512695,4319.102539,4292.563965,4295.641113,4335.256348,4288.333496,4341.282227,4292.05127,4401.538574,4501.666504,4286.922852,4453.717773,,,,,,,,,,,,,,,,,,,,,,,,,,,,,,,,,,,,,,,,,,,,,,,,,,,,,,,,,,,,,,,,,,,,,,
1720417560,108,0,4339.102539,4226.666504,4355.384766,4319.615234,4293.717773,4302.307617,4346.153809,4294.615234,4342.692383,4292.563965,4412.820313,4502.563965,4287.179688,4455.128418,,,,,,,,,,,,,,,,,,,,,,,,,,,,,,,,,,,,,,,,,,,,,,,,,,,,,,,,,,,,,,,,,,,,,,
1720417560,109,0,4344.358887,4228.205078,4355.256348,4329.358887,4289.358887,4310.384766,4342.307617,4295.128418,4343.461426,4294.102539,4435.128418,4507.307617,4281.794922,4443.974121,,,,,,,,,,,,,,,,,,,,,,,,,,,,,,,,,,,,,,,,,,,,,,,,,,,,,,,,,,,,,,,,,,,,,,
1720417560,110,0,4348.717773,4230.769043,4359.487305,4333.717773,4294.871582,4307.563965,4337.307617,4293.589844,4341.922852,4291.025879,4440.641113,4512.436035,4285,4445.897461,,,,,,,,,,,,,,,,,,,,,,,,,,,,,,,,,,,,,,,,,,,,,,,,,,,,,,,,,,,,,,,,,,,,,,
1720417560,111,0,4352.05127,4240.641113,4363.589844,4330.128418,4303.589844,4301.794922,4340.384766,4296.025879,4341.794922,4290.897461,4439.358887,4513.589844,4296.410156,4461.538574,,,,,,,,,,,,,,,,,,,,,,,,,,,,,,,,,,,,,,,,,,,,,,,,,,,,,,,,,,,,,,,,,,,,,,
1720417560,112,0,4347.307617,4248.333496,4362.307617,4325,4304.615234,4298.461426,4338.461426,4293.333496,4341.282227,4295.769043,4437.436035,4513.846191,4300.512695,4466.538574,,,,,,,,,,,,,,,,,,,,,,,,,,,,,,,,,,,,,,,,,,,,,,,,,,,,,,,,,,,,,,,,,,,,,,
1720417560,113,0,4344.615234,4241.922852,4363.717773,4326.666504,4304.230957,4295.128418,4340.384766,4291.794922,4339.487305,4296.666504,4420.769043,4518.205078,4293.974121,4466.410156,,,,,,,,,,,,,,,,,,,,,,,,,,,,,,,,,,,,,,,,,,,,,,,,,,,,,,,,,,,,,,,,,,,,,,
1720417560,114,0,4351.025879,4230.256348,4364.743652,4329.487305,4307.563965,4293.974121,4343.717773,4292.179688,4335.512695,4294.102539,4416.282227,4514.102539,4289.358887,4461.153809,,,,,,,,,,,,,,,,,,,,,,,,,,,,,,,,,,,,,,,,,,,,,,,,,,,,,,,,,,,,,,,,,,,,,,
1720417560,115,0,4358.717773,4231.153809,4360.769043,4325.769043,4310.641113,4294.230957,4336.538574,4283.077148,4334.358887,4293.333496,4426.794922,4498.333496,4289.487305,4444.358887,,,,,,,,,,,,,,,,,,,,,,,,,,,,,,,,,,,,,,,,,,,,,,,,,,,,,,,,,,,,,,,,,,,,,,
1720417560,116,0,4354.615234,4242.05127,4355.384766,4324.487305,4310.384766,4294.230957,4338.846191,4287.307617,4336.922852,4293.717773,4427.563965,4494.230957,4288.461426,4440.128418,,,,,,,,,,,,,,,,,,,,,,,,,,,,,,,,,,,,,,,,,,,,,,,,,,,,,,,,,,,,,,,,,,,,,,
1720417560,117,0,4337.94873,4248.974121,4348.077148,4328.205078,4311.666504,4298.589844,4340.769043,4295,4340.128418,4295,4420.897461,4502.05127,4285.256348,4448.974121,,,,,,,,,,,,,,,,,,,,,,,,,,,,,,,,,,,,,,,,,,,,,,,,,,,,,,,,,,,,,,,,,,,,,,
1720417560,118,0,4335.384766,4249.615234,4346.666504,4331.666504,4310.512695,4304.871582,4334.230957,4289.102539,4339.487305,4306.282227,4420.384766,4507.179688,4286.538574,4454.102539,,,,,,,,,,,,,,,,,,,,,,,,,,,,,,,,,,,,,,,,,,,,,,,,,,,,,,,,,,,,,,,,,,,,,,
1720417560,119,0,4349.871582,4247.820313,4358.846191,4335.769043,4309.871582,4305.384766,4335,4294.487305,4335,4321.410156,4431.410156,4514.102539,4297.307617,4462.692383,,,,,,,,,,,,,,,,,,,,,,,,,,,,,,,,,,,,,,,,,,,,,,,,,,,,,,,,,,,,,,,,,,,,,,
1720417560,120,0,4352.820313,4246.410156,4362.94873,4337.436035,4316.538574,4305.897461,4333.974121,4299.615234,4333.589844,4320.769043,4431.538574,4511.410156,4298.846191,4460.769043,5.910525,5.787398,2.133567,0.995717,0.599151,1.311863,0.83418,0.645359,0.878961,0.449399,2.063689,2.108529,0.891317,0.74137,0.407933,1.144262,0.959725,0.605663,1.303755,0.653238,1.197694,0.692288,0.336618,0.209005,0.257765,0.524399,0.184504,0.259868,0.20979,0.118979,0.663122,0.401399,0.202512,0.142062,0.133721,0.263441,0.23588,0.177369,0.102696,0.15297,0.869229,1.409531,0.635712,0.472381,0.185715,0.656772,0.508271,0.524852,0.474936,0.37325,1.158441,0.953414,0.568022,1.815092,0.821833,1.438874,2.312148,0.782348,0.89677,0.389038,1.583084,1.446465,0.283864,0.423238,0.326015,1.858935,1.966052,0.853466,0.640163,0.802226
1720417560,121,0,4342.179688,4242.820313,4351.153809,4334.102539,4317.692383,4309.615234,4331.794922,4298.589844,4333.461426,4311.666504,4425.128418,4497.94873,4284.230957,4446.282227,,,,,,,,,,,,,,,,,,,,,,,,,,,,,,,,,,,,,,,,,,,,,,,,,,,,,,,,,,,,,,,,,,,,,,
1720417560,122,0,4341.153809,4248.205078,4350.769043,4335.384766,4315.384766,4311.282227,4331.282227,4300.128418,4334.102539,4314.487305,4422.820313,4498.461426,4277.05127,4450.512695,,,,,,,,,,,,,,,,,,,,,,,,,,,,,,,,,,,,,,,,,,,,,,,,,,,,,,,,,,,,,,,,,,,,,,
1720417560,123,0,4353.717773,4259.358887,4364.102539,4335.897461,4325.641113,4310.384766,4327.692383,4300.256348,4341.282227,4325.769043,4434.102539,4515.512695,4291.666504,4471.538574,,,,,,,,,,,,,,,,,,,,,,,,,,,,,,,,,,,,,,,,,,,,,,,,,,,,,,,,,,,,,,,,,,,,,,
1720417560,124,0,4363.461426,4255.128418,4364.102539,4326.153809,4330.256348,4302.563965,4324.102539,4300.384766,4345,4323.077148,4444.743652,4524.230957,4298.205078,4476.025879,,,,,,,,,,,,,,,,,,,,,,,,,,,,,,,,,,,,,,,,,,,,,,,,,,,,,,,,,,,,,,,,,,,,,,
1720417560,125,0,4349.102539,4245.384766,4347.436035,4330.641113,4317.307617,4291.538574,4318.077148,4299.358887,4334.102539,4310.641113,4429.871582,4504.871582,4283.077148,4454.743652,,,,,,,,,,,,,,,,,,,,,,,,,,,,,,,,,,,,,,,,,,,,,,,,,,,,,,,,,,,,,,,,,,,,,,
1720417560,126,0,4325.769043,4246.538574,4333.589844,4342.179688,4317.307617,4295.384766,4318.077148,4300.256348,4327.820313,4313.205078,4415,4486.922852,4276.153809,4435.256348,,,,,,,,,,,,,,,,,,,,,,,,,,,,,,,,,,,,,,,,,,,,,,,,,,,,,,,,,,,,,,,,,,,,,,
1720417560,127,0,4323.846191,4248.461426,4334.102539,4333.333496,4330.512695,4305.256348,4318.077148,4300.897461,4329.615234,4320.384766,4415.384766,4487.563965,4277.436035,4433.461426,,,,,,,,,,,,,,,,,,,,,,,,,,,,,,,,,,,,,,,,,,,,,,,,,,,,,,,,,,,,,,,,,,,,,,
1720417560,0,0,4335.769043,4247.692383,4343.461426,4323.205078,4328.333496,4298.974121,4315.641113,4296.025879,4317.179688,4307.563965,4408.589844,4488.974121,4272.179688,4436.666504,,,,,,,,,,,,,,,,,,,,,,,,,,,,,,,,,,,,,,,,,,,,,,,,,,,,,,,,,,,,,,,,,,,,,,
1720417560,1,0,4336.922852,4256.025879,4348.846191,4326.666504,4321.282227,4287.563965,4327.436035,4293.461426,4307.179688,4298.717773,4412.692383,4497.179688,4274.615234,4439.230957,,,,,,,,,,,,,,,,,,,,,,,,,,,,,,,,,,,,,,,,,,,,,,,,,,,,,,,,,,,,,,,,,,,,,,
1720417560,2,0,4330.641113,4264.358887,4347.307617,4327.94873,4323.205078,4291.153809,4346.794922,4300.769043,4318.846191,4312.307617,4437.692383,4507.692383,4285.128418,4446.922852,,,,,,,,,,,,,,,,,,,,,,,,,,,,,,,,,,,,,,,,,,,,,,,,,,,,,,,,,,,,,,,,,,,,,,
1720417560,3,0,4330.641113,4263.461426,4348.461426,4335.128418,4326.538574,4299.743652,4347.94873,4301.794922,4329.102539,4324.743652,4437.563965,4504.230957,4288.974121,4444.871582,,,,,,,,,,,,,,,,,,,,,,,,,,,,,,,,,,,,,,,,,,,,,,,,,,,,,,,,,,,,,,,,,,,,,,
1720417560,4,0,4335.384766,4266.282227,4353.205078,4351.538574,4325.256348,4297.563965,4347.820313,4302.436035,4330,4321.538574,4431.538574,4510.641113,4297.820313,4437.179688,,,,,,,,,,,,,,,,,,,,,,,,,,,,,,,,,,,,,,,,,,,,,,,,,,,,,,,,,,,,,,,,,,,,,,
1720417560,5,0,4337.307617,4271.538574,4354.743652,4352.94873,4322.05127,4295.256348,4358.717773,4318.077148,4332.563965,4316.153809,4454.358887,4531.410156,4312.563965,4455.641113,,,,,,,,,,,,,,,,,,,,,,,,,,,,,,,,,,,,,,,,,,,,,,,,,,,,,,,,,,,,,,,,,,,,,,
1720417560,6,0,4328.077148,4269.487305,4350.512695,4342.436035,4330.897461,4303.333496,4350.641113,4314.102539,4328.205078,4311.794922,4453.974121,4518.589844,4304.102539,4464.743652,,,,,,,,,,,,,,,,,,,,,,,,,,,,,,,,,,,,,,,,,,,,,,,,,,,,,,,,,,,,,,,,,,,,,,
1720417560,7,0,4317.307617,4262.692383,4341.410156,4337.05127,4342.179688,4307.94873,4341.282227,4302.563965,4315.512695,4303.974121,4425.256348,4492.05127,4281.025879,4437.94873,,,,,,,,,,,,,,,,,,,,,,,,,,,,,,,,,,,,,,,,,,,,,,,,,,,,,,,,,,,,,,,,,,,,,,
1720417560,8,0,4315,4263.589844,4332.692383,4334.358887,4333.333496,4299.615234,4348.589844,4312.94873,4309.871582,4299.615234,4415.769043,4494.871582,4275.384766,4420.897461,4.994769,4.601043,1.9565,1.068802,0.586238,1.598384,0.886262,0.598704,0.900516,0.445792,1.936383,2.141417,0.99439,0.874027,0.42057,1.225016,0.821579,0.638588,1.366849,0.68144,0.856191,0.575451,0.367894,0.194476,0.266507,0.53914,0.238739,0.211032,0.188226,0.108253,0.601764,0.359502,0.175753,0.126071,0.139628,0.281962,0.271313,0.164089,0.117068,0.167915,0.786697,1.646931,0.646652,0.436575,0.204725,0.920845,0.724551,0.644733,0.498736,0.378662,1.231956,0.961794,0.590875,1.850918,0.712602,1.645234,2.59489,0.789277,0.953609,0.448641,1.723999,1.738337,0.347728,0.486004,0.355056,2.003438,2.066149,0.83784,0.708141,0.773688
1720417560,9,0,4313.077148,4273.717773,4335.384766,4333.077148,4318.205078,4293.589844,4345.512695,4315,4314.615234,4302.307617,4421.410156,4495.769043,4279.230957,4425.641113,,,,,,,,,,,,,,,,,,,,,,,,,,,,,,,,,,,,,,,,,,,,,,,,,,,,,,,,,,,,,,,,,,,,,,
1720417560,10,0,4326.922852,4281.538574,4351.794922,4340.256348,4313.461426,4290.769043,4339.743652,4314.487305,4323.205078,4310.512695,4421.538574,4502.436035,4280.512695,4438.589844,,,,,,,,,,,,,,,,,,,,,,,,,,,,,,,,,,,,,,,,,,,,,,,,,,,,,,,,,,,,,,,,,,,,,,
1720417560,11,0,4348.589844,4281.153809,4366.025879,4351.666504,4311.025879,4282.820313,4341.282227,4322.692383,4329.615234,4321.025879,4427.05127,4529.230957,4288.077148,4447.179688,,,,,,,,,,,,,,,,,,,,,,,,,,,,,,,,,,,,,,,,,,,,,,,,,,,,,,,,,,,,,,,,,,,,,,
1720417560,12,0,4342.563965,4278.846191,4357.692383,4348.974121,4311.282227,4282.563965,4338.205078,4313.846191,4326.666504,4322.94873,4433.077148,4523.333496,4296.410156,4431.794922,,,,,,,,,,,,,,,,,,,,,,,,,,,,,,,,,,,,,,,,,,,,,,,,,,,,,,,,,,,,,,,,,,,,,,
1720417560,13,0,4317.307617,4278.717773,4332.563965,4334.358887,4323.077148,4289.358887,4338.461426,4305.384766,4314.230957,4313.333496,4430,4488.974121,4293.589844,4411.538574,,,,,,,,,,,,,,,,,,,,,,,,,,,,,,,,,,,,,,,,,,,,,,,,,,,,,,,,,,,,,,,,,,,,,,
1720417560,14,0,4305.641113,4277.307617,4321.666504,4333.717773,4331.922852,4296.666504,4348.205078,4318.589844,4306.282227,4307.94873,4423.846191,4486.794922,4291.282227,4418.077148,,,,,,,,,,,,,,,,,,,,,,,,,,,,,,,,,,,,,,,,,,,,,,,,,,,,,,,,,,,,,,,,,,,,,,
1720417560,15,0,4310.641113,4281.410156,4333.589844,4348.974121,4332.05127,4307.179688,4345,4317.94873,4309.743652,4312.307617,4427.94873,4510.128418,4307.05127,4435.384766,,,,,,,,,,,,,,,,,,,,,,,,,,,,,,,,,,,,,,,,,,,,,,,,,,,,,,,,,,,,,,,,,,,,,,
1720417560,16,0,4328.846191,4291.282227,4350,4354.871582,4339.102539,4310,4342.307617,4314.743652,4313.846191,4308.717773,4445.512695,4519.487305,4318.717773,4441.538574,,,,,,,,,,,,,,,,,,,,,,,,,,,,,,,,,,,,,,,,,,,,,,,,,,,,,,,,,,,,,,,,,,,,,,
1720417560,17,0,4342.94873,4293.461426,4354.102539,4349.743652,4343.717773,4301.794922,4345.897461,4324.743652,4316.922852,4307.692383,4453.333496,4517.820313,4309.230957,4439.487305,,,,,,,,,,,,,,,,,,,,,,,,,,,,,,,,,,,,,,,,,,,,,,,,,,,,,,,,,,,,,,,,,,,,,,
1720417560,18,0,4328.846191,4288.589844,4344.358887,4345.897461,4334.358887,4294.230957,4339.615234,4321.538574,4320.512695,4312.05127,4437.05127,4509.102539,4295.128418,4428.333496,,,,,,,,,,,,,,,,,,,,,,,,,,,,,,,,,,,,,,,,,,,,,,,,,,,,,,,,,,,,,,,,,,,,,,
1720417560,19,0,4305.384766,4278.205078,4333.846191,4343.333496,4321.794922,4291.410156,4339.230957,4317.94873,4314.230957,4303.205078,4415,4494.487305,4285.769043,4417.820313,,,,,,,,,,,,,,,,,,,,,,,,,,,,,,,,,,,,,,,,,,,,,,,,,,,,,,,,,,,,,,,,,,,,,,
1720417560,20,0,4297.94873,4270.512695,4336.794922,4339.230957,4320.128418,4291.538574,4341.153809,4320.256348,4306.410156,4295.128418,4414.487305,4495.512695,4289.743652,4419.871582,,,,,,,,,,,,,,,,,,,,,,,,,,,,,,,,,,,,,,,,,,,,,,,,,,,,,,,,,,,,,,,,,,,,,,
1720417560,21,0,4314.487305,4282.820313,4351.538574,4341.282227,4331.025879,4296.538574,4340.897461,4322.94873,4311.666504,4304.615234,4430.256348,4521.153809,4310.384766,4431.282227,,,,,,,,,,,,,,,,,,,,,,,,,,,,,,,,,,,,,,,,,,,,,,,,,,,,,,,,,,,,,,,,,,,,,,
1720417560,22,0,4331.922852,4300.256348,4356.025879,4344.615234,4340.256348,4298.205078,4342.307617,4323.717773,4313.846191,4306.538574,4435.384766,4536.666504,4321.538574,4437.179688,,,,,,,,,,,,,,,,,,,,,,,,,,,,,,,,,,,,,,,,,,,,,,,,,,,,,,,,,,,,,,,,,,,,,,
1720417560,23,0,4328.974121,4298.461426,4349.743652,4342.307617,4334.871582,4295,4342.436035,4318.205078,4304.743652,4293.589844,4445,4522.820313,4310.128418,4437.94873,,,,,,,,,,,,,,,,,,,,,,,,,,,,,,,,,,,,,,,,,,,,,,,,,,,,,,,,,,,,,,,,,,,,,,
1720417560,24,0,4321.666504,4288.974121,4349.871582,4344.102539,4325,4293.974121,4340.128418,4318.333496,4304.615234,4296.922852,4462.179688,4513.589844,4310.512695,4441.666504,4.182585,3.506056,1.680571,1.105832,0.578016,1.789699,0.953255,0.566218,0.928518,0.44602,1.749602,2.129047,1.080911,1.021512,0.414571,1.250236,0.668873,0.624896,1.362397,0.675087,0.682144,0.518569,0.405752,0.177165,0.265207,0.557205,0.364031,0.178043,0.172315,0.101726,0.526967,0.309578,0.141522,0.102566,0.142121,0.287164,0.293381,0.140276,0.137719,0.180095,0.66923,1.864797,0.6848,0.384684,0.218548,1.340721,1.07794,0.873211,0.518906,0.380791,1.166826,1.054205,0.600402,1.91398,0.618344,1.79308,2.833236,0.761194,1.070511,0.488774,1.723442,2.129004,0.404549,0.571746,0.369697,2.095028,2.124543,0.954541,0.820797,0.733715
1720417560,25,0,4324.358887,4292.179688,4348.717773,4351.153809,4324.743652,4295.512695,4338.974121,4323.077148,4316.538574,4316.153809,4451.025879,4520.512695,4324.487305,4439.615234,,,,,,,,,,,,,,,,,,,,,,,,,,,,,,,,,,,,,,,,,,,,,,,,,,,,,,,,,,,,,,,,,,,,,,
1720417560,26,0,4325.512695,4297.94873,4342.820313,4351.666504,4325.769043,4296.410156,4345.384766,4323.077148,4318.974121,4321.153809,4432.563965,4526.410156,4326.538574,4442.820313,,,,,,,,,,,,,,,,,,,,,,,,,,,,,,,,,,,,,,,,,,,,,,,,,,,,,,,,,,,,,,,,,,,,,,
1720417560,27,0,4315.128418,4295.512695,4342.692383,4351.666504,4327.563965,4297.05127,4348.077148,4320,4311.282227,4313.589844,4448.846191,4522.307617,4327.692383,4445.769043,,,,,,,,,,,,,,,,,,,,,,,,,,,,,,,,,,,,,,,,,,,,,,,,,,,,,,,,,,,,,,,,,,,,,,
1720417560,28,0,4302.307617,4295.897461,4343.846191,4353.333496,4337.94873,4302.94873,4342.05127,4320.512695,4308.846191,4308.589844,4456.922852,4508.589844,4329.230957,4431.153809,,,,,,,,,,,,,,,,,,,,,,,,,,,,,,,,,,,,,,,,,,,,,,,,,,,,,,,,,,,,,,,,,,,,,,
1720417560,29,0,4295.641113,4304.102539,4337.179688,4350.897461,4344.230957,4311.794922,4341.922852,4321.025879,4311.410156,4305.512695,4429.102539,4497.307617,4319.230957,4425.384766,,,,,,,,,,,,,,,,,,,,,,,,,,,,,,,,,,,,,,,,,,,,,,,,,,,,,,,,,,,,,,,,,,,,,,
1720417560,30,0,4304.487305,4316.282227,4336.410156,4357.05127,4342.307617,4315.256348,4348.974121,4328.205078,4314.102539,4302.94873,4424.102539,4505,4312.436035,4432.436035,,,,,,,,,,,,,,,,,,,,,,,,,,,,,,,,,,,,,,,,,,,,,,,,,,,,,,,,,,,,,,,,,,,,,,
1720417560,31,0,4322.563965,4322.563965,4346.666504,4364.871582,4342.436035,4308.846191,4342.05127,4330.641113,4315.641113,4300.769043,4446.794922,4518.974121,4320.641113,4428.846191,,,,,,,,,,,,,,,,,,,,,,,,,,,,,,,,,,,,,,,,,,,,,,,,,,,,,,,,,,,,,,,,,,,,,,
