Timestamp,EEG.Counter,EEG.Interpolated,EEG.AF3,EEG.F7,EEG.F3,EEG.FC5,EEG.T7,EEG.P7,EEG.O1,EEG.O2,EEG.P8,EEG.T8,EEG.FC6,EEG.F4,EEG.F8,EEG.AF4,POW.AF3.Theta,POW.AF3.Alpha,POW.AF3.BetaL,POW.AF3.BetaH,POW.AF3.Gamma,POW.F7.Theta,POW.F7.Alpha,POW.F7.BetaL,POW.F7.BetaH,POW.F7.Gamma,POW.F3.Theta,POW.F3.Alpha,POW.F3.BetaL,POW.F3.BetaH,POW.F3.Gamma,POW.FC5.Theta,POW.FC5.Alpha,POW.FC5.BetaL,POW.FC5.BetaH,POW.FC5.Gamma,POW.T7.Theta,POW.T7.Alpha,POW.T7.BetaL,POW.T7.BetaH,POW.T7.Gamma,POW.P7.Theta,POW.P7.Alpha,POW.P7.BetaL,POW.P7.BetaH,POW.P7.Gamma,POW.O1.Theta,POW.O1.Alpha,POW.O1.BetaL,POW.O1.BetaH,POW.O1.Gamma,POW.O2.Theta,POW.O2.Alpha,POW.O2.BetaL,POW.O2.BetaH,POW.O2.Gamma,POW.P8.Theta,POW.P8.Alpha,POW.P8.BetaL,POW.P8.BetaH,POW.P8.Gamma,POW.T8.Theta,POW.T8.Alpha,POW.T8.BetaL,POW.T8.BetaH,POW.T8.Gamma,POW.FC6.Theta,POW.FC6.Alpha,POW.FC6.BetaL,POW.FC6.BetaH,POW.FC6.Gamma,POW.F4.Theta,POW.F4.Alpha,POW.F4.BetaL,POW.F4.BetaH,POW.F4.Gamma,POW.F8.Theta,POW.F8.Alpha,POW.F8.BetaL,POW.F8.BetaH,POW.F8.Gamma,POW.AF4.Theta,POW.AF4.Alpha,POW.AF4.BetaL,POW.AF4.BetaH,POW.AF4.Gamma
1720086922,27,0,4328.077148,4326.025879,4316.410156,4336.794922,4298.205078,4297.563965,4298.333496,4294.358887,4292.05127,4284.358887,4429.358887,4477.307617,4335.641113,4374.743652,,,,,,,,,,,,,,,,,,,,,,,,,,,,,,,,,,,,,,,,,,,,,,,,,,,,,,,,,,,,,,,,,,,,,,
1720086922,28,0,4335.897461,4329.615234,4327.94873,4341.922852,4308.974121,4306.153809,4306.025879,4301.153809,4297.563965,4294.615234,4437.436035,4491.538574,4345.512695,4392.692383,,,,,,,,,,,,,,,,,,,,,,,,,,,,,,,,,,,,,,,,,,,,,,,,,,,,,,,,,,,,,,,,,,,,,,
1720086922,29,0,4324.487305,4317.94873,4314.743652,4335.769043,4299.230957,4302.820313,4300.897461,4293.846191,4288.717773,4293.589844,4423.205078,4474.615234,4331.794922,4379.487305,,,,,,,,,,,,,,,,,,,,,,,,,,,,,,,,,,,,,,,,,,,,,,,,,,,,,,,,,,,,,,,,,,,,,,
1720086922,30,0,4308.589844,4305.769043,4292.307617,4321.153809,4289.615234,4292.05127,4291.025879,4281.282227,4275.128418,4277.179688,4401.282227,4441.410156,4308.589844,4349.615234,,,,,,,,,,,,,,,,,,,,,,,,,,,,,,,,,,,,,,,,,,,,,,,,,,,,,,,,,,,,,,,,,,,,,,
1720086922,31,0,4311.666504,4312.820313,4295.897461,4322.94873,4300.256348,4292.436035,4292.563965,4285.384766,4272.563965,4278.717773,4401.666504,4442.179688,4308.589844,4353.974121,,,,,,,,,,,,,,,,,,,,,,,,,,,,,,,,,,,,,,,,,,,,,,,,,,,,,,,,,,,,,,,,,,,,,,
1720086922,32,0,4321.025879,4320.512695,4311.922852,4334.871582,4300.256348,4297.179688,4295.128418,4287.94873,4277.820313,4282.563965,4414.102539,4461.153809,4323.077148,4368.846191,,,,,,,,,,,,,,,,,,,,,,,,,,,,,,,,,,,,,,,,,,,,,,,,,,,,,,,,,,,,,,,,,,,,,,
1720086922,33,0,4322.436035,4318.205078,4315.128418,4333.333496,4290.384766,4292.94873,4292.820313,4287.820313,4278.589844,4281.794922,4423.846191,4470.256348,4333.589844,4372.820313,,,,,,,,,,,,,,,,,,,,,,,,,,,,,,,,,,,,,,,,,,,,,,,,,,,,,,,,,,,,,,,,,,,,,,
1720086922,34,0,4324.102539,4315.512695,4313.333496,4326.153809,4299.871582,4290.384766,4291.794922,4290.897461,4278.205078,4287.307617,4428.974121,4472.692383,4338.846191,4377.05127,,,,,,,,,,,,,,,,,,,,,,,,,,,,,,,,,,,,,,,,,,,,,,,,,,,,,,,,,,,,,,,,,,,,,,
1720086922,35,0,4324.102539,4314.743652,4311.666504,4325.384766,4310.384766,4293.974121,4287.563965,4289.230957,4277.94873,4284.102539,4422.179688,4465.512695,4330.256348,4371.410156,,,,,,,,,,,,,,,,,,,,,,,,,,,,,,,,,,,,,,,,,,,,,,,,,,,,,,,,,,,,,,,,,,,,,,
1720086922,36,0,4324.102539,4318.205078,4310.384766,4328.205078,4309.358887,4297.05127,4285.512695,4285.769043,4273.077148,4280.641113,4407.179688,4457.692383,4316.025879,4362.563965,,,,,,,,,,,,,,,,,,,,,,,,,,,,,,,,,,,,,,,,,,,,,,,,,,,,,,,,,,,,,,,,,,,,,,
1720086922,37,0,4326.410156,4321.666504,4312.307617,4327.307617,4308.717773,4303.205078,4291.538574,4289.230957,4274.615234,4284.743652,4404.871582,4463.461426,4316.666504,4362.692383,,,,,,,,,,,,,,,,,,,,,,,,,,,,,,,,,,,,,,,,,,,,,,,,,,,,,,,,,,,,,,,,,,,,,,
1720086922,38,0,4320.769043,4313.974121,4310.384766,4322.436035,4303.077148,4308.974121,4294.743652,4296.025879,4281.025879,4285.128418,4418.717773,4472.436035,4322.307617,4365.256348,1.840873,1.447316,0.506128,0.481577,0.144451,0.834168,0.792805,0.427535,0.356115,0.188115,1.78389,1.220908,0.37475,0.509921,0.177805,1.239782,0.791417,0.497704,0.44444,0.193905,0.349655,0.339624,0.321797,0.389272,0.184589,0.6977,0.293409,0.617197,0.315702,0.161636,1.044033,0.477581,0.222533,0.147585,0.075147,0.781471,0.52042,0.293865,0.20392,0.142511,0.945798,0.584653,0.495216,0.247501,0.184113,0.244853,0.128335,0.182841,0.069332,0.124695,1.297421,1.856522,1.062933,0.462789,0.278735,2.575373,1.661303,0.689414,0.606616,0.27639,1.10032,1.788462,1.279896,0.475069,0.195317,1.98134,1.80321,0.727987,0.496762,0.234975
1720086922,39,0,4312.436035,4304.871582,4304.871582,4319.102539,4293.077148,4301.025879,4292.05127,4296.666504,4276.282227,4281.025879,4422.307617,4470.641113,4316.153809,4360.641113,,,,,,,,,,,,,,,,,,,,,,,,,,,,,,,,,,,,,,,,,,,,,,,,,,,,,,,,,,,,,,,,,,,,,,
1720086922,40,0,4318.589844,4311.538574,4307.692383,4322.179688,4292.692383,4293.717773,4292.692383,4295.384766,4270.897461,4279.230957,4417.307617,4470.641113,4316.153809,4358.589844,,,,,,,,,,,,,,,,,,,,,,,,,,,,,,,,,,,,,,,,,,,,,,,,,,,,,,,,,,,,,,,,,,,,,,
1720086922,41,0,4334.230957,4329.102539,4319.743652,4333.333496,4296.410156,4300,4296.025879,4296.410156,4280.256348,4284.102539,4426.538574,4484.358887,4335.897461,4372.05127,,,,,,,,,,,,,,,,,,,,,,,,,,,,,,,,,,,,,,,,,,,,,,,,,,,,,,,,,,,,,,,,,,,,,,
1720086922,42,0,4338.589844,4332.563965,4322.820313,4338.974121,4294.871582,4299.487305,4289.615234,4297.05127,4287.307617,4292.307617,4436.794922,4490.897461,4345.384766,4383.333496,,,,,,,,,,,,,,,,,,,,,,,,,,,,,,,,,,,,,,,,,,,,,,,,,,,,,,,,,,,,,,,,,,,,,,
1720086922,43,0,4322.436035,4315.256348,4307.307617,4327.820313,4291.538574,4293.974121,4280,4291.153809,4281.410156,4286.922852,4427.436035,4473.077148,4334.487305,4370.769043,,,,,,,,,,,,,,,,,,,,,,,,,,,,,,,,,,,,,,,,,,,,,,,,,,,,,,,,,,,,,,,,,,,,,,
1720086922,44,0,4310.128418,4305.256348,4298.205078,4315.641113,4292.692383,4303.589844,4284.487305,4289.102539,4278.333496,4280.512695,4419.615234,4463.205078,4328.846191,4360.769043,,,,,,,,,,,,,,,,,,,,,,,,,,,,,,,,,,,,,,,,,,,,,,,,,,,,,,,,,,,,,,,,,,,,,,
1720086922,45,0,4320,4312.820313,4308.589844,4320,4299.230957,4311.538574,4296.794922,4297.563965,4281.794922,4290.641113,4430,4480.897461,4333.205078,4370.384766,,,,,,,,,,,,,,,,,,,,,,,,,,,,,,,,,,,,,,,,,,,,,,,,,,,,,,,,,,,,,,,,,,,,,,
1720086922,46,0,4330.512695,4313.205078,4316.922852,4327.436035,4301.410156,4301.410156,4298.461426,4300.128418,4284.358887,4290,4432.307617,4486.538574,4330,4369.615234,,,,,,,,,,,,,,,,,,,,,,,,,,,,,,,,,,,,,,,,,,,,,,,,,,,,,,,,,,,,,,,,,,,,,,
1720086922,47,0,4323.589844,4305.897461,4313.461426,4322.436035,4295.128418,4293.077148,4292.94873,4296.410156,4279.743652,4282.820313,4417.94873,4475.897461,4317.05127,4358.974121,,,,,,,,,,,,,,,,,,,,,,,,,,,,,,,,,,,,,,,,,,,,,,,,,,,,,,,,,,,,,,,,,,,,,,
1720086922,48,0,4319.102539,4305.769043,4311.282227,4318.205078,4297.692383,4296.794922,4292.05127,4291.666504,4272.820313,4286.153809,4411.410156,4476.666504,4309.230957,4357.179688,,,,,,,,,,,,,,,,,,,,,,,,,,,,,,,,,,,,,,,,,,,,,,,,,,,,,,,,,,,,,,,,,,,,,,
1720086922,49,0,4325.769043,4311.025879,4315.128418,4321.282227,4308.461426,4297.692383,4294.743652,4291.282227,4276.922852,4288.333496,4423.589844,4486.282227,4316.282227,4366.282227,,,,,,,,,,,,,,,,,,,,,,,,,,,,,,,,,,,,,,,,,,,,,,,,,,,,,,,,,,,,,,,,,,,,,,
1720086922,50,0,4323.974121,4311.922852,4312.94873,4320.897461,4304.871582,4290.641113,4288.589844,4290.384766,4282.436035,4290.128418,4433.333496,4485.641113,4328.589844,4370.897461,,,,,,,,,,,,,,,,,,,,,,,,,,,,,,,,,,,,,,,,,,,,,,,,,,,,,,,,,,,,,,,,,,,,,,
1720086922,51,0,4314.743652,4307.820313,4307.436035,4315.897461,4291.282227,4287.94873,4278.846191,4283.205078,4275,4289.615234,4424.743652,4470.641113,4326.922852,4356.538574,,,,,,,,,,,,,,,,,,,,,,,,,,,,,,,,,,,,,,,,,,,,,,,,,,,,,,,,,,,,,,,,,,,,,,
1720086922,52,0,4324.102539,4313.205078,4314.743652,4320.641113,4293.589844,4295.512695,4284.487305,4284.871582,4272.692383,4292.179688,4426.538574,4469.743652,4325.384766,4356.025879,,,,,,,,,,,,,,,,,,,,,,,,,,,,,,,,,,,,,,,,,,,,,,,,,,,,,,,,,,,,,,,,,,,,,,
1720086922,53,0,4342.307617,4323.077148,4326.410156,4324.871582,4297.436035,4298.974121,4296.153809,4295.128418,4283.846191,4300.512695,4443.205078,4488.589844,4341.025879,4378.077148,,,,,,,,,,,,,,,,,,,,,,,,,,,,,,,,,,,,,,,,,,,,,,,,,,,,,,,,,,,,,,,,,,,,,,
1720086922,54,0,4343.974121,4318.077148,4324.743652,4316.538574,4285.128418,4294.102539,4294.615234,4298.077148,4289.743652,4302.179688,4448.974121,4499.871582,4351.410156,4391.025879,1.440791,1.004695,0.507715,0.577608,0.149107,1.039619,0.574734,0.493751,0.394337,0.218777,1.480905,0.930902,0.370828,0.572194,0.192268,1.061283,0.54935,0.536346,0.484156,0.197053,0.311754,0.379485,0.409224,0.399835,0.193679,0.679099,0.377893,0.64607,0.356977,0.175447,1.248057,0.626509,0.171083,0.168466,0.085379,0.877355,0.664616,0.254471,0.218466,0.151865,1.063696,0.65383,0.439262,0.267516,0.211854,0.286149,0.153118,0.152376,0.075504,0.126286,1.283252,1.857854,1.102303,0.548354,0.262598,2.328537,1.478201,0.755821,0.66484,0.300255,1.065909,1.732655,1.321063,0.545524,0.190172,1.040628,1.324443,0.76612,0.592612,0.248068
1720086922,55,0,4340.512695,4310.641113,4324.358887,4317.563965,4285.384766,4294.102539,4295.512695,4299.358887,4290.897461,4301.153809,4453.205078,4506.794922,4354.615234,4398.077148,,,,,,,,,,,,,,,,,,,,,,,,,,,,,,,,,,,,,,,,,,,,,,,,,,,,,,,,,,,,,,,,,,,,,,
1720086922,56,0,4344.102539,4313.333496,4332.563965,4329.615234,4298.205078,4294.615234,4302.307617,4308.717773,4297.820313,4311.153809,4464.871582,4522.563965,4360.769043,4411.922852,,,,,,,,,,,,,,,,,,,,,,,,,,,,,,,,,,,,,,,,,,,,,,,,,,,,,,,,,,,,,,,,,,,,,,
1720086922,57,0,4343.717773,4312.563965,4330.512695,4326.025879,4296.153809,4292.179688,4297.692383,4305.641113,4292.692383,4309.871582,4461.922852,4518.846191,4358.205078,4405.256348,,,,,,,,,,,,,,,,,,,,,,,,,,,,,,,,,,,,,,,,,,,,,,,,,,,,,,,,,,,,,,,,,,,,,,
1720086922,58,0,4338.077148,4310.384766,4325.512695,4320.641113,4298.333496,4300.128418,4293.077148,4298.333496,4283.974121,4298.077148,4452.692383,4504.871582,4349.487305,4387.307617,,,,,,,,,,,,,,,,,,,,,,,,,,,,,,,,,,,,,,,,,,,,,,,,,,,,,,,,,,,,,,,,,,,,,,
1720086922,59,0,4331.025879,4309.743652,4324.743652,4325.128418,4307.179688,4303.333496,4296.410156,4303.589844,4288.077148,4305.897461,4451.922852,4507.94873,4341.410156,4386.538574,,,,,,,,,,,,,,,,,,,,,,,,,,,,,,,,,,,,,,,,,,,,,,,,,,,,,,,,,,,,,,,,,,,,,,
1720086922,60,0,4325.512695,4302.05127,4315.897461,4322.692383,4303.333496,4292.692383,4293.205078,4297.94873,4286.282227,4305.384766,4440.512695,4497.179688,4331.025879,4380.897461,,,,,,,,,,,,,,,,,,,,,,,,,,,,,,,,,,,,,,,,,,,,,,,,,,,,,,,,,,,,,,,,,,,,,,
1720086922,61,0,4325.512695,4294.358887,4309.102539,4313.205078,4298.846191,4294.230957,4289.230957,4287.94873,4276.538574,4295.128418,4428.205078,4483.077148,4324.615234,4371.153809,,,,,,,,,,,,,,,,,,,,,,,,,,,,,,,,,,,,,,,,,,,,,,,,,,,,,,,,,,,,,,,,,,,,,,
1720086922,62,0,4326.025879,4295.128418,4315.128418,4311.282227,4302.692383,4305.256348,4293.589844,4296.410156,4280,4301.922852,4434.871582,4494.487305,4326.922852,4376.666504,,,,,,,,,,,,,,,,,,,,,,,,,,,,,,,,,,,,,,,,,,,,,,,,,,,,,,,,,,,,,,,,,,,,,,
1720086922,63,0,4320.256348,4294.615234,4315.512695,4310.512695,4298.461426,4300,4296.282227,4303.333496,4283.333496,4302.307617,4439.487305,4497.94873,4326.538574,4379.102539,,,,,,,,,,,,,,,,,,,,,,,,,,,,,,,,,,,,,,,,,,,,,,,,,,,,,,,,,,,,,,,,,,,,,,
1720086922,64,0,4317.05127,4292.94873,4307.563965,4309.358887,4293.974121,4290.641113,4295.512695,4295.128418,4277.820313,4295.128418,4438.974121,4490.641113,4330.128418,4378.333496,,,,,,,,,,,,,,,,,,,,,,,,,,,,,,,,,,,,,,,,,,,,,,,,,,,,,,,,,,,,,,,,,,,,,,
1720086922,65,0,4321.922852,4297.436035,4309.615234,4313.077148,4296.153809,4293.333496,4295.641113,4292.94873,4282.692383,4299.358887,4449.743652,4499.230957,4345.897461,4387.820313,,,,,,,,,,,,,,,,,,,,,,,,,,,,,,,,,,,,,,,,,,,,,,,,,,,,,,,,,,,,,,,,,,,,,,
1720086922,66,0,4325,4298.589844,4314.743652,4310.128418,4291.666504,4293.717773,4291.282227,4294.743652,4285.641113,4302.563965,4455.897461,4506.538574,4357.05127,4392.436035,,,,,,,,,,,,,,,,,,,,,,,,,,,,,,,,,,,,,,,,,,,,,,,,,,,,,,,,,,,,,,,,,,,,,,
1720086922,67,0,4323.077148,4295.897461,4310.384766,4305.769043,4291.538574,4290.256348,4289.358887,4290.512695,4280.641113,4302.436035,4449.743652,4500.512695,4352.563965,4386.410156,,,,,,,,,,,,,,,,,,,,,,,,,,,,,,,,,,,,,,,,,,,,,,,,,,,,,,,,,,,,,,,,,,,,,,
1720086922,68,0,4319.102539,4295.897461,4303.717773,4307.307617,4291.153809,4293.974121,4293.717773,4288.974121,4290.128418,4303.205078,4445.512695,4496.922852,4342.563965,4383.077148,,,,,,,,,,,,,,,,,,,,,,,,,,,,,,,,,,,,,,,,,,,,,,,,,,,,,,,,,,,,,,,,,,,,,,
1720086922,69,0,4314.487305,4292.692383,4302.820313,4301.922852,4278.717773,4299.358887,4294.487305,4291.153809,4298.589844,4298.974121,4444.230957,4495.641113,4337.692383,4380.897461,,,,,,,,,,,,,,,,,,,,,,,,,,,,,,,,,,,,,,,,,,,,,,,,,,,,,,,,,,,,,,,,,,,,,,
1720086922,70,0,4317.94873,4291.410156,4309.102539,4299.230957,4280.128418,4299.358887,4295.128418,4297.05127,4293.205078,4303.333496,4445,4496.794922,4339.615234,4378.846191,1.381359,0.941007,0.611328,0.677301,0.163494,1.355229,0.559038,0.624698,0.433715,0.25816,1.206413,0.855422,0.445652,0.61169,0.209109,0.980313,0.524739,0.640061,0.523705,0.207614,0.295463,0.42431,0.515652,0.398052,0.219888,0.629811,0.461,0.638198,0.385408,0.198609,1.399719,0.761175,0.145243,0.18904,0.104233,0.922029,0.796508,0.247007,0.23407,0.160804,1.125151,0.70349,0.434316,0.299371,0.243774,0.321294,0.175234,0.137255,0.083836,0.13133,1.394815,1.953146,1.238827,0.654231,0.264693,2.119633,1.479107,0.898174,0.740891,0.336305,1.212309,1.813377,1.46021,0.642392,0.198775,0.810734,1.149798,0.902172,0.694183,0.266553
1720086922,71,0,4323.077148,4294.871582,4313.974121,4307.563965,4295.769043,4298.333496,4298.589844,4299.102539,4290.128418,4309.230957,4443.205078,4497.05127,4334.230957,4374.358887,,,,,,,,,,,,,,,,,,,,,,,,,,,,,,,,,,,,,,,,,,,,,,,,,,,,,,,,,,,,,,,,,,,,,,
1720086922,72,0,4315.256348,4295.769043,4312.179688,4312.05127,4299.102539,4302.563965,4297.94873,4294.487305,4290.512695,4298.461426,4434.743652,4492.820313,4324.615234,4370.769043,,,,,,,,,,,,,,,,,,,,,,,,,,,,,,,,,,,,,,,,,,,,,,,,,,,,,,,,,,,,,,,,,,,,,,
1720086922,73,0,4310.897461,4297.05127,4309.871582,4312.179688,4295.512695,4306.282227,4295.769043,4292.05127,4279.487305,4291.538574,4429.743652,4493.205078,4326.794922,4376.538574,,,,,,,,,,,,,,,,,,,,,,,,,,,,,,,,,,,,,,,,,,,,,,,,,,,,,,,,,,,,,,,,,,,,,,
1720086922,74,0,4322.05127,4307.179688,4316.282227,4321.153809,4306.153809,4301.538574,4294.871582,4290,4270.897461,4294.871582,4434.743652,4496.282227,4335.256348,4383.333496,,,,,,,,,,,,,,,,,,,,,,,,,,,,,,,,,,,,,,,,,,,,,,,,,,,,,,,,,,,,,,,,,,,,,,
1720086922,75,0,4331.410156,4318.077148,4325.769043,4334.102539,4315.769043,4296.538574,4297.05127,4293.333496,4279.102539,4297.179688,4448.205078,4504.358887,4345.897461,4390.256348,,,,,,,,,,,,,,,,,,,,,,,,,,,,,,,,,,,,,,,,,,,,,,,,,,,,,,,,,,,,,,,,,,,,,,
1720086922,76,0,4324.743652,4315.512695,4320.641113,4329.358887,4307.307617,4297.820313,4297.179688,4297.436035,4282.307617,4294.615234,4452.179688,4506.153809,4348.974121,4387.307617,,,,,,,,,,,,,,,,,,,,,,,,,,,,,,,,,,,,,,,,,,,,,,,,,,,,,,,,,,,,,,,,,,,,,,
1720086922,77,0,4305.897461,4297.307617,4293.589844,4305.897461,4291.922852,4296.922852,4285.384766,4285.769043,4267.179688,4285.384766,4429.358887,4481.025879,4326.538574,4359.615234,,,,,,,,,,,,,,,,,,,,,,,,,,,,,,,,,,,,,,,,,,,,,,,,,,,,,,,,,,,,,,,,,,,,,,
1720086922,78,0,4290.897461,4278.205078,4276.025879,4290.641113,4288.717773,4292.94873,4278.974121,4274.743652,4261.282227,4285.256348,4412.692383,4459.615234,4307.05127,4340.769043,,,,,,,,,,,,,,,,,,,,,,,,,,,,,,,,,,,,,,,,,,,,,,,,,,,,,,,,,,,,,,,,,,,,,,
1720086922,79,0,4289.487305,4273.717773,4281.666504,4290.128418,4296.538574,4299.358887,4288.974121,4282.436035,4271.794922,4289.102539,4422.692383,4466.025879,4317.692383,4348.205078,,,,,,,,,,,,,,,,,,,,,,,,,,,,,,,,,,,,,,,,,,,,,,,,,,,,,,,,,,,,,,,,,,,,,,
1720086922,80,0,4299.358887,4281.538574,4290.128418,4294.358887,4297.05127,4307.179688,4298.717773,4294.871582,4279.358887,4288.974121,4433.461426,4482.436035,4331.410156,4360.128418,,,,,,,,,,,,,,,,,,,,,,,,,,,,,,,,,,,,,,,,,,,,,,,,,,,,,,,,,,,,,,,,,,,,,,
1720086922,81,0,4315.512695,4300.384766,4303.589844,4308.974121,4295.256348,4302.94873,4298.461426,4298.589844,4286.282227,4299.102539,4438.717773,4495.256348,4336.794922,4372.563965,,,,,,,,,,,,,,,,,,,,,,,,,,,,,,,,,,,,,,,,,,,,,,,,,,,,,,,,,,,,,,,,,,,,,,
1720086922,82,0,4333.589844,4323.589844,4320,4330.512695,4302.94873,4301.025879,4296.282227,4297.05127,4290.512695,4306.153809,4446.666504,4500.641113,4344.102539,4385.128418,,,,,,,,,,,,,,,,,,,,,,,,,,,,,,,,,,,,,,,,,,,,,,,,,,,,,,,,,,,,,,,,,,,,,,
1720086922,83,0,4339.230957,4333.333496,4321.410156,4336.025879,4310.384766,4302.05127,4294.615234,4293.077148,4280.897461,4292.307617,4443.333496,4497.692383,4336.538574,4378.846191,,,,,,,,,,,,,,,,,,,,,,,,,,,,,,,,,,,,,,,,,,,,,,,,,,,,,,,,,,,,,,,,,,,,,,
1720086922,84,0,4333.717773,4327.307617,4316.794922,4329.487305,4309.487305,4302.94873,4293.461426,4294.871582,4275.769043,4288.589844,4427.94873,4495.384766,4316.666504,4367.692383,,,,,,,,,,,,,,,,,,,,,,,,,,,,,,,,,,,,,,,,,,,,,,,,,,,,,,,,,,,,,,,,,,,,,,
1720086922,85,0,4329.230957,4321.282227,4318.333496,4325.641113,4306.922852,4307.563965,4294.871582,4295.128418,4281.538574,4300.769043,4417.179688,4490.641113,4308.461426,4364.487305,,,,,,,,,,,,,,,,,,,,,,,,,,,,,,,,,,,,,,,,,,,,,,,,,,,,,,,,,,,,,,,,,,,,,,
1720086922,86,0,4327.820313,4322.436035,4316.538574,4324.230957,4311.922852,4306.153809,4295.256348,4286.794922,4279.230957,4295,4420.641113,4480.512695,4313.077148,4357.692383,1.391092,1.06807,0.756524,0.730953,0.187182,1.662407,0.681351,0.788541,0.450263,0.297937,0.957475,0.891649,0.554815,0.60441,0.228852,0.986954,0.625808,0.776064,0.536823,0.222518,0.291732,0.463062,0.61223,0.387139,0.25495,0.564394,0.508739,0.598005,0.393245,0.224104,1.45543,0.833648,0.142809,0.200306,0.127137,0.889145,0.859502,0.253775,0.240636,0.167212,1.097146,0.718169,0.46217,0.320478,0.271393,0.339847,0.187584,0.137606,0.089897,0.138692,1.452657,2.018868,1.3797,0.738913,0.282729,1.848498,1.547328,1.060466,0.798114,0.379029,1.345795,1.899782,1.628131,0.727208,0.218121,0.73821,1.118365,1.057009,0.765339,0.289876
1720086922,87,0,4326.922852,4323.333496,4315.384766,4326.410156,4313.205078,4297.820313,4297.05127,4290.256348,4277.179688,4291.282227,4434.102539,4485.512695,4321.922852,4362.307617,,,,,,,,,,,,,,,,,,,,,,,,,,,,,,,,,,,,,,,,,,,,,,,,,,,,,,,,,,,,,,,,,,,,,,
1720086922,88,0,4317.94873,4308.333496,4310.769043,4315,4300.128418,4292.692383,4295.512695,4292.692383,4276.794922,4296.410156,4431.410156,4485,4323.077148,4366.153809,,,,,,,,,,,,,,,,,,,,,,,,,,,,,,,,,,,,,,,,,,,,,,,,,,,,,,,,,,,,,,,,,,,,,,
1720086922,89,0,4304.743652,4289.230957,4294.358887,4293.205078,4287.563965,4294.102539,4291.794922,4283.589844,4270.256348,4289.615234,4416.282227,4467.05127,4313.846191,4352.307617,,,,,,,,,,,,,,,,,,,,,,,,,,,,,,,,,,,,,,,,,,,,,,,,,,,,,,,,,,,,,,,,,,,,,,
1720086922,90,0,4303.717773,4292.563965,4290.769043,4291.153809,4288.589844,4300,4294.743652,4285.384766,4271.794922,4289.487305,4414.358887,4463.589844,4307.94873,4346.922852,,,,,,,,,,,,,,,,,,,,,,,,,,,,,,,,,,,,,,,,,,,,,,,,,,,,,,,,,,,,,,,,,,,,,,
1720086922,91,0,4315,4308.205078,4303.077148,4307.692383,4295.897461,4302.692383,4297.692383,4292.05127,4279.230957,4294.358887,4419.230957,4469.102539,4311.153809,4353.461426,,,,,,,,,,,,,,,,,,,,,,,,,,,,,,,,,,,,,,,,,,,,,,,,,,,,,,,,,,,,,,,,,,,,,,
1720086922,92,0,4325.897461,4316.153809,4312.05127,4324.487305,4302.436035,4292.94873,4296.025879,4291.922852,4281.410156,4292.436035,4426.153809,4471.538574,4321.794922,4358.589844,,,,,,,,,,,,,,,,,,,,,,,,,,,,,,,,,,,,,,,,,,,,,,,,,,,,,,,,,,,,,,,,,,,,,,
1720086922,93,0,4324.615234,4317.820313,4307.692383,4326.025879,4306.538574,4288.333496,4293.205078,4288.717773,4277.436035,4291.025879,4426.922852,4467.94873,4322.820313,4358.461426,,,,,,,,,,,,,,,,,,,,,,,,,,,,,,,,,,,,,,,,,,,,,,,,,,,,,,,,,,,,,,,,,,,,,,
1720086922,94,0,4322.436035,4322.179688,4300.128418,4323.846191,4305.641113,4296.666504,4291.922852,4285.897461,4267.820313,4291.538574,4417.820313,4460.256348,4317.05127,4357.436035,,,,,,,,,,,,,,,,,,,,,,,,,,,,,,,,,,,,,,,,,,,,,,,,,,,,,,,,,,,,,,,,,,,,,,
1720086922,95,0,4326.794922,4324.615234,4303.461426,4328.589844,4303.717773,4299.230957,4291.025879,4285.256348,4261.666504,4293.077148,4419.871582,4461.666504,4321.153809,4360.769043,,,,,,,,,,,,,,,,,,,,,,,,,,,,,,,,,,,,,,,,,,,,,,,,,,,,,,,,,,,,,,,,,,,,,,
1720086922,96,0,4322.307617,4316.538574,4306.282227,4325.512695,4301.282227,4295.641113,4289.102539,4285.897461,4267.692383,4293.717773,4428.846191,4468.461426,4321.282227,4363.333496,,,,,,,,,,,,,,,,,,,,,,,,,,,,,,,,,,,,,,,,,,,,,,,,,,,,,,,,,,,,,,,,,,,,,,
1720086922,97,0,4314.743652,4310.128418,4306.153809,4315.256348,4299.358887,4295.128418,4290.769043,4287.563965,4275.512695,4291.410156,4426.794922,4468.461426,4314.871582,4357.436035,,,,,,,,,,,,,,,,,,,,,,,,,,,,,,,,,,,,,,,,,,,,,,,,,,,,,,,,,,,,,,,,,,,,,,
1720086922,98,0,4316.794922,4307.05127,4310,4313.461426,4298.846191,4296.666504,4294.743652,4292.436035,4276.025879,4292.563965,4422.563965,4467.436035,4315.897461,4347.820313,,,,,,,,,,,,,,,,,,,,,,,,,,,,,,,,,,,,,,,,,,,,,,,,,,,,,,,,,,,,,,,,,,,,,,
1720086922,99,0,4315.384766,4297.05127,4305,4311.666504,4294.358887,4295.384766,4294.230957,4292.05127,4274.615234,4294.230957,4419.358887,4465.897461,4316.666504,4338.589844,,,,,,,,,,,,,,,,,,,,,,,,,,,,,,,,,,,,,,,,,,,,,,,,,,,,,,,,,,,,,,,,,,,,,,
1720086922,100,0,4308.717773,4290.384766,4291.922852,4304.102539,4292.563965,4294.615234,4292.563965,4286.922852,4274.743652,4287.179688,4417.820313,4458.846191,4311.282227,4332.307617,,,,,,,,,,,,,,,,,,,,,,,,,,,,,,,,,,,,,,,,,,,,,,,,,,,,,,,,,,,,,,,,,,,,,,
1720086922,101,0,4308.461426,4293.205078,4293.589844,4303.717773,4295.256348,4303.589844,4295.769043,4296.025879,4279.358887,4289.743652,4426.025879,4461.282227,4317.820313,4337.05127,,,,,,,,,,,,,,,,,,,,,,,,,,,,,,,,,,,,,,,,,,,,,,,,,,,,,,,,,,,,,,,,,,,,,,
1720086922,102,0,4310.128418,4291.410156,4301.538574,4307.307617,4292.179688,4307.692383,4297.692383,4300.512695,4282.05127,4294.615234,4429.743652,4467.436035,4326.282227,4340.512695,1.45857,1.231981,0.896031,0.714048,0.217635,1.851002,0.850433,0.955016,0.433693,0.328831,0.764767,0.930661,0.661788,0.55065,0.25199,1.019799,0.739563,0.909834,0.510098,0.237275,0.288441,0.505821,0.667019,0.371657,0.287089,0.489441,0.503193,0.538804,0.377949,0.246038,1.367234,0.815613,0.160013,0.199778,0.148409,0.774042,0.831738,0.261309,0.235307,0.17003,0.97971,0.716604,0.494536,0.31815,0.287155,0.343212,0.195595,0.148047,0.090939,0.146635,1.399103,2.016356,1.46012,0.780639,0.309341,1.51106,1.603762,1.216486,0.82343,0.422117,1.367808,1.983292,1.77704,0.778388,0.243671,0.766352,1.153243,1.202924,0.792774,0.316081
1720086922,103,0,4307.436035,4287.05127,4296.794922,4304.743652,4287.820313,4300.256348,4295.128418,4291.282227,4276.025879,4285.641113,4424.743652,4464.487305,4319.743652,4335.641113,,,,,,,,,,,,,,,,,,,,,,,,,,,,,,,,,,,,,,,,,,,,,,,,,,,,,,,,,,,,,,,,,,,,,,
1720086922,104,0,4308.333496,4291.922852,4298.077148,4306.666504,4297.563965,4296.794922,4295.641113,4294.358887,4273.974121,4284.743652,4430,4466.794922,4313.205078,4334.871582,,,,,,,,,,,,,,,,,,,,,,,,,,,,,,,,,,,,,,,,,,,,,,,,,,,,,,,,,,,,,,,,,,,,,,
1720086922,105,0,4308.589844,4297.820313,4306.153809,4313.589844,4305.641113,4301.666504,4298.717773,4300.512695,4281.410156,4289.871582,4432.563965,4468.846191,4312.436035,4332.820313,,,,,,,,,,,,,,,,,,,,,,,,,,,,,,,,,,,,,,,,,,,,,,,,,,,,,,,,,,,,,,,,,,,,,,
1720086922,106,0,4300.897461,4296.410156,4298.846191,4311.282227,4295.256348,4295.897461,4293.589844,4291.922852,4278.589844,4285.384766,4417.94873,4456.025879,4307.05127,4327.05127,,,,,,,,,,,,,,,,,,,,,,,,,,,,,,,,,,,,,,,,,,,,,,,,,,,,,,,,,,,,,,,,,,,,,,
1720086922,107,0,4290.384766,4292.820313,4279.871582,4302.179688,4288.717773,4283.589844,4282.179688,4279.871582,4263.974121,4278.461426,4402.820313,4436.666504,4296.282227,4319.102539,,,,,,,,,,,,,,,,,,,,,,,,,,,,,,,,,,,,,,,,,,,,,,,,,,,,,,,,,,,,,,,,,,,,,,
1720086922,108,0,4287.94873,4295.384766,4274.743652,4303.846191,4296.922852,4285.256348,4279.871582,4279.615234,4261.922852,4280.384766,4401.794922,4434.358887,4295.256348,4314.487305,,,,,,,,,,,,,,,,,,,,,,,,,,,,,,,,,,,,,,,,,,,,,,,,,,,,,,,,,,,,,,,,,,,,,,
1720086922,109,0,4293.589844,4299.871582,4280.769043,4306.794922,4294.102539,4292.94873,4283.974121,4282.820313,4267.179688,4283.846191,4410.769043,4443.974121,4303.589844,4319.487305,,,,,,,,,,,,,,,,,,,,,,,,,,,,,,,,,,,,,,,,,,,,,,,,,,,,,,,,,,,,,,,,,,,,,,
1720086922,110,0,4302.563965,4303.846191,4290.256348,4305.128418,4286.410156,4292.307617,4281.153809,4279.230957,4265.128418,4282.436035,4418.717773,4448.974121,4313.077148,4332.436035,,,,,,,,,,,,,,,,,,,,,,,,,,,,,,,,,,,,,,,,,,,,,,,,,,,,,,,,,,,,,,,,,,,,,,
1720086922,111,0,4312.436035,4310,4303.077148,4311.282227,4291.153809,4288.205078,4278.205078,4278.077148,4269.230957,4280.256348,4426.153809,4454.102539,4324.230957,4344.230957,,,,,,,,,,,,,,,,,,,,,,,,,,,,,,,,,,,,,,,,,,,,,,,,,,,,,,,,,,,,,,,,,,,,,,
1720086922,112,0,4312.820313,4309.230957,4303.974121,4315.384766,4291.153809,4288.717773,4284.487305,4286.025879,4278.846191,4284.487305,4433.333496,4461.538574,4328.589844,4348.461426,,,,,,,,,,,,,,,,,,,,,,,,,,,,,,,,,,,,,,,,,,,,,,,,,,,,,,,,,,,,,,,,,,,,,,
1720086922,113,0,4308.717773,4308.333496,4296.282227,4311.282227,4288.589844,4293.461426,4292.94873,4294.743652,4278.974121,4291.025879,4436.282227,4468.333496,4330.256348,4353.461426,,,,,,,,,,,,,,,,,,,,,,,,,,,,,,,,,,,,,,,,,,,,,,,,,,,,,,,,,,,,,,,,,,,,,,
1720086922,114,0,4312.05127,4309.615234,4298.077148,4312.05127,4292.820313,4295.641113,4296.025879,4294.871582,4279.743652,4284.871582,4433.077148,4466.025879,4332.692383,4351.025879,,,,,,,,,,,,,,,,,,,,,,,,,,,,,,,,,,,,,,,,,,,,,,,,,,,,,,,,,,,,,,,,,,,,,,
1720086922,115,0,4310.256348,4301.410156,4302.820313,4310.128418,4288.846191,4293.333496,4294.487305,4292.94873,4282.563965,4282.820313,4426.153809,4456.410156,4323.974121,4341.153809,,,,,,,,,,,,,,,,,,,,,,,,,,,,,,,,,,,,,,,,,,,,,,,,,,,,,,,,,,,,,,,,,,,,,,
1720086922,116,0,4304.871582,4299.487305,4304.487305,4308.717773,4291.025879,4293.333496,4293.077148,4294.871582,4279.615234,4288.974121,4423.589844,4456.922852,4315.769043,4342.820313,,,,,,,,,,,,,,,,,,,,,,,,,,,,,,,,,,,,,,,,,,,,,,,,,,,,,,,,,,,,,,,,,,,,,,
1720086922,117,0,4311.410156,4311.025879,4307.692383,4318.589844,4311.282227,4298.589844,4296.410156,4299.102539,4284.615234,4287.05127,4426.025879,4465.641113,4325.128418,4350.769043,,,,,,,,,,,,,,,,,,,,,,,,,,,,,,,,,,,,,,,,,,,,,,,,,,,,,,,,,,,,,,,,,,,,,,
1720086922,118,0,4310.512695,4305.384766,4304.487305,4318.333496,4310.897461,4296.794922,4297.307617,4299.102539,4292.563965,4286.153809,4427.05127,4463.461426,4329.615234,4348.205078,1.529048,1.36946,1.033279,0.641872,0.249955,1.859329,1.013231,1.138831,0.394637,0.344002,0.636365,0.957153,0.7771,0.477537,0.276561,1.008821,0.816052,1.049046,0.451867,0.248546,0.279186,0.580742,0.664473,0.35399,0.307133,0.416939,0.454171,0.476947,0.342847,0.259531,1.162804,0.717073,0.196533,0.191164,0.162796,0.612645,0.739674,0.270631,0.222479,0.169387,0.801539,0.745602,0.510017,0.295673,0.286913,0.339074,0.215868,0.161047,0.087753,0.154015,1.239199,1.991808,1.46955,0.791654,0.3353,1.157065,1.66213,1.385252,0.834043,0.458505,1.283851,2.139549,1.898589,0.806904,0.270174,0.849976,1.266315,1.373837,0.797755,0.340363
1720086922,119,0,4295.897461,4288.333496,4295.128418,4307.436035,4293.205078,4292.05127,4293.333496,4293.846191,4284.358887,4287.563965,4426.282227,4452.307617,4323.333496,4341.794922,,,,,,,,,,,,,,,,,,,,,,,,,,,,,,,,,,,,,,,,,,,,,,,,,,,,,,,,,,,,,,,,,,,,,,
1720086922,120,0,4293.333496,4288.717773,4295.769043,4307.307617,4291.282227,4292.436035,4292.820313,4292.692383,4277.94873,4285.769043,4429.358887,4454.871582,4323.974121,4347.436035,,,,,,,,,,,,,,,,,,,,,,,,,,,,,,,,,,,,,,,,,,,,,,,,,,,,,,,,,,,,,,,,,,,,,,
1720086922,121,0,4305.256348,4296.922852,4302.05127,4310.641113,4297.692383,4293.589844,4293.589844,4295.897461,4288.974121,4289.102539,4433.717773,4463.974121,4328.077148,4352.692383,,,,,,,,,,,,,,,,,,,,,,,,,,,,,,,,,,,,,,,,,,,,,,,,,,,,,,,,,,,,,,,,,,,,,,
1720086922,122,0,4316.922852,4305.769043,4308.333496,4315,4305.641113,4295,4295.641113,4299.102539,4297.179688,4292.179688,4434.871582,4466.922852,4331.922852,4353.205078,,,,,,,,,,,,,,,,,,,,,,,,,,,,,,,,,,,,,,,,,,,,,,,,,,,,,,,,,,,,,,,,,,,,,,
1720086922,123,0,4318.846191,4313.589844,4307.05127,4319.230957,4303.333496,4296.025879,4299.871582,4299.102539,4289.102539,4290.512695,4432.05127,4463.333496,4331.153809,4353.589844,,,,,,,,,,,,,,,,,,,,,,,,,,,,,,,,,,,,,,,,,,,,,,,,,,,,,,,,,,,,,,,,,,,,,,
1720086922,124,0,4310.256348,4310,4296.025879,4313.461426,4295,4295.384766,4293.333496,4293.717773,4277.94873,4288.974121,4422.307617,4451.794922,4319.871582,4346.538574,,,,,,,,,,,,,,,,,,,,,,,,,,,,,,,,,,,,,,,,,,,,,,,,,,,,,,,,,,,,,,,,,,,,,,
1720086922,125,0,4302.692383,4306.153809,4292.179688,4307.563965,4301.922852,4294.615234,4284.615234,4289.871582,4277.820313,4282.94873,4413.461426,4443.461426,4310.641113,4338.333496,,,,,,,,,,,,,,,,,,,,,,,,,,,,,,,,,,,,,,,,,,,,,,,,,,,,,,,,,,,,,,,,,,,,,,
1720086922,126,0,4302.436035,4310.384766,4297.820313,4313.077148,4308.205078,4292.563965,4288.589844,4291.666504,4281.153809,4280.769043,4410.512695,4445.641113,4309.230957,4341.922852,,,,,,,,,,,,,,,,,,,,,,,,,,,,,,,,,,,,,,,,,,,,,,,,,,,,,,,,,,,,,,,,,,,,,,
1720086922,127,0,4297.563965,4307.179688,4289.871582,4313.589844,4293.461426,4288.333496,4287.563965,4286.153809,4273.205078,4284.871582,4406.666504,4441.538574,4306.025879,4340.128418,,,,,,,,,,,,,,,,,,,,,,,,,,,,,,,,,,,,,,,,,,,,,,,,,,,,,,,,,,,,,,,,,,,,,,
1720086922,0,0,4290.897461,4297.563965,4277.436035,4308.846191,4291.282227,4288.333496,4276.410156,4272.563965,4268.461426,4278.205078,4405,4428.717773,4308.205078,4328.461426,,,,,,,,,,,,,,,,,,,,,,,,,,,,,,,,,,,,,,,,,,,,,,,,,,,,,,,,,,,,,,,,,,,,,,
1720086923,1,0,4296.538574,4300.128418,4285.256348,4309.743652,4307.179688,4294.871582,4276.282227,4273.589844,4276.153809,4276.922852,4410.384766,4432.563965,4319.615234,4331.410156,,,,,,,,,,,,,,,,,,,,,,,,,,,,,,,,,,,,,,,,,,,,,,,,,,,,,,,,,,,,,,,,,,,,,,
1720086923,2,0,4306.153809,4307.563965,4297.05127,4310.641113,4304.487305,4294.358887,4287.563965,4283.461426,4282.94873,4285.512695,4419.871582,4446.538574,4326.282227,4343.333496,,,,,,,,,,,,,,,,,,,,,,,,,,,,,,,,,,,,,,,,,,,,,,,,,,,,,,,,,,,,,,,,,,,,,,
1720086923,3,0,4311.025879,4308.205078,4295.897461,4313.846191,4293.974121,4288.974121,4291.410156,4284.615234,4284.358887,4284.743652,4427.692383,4451.282227,4331.538574,4350.641113,,,,,,,,,,,,,,,,,,,,,,,,,,,,,,,,,,,,,,,,,,,,,,,,,,,,,,,,,,,,,,,,,,,,,,
1720086923,4,0,4310.641113,4306.153809,4293.974121,4318.974121,4292.692383,4292.94873,4285.641113,4278.589844,4276.410156,4281.282227,4428.974121,4449.743652,4335.384766,4356.922852,,,,,,,,,,,,,,,,,,,,,,,,,,,,,,,,,,,,,,,,,,,,,,,,,,,,,,,,,,,,,,,,,,,,,,
1720086923,5,0,4309.743652,4308.077148,4302.307617,4322.563965,4298.846191,4298.589844,4284.230957,4277.94873,4267.563965,4278.974121,4425.512695,4450.512695,4328.846191,4356.666504,,,,,,,,,,,,,,,,,,,,,,,,,,,,,,,,,,,,,,,,,,,,,,,,,,,,,,,,,,,,,,,,,,,,,,
1720086923,6,0,4310.512695,4306.794922,4307.307617,4322.820313,4303.333496,4296.025879,4292.307617,4286.153809,4276.794922,4280.256348,4425.256348,4459.743652,4323.461426,4357.692383,1.559222,1.480498,1.196339,0.556899,0.277532,1.693832,1.184149,1.3918,0.360349,0.341321,0.585344,1.02081,0.932082,0.425385,0.2984,0.924195,0.895025,1.24838,0.388907,0.255036,0.264618,0.710883,0.623456,0.335882,0.31204,0.34998,0.389882,0.424178,0.297387,0.261712,0.879394,0.578261,0.250462,0.180204,0.167139,0.445909,0.634416,0.290512,0.209264,0.166366,0.614115,0.844031,0.50193,0.268534,0.271883,0.33807,0.26124,0.169398,0.083482,0.160374,1.02444,1.997722,1.431006,0.806527,0.353981,0.865647,1.773478,1.589582,0.857177,0.481177,1.109794,2.408412,1.986966,0.847013,0.292957,1.021048,1.465663,1.607751,0.818926,0.356554
1720086923,7,0,4310.769043,4299.871582,4305.128418,4318.461426,4299.358887,4297.436035,4298.717773,4290,4291.025879,4288.333496,4430.769043,4468.974121,4328.333496,4366.922852,,,,,,,,,,,,,,,,,,,,,,,,,,,,,,,,,,,,,,,,,,,,,,,,,,,,,,,,,,,,,,,,,,,,,,
1720086923,8,0,4304.743652,4294.743652,4304.358887,4311.538574,4294.615234,4307.179688,4296.153809,4287.94873,4287.820313,4290.256348,4428.846191,4466.794922,4327.820313,4366.153809,,,,,,,,,,,,,,,,,,,,,,,,,,,,,,,,,,,,,,,,,,,,,,,,,,,,,,,,,,,,,,,,,,,,,,
1720086923,9,0,4297.94873,4290.897461,4302.179688,4309.615234,4294.615234,4308.205078,4295.512695,4289.615234,4284.487305,4287.05127,4421.666504,4460.256348,4320.128418,4355.769043,,,,,,,,,,,,,,,,,,,,,,,,,,,,,,,,,,,,,,,,,,,,,,,,,,,,,,,,,,,,,,,,,,,,,,
1720086923,10,0,4301.794922,4294.358887,4297.179688,4315.256348,4296.666504,4297.05127,4297.563965,4295.769043,4289.743652,4290.128418,4422.436035,4461.282227,4320.512695,4355.512695,,,,,,,,,,,,,,,,,,,,,,,,,,,,,,,,,,,,,,,,,,,,,,,,,,,,,,,,,,,,,,,,,,,,,,
1720086923,11,0,4306.410156,4304.358887,4296.282227,4321.922852,4302.563965,4293.717773,4295.897461,4292.05127,4288.461426,4288.717773,4425.897461,4459.102539,4324.871582,4356.410156,,,,,,,,,,,,,,,,,,,,,,,,,,,,,,,,,,,,,,,,,,,,,,,,,,,,,,,,,,,,,,,,,,,,,,
1720086923,12,0,4306.282227,4311.538574,4298.589844,4328.077148,4311.282227,4301.410156,4295.384766,4288.589844,4287.820313,4284.358887,4428.846191,4454.871582,4329.743652,4352.692383,,,,,,,,,,,,,,,,,,,,,,,,,,,,,,,,,,,,,,,,,,,,,,,,,,,,,,,,,,,,,,,,,,,,,,
1720086923,13,0,4305.384766,4313.205078,4297.307617,4330.384766,4305.641113,4301.153809,4295.897461,4292.563965,4287.436035,4290.641113,4434.871582,4457.563965,4338.846191,4357.436035,,,,,,,,,,,,,,,,,,,,,,,,,,,,,,,,,,,,,,,,,,,,,,,,,,,,,,,,,,,,,,,,,,,,,,
1720086923,14,0,4297.94873,4306.410156,4291.538574,4321.666504,4291.282227,4289.230957,4287.436035,4284.230957,4280.128418,4285.769043,4430.256348,4448.589844,4336.794922,4357.179688,,,,,,,,,,,,,,,,,,,,,,,,,,,,,,,,,,,,,,,,,,,,,,,,,,,,,,,,,,,,,,,,,,,,,,
1720086923,15,0,4293.461426,4298.461426,4288.717773,4311.153809,4286.025879,4286.538574,4278.461426,4277.05127,4274.487305,4276.666504,4418.974121,4436.922852,4325.897461,4347.436035,,,,,,,,,,,,,,,,,,,,,,,,,,,,,,,,,,,,,,,,,,,,,,,,,,,,,,,,,,,,,,,,,,,,,,
1720086923,16,0,4305.897461,4303.333496,4292.179688,4313.077148,4290.384766,4294.615234,4285.256348,4284.358887,4275.769043,4283.077148,4425.897461,4443.205078,4328.077148,4349.615234,,,,,,,,,,,,,,,,,,,,,,,,,,,,,,,,,,,,,,,,,,,,,,,,,,,,,,,,,,,,,,,,,,,,,,
1720086923,17,0,4316.666504,4315.384766,4300.512695,4323.077148,4300.769043,4299.230957,4295.769043,4289.487305,4279.102539,4287.563965,4435.769043,4455,4337.563965,4360.641113,,,,,,,,,,,,,,,,,,,,,,,,,,,,,,,,,,,,,,,,,,,,,,,,,,,,,,,,,,,,,,,,,,,,,,
1720086923,18,0,4311.153809,4310,4302.05127,4318.077148,4302.820313,4294.230957,4295.769043,4287.94873,4278.589844,4286.282227,4428.717773,4457.820313,4338.205078,4363.974121,,,,,,,,,,,,,,,,,,,,,,,,,,,,,,,,,,,,,,,,,,,,,,,,,,,,,,,,,,,,,,,,,,,,,,
1720086923,19,0,4307.94873,4298.205078,4296.282227,4310.641113,4295,4289.871582,4293.974121,4290.641113,4277.307617,4285.256348,4425.641113,4455.769043,4335,4360,,,,,,,,,,,,,,,,,,,,,,,,,,,,,,,,,,,,,,,,,,,,,,,,,,,,,,,,,,,,,,,,,,,,,,
1720086923,20,0,4311.410156,4296.666504,4298.205078,4316.025879,4292.307617,4297.820313,4297.563965,4294.358887,4279.871582,4285.128418,4430.384766,4456.922852,4330.512695,4357.05127,,,,,,,,,,,,,,,,,,,,,,,,,,,,,,,,,,,,,,,,,,,,,,,,,,,,,,,,,,,,,,,,,,,,,,
1720086923,21,0,4311.025879,4295.128418,4306.666504,4316.025879,4295.512695,4310,4305,4296.666504,4282.563965,4288.461426,4432.05127,4463.077148,4325.641113,4359.615234,,,,,,,,,,,,,,,,,,,,,,,,,,,,,,,,,,,,,,,,,,,,,,,,,,,,,,,,,,,,,,,,,,,,,,
1720086923,22,0,4310.384766,4295.897461,4306.282227,4312.820313,4297.05127,4313.333496,4310.897461,4299.230957,4279.743652,4287.307617,4433.205078,4468.974121,4326.410156,4361.153809,1.556155,1.582057,1.421305,0.501276,0.293711,1.447102,1.400147,1.765243,0.356772,0.323711,0.626218,1.163562,1.147868,0.42371,0.312737,0.807264,1.035315,1.563399,0.349014,0.256584,0.249068,0.89384,0.585037,0.317981,0.305504,0.303232,0.342343,0.384641,0.252707,0.252602,0.613001,0.454989,0.314475,0.170842,0.161488,0.339167,0.567249,0.325291,0.200009,0.162536,0.482828,1.014914,0.476134,0.253899,0.248707,0.35125,0.329646,0.168847,0.080814,0.16541,0.82599,2.03585,1.389327,0.849938,0.361319,0.717888,1.947456,1.827345,0.902807,0.484825,0.929902,2.731107,2.044449,0.922378,0.307144,1.245402,1.697358,1.907489,0.879752,0.359214
1720086923,23,0,4308.589844,4301.025879,4301.538574,4319.743652,4298.333496,4308.589844,4307.692383,4297.307617,4279.102539,4282.563965,4429.230957,4465,4326.153809,4356.153809,,,,,,,,,,,,,,,,,,,,,,,,,,,,,,,,,,,,,,,,,,,,,,,,,,,,,,,,,,,,,,,,,,,,,,
1720086923,24,0,4308.717773,4307.05127,4304.358887,4327.307617,4309.743652,4310,4303.077148,4299.102539,4287.94873,4290.641113,4431.538574,4463.974121,4328.077148,4356.666504,,,,,,,,,,,,,,,,,,,,,,,,,,,,,,,,,,,,,,,,,,,,,,,,,,,,,,,,,,,,,,,,,,,,,,
1720086923,25,0,4316.410156,4312.179688,4310.897461,4327.820313,4317.820313,4319.615234,4308.077148,4304.743652,4296.153809,4295.512695,4445.512695,4472.307617,4338.461426,4365.384766,,,,,,,,,,,,,,,,,,,,,,,,,,,,,,,,,,,,,,,,,,,,,,,,,,,,,,,,,,,,,,,,,,,,,,
1720086923,26,0,4320.256348,4312.179688,4309.487305,4326.666504,4307.436035,4316.282227,4314.230957,4303.077148,4297.05127,4286.410156,4446.282227,4472.179688,4342.436035,4367.692383,,,,,,,,,,,,,,,,,,,,,,,,,,,,,,,,,,,,,,,,,,,,,,,,,,,,,,,,,,,,,,,,,,,,,,
1720086923,27,0,4313.717773,4307.436035,4301.794922,4325.512695,4299.615234,4301.410156,4308.974121,4298.205078,4290.512695,4288.846191,4432.179688,4463.717773,4332.563965,4360,,,,,,,,,,,,,,,,,,,,,,,,,,,,,,,,,,,,,,,,,,,,,,,,,,,,,,,,,,,,,,,,,,,,,,
1720086923,28,0,4309.743652,4305.897461,4297.05127,4322.05127,4305,4303.717773,4297.692383,4294.871582,4282.436035,4288.461426,4426.282227,4456.282227,4326.153809,4352.307617,,,,,,,,,,,,,,,,,,,,,,,,,,,,,,,,,,,,,,,,,,,,,,,,,,,,,,,,,,,,,,,,,,,,,,
1720086923,29,0,4310.384766,4306.666504,4300.641113,4318.846191,4301.153809,4312.820313,4293.205078,4289.615234,4277.692383,4282.307617,4428.589844,4453.461426,4331.794922,4358.205078,,,,,,,,,,,,,,,,,,,,,,,,,,,,,,,,,,,,,,,,,,,,,,,,,,,,,,,,,,,,,,,,,,,,,,
1720086923,30,0,4313.461426,4305.512695,4307.179688,4318.846191,4294.102539,4301.538574,4293.589844,4283.589844,4274.230957,4285.897461,4433.205078,4459.615234,4344.487305,4371.282227,,,,,,,,,,,,,,,,,,,,,,,,,,,,,,,,,,,,,,,,,,,,,,,,,,,,,,,,,,,,,,,,,,,,,,
1720086923,31,0,4325.641113,4309.615234,4314.102539,4328.077148,4305.256348,4297.692383,4294.487305,4286.794922,4274.871582,4287.05127,4452.436035,4476.666504,4362.436035,4385.897461,,,,,,,,,,,,,,,,,,,,,,,,,,,,,,,,,,,,,,,,,,,,,,,,,,,,,,,,,,,,,,,,,,,,,,
1720086923,32,0,4326.794922,4307.436035,4316.153809,4330.128418,4307.307617,4307.436035,4296.282227,4294.615234,4279.615234,4287.307617,4464.743652,4482.563965,4368.717773,4391.538574,,,,,,,,,,,,,,,,,,,,,,,,,,,,,,,,,,,,,,,,,,,,,,,,,,,,,,,,,,,,,,,,,,,,,,
1720086923,33,0,4311.538574,4295.897461,4310.641113,4319.230957,4292.436035,4303.461426,4295.769043,4295.512695,4281.153809,4288.205078,4453.077148,4470.769043,4359.615234,4382.563965,,,,,,,,,,,,,,,,,,,,,,,,,,,,,,,,,,,,,,,,,,,,,,,,,,,,,,,,,,,,,,,,,,,,,,
1720086923,34,0,4306.922852,4291.666504,4303.974121,4310.641113,4289.871582,4293.846191,4292.820313,4286.794922,4276.538574,4285.769043,4440.256348,4463.846191,4351.666504,4378.077148,,,,,,,,,,,,,,,,,,,,,,,,,,,,,,,,,,,,,,,,,,,,,,,,,,,,,,,,,,,,,,,,,,,,,,
1720086923,35,0,4313.333496,4295,4300.641113,4309.615234,4295.512695,4293.461426,4291.666504,4283.461426,4275,4286.153809,4441.922852,4465,4353.846191,4382.94873,,,,,,,,,,,,,,,,,,,,,,,,,,,,,,,,,,,,,,,,,,,,,,,,,,,,,,,,,,,,,,,,,,,,,,
1720086923,36,0,4310.512695,4293.974121,4297.692383,4314.358887,4293.717773,4292.05127,4292.179688,4287.820313,4277.692383,4286.282227,4445.128418,4463.077148,4358.846191,4380.641113,,,,,,,,,,,,,,,,,,,,,,,,,,,,,,,,,,,,,,,,,,,,,,,,,,,,,,,,,,,,,,,,,,,,,,
1720086923,37,0,4301.666504,4292.563965,4295.641113,4318.846191,4295,4292.05127,4292.179688,4288.717773,4279.615234,4281.794922,4442.820313,4460.897461,4357.436035,4372.179688,,,,,,,,,,,,,,,,,,,,,,,,,,,,,,,,,,,,,,,,,,,,,,,,,,,,,,,,,,,,,,,,,,,,,,
1720086923,38,0,4295.897461,4295.897461,4293.205078,4315,4294.487305,4298.589844,4294.487305,4290,4280.384766,4288.333496,4444.102539,4459.743652,4352.94873,4372.307617,1.525056,1.678496,1.720606,0.495209,0.293947,1.232764,1.677711,2.245847,0.392238,0.297203,0.76384,1.381507,1.412347,0.476961,0.316628,0.680097,1.256725,1.981508,0.346234,0.253096,0.23966,1.091481,0.580356,0.301818,0.295191,0.285417,0.328053,0.352953,0.216341,0.235156,0.444204,0.392447,0.374813,0.163041,0.149268,0.344015,0.563227,0.370278,0.19402,0.159474,0.467427,1.212158,0.441341,0.259942,0.226646,0.385319,0.402271,0.158637,0.080862,0.168248,0.718772,2.063332,1.389703,0.916355,0.354574,0.776808,2.140954,2.062382,0.956937,0.468007,0.817244,2.98232,2.079702,1.02296,0.308264,1.548097,1.874858,2.228302,0.969782,0.345762
1720086923,39,0,4292.307617,4292.307617,4289.358887,4307.820313,4283.974121,4296.666504,4293.205078,4288.077148,4277.307617,4295,4439.358887,4454.615234,4346.922852,4368.461426,,,,,,,,,,,,,,,,,,,,,,,,,,,,,,,,,,,,,,,,,,,,,,,,,,,,,,,,,,,,,,,,,,,,,,
1720086923,40,0,4299.487305,4294.487305,4294.358887,4317.179688,4284.230957,4295.769043,4291.794922,4286.025879,4274.871582,4282.436035,4435.897461,4458.077148,4346.794922,4364.487305,,,,,,,,,,,,,,,,,,,,,,,,,,,,,,,,,,,,,,,,,,,,,,,,,,,,,,,,,,,,,,,,,,,,,,
1720086923,41,0,4312.307617,4305.384766,4304.358887,4329.615234,4297.179688,4305.384766,4299.102539,4295.897461,4278.589844,4282.692383,4440.769043,4471.282227,4351.666504,4376.922852,,,,,,,,,,,,,,,,,,,,,,,,,,,,,,,,,,,,,,,,,,,,,,,,,,,,,,,,,,,,,,,,,,,,,,
1720086923,42,0,4314.615234,4305.512695,4306.025879,4321.025879,4300,4307.436035,4302.307617,4300.128418,4282.563965,4294.230957,4441.666504,4473.846191,4350.897461,4383.717773,,,,,,,,,,,,,,,,,,,,,,,,,,,,,,,,,,,,,,,,,,,,,,,,,,,,,,,,,,,,,,,,,,,,,,
1720086923,43,0,4307.436035,4295,4297.692383,4308.589844,4284.743652,4291.538574,4293.461426,4287.563965,4279.102539,4289.358887,4441.153809,4461.025879,4344.871582,4375.897461,,,,,,,,,,,,,,,,,,,,,,,,,,,,,,,,,,,,,,,,,,,,,,,,,,,,,,,,,,,,,,,,,,,,,,
1720086923,44,0,4301.666504,4291.666504,4291.153809,4308.717773,4273.974121,4281.794922,4289.358887,4282.307617,4275.384766,4284.487305,4439.487305,4454.743652,4343.461426,4374.615234,,,,,,,,,,,,,,,,,,,,,,,,,,,,,,,,,,,,,,,,,,,,,,,,,,,,,,,,,,,,,,,,,,,,,,
1720086923,45,0,4305.897461,4296.538574,4295.128418,4313.333496,4280.641113,4292.05127,4293.717773,4288.589844,4279.487305,4286.025879,4437.563965,4462.436035,4350.128418,4380.897461,,,,,,,,,,,,,,,,,,,,,,,,,,,,,,,,,,,,,,,,,,,,,,,,,,,,,,,,,,,,,,,,,,,,,,
1720086923,46,0,4310.128418,4296.794922,4298.461426,4315,4287.307617,4301.666504,4295.512695,4289.487305,4281.153809,4286.666504,4438.461426,4465.641113,4349.615234,4382.179688,,,,,,,,,,,,,,,,,,,,,,,,,,,,,,,,,,,,,,,,,,,,,,,,,,,,,,,,,,,,,,,,,,,,,,
1720086923,47,0,4305.256348,4294.230957,4292.563965,4312.05127,4281.538574,4297.05127,4291.666504,4288.589844,4277.94873,4287.05127,4437.820313,4457.94873,4344.230957,4379.871582,,,,,,,,,,,,,,,,,,,,,,,,,,,,,,,,,,,,,,,,,,,,,,,,,,,,,,,,,,,,,,,,,,,,,,
1720086923,48,0,4296.794922,4292.05127,4284.358887,4302.307617,4279.743652,4294.487305,4287.05127,4286.282227,4279.743652,4287.307617,4432.436035,4448.205078,4343.077148,4371.666504,,,,,,,,,,,,,,,,,,,,,,,,,,,,,,,,,,,,,,,,,,,,,,,,,,,,,,,,,,,,,,,,,,,,,,
1720086923,49,0,4292.436035,4284.743652,4279.615234,4293.974121,4285.641113,4293.974121,4283.333496,4279.358887,4277.05127,4287.307617,4426.538574,4438.077148,4336.282227,4360.256348,,,,,,,,,,,,,,,,,,,,,,,,,,,,,,,,,,,,,,,,,,,,,,,,,,,,,,,,,,,,,,,,,,,,,,
1720086923,50,0,4289.871582,4278.333496,4278.717773,4296.410156,4285.128418,4285.769043,4280,4272.563965,4265.384766,4283.461426,4420,4428.974121,4326.666504,4357.307617,,,,,,,,,,,,,,,,,,,,,,,,,,,,,,,,,,,,,,,,,,,,,,,,,,,,,,,,,,,,,,,,,,,,,,
1720086923,51,0,4296.410156,4286.538574,4285.641113,4304.615234,4289.487305,4286.538574,4280.128418,4274.871582,4267.820313,4280.512695,4422.307617,4439.230957,4334.102539,4365.641113,,,,,,,,,,,,,,,,,,,,,,,,,,,,,,,,,,,,,,,,,,,,,,,,,,,,,,,,,,,,,,,,,,,,,,
1720086923,52,0,4306.153809,4294.230957,4293.589844,4306.666504,4293.077148,4295.769043,4284.102539,4284.487305,4276.922852,4285.128418,4436.282227,4454.615234,4348.846191,4376.153809,,,,,,,,,,,,,,,,,,,,,,,,,,,,,,,,,,,,,,,,,,,,,,,,,,,,,,,,,,,,,,,,,,,,,,
1720086923,53,0,4302.692383,4285.256348,4292.436035,4302.05127,4282.820313,4295.512695,4283.205078,4284.743652,4269.871582,4283.974121,4436.538574,4448.846191,4345.769043,4373.589844,,,,,,,,,,,,,,,,,,,,,,,,,,,,,,,,,,,,,,,,,,,,,,,,,,,,,,,,,,,,,,,,,,,,,,
1720086923,54,0,4302.692383,4285.384766,4293.077148,4304.615234,4275.769043,4290.384766,4278.974121,4277.820313,4266.025879,4276.538574,4427.563965,4443.974121,4339.102539,4367.692383,1.481375,1.752998,2.047449,0.530224,0.278454,1.121906,1.982514,2.729979,0.455453,0.268122,0.967352,1.617238,1.665147,0.56303,0.309716,0.579575,1.512542,2.403973,0.378077,0.244134,0.245816,1.243814,0.607765,0.293539,0.288109,0.309747,0.348657,0.319754,0.188875,0.214983,0.428131,0.410514,0.414786,0.15397,0.136156,0.484317,0.615541,0.411246,0.187477,0.158131,0.588813,1.363484,0.407718,0.282356,0.212738,0.431452,0.452878,0.140911,0.082927,0.167437,0.732638,2.026179,1.453322,0.976787,0.333574,1.047978,2.29392,2.225939,0.991091,0.433727,0.820179,3.042439,2.099598,1.112877,0.293952,1.868806,1.941559,2.485094,1.050144,0.317092
1720086923,55,0,4312.563965,4296.025879,4297.563965,4311.025879,4278.205078,4292.05127,4280.769043,4281.794922,4272.94873,4286.153809,4427.436035,4453.077148,4340.769043,4373.974121,,,,,,,,,,,,,,,,,,,,,,,,,,,,,,,,,,,,,,,,,,,,,,,,,,,,,,,,,,,,,,,,,,,,,,
1720086923,56,0,4312.94873,4297.05127,4297.692383,4311.282227,4280.384766,4295.897461,4285.256348,4282.820313,4273.589844,4291.153809,4429.487305,4454.358887,4343.205078,4379.487305,,,,,,,,,,,,,,,,,,,,,,,,,,,,,,,,,,,,,,,,,,,,,,,,,,,,,,,,,,,,,,,,,,,,,,
1720086923,57,0,4309.743652,4299.230957,4298.846191,4314.615234,4283.974121,4295,4283.077148,4277.820313,4272.692383,4281.794922,4434.615234,4454.487305,4347.563965,4381.025879,,,,,,,,,,,,,,,,,,,,,,,,,,,,,,,,,,,,,,,,,,,,,,,,,,,,,,,,,,,,,,,,,,,,,,
1720086923,58,0,4313.077148,4303.717773,4301.922852,4320.512695,4292.436035,4294.615234,4282.05127,4281.025879,4276.410156,4287.05127,4443.846191,4465.641113,4353.333496,4386.794922,,,,,,,,,,,,,,,,,,,,,,,,,,,,,,,,,,,,,,,,,,,,,,,,,,,,,,,,,,,,,,,,,,,,,,
1720086923,59,0,4313.077148,4300.512695,4300.769043,4320.769043,4299.487305,4293.717773,4289.102539,4284.615234,4280.512695,4292.179688,4446.666504,4465.897461,4355.128418,4386.025879,,,,,,,,,,,,,,,,,,,,,,,,,,,,,,,,,,,,,,,,,,,,,,,,,,,,,,,,,,,,,,,,,,,,,,
1720086923,60,0,4305.641113,4295.897461,4296.153809,4318.205078,4295.512695,4294.358887,4292.94873,4284.230957,4280.512695,4285.512695,4439.230957,4457.307617,4350.512695,4377.179688,,,,,,,,,,,,,,,,,,,,,,,,,,,,,,,,,,,,,,,,,,,,,,,,,,,,,,,,,,,,,,,,,,,,,,
1720086923,61,0,4296.922852,4290.897461,4288.333496,4310.641113,4281.153809,4290.769043,4284.743652,4283.589844,4271.538574,4284.230957,4430.897461,4451.794922,4344.743652,4371.922852,,,,,,,,,,,,,,,,,,,,,,,,,,,,,,,,,,,,,,,,,,,,,,,,,,,,,,,,,,,,,,,,,,,,,,
1720086923,62,0,4287.436035,4278.846191,4280.256348,4299.358887,4275.897461,4284.487305,4277.563965,4275.641113,4261.282227,4282.307617,4420,4441.153809,4333.717773,4363.461426,,,,,,,,,,,,,,,,,,,,,,,,,,,,,,,,,,,,,,,,,,,,,,,,,,,,,,,,,,,,,,,,,,,,,,
1720086923,63,0,4279.871582,4266.666504,4272.563965,4288.461426,4280.128418,4279.615234,4280.128418,4265.641113,4260.128418,4275.897461,4403.333496,4428.333496,4315.897461,4351.153809,,,,,,,,,,,,,,,,,,,,,,,,,,,,,,,,,,,,,,,,,,,,,,,,,,,,,,,,,,,,,,,,,,,,,,
1720086923,64,0,4276.025879,4259.230957,4270.641113,4283.717773,4276.153809,4276.025879,4279.487305,4268.077148,4259.230957,4276.153809,4397.05127,4426.666504,4308.333496,4349.358887,,,,,,,,,,,,,,,,,,,,,,,,,,,,,,,,,,,,,,,,,,,,,,,,,,,,,,,,,,,,,,,,,,,,,,
1720086923,65,0,4279.230957,4260,4276.666504,4289.615234,4273.717773,4279.871582,4277.05127,4274.230957,4260.512695,4277.692383,4405.384766,4433.077148,4315.128418,4355.384766,,,,,,,,,,,,,,,,,,,,,,,,,,,,,,,,,,,,,,,,,,,,,,,,,,,,,,,,,,,,,,,,,,,,,,
1720086923,66,0,4287.820313,4270.256348,4281.538574,4298.589844,4286.282227,4290.384766,4287.05127,4277.94873,4270,4277.820313,4415.897461,4440.641113,4322.05127,4362.307617,,,,,,,,,,,,,,,,,,,,,,,,,,,,,,,,,,,,,,,,,,,,,,,,,,,,,,,,,,,,,,,,,,,,,,
1720086923,67,0,4293.846191,4284.743652,4288.077148,4306.666504,4299.230957,4303.077148,4300.512695,4288.717773,4281.410156,4288.461426,4426.666504,4453.974121,4331.282227,4375.256348,,,,,,,,,,,,,,,,,,,,,,,,,,,,,,,,,,,,,,,,,,,,,,,,,,,,,,,,,,,,,,,,,,,,,,
1720086923,68,0,4296.153809,4291.025879,4296.666504,4313.461426,4294.615234,4304.102539,4301.410156,4294.615234,4282.05127,4291.666504,4432.05127,4459.230957,4337.94873,4378.589844,,,,,,,,,,,,,,,,,,,,,,,,,,,,,,,,,,,,,,,,,,,,,,,,,,,,,,,,,,,,,,,,,,,,,,
1720086923,69,0,4295.769043,4285.512695,4294.743652,4313.077148,4285.897461,4296.153809,4295.512695,4291.666504,4278.333496,4286.922852,4424.871582,4453.077148,4331.153809,4369.615234,,,,,,,,,,,,,,,,,,,,,,,,,,,,,,,,,,,,,,,,,,,,,,,,,,,,,,,,,,,,,,,,,,,,,,
1720086923,70,0,4293.461426,4281.794922,4285.897461,4309.871582,4293.205078,4304.230957,4294.743652,4291.538574,4286.025879,4290.897461,4424.743652,4451.794922,4335,4369.487305,1.429956,1.770049,2.304224,0.577546,0.253501,1.11028,2.239542,3.057376,0.521822,0.241253,1.194876,1.783611,1.821666,0.642103,0.294118,0.51515,1.709665,2.682688,0.427858,0.230609,0.27315,1.294668,0.639103,0.303013,0.288113,0.389797,0.389682,0.279171,0.167449,0.199603,0.570582,0.49469,0.421,0.141755,0.128167,0.736468,0.691135,0.429724,0.177475,0.159091,0.82107,1.401122,0.383326,0.308384,0.208711,0.475306,0.459515,0.120309,0.084793,0.162237,0.848693,1.873111,1.563102,0.996022,0.30299,1.472704,2.350639,2.24906,0.975601,0.39028,0.940231,2.850944,2.09595,1.149348,0.266878,2.18364,1.885496,2.584303,1.073558,0.279407
1720086923,71,0,4290.897461,4281.282227,4286.025879,4306.794922,4295,4314.743652,4296.410156,4292.820313,4292.563965,4292.820313,4432.179688,4452.307617,4346.538574,4374.487305,,,,,,,,,,,,,,,,,,,,,,,,,,,,,,,,,,,,,,,,,,,,,,,,,,,,,,,,,,,,,,,,,,,,,,
1720086923,72,0,4291.794922,4278.077148,4291.410156,4299.871582,4283.077148,4303.846191,4296.025879,4292.179688,4284.102539,4288.717773,4428.717773,4452.692383,4343.205078,4376.153809,,,,,,,,,,,,,,,,,,,,,,,,,,,,,,,,,,,,,,,,,,,,,,,,,,,,,,,,,,,,,,,,,,,,,,
1720086923,73,0,4294.871582,4278.333496,4293.077148,4299.871582,4283.846191,4294.871582,4294.871582,4288.717773,4278.589844,4285.384766,4429.230957,4455.897461,4340.641113,4378.205078,,,,,,,,,,,,,,,,,,,,,,,,,,,,,,,,,,,,,,,,,,,,,,,,,,,,,,,,,,,,,,,,,,,,,,
1720086923,74,0,4293.846191,4280.256348,4293.589844,4308.846191,4292.820313,4302.94873,4292.94873,4285.256348,4281.282227,4287.05127,4432.05127,4453.717773,4342.692383,4378.461426,,,,,,,,,,,,,,,,,,,,,,,,,,,,,,,,,,,,,,,,,,,,,,,,,,,,,,,,,,,,,,,,,,,,,,
1720086923,75,0,4290.897461,4279.615234,4291.410156,4311.025879,4292.179688,4300.512695,4292.436035,4285.128418,4279.615234,4290.256348,4425.897461,4447.94873,4335.641113,4375.641113,,,,,,,,,,,,,,,,,,,,,,,,,,,,,,,,,,,,,,,,,,,,,,,,,,,,,,,,,,,,,,,,,,,,,,
1720086923,76,0,4290.641113,4279.615234,4286.794922,4304.358887,4291.922852,4290.384766,4292.307617,4284.871582,4279.615234,4286.282227,4427.05127,4448.974121,4332.307617,4373.077148,,,,,,,,,,,,,,,,,,,,,,,,,,,,,,,,,,,,,,,,,,,,,,,,,,,,,,,,,,,,,,,,,,,,,,
1720086923,77,0,4290.769043,4279.230957,4286.153809,4297.820313,4293.974121,4297.436035,4290.897461,4282.563965,4281.666504,4282.05127,4430.256348,4450.128418,4334.615234,4372.05127,,,,,,,,,,,,,,,,,,,,,,,,,,,,,,,,,,,,,,,,,,,,,,,,,,,,,,,,,,,,,,,,,,,,,,
1720086923,78,0,4289.871582,4277.179688,4289.871582,4297.436035,4290.256348,4306.025879,4290.641113,4281.538574,4274.743652,4282.692383,4419.102539,4443.461426,4328.846191,4368.205078,,,,,,,,,,,,,,,,,,,,,,,,,,,,,,,,,,,,,,,,,,,,,,,,,,,,,,,,,,,,,,,,,,,,,,
1720086923,79,0,4291.794922,4281.410156,4294.615234,4306.410156,4291.666504,4304.487305,4292.692383,4285.256348,4273.333496,4282.05127,4415.256348,4442.436035,4324.487305,4362.692383,,,,,,,,,,,,,,,,,,,,,,,,,,,,,,,,,,,,,,,,,,,,,,,,,,,,,,,,,,,,,,,,,,,,,,
1720086923,80,0,4292.94873,4288.333496,4293.077148,4312.692383,4298.589844,4304.487305,4295,4287.563965,4279.615234,4284.743652,4422.05127,4447.820313,4326.922852,4363.461426,,,,,,,,,,,,,,,,,,,,,,,,,,,,,,,,,,,,,,,,,,,,,,,,,,,,,,,,,,,,,,,,,,,,,,
1720086923,81,0,4289.358887,4286.922852,4287.179688,4307.05127,4296.794922,4306.666504,4292.820313,4283.077148,4279.487305,4291.282227,4416.282227,4447.436035,4325.769043,4367.179688,,,,,,,,,,,,,,,,,,,,,,,,,,,,,,,,,,,,,,,,,,,,,,,,,,,,,,,,,,,,,,,,,,,,,,
1720086923,82,0,4287.436035,4285.256348,4289.743652,4304.743652,4292.307617,4305.897461,4292.692383,4282.05127,4276.922852,4287.94873,4413.205078,4445.897461,4326.025879,4363.205078,,,,,,,,,,,,,,,,,,,,,,,,,,,,,,,,,,,,,,,,,,,,,,,,,,,,,,,,,,,,,,,,,,,,,,
1720086923,83,0,4286.410156,4290,4294.743652,4311.153809,4292.692383,4305.128418,4299.102539,4290.128418,4280.641113,4288.846191,4426.025879,4453.461426,4336.153809,4366.410156,,,,,,,,,,,,,,,,,,,,,,,,,,,,,,,,,,,,,,,,,,,,,,,,,,,,,,,,,,,,,,,,,,,,,,
1720086923,84,0,4286.410156,4293.589844,4288.205078,4312.692383,4292.436035,4309.871582,4301.538574,4291.922852,4282.820313,4294.487305,4431.410156,4457.94873,4345.641113,4376.410156,,,,,,,,,,,,,,,,,,,,,,,,,,,,,,,,,,,,,,,,,,,,,,,,,,,,,,,,,,,,,,,,,,,,,,
1720086923,85,0,4291.153809,4288.589844,4284.230957,4307.436035,4287.820313,4311.666504,4295.641113,4283.589844,4279.102539,4287.05127,4426.025879,4453.077148,4342.94873,4377.563965,,,,,,,,,,,,,,,,,,,,,,,,,,,,,,,,,,,,,,,,,,,,,,,,,,,,,,,,,,,,,,,,,,,,,,
1720086923,86,0,4296.538574,4282.94873,4292.563965,4306.410156,4290.897461,4306.153809,4294.102539,4283.974121,4278.589844,4286.025879,4429.230957,4455.128418,4341.153809,4382.05127,1.359901,1.701554,2.38969,0.608353,0.227961,1.124277,2.365699,3.089648,0.569173,0.218787,1.387875,1.814718,1.817296,0.677973,0.27282,0.481168,1.76044,2.689119,0.4751,0.214945,0.314337,1.219006,0.64239,0.336089,0.294651,0.534888,0.436078,0.236835,0.149686,0.195278,0.820858,0.606583,0.393175,0.126526,0.128505,1.033782,0.756912,0.417754,0.164761,0.162341,1.091553,1.313415,0.379207,0.324576,0.210654,0.496378,0.419676,0.103792,0.084229,0.153518,1.010463,1.608354,1.676708,0.957022,0.269686,1.94876,2.299238,2.109491,0.902319,0.348204,1.149885,2.449053,2.050776,1.112294,0.233956,2.403118,1.746185,2.475203,1.015207,0.242328
1720086923,87,0,4293.589844,4280.256348,4294.615234,4304.102539,4291.922852,4301.794922,4296.666504,4282.179688,4279.358887,4289.358887,4432.179688,4458.205078,4345.512695,4385.512695,,,,,,,,,,,,,,,,,,,,,,,,,,,,,,,,,,,,,,,,,,,,,,,,,,,,,,,,,,,,,,,,,,,,,,
1720086923,88,0,4284.743652,4276.282227,4287.436035,4294.230957,4282.94873,4298.077148,4292.94873,4275.641113,4276.282227,4285.384766,4425.769043,4452.179688,4343.077148,4378.846191,,,,,,,,,,,,,,,,,,,,,,,,,,,,,,,,,,,,,,,,,,,,,,,,,,,,,,,,,,,,,,,,,,,,,,
1720086923,89,0,4281.794922,4277.692383,4287.563965,4296.410156,4285.512695,4293.846191,4293.205078,4279.230957,4276.025879,4285.641113,4424.743652,4450.384766,4338.974121,4378.333496,,,,,,,,,,,,,,,,,,,,,,,,,,,,,,,,,,,,,,,,,,,,,,,,,,,,,,,,,,,,,,,,,,,,,,
1720086923,90,0,4281.538574,4280.256348,4291.922852,4306.153809,4293.333496,4291.666504,4298.077148,4282.820313,4278.461426,4286.922852,4428.461426,4451.538574,4341.922852,4381.922852,,,,,,,,,,,,,,,,,,,,,,,,,,,,,,,,,,,,,,,,,,,,,,,,,,,,,,,,,,,,,,,,,,,,,,
1720086923,91,0,4281.282227,4277.436035,4289.358887,4303.333496,4288.205078,4297.436035,4297.179688,4282.436035,4277.94873,4285.256348,4424.743652,4448.846191,4341.410156,4378.461426,,,,,,,,,,,,,,,,,,,,,,,,,,,,,,,,,,,,,,,,,,,,,,,,,,,,,,,,,,,,,,,,,,,,,,
1720086923,92,0,4287.820313,4280.897461,4288.717773,4303.205078,4288.333496,4305.256348,4295.641113,4281.538574,4274.230957,4288.205078,4416.794922,4444.358887,4336.282227,4376.410156,,,,,,,,,,,,,,,,,,,,,,,,,,,,,,,,,,,,,,,,,,,,,,,,,,,,,,,,,,,,,,,,,,,,,,
1720086923,93,0,4296.666504,4292.436035,4289.615234,4313.974121,4297.05127,4305.897461,4294.102539,4278.205078,4268.205078,4287.692383,4413.589844,4440,4333.077148,4376.794922,,,,,,,,,,,,,,,,,,,,,,,,,,,,,,,,,,,,,,,,,,,,,,,,,,,,,,,,,,,,,,,,,,,,,,
1720086923,94,0,4295.512695,4291.410156,4286.794922,4311.922852,4294.358887,4303.461426,4293.461426,4277.563965,4265.512695,4279.871582,4411.922852,4440.128418,4333.205078,4376.410156,,,,,,,,,,,,,,,,,,,,,,,,,,,,,,,,,,,,,,,,,,,,,,,,,,,,,,,,,,,,,,,,,,,,,,
1720086923,95,0,4292.820313,4284.487305,4286.538574,4303.589844,4286.666504,4300.897461,4298.717773,4284.743652,4270.256348,4283.205078,4412.94873,4447.436035,4335,4382.05127,,,,,,,,,,,,,,,,,,,,,,,,,,,,,,,,,,,,,,,,,,,,,,,,,,,,,,,,,,,,,,,,,,,,,,
1720086923,96,0,4294.230957,4285.128418,4285.897461,4306.282227,4282.436035,4293.846191,4301.025879,4284.871582,4276.282227,4285.256348,4418.461426,4444.615234,4334.871582,4377.563965,,,,,,,,,,,,,,,,,,,,,,,,,,,,,,,,,,,,,,,,,,,,,,,,,,,,,,,,,,,,,,,,,,,,,,
1720086923,97,0,4292.94873,4285.512695,4281.410156,4308.974121,4275.897461,4291.025879,4297.692383,4278.205078,4277.820313,4281.025879,4425.897461,4437.307617,4334.102539,4368.205078,,,,,,,,,,,,,,,,,,,,,,,,,,,,,,,,,,,,,,,,,,,,,,,,,,,,,,,,,,,,,,,,,,,,,,
1720086923,98,0,4295,4288.846191,4287.820313,4307.94873,4281.666504,4298.461426,4302.94873,4281.538574,4278.846191,4287.05127,4430.256348,4446.794922,4340.256348,4377.563965,,,,,,,,,,,,,,,,,,,,,,,,,,,,,,,,,,,,,,,,,,,,,,,,,,,,,,,,,,,,,,,,,,,,,,
1720086923,99,0,4298.717773,4293.205078,4298.589844,4309.615234,4295.256348,4302.179688,4311.153809,4287.05127,4282.436035,4291.666504,4428.461426,4455.384766,4345.256348,4384.743652,,,,,,,,,,,,,,,,,,,,,,,,,,,,,,,,,,,,,,,,,,,,,,,,,,,,,,,,,,,,,,,,,,,,,,
1720086923,100,0,4296.922852,4292.94873,4296.794922,4311.282227,4296.538574,4302.179688,4311.538574,4294.615234,4293.589844,4293.846191,4432.179688,4454.743652,4343.846191,4383.589844,,,,,,,,,,,,,,,,,,,,,,,,,,,,,,,,,,,,,,,,,,,,,,,,,,,,,,,,,,,,,,,,,,,,,,
1720086923,101,0,4294.230957,4288.461426,4288.974121,4312.307617,4293.333496,4300.769043,4310.897461,4299.230957,4298.205078,4296.538574,4438.974121,4456.410156,4344.102539,4388.589844,,,,,,,,,,,,,,,,,,,,,,,,,,,,,,,,,,,,,,,,,,,,,,,,,,,,,,,,,,,,,,,,,,,,,,
1720086923,102,0,4290.256348,4284.102539,4283.461426,4308.846191,4294.230957,4298.333496,4310.897461,4291.410156,4285.769043,4291.153809,4437.05127,4452.563965,4343.589844,4387.94873,1.295419,1.574645,2.247292,0.607412,0.208819,1.120451,2.346288,2.793668,0.586008,0.200333,1.521655,1.724603,1.639288,0.656386,0.248245,0.476351,1.662673,2.397248,0.504044,0.200213,0.362742,1.039264,0.614544,0.388791,0.304291,0.723183,0.490554,0.207935,0.137911,0.203964,1.099119,0.712413,0.343088,0.112957,0.135999,1.296227,0.807197,0.378145,0.155658,0.16591,1.322809,1.158079,0.391949,0.324193,0.211956,0.486471,0.355283,0.095582,0.080598,0.143442,1.163609,1.324096,1.737303,0.872929,0.240074,2.364844,2.213092,1.826919,0.791798,0.315834,1.407914,1.991418,1.938061,1.013913,0.203721,2.494479,1.624279,2.16926,0.886866,0.214215
1720086923,103,0,4289.358887,4287.05127,4284.743652,4306.025879,4293.974121,4302.179688,4306.153809,4285.512695,4281.666504,4289.230957,4432.563965,4446.922852,4340.384766,4380,,,,,,,,,,,,,,,,,,,,,,,,,,,,,,,,,,,,,,,,,,,,,,,,,,,,,,,,,,,,,,,,,,,,,,
1720086923,104,0,4295,4295.769043,4289.358887,4310.256348,4295.641113,4305,4299.358887,4286.282227,4287.820313,4293.717773,4428.333496,4446.922852,4337.563965,4378.461426,,,,,,,,,,,,,,,,,,,,,,,,,,,,,,,,,,,,,,,,,,,,,,,,,,,,,,,,,,,,,,,,,,,,,,
1720086923,105,0,4297.820313,4296.666504,4288.589844,4312.563965,4299.487305,4297.692383,4300,4285,4282.436035,4290.384766,4424.743652,4448.077148,4337.820313,4382.820313,,,,,,,,,,,,,,,,,,,,,,,,,,,,,,,,,,,,,,,,,,,,,,,,,,,,,,,,,,,,,,,,,,,,,,
1720086923,106,0,4292.94873,4288.846191,4289.487305,4307.179688,4294.871582,4287.692383,4303.077148,4281.666504,4273.333496,4286.025879,4425.897461,4449.615234,4339.358887,4385.769043,,,,,,,,,,,,,,,,,,,,,,,,,,,,,,,,,,,,,,,,,,,,,,,,,,,,,,,,,,,,,,,,,,,,,,
1720086923,107,0,4293.077148,4288.846191,4294.358887,4309.230957,4288.077148,4286.538574,4297.692383,4281.153809,4275.641113,4288.717773,4428.846191,4453.333496,4339.487305,4385.897461,,,,,,,,,,,,,,,,,,,,,,,,,,,,,,,,,,,,,,,,,,,,,,,,,,,,,,,,,,,,,,,,,,,,,,
1720086923,108,0,4298.974121,4293.205078,4296.282227,4311.025879,4286.666504,4291.282227,4294.358887,4284.102539,4279.487305,4290.769043,4430.897461,4455.769043,4342.563965,4387.436035,,,,,,,,,,,,,,,,,,,,,,,,,,,,,,,,,,,,,,,,,,,,,,,,,,,,,,,,,,,,,,,,,,,,,,
1720086923,109,0,4300.128418,4292.692383,4298.333496,4308.333496,4289.102539,4297.436035,4302.692383,4293.589844,4281.666504,4294.487305,4435.256348,4461.538574,4348.846191,4391.922852,,,,,,,,,,,,,,,,,,,,,,,,,,,,,,,,,,,,,,,,,,,,,,,,,,,,,,,,,,,,,,,,,,,,,,
1720086923,110,0,4297.94873,4291.666504,4298.205078,4315.128418,4294.871582,4299.358887,4307.820313,4296.025879,4283.846191,4293.717773,4437.179688,4464.615234,4350.256348,4387.563965,,,,,,,,,,,,,,,,,,,,,,,,,,,,,,,,,,,,,,,,,,,,,,,,,,,,,,,,,,,,,,,,,,,,,,
1720086923,111,0,4296.666504,4291.794922,4293.589844,4318.461426,4297.692383,4297.307617,4305.512695,4291.538574,4282.692383,4289.743652,4440.256348,4465.512695,4347.563965,4386.410156,,,,,,,,,,,,,,,,,,,,,,,,,,,,,,,,,,,,,,,,,,,,,,,,,,,,,,,,,,,,,,,,,,,,,,
1720086923,112,0,4296.025879,4296.153809,4296.538574,4314.230957,4296.922852,4293.077148,4305.641113,4297.179688,4284.102539,4291.922852,4449.743652,4472.94873,4351.153809,4398.205078,,,,,,,,,,,,,,,,,,,,,,,,,,,,,,,,,,,,,,,,,,,,,,,,,,,,,,,,,,,,,,,,,,,,,,
1720086923,113,0,4294.102539,4293.974121,4299.358887,4315.384766,4299.230957,4292.436035,4307.307617,4300.512695,4289.743652,4291.922852,4448.205078,4474.743652,4351.538574,4395.897461,,,,,,,,,,,,,,,,,,,,,,,,,,,,,,,,,,,,,,,,,,,,,,,,,,,,,,,,,,,,,,,,,,,,,,
1720086923,114,0,4293.461426,4284.615234,4297.820313,4316.410156,4296.282227,4298.717773,4308.461426,4298.974121,4294.358887,4294.358887,4441.538574,4471.282227,4348.333496,4391.922852,,,,,,,,,,,,,,,,,,,,,,,,,,,,,,,,,,,,,,,,,,,,,,,,,,,,,,,,,,,,,,,,,,,,,,
1720086923,115,0,4298.205078,4281.922852,4296.922852,4310.641113,4288.077148,4289.102539,4302.179688,4295.512695,4287.820313,4296.410156,4442.05127,4467.05127,4348.974121,4401.538574,,,,,,,,,,,,,,,,,,,,,,,,,,,,,,,,,,,,,,,,,,,,,,,,,,,,,,,,,,,,,,,,,,,,,,
1720086923,116,0,4305.256348,4290.512695,4296.282227,4313.461426,4291.666504,4273.846191,4291.922852,4291.538574,4276.922852,4287.563965,4443.077148,4466.794922,4350.897461,4405.384766,,,,,,,,,,,,,,,,,,,,,,,,,,,,,,,,,,,,,,,,,,,,,,,,,,,,,,,,,,,,,,,,,,,,,,
1720086923,117,0,4307.820313,4298.717773,4296.666504,4320.769043,4299.487305,4284.102539,4297.820313,4294.487305,4280.641113,4286.025879,4443.717773,4476.794922,4354.487305,4403.974121,,,,,,,,,,,,,,,,,,,,,,,,,,,,,,,,,,,,,,,,,,,,,,,,,,,,,,,,,,,,,,,,,,,,,,
1720086923,118,0,4303.717773,4295.769043,4300.384766,4313.461426,4296.410156,4301.153809,4310.128418,4298.717773,4292.307617,4296.410156,4443.205078,4480.512695,4354.102539,4404.743652,1.231562,1.45458,1.902592,0.574707,0.198116,1.052433,2.245726,2.263372,0.572523,0.184464,1.567631,1.583866,1.332844,0.586608,0.221771,0.483156,1.501867,1.900647,0.511001,0.189366,0.40311,0.814428,0.582666,0.444923,0.312728,0.907195,0.575425,0.199874,0.137862,0.222425,1.322495,0.796196,0.287466,0.10677,0.145976,1.449461,0.857369,0.322853,0.156528,0.166649,1.449883,1.033105,0.413598,0.308131,0.207351,0.446952,0.302714,0.096619,0.074542,0.134548,1.274865,1.149521,1.720144,0.776821,0.217786,2.6038,2.19409,1.468045,0.67918,0.295714,1.668896,1.657032,1.754502,0.890117,0.181924,2.432311,1.610281,1.744942,0.728804,0.197909
1720086923,119,0,4303.589844,4291.922852,4305.384766,4307.05127,4292.179688,4299.743652,4305.769043,4298.461426,4294.743652,4298.717773,4441.410156,4473.461426,4350.512695,4403.205078,,,,,,,,,,,,,,,,,,,,,,,,,,,,,,,,,,,,,,,,,,,,,,,,,,,,,,,,,,,,,,,,,,,,,,
1720086923,120,0,4310.512695,4296.153809,4311.538574,4320.128418,4294.743652,4295.256348,4295.128418,4296.410156,4292.820313,4296.666504,4442.94873,4475.128418,4353.461426,4405.769043,,,,,,,,,,,,,,,,,,,,,,,,,,,,,,,,,,,,,,,,,,,,,,,,,,,,,,,,,,,,,,,,,,,,,,
1720086923,121,0,4311.922852,4298.589844,4315.256348,4329.358887,4293.461426,4295,4294.743652,4293.846191,4292.94873,4297.436035,4445,4481.410156,4358.717773,4413.205078,,,,,,,,,,,,,,,,,,,,,,,,,,,,,,,,,,,,,,,,,,,,,,,,,,,,,,,,,,,,,,,,,,,,,,
1720086923,122,0,4309.871582,4294.743652,4313.589844,4318.846191,4293.974121,4289.743652,4297.692383,4293.077148,4291.153809,4292.820313,4445.512695,4476.794922,4358.717773,4411.410156,,,,,,,,,,,,,,,,,,,,,,,,,,,,,,,,,,,,,,,,,,,,,,,,,,,,,,,,,,,,,,,,,,,,,,
1720086923,123,0,4308.846191,4294.871582,4309.743652,4314.743652,4300.256348,4290.256348,4298.461426,4297.692383,4293.974121,4294.871582,4449.615234,4475.384766,4359.487305,4409.230957,,,,,,,,,,,,,,,,,,,,,,,,,,,,,,,,,,,,,,,,,,,,,,,,,,,,,,,,,,,,,,,,,,,,,,
1720086923,124,0,4299.615234,4296.282227,4297.05127,4317.820313,4297.820313,4292.94873,4293.461426,4293.717773,4292.436035,4298.974121,4446.282227,4472.94873,4356.666504,4408.205078,,,,,,,,,,,,,,,,,,,,,,,,,,,,,,,,,,,,,,,,,,,,,,,,,,,,,,,,,,,,,,,,,,,,,,
1720086923,125,0,4290.512695,4292.436035,4285.128418,4313.461426,4290.256348,4289.230957,4288.461426,4286.538574,4283.974121,4293.846191,4436.025879,4463.205078,4348.461426,4399.230957,,,,,,,,,,,,,,,,,,,,,,,,,,,,,,,,,,,,,,,,,,,,,,,,,,,,,,,,,,,,,,,,,,,,,,
1720086923,126,0,4297.179688,4295.641113,4291.922852,4316.025879,4294.487305,4289.615234,4294.487305,4294.230957,4285.512695,4297.307617,4441.922852,4468.333496,4351.538574,4399.871582,,,,,,,,,,,,,,,,,,,,,,,,,,,,,,,,,,,,,,,,,,,,,,,,,,,,,,,,,,,,,,,,,,,,,,
1720086923,127,0,4306.666504,4300.641113,4298.717773,4320.512695,4301.410156,4294.871582,4301.666504,4297.692383,4293.974121,4302.05127,4447.05127,4469.487305,4353.461426,4400.897461,,,,,,,,,,,,,,,,,,,,,,,,,,,,,,,,,,,,,,,,,,,,,,,,,,,,,,,,,,,,,,,,,,,,,,
1720086923,0,0,4304.743652,4297.05127,4291.666504,4314.487305,4297.94873,4296.153809,4302.692383,4293.205078,4294.743652,4296.922852,4431.025879,4460,4342.436035,4389.615234,,,,,,,,,,,,,,,,,,,,,,,,,,,,,,,,,,,,,,,,,,,,,,,,,,,,,,,,,,,,,,,,,,,,,,
1720086924,1,0,4298.717773,4291.025879,4288.077148,4308.205078,4293.461426,4295.256348,4302.563965,4296.153809,4294.487305,4297.436035,4423.717773,4461.794922,4339.102539,4384.102539,,,,,,,,,,,,,,,,,,,,,,,,,,,,,,,,,,,,,,,,,,,,,,,,,,,,,,,,,,,,,,,,,,,,,,
1720086924,2,0,4297.692383,4289.230957,4290.512695,4304.743652,4291.794922,4294.358887,4299.487305,4298.205078,4297.05127,4300,4436.025879,4465.512695,4346.025879,4389.358887,,,,,,,,,,,,,,,,,,,,,,,,,,,,,,,,,,,,,,,,,,,,,,,,,,,,,,,,,,,,,,,,,,,,,,
1720086924,3,0,4304.871582,4295.128418,4298.205078,4311.666504,4291.410156,4291.922852,4303.717773,4300.128418,4296.538574,4300.384766,4444.615234,4468.333496,4355.256348,4397.692383,,,,,,,,,,,,,,,,,,,,,,,,,,,,,,,,,,,,,,,,,,,,,,,,,,,,,,,,,,,,,,,,,,,,,,
1720086924,4,0,4314.230957,4301.794922,4309.487305,4326.922852,4298.333496,4294.230957,4309.871582,4305.384766,4297.307617,4306.153809,4448.846191,4480.897461,4365.512695,4408.461426,,,,,,,,,,,,,,,,,,,,,,,,,,,,,,,,,,,,,,,,,,,,,,,,,,,,,,,,,,,,,,,,,,,,,,
1720086924,5,0,4311.666504,4297.692383,4310.512695,4322.563965,4299.102539,4297.436035,4302.179688,4301.922852,4297.436035,4305.512695,4447.307617,4482.563965,4362.563965,4411.025879,,,,,,,,,,,,,,,,,,,,,,,,,,,,,,,,,,,,,,,,,,,,,,,,,,,,,,,,,,,,,,,,,,,,,,
1720086924,6,0,4306.153809,4291.153809,4305.897461,4310.769043,4292.05127,4294.358887,4295.641113,4295.897461,4293.333496,4301.794922,4439.102539,4471.282227,4350.769043,4403.333496,1.18866,1.404265,1.455017,0.520761,0.191667,0.950455,2.15624,1.66547,0.535812,0.169759,1.527375,1.466227,0.984319,0.49434,0.194238,0.5052,1.385948,1.356306,0.499153,0.183098,0.425364,0.610912,0.576881,0.482098,0.315225,1.029923,0.703007,0.216524,0.154367,0.24333,1.419012,0.853064,0.243387,0.110209,0.152945,1.448759,0.917119,0.270997,0.168817,0.162595,1.438617,1.013245,0.437252,0.280246,0.195349,0.381662,0.289431,0.106242,0.067295,0.128289,1.316077,1.181819,1.622211,0.699689,0.202774,2.59148,2.297582,1.11757,0.593298,0.283577,1.871252,1.56163,1.509562,0.777036,0.16857,2.218311,1.736767,1.312221,0.586913,0.190065
1720086924,7,0,4312.307617,4296.922852,4306.153809,4318.461426,4301.153809,4294.743652,4302.563965,4299.871582,4292.820313,4304.487305,4442.436035,4476.025879,4353.461426,4400.384766,,,,,,,,,,,,,,,,,,,,,,,,,,,,,,,,,,,,,,,,,,,,,,,,,,,,,,,,,,,,,,,,,,,,,,
1720086924,8,0,4311.282227,4298.846191,4301.025879,4324.358887,4312.820313,4298.461426,4300.512695,4298.205078,4291.153809,4300.384766,4445.256348,4477.94873,4355.256348,4399.102539,,,,,,,,,,,,,,,,,,,,,,,,,,,,,,,,,,,,,,,,,,,,,,,,,,,,,,,,,,,,,,,,,,,,,,
1720086924,9,0,4301.538574,4293.846191,4293.589844,4318.589844,4305.384766,4298.205078,4292.436035,4288.717773,4287.05127,4298.333496,4434.743652,4464.615234,4348.846191,4393.589844,,,,,,,,,,,,,,,,,,,,,,,,,,,,,,,,,,,,,,,,,,,,,,,,,,,,,,,,,,,,,,,,,,,,,,
1720086924,10,0,4306.666504,4301.025879,4293.974121,4323.333496,4302.820313,4294.871582,4295,4288.589844,4291.922852,4300.641113,4432.179688,4463.974121,4353.077148,4391.025879,,,,,,,,,,,,,,,,,,,,,,,,,,,,,,,,,,,,,,,,,,,,,,,,,,,,,,,,,,,,,,,,,,,,,,
1720086924,11,0,4310.256348,4306.410156,4293.333496,4328.589844,4306.922852,4292.307617,4296.538574,4293.717773,4294.102539,4299.102539,4433.333496,4468.077148,4354.230957,4391.922852,,,,,,,,,,,,,,,,,,,,,,,,,,,,,,,,,,,,,,,,,,,,,,,,,,,,,,,,,,,,,,,,,,,,,,
1720086924,12,0,4300.641113,4297.820313,4292.563965,4320.897461,4300.128418,4293.333496,4294.871582,4294.102539,4286.025879,4302.05127,4427.820313,4464.615234,4347.692383,4395.897461,,,,,,,,,,,,,,,,,,,,,,,,,,,,,,,,,,,,,,,,,,,,,,,,,,,,,,,,,,,,,,,,,,,,,,
1720086924,13,0,4303.717773,4292.05127,4301.794922,4312.307617,4294.871582,4292.94873,4294.102539,4289.230957,4282.820313,4300.384766,4435.641113,4466.282227,4352.820313,4400.769043,,,,,,,,,,,,,,,,,,,,,,,,,,,,,,,,,,,,,,,,,,,,,,,,,,,,,,,,,,,,,,,,,,,,,,
1720086924,14,0,4314.615234,4295.256348,4308.846191,4309.615234,4297.307617,4290,4293.333496,4288.717773,4285.256348,4296.922852,4443.333496,4474.230957,4360.256348,4406.410156,,,,,,,,,,,,,,,,,,,,,,,,,,,,,,,,,,,,,,,,,,,,,,,,,,,,,,,,,,,,,,,,,,,,,,
1720086924,15,0,4311.282227,4294.615234,4300.897461,4313.461426,4295.769043,4294.230957,4295.256348,4294.487305,4288.589844,4303.077148,4435,4474.615234,4360.897461,4406.666504,,,,,,,,,,,,,,,,,,,,,,,,,,,,,,,,,,,,,,,,,,,,,,,,,,,,,,,,,,,,,,,,,,,,,,
1720086924,16,0,4302.05127,4290.897461,4291.538574,4314.743652,4292.692383,4294.230957,4296.922852,4295.769043,4295,4304.102539,4430.897461,4467.436035,4358.589844,4396.538574,,,,,,,,,,,,,,,,,,,,,,,,,,,,,,,,,,,,,,,,,,,,,,,,,,,,,,,,,,,,,,,,,,,,,,
1720086924,17,0,4298.461426,4291.538574,4294.230957,4311.666504,4291.282227,4282.820313,4294.487305,4291.666504,4295.256348,4300.512695,4431.153809,4461.282227,4351.922852,4387.820313,,,,,,,,,,,,,,,,,,,,,,,,,,,,,,,,,,,,,,,,,,,,,,,,,,,,,,,,,,,,,,,,,,,,,,
1720086924,18,0,4303.461426,4295.769043,4297.820313,4315.897461,4289.871582,4285.512695,4291.410156,4291.282227,4289.743652,4303.077148,4429.487305,4463.717773,4351.538574,4391.538574,,,,,,,,,,,,,,,,,,,,,,,,,,,,,,,,,,,,,,,,,,,,,,,,,,,,,,,,,,,,,,,,,,,,,,
1720086924,19,0,4311.025879,4299.102539,4296.538574,4319.871582,4292.692383,4293.974121,4292.05127,4291.025879,4287.307617,4299.230957,4432.436035,4467.179688,4355,4393.077148,,,,,,,,,,,,,,,,,,,,,,,,,,,,,,,,,,,,,,,,,,,,,,,,,,,,,,,,,,,,,,,,,,,,,,
1720086924,20,0,4310.512695,4297.436035,4295.897461,4313.846191,4295.512695,4284.743652,4294.102539,4286.922852,4285.256348,4294.102539,4431.794922,4460.512695,4351.538574,4385.897461,,,,,,,,,,,,,,,,,,,,,,,,,,,,,,,,,,,,,,,,,,,,,,,,,,,,,,,,,,,,,,,,,,,,,,
1720086924,21,0,4307.179688,4295.256348,4296.282227,4311.794922,4296.922852,4283.846191,4295.641113,4286.922852,4287.307617,4303.205078,4425.384766,4458.205078,4346.922852,4388.717773,,,,,,,,,,,,,,,,,,,,,,,,,,,,,,,,,,,,,,,,,,,,,,,,,,,,,,,,,,,,,,,,,,,,,,
1720086924,22,0,4307.436035,4292.179688,4292.436035,4312.307617,4295.256348,4295,4292.05127,4286.153809,4294.871582,4304.358887,4424.743652,4462.94873,4344.871582,4394.230957,1.144068,1.443239,1.023764,0.459164,0.182699,0.832968,2.13034,1.162821,0.487424,0.155513,1.404297,1.421489,0.679294,0.408121,0.166782,0.520678,1.379503,0.917069,0.474877,0.180115,0.414955,0.476999,0.618968,0.484363,0.307881,1.053821,0.856041,0.264513,0.184522,0.258644,1.36016,0.882294,0.220845,0.119803,0.153655,1.297137,0.985797,0.241302,0.187244,0.154179,1.305657,1.112669,0.459742,0.246136,0.179255,0.309911,0.319947,0.123143,0.06045,0.124317,1.283476,1.441919,1.461065,0.64883,0.192284,2.337427,2.51006,0.837565,0.539062,0.270637,1.971203,1.709954,1.231628,0.688603,0.159652,1.92463,1.959836,0.956548,0.485361,0.183977
1720086924,23,0,4312.436035,4293.205078,4295.384766,4312.05127,4291.538574,4289.102539,4291.666504,4287.307617,4297.179688,4298.717773,4433.846191,4465.128418,4349.230957,4396.282227,,,,,,,,,,,,,,,,,,,,,,,,,,,,,,,,,,,,,,,,,,,,,,,,,,,,,,,,,,,,,,,,,,,,,,
1720086924,24,0,4322.179688,4300.897461,4306.922852,4319.358887,4299.487305,4284.487305,4299.743652,4292.436035,4293.846191,4304.102539,4441.666504,4469.871582,4358.333496,4402.94873,,,,,,,,,,,,,,,,,,,,,,,,,,,,,,,,,,,,,,,,,,,,,,,,,,,,,,,,,,,,,,,,,,,,,,
1720086924,25,0,4321.794922,4300.897461,4304.615234,4321.410156,4304.615234,4298.077148,4301.025879,4292.307617,4292.692383,4306.410156,4434.871582,4469.230957,4355,4401.153809,,,,,,,,,,,,,,,,,,,,,,,,,,,,,,,,,,,,,,,,,,,,,,,,,,,,,,,,,,,,,,,,,,,,,,
1720086924,26,0,4309.871582,4292.563965,4291.025879,4310.769043,4287.692383,4295.769043,4292.179688,4288.461426,4293.846191,4303.333496,4419.871582,4456.922852,4342.05127,4390.128418,,,,,,,,,,,,,,,,,,,,,,,,,,,,,,,,,,,,,,,,,,,,,,,,,,,,,,,,,,,,,,,,,,,,,,
1720086924,27,0,4306.922852,4292.436035,4289.615234,4308.461426,4277.436035,4276.794922,4287.436035,4283.589844,4289.358887,4300.769043,4413.589844,4449.102539,4338.333496,4384.358887,,,,,,,,,,,,,,,,,,,,,,,,,,,,,,,,,,,,,,,,,,,,,,,,,,,,,,,,,,,,,,,,,,,,,,
1720086924,28,0,4308.974121,4295,4295.512695,4313.077148,4289.358887,4276.794922,4289.615234,4281.410156,4285.128418,4296.025879,4417.563965,4453.461426,4338.205078,4383.974121,,,,,,,,,,,,,,,,,,,,,,,,,,,,,,,,,,,,,,,,,,,,,,,,,,,,,,,,,,,,,,,,,,,,,,
1720086924,29,0,4306.282227,4288.717773,4292.436035,4307.563965,4292.820313,4289.487305,4291.922852,4283.974121,4284.487305,4297.563965,4424.871582,4457.307617,4338.461426,4383.589844,,,,,,,,,,,,,,,,,,,,,,,,,,,,,,,,,,,,,,,,,,,,,,,,,,,,,,,,,,,,,,,,,,,,,,
1720086924,30,0,4305,4286.153809,4290.897461,4306.538574,4289.102539,4293.974121,4292.563965,4285.897461,4282.692383,4302.820313,4429.615234,4457.563965,4344.487305,4383.974121,,,,,,,,,,,,,,,,,,,,,,,,,,,,,,,,,,,,,,,,,,,,,,,,,,,,,,,,,,,,,,,,,,,,,,
1720086924,31,0,4307.820313,4292.436035,4299.871582,4317.563965,4298.589844,4291.666504,4292.94873,4285.512695,4280.512695,4301.025879,4427.307617,4462.692383,4343.974121,4385.641113,,,,,,,,,,,,,,,,,,,,,,,,,,,,,,,,,,,,,,,,,,,,,,,,,,,,,,,,,,,,,,,,,,,,,,
1720086924,32,0,4312.307617,4298.077148,4307.563965,4326.410156,4305.512695,4288.077148,4294.358887,4292.307617,4288.205078,4299.615234,4426.666504,4470.128418,4340.769043,4389.230957,,,,,,,,,,,,,,,,,,,,,,,,,,,,,,,,,,,,,,,,,,,,,,,,,,,,,,,,,,,,,,,,,,,,,,
1720086924,33,0,4319.230957,4296.922852,4308.461426,4327.692383,4305,4292.179688,4295.897461,4297.563965,4296.153809,4302.307617,4433.974121,4472.692383,4347.436035,4395.897461,,,,,,,,,,,,,,,,,,,,,,,,,,,,,,,,,,,,,,,,,,,,,,,,,,,,,,,,,,,,,,,,,,,,,,
1720086924,34,0,4322.179688,4292.820313,4307.307617,4320.897461,4301.282227,4301.538574,4294.871582,4293.589844,4294.743652,4306.025879,4435.256348,4474.230957,4350.769043,4398.589844,,,,,,,,,,,,,,,,,,,,,,,,,,,,,,,,,,,,,,,,,,,,,,,,,,,,,,,,,,,,,,,,,,,,,,
1720086924,35,0,4319.358887,4294.615234,4309.615234,4314.230957,4291.282227,4300.128418,4291.794922,4290.769043,4292.179688,4304.102539,4428.846191,4477.692383,4343.077148,4397.563965,,,,,,,,,,,,,,,,,,,,,,,,,,,,,,,,,,,,,,,,,,,,,,,,,,,,,,,,,,,,,,,,,,,,,,
1720086924,36,0,4321.410156,4297.307617,4315.128418,4320.128418,4285.769043,4291.153809,4290.512695,4293.589844,4291.282227,4299.230957,4428.333496,4480.897461,4342.179688,4399.871582,,,,,,,,,,,,,,,,,,,,,,,,,,,,,,,,,,,,,,,,,,,,,,,,,,,,,,,,,,,,,,,,,,,,,,
1720086924,37,0,4323.205078,4292.820313,4315.384766,4326.538574,4292.563965,4294.615234,4293.589844,4297.94873,4293.461426,4302.94873,4432.563965,4482.692383,4349.487305,4403.077148,,,,,,,,,,,,,,,,,,,,,,,,,,,,,,,,,,,,,,,,,,,,,,,,,,,,,,,,,,,,,,,,,,,,,,
1720086924,38,0,4319.615234,4291.538574,4308.461426,4320.897461,4298.846191,4300.128418,4293.077148,4295.897461,4293.205078,4304.615234,4433.333496,4478.589844,4347.820313,4403.205078,1.103637,1.529519,0.697773,0.400897,0.16675,0.75154,2.14049,0.839735,0.437128,0.142043,1.239821,1.451208,0.480498,0.346383,0.141588,0.530913,1.461566,0.659567,0.444986,0.178544,0.381283,0.424412,0.698392,0.450659,0.289034,0.973721,0.988996,0.346401,0.219389,0.263102,1.177429,0.88317,0.223058,0.128596,0.148328,1.049688,1.04484,0.245751,0.201714,0.143091,1.107409,1.277602,0.482453,0.211758,0.163936,0.244297,0.373436,0.145645,0.055428,0.120677,1.185425,1.839247,1.268182,0.607209,0.18296,1.932863,2.730451,0.656741,0.499626,0.249816,1.940617,1.990555,0.958424,0.615686,0.150553,1.614369,2.176078,0.724098,0.421686,0.174129
1720086924,39,0,4329.487305,4306.794922,4316.025879,4328.974121,4307.692383,4296.794922,4294.615234,4297.179688,4293.846191,4300.384766,4441.666504,4480.384766,4351.538574,4412.436035,,,,,,,,,,,,,,,,,,,,,,,,,,,,,,,,,,,,,,,,,,,,,,,,,,,,,,,,,,,,,,,,,,,,,,
1720086924,40,0,4348.333496,4320.128418,4333.717773,4347.94873,4317.563965,4296.922852,4304.743652,4309.230957,4298.077148,4308.717773,4458.333496,4494.615234,4365.897461,4427.692383,,,,,,,,,,,,,,,,,,,,,,,,,,,,,,,,,,,,,,,,,,,,,,,,,,,,,,,,,,,,,,,,,,,,,,
1720086924,41,0,4354.743652,4320.128418,4335.641113,4346.282227,4314.487305,4304.871582,4310.512695,4311.538574,4300.641113,4316.538574,4464.358887,4497.820313,4371.666504,4432.307617,,,,,,,,,,,,,,,,,,,,,,,,,,,,,,,,,,,,,,,,,,,,,,,,,,,,,,,,,,,,,,,,,,,,,,
1720086924,42,0,4355.641113,4324.615234,4331.794922,4340.128418,4312.692383,4311.538574,4306.538574,4305.384766,4304.358887,4310,4458.846191,4493.589844,4369.102539,4432.692383,,,,,,,,,,,,,,,,,,,,,,,,,,,,,,,,,,,,,,,,,,,,,,,,,,,,,,,,,,,,,,,,,,,,,,
1720086924,43,0,4358.717773,4328.077148,4335.641113,4343.717773,4311.794922,4311.538574,4304.358887,4307.179688,4301.794922,4306.538574,4452.692383,4498.589844,4362.563965,4434.358887,,,,,,,,,,,,,,,,,,,,,,,,,,,,,,,,,,,,,,,,,,,,,,,,,,,,,,,,,,,,,,,,,,,,,,
1720086924,44,0,4362.05127,4324.230957,4341.922852,4346.282227,4299.871582,4308.846191,4308.717773,4312.05127,4295.512695,4307.94873,4453.589844,4504.102539,4363.717773,4436.025879,,,,,,,,,,,,,,,,,,,,,,,,,,,,,,,,,,,,,,,,,,,,,,,,,,,,,,,,,,,,,,,,,,,,,,
1720086924,45,0,4369.743652,4327.179688,4345.512695,4351.282227,4295.897461,4302.692383,4308.461426,4309.102539,4301.410156,4305.256348,4465.384766,4507.05127,4377.563965,4444.358887,,,,,,,,,,,,,,,,,,,,,,,,,,,,,,,,,,,,,,,,,,,,,,,,,,,,,,,,,,,,,,,,,,,,,,
1720086924,46,0,4369.487305,4324.230957,4338.717773,4346.794922,4303.589844,4292.307617,4298.846191,4301.282227,4306.666504,4305.512695,4463.974121,4502.179688,4375.512695,4448.846191,,,,,,,,,,,,,,,,,,,,,,,,,,,,,,,,,,,,,,,,,,,,,,,,,,,,,,,,,,,,,,,,,,,,,,
1720086924,47,0,4352.820313,4308.461426,4318.974121,4325.256348,4302.307617,4291.282227,4291.410156,4291.153809,4291.153809,4302.05127,4437.692383,4480.256348,4348.846191,4435.641113,,,,,,,,,,,,,,,,,,,,,,,,,,,,,,,,,,,,,,,,,,,,,,,,,,,,,,,,,,,,,,,,,,,,,,
1720086924,48,0,4346.794922,4305.128418,4308.205078,4317.820313,4293.717773,4296.025879,4293.461426,4286.282227,4280.641113,4293.205078,4422.94873,4464.487305,4334.871582,4423.974121,,,,,,,,,,,,,,,,,,,,,,,,,,,,,,,,,,,,,,,,,,,,,,,,,,,,,,,,,,,,,,,,,,,,,,
1720086924,49,0,4363.461426,4315,4316.794922,4329.615234,4294.102539,4295.128418,4295.384766,4293.589844,4291.666504,4300,4436.282227,4473.461426,4346.282227,4434.358887,,,,,,,,,,,,,,,,,,,,,,,,,,,,,,,,,,,,,,,,,,,,,,,,,,,,,,,,,,,,,,,,,,,,,,
1720086924,50,0,4381.666504,4318.846191,4327.820313,4336.666504,4300.897461,4298.589844,4297.692383,4299.615234,4299.487305,4310.641113,4452.94873,4488.846191,4360.769043,4455.512695,,,,,,,,,,,,,,,,,,,,,,,,,,,,,,,,,,,,,,,,,,,,,,,,,,,,,,,,,,,,,,,,,,,,,,
1720086924,51,0,4393.461426,4326.666504,4339.230957,4343.461426,4309.871582,4311.794922,4308.717773,4302.436035,4297.692383,4310.769043,4459.615234,4502.563965,4370.256348,4475.512695,,,,,,,,,,,,,,,,,,,,,,,,,,,,,,,,,,,,,,,,,,,,,,,,,,,,,,,,,,,,,,,,,,,,,,
1720086924,52,0,4404.230957,4338.077148,4345.384766,4351.794922,4312.179688,4313.461426,4309.615234,4303.461426,4294.743652,4309.615234,4459.230957,4504.615234,4370.512695,4483.846191,,,,,,,,,,,,,,,,,,,,,,,,,,,,,,,,,,,,,,,,,,,,,,,,,,,,,,,,,,,,,,,,,,,,,,
1720086924,53,0,4411.794922,4335.256348,4340.128418,4351.666504,4299.230957,4298.077148,4298.461426,4298.589844,4294.743652,4306.025879,4457.179688,4494.358887,4366.538574,4480.512695,,,,,,,,,,,,,,,,,,,,,,,,,,,,,,,,,,,,,,,,,,,,,,,,,,,,,,,,,,,,,,,,,,,,,,
1720086924,54,0,4415.128418,4333.589844,4341.282227,4350.641113,4288.974121,4290.512695,4300.128418,4301.025879,4297.179688,4305.128418,4460,4501.666504,4368.589844,4485.256348,1.039281,1.583032,0.50462,0.351748,0.145398,0.689625,2.09862,0.667972,0.387411,0.130975,1.057482,1.512202,0.406825,0.313322,0.122359,0.518406,1.537844,0.549548,0.413105,0.177127,0.336882,0.434296,0.764407,0.391179,0.261325,0.818862,1.046742,0.452564,0.247007,0.256579,0.945029,0.855815,0.245011,0.130022,0.140527,0.787606,1.065003,0.281351,0.201999,0.131304,0.913955,1.416242,0.507942,0.182103,0.15288,0.197294,0.41654,0.170147,0.052451,0.115369,1.048907,2.207737,1.08039,0.552157,0.174561,1.509828,2.827852,0.575368,0.454114,0.221527,1.786519,2.23166,0.7323,0.541218,0.139742,1.368613,2.280932,0.628007,0.378628,0.160002
1720086924,55,0,4423.205078,4344.358887,4352.692383,4354.615234,4301.282227,4299.230957,4305.769043,4306.153809,4296.922852,4309.743652,4461.410156,4517.820313,4368.846191,4498.077148,,,,,,,,,,,,,,,,,,,,,,,,,,,,,,,,,,,,,,,,,,,,,,,,,,,,,,,,,,,,,,,,,,,,,,
1720086924,56,0,4438.589844,4352.563965,4361.025879,4361.794922,4313.205078,4304.358887,4302.307617,4306.410156,4296.282227,4308.461426,4459.487305,4517.94873,4365.897461,4506.922852,,,,,,,,,,,,,,,,,,,,,,,,,,,,,,,,,,,,,,,,,,,,,,,,,,,,,,,,,,,,,,,,,,,,,,
1720086924,57,0,4447.179688,4351.666504,4363.717773,4364.487305,4302.179688,4298.461426,4296.410156,4303.077148,4295.256348,4304.615234,4461.153809,4515.769043,4367.94873,4509.358887,,,,,,,,,,,,,,,,,,,,,,,,,,,,,,,,,,,,,,,,,,,,,,,,,,,,,,,,,,,,,,,,,,,,,,
1720086924,58,0,4443.461426,4350.256348,4362.563965,4358.717773,4294.743652,4299.743652,4295.641113,4299.358887,4291.922852,4305.128418,4458.333496,4513.461426,4366.666504,4502.94873,,,,,,,,,,,,,,,,,,,,,,,,,,,,,,,,,,,,,,,,,,,,,,,,,,,,,,,,,,,,,,,,,,,,,,
1720086924,59,0,4451.025879,4354.102539,4364.871582,4359.230957,4306.794922,4313.205078,4302.820313,4304.358887,4298.205078,4309.743652,4455.769043,4511.666504,4367.436035,4506.025879,,,,,,,,,,,,,,,,,,,,,,,,,,,,,,,,,,,,,,,,,,,,,,,,,,,,,,,,,,,,,,,,,,,,,,
1720086924,60,0,4469.871582,4361.794922,4372.179688,4368.846191,4307.94873,4310.641113,4310.641113,4312.820313,4308.333496,4314.230957,4463.461426,4518.846191,4377.692383,4523.333496,,,,,,,,,,,,,,,,,,,,,,,,,,,,,,,,,,,,,,,,,,,,,,,,,,,,,,,,,,,,,,,,,,,,,,
1720086924,61,0,4468.974121,4365,4372.820313,4368.717773,4303.717773,4297.307617,4309.487305,4308.077148,4301.538574,4309.871582,4464.871582,4517.05127,4378.974121,4520,,,,,,,,,,,,,,,,,,,,,,,,,,,,,,,,,,,,,,,,,,,,,,,,,,,,,,,,,,,,,,,,,,,,,,
1720086924,62,0,4461.410156,4362.179688,4370.897461,4363.846191,4310.384766,4307.436035,4305.641113,4302.436035,4291.794922,4303.077148,4457.94873,4511.282227,4371.025879,4504.358887,,,,,,,,,,,,,,,,,,,,,,,,,,,,,,,,,,,,,,,,,,,,,,,,,,,,,,,,,,,,,,,,,,,,,,
1720086924,63,0,4472.94873,4363.461426,4376.025879,4371.922852,4306.538574,4313.589844,4304.743652,4305.897461,4293.589844,4306.410156,4462.563965,4519.871582,4372.820313,4509.358887,,,,,,,,,,,,,,,,,,,,,,,,,,,,,,,,,,,,,,,,,,,,,,,,,,,,,,,,,,,,,,,,,,,,,,
1720086924,64,0,4480.641113,4367.692383,4375.384766,4377.563965,4297.820313,4294.615234,4297.820313,4301.410156,4291.666504,4305.384766,4463.974121,4517.05127,4373.461426,4509.358887,,,,,,,,,,,,,,,,,,,,,,,,,,,,,,,,,,,,,,,,,,,,,,,,,,,,,,,,,,,,,,,,,,,,,,
1720086924,65,0,4474.743652,4366.538574,4368.717773,4373.589844,4307.436035,4291.794922,4294.102539,4297.436035,4286.410156,4301.153809,4448.205078,4503.589844,4361.922852,4498.205078,,,,,,,,,,,,,,,,,,,,,,,,,,,,,,,,,,,,,,,,,,,,,,,,,,,,,,,,,,,,,,,,,,,,,,
1720086924,66,0,4475.256348,4364.487305,4369.871582,4373.205078,4314.487305,4309.871582,4297.692383,4301.282227,4288.717773,4305.769043,4438.846191,4508.974121,4356.666504,4498.717773,,,,,,,,,,,,,,,,,,,,,,,,,,,,,,,,,,,,,,,,,,,,,,,,,,,,,,,,,,,,,,,,,,,,,,
1720086924,67,0,4477.820313,4364.871582,4370.512695,4373.846191,4303.077148,4307.820313,4295.769043,4296.794922,4289.487305,4304.358887,4443.846191,4508.974121,4357.820313,4498.589844,,,,,,,,,,,,,,,,,,,,,,,,,,,,,,,,,,,,,,,,,,,,,,,,,,,,,,,,,,,,,,,,,,,,,,
1720086924,68,0,4481.922852,4369.615234,4371.153809,4375,4299.743652,4297.692383,4299.615234,4300.128418,4291.922852,4304.102539,4448.333496,4503.717773,4357.436035,4498.589844,,,,,,,,,,,,,,,,,,,,,,,,,,,,,,,,,,,,,,,,,,,,,,,,,,,,,,,,,,,,,,,,,,,,,,
1720086924,69,0,4491.282227,4377.05127,4375.769043,4381.538574,4313.461426,4310.128418,4305.128418,4310.769043,4296.410156,4307.820313,4448.974121,4514.487305,4362.179688,4503.077148,,,,,,,,,,,,,,,,,,,,,,,,,,,,,,,,,,,,,,,,,,,,,,,,,,,,,,,,,,,,,,,,,,,,,,
1720086924,70,0,4493.846191,4374.358887,4376.410156,4382.94873,4315.897461,4313.974121,4298.461426,4305.897461,4286.538574,4303.974121,4448.333496,4519.743652,4367.436035,4500.128418,0.972477,1.53407,0.422628,0.317102,0.12581,0.65934,1.925732,0.563498,0.339448,0.124277,0.912068,1.539135,0.435697,0.302395,0.111988,0.496398,1.51091,0.496875,0.384636,0.176459,0.309487,0.474085,0.773194,0.324965,0.231323,0.643008,0.996304,0.560595,0.256586,0.244696,0.740027,0.795315,0.277885,0.122556,0.134906,0.591832,1.021548,0.332821,0.184949,0.120508,0.776633,1.447094,0.535071,0.160712,0.146857,0.175204,0.422503,0.191868,0.051068,0.107629,0.924577,2.393095,0.93135,0.478238,0.16959,1.207551,2.711339,0.57686,0.394166,0.191763,1.56337,2.291808,0.59002,0.45782,0.129165,1.242794,2.211713,0.653709,0.341052,0.144232
1720086924,71,0,4492.179688,4371.282227,4376.025879,4378.589844,4301.794922,4297.820313,4292.05127,4298.205078,4278.077148,4302.94873,4445.897461,4512.05127,4362.820313,4496.922852,,,,,,,,,,,,,,,,,,,,,,,,,,,,,,,,,,,,,,,,,,,,,,,,,,,,,,,,,,,,,,,,,,,,,,
1720086924,72,0,4492.436035,4375.384766,4375.512695,4378.974121,4294.487305,4291.282227,4292.179688,4296.025879,4283.205078,4302.94873,4440.512695,4504.615234,4354.487305,4497.05127,,,,,,,,,,,,,,,,,,,,,,,,,,,,,,,,,,,,,,,,,,,,,,,,,,,,,,,,,,,,,,,,,,,,,,
1720086924,73,0,4492.05127,4373.077148,4369.871582,4379.743652,4297.436035,4295.128418,4288.077148,4293.846191,4283.974121,4297.820313,4439.487305,4505.256348,4355.897461,4497.692383,,,,,,,,,,,,,,,,,,,,,,,,,,,,,,,,,,,,,,,,,,,,,,,,,,,,,,,,,,,,,,,,,,,,,,
1720086924,74,0,4488.077148,4364.743652,4362.436035,4374.102539,4295.256348,4296.410156,4285.512695,4292.692383,4282.820313,4300.384766,4442.94873,4507.307617,4356.794922,4495.512695,,,,,,,,,,,,,,,,,,,,,,,,,,,,,,,,,,,,,,,,,,,,,,,,,,,,,,,,,,,,,,,,,,,,,,
1720086924,75,0,4482.307617,4363.846191,4363.717773,4373.077148,4297.179688,4298.974121,4292.563965,4295,4288.333496,4305.128418,4445.256348,4505.769043,4352.563965,4492.692383,,,,,,,,,,,,,,,,,,,,,,,,,,,,,,,,,,,,,,,,,,,,,,,,,,,,,,,,,,,,,,,,,,,,,,
1720086924,76,0,4476.410156,4365.897461,4366.794922,4376.410156,4305.769043,4301.794922,4294.871582,4295.641113,4285,4295.769043,4444.102539,4500.769043,4352.820313,4488.077148,,,,,,,,,,,,,,,,,,,,,,,,,,,,,,,,,,,,,,,,,,,,,,,,,,,,,,,,,,,,,,,,,,,,,,
1720086924,77,0,4476.794922,4365.641113,4368.205078,4377.05127,4307.820313,4298.589844,4290.384766,4292.563965,4276.282227,4292.820313,4442.05127,4500.384766,4355.897461,4485.897461,,,,,,,,,,,,,,,,,,,,,,,,,,,,,,,,,,,,,,,,,,,,,,,,,,,,,,,,,,,,,,,,,,,,,,
1720086924,78,0,4485.256348,4375.384766,4372.307617,4382.820313,4307.820313,4297.436035,4290.384766,4293.461426,4277.05127,4299.102539,4443.205078,4506.410156,4357.436035,4491.922852,,,,,,,,,,,,,,,,,,,,,,,,,,,,,,,,,,,,,,,,,,,,,,,,,,,,,,,,,,,,,,,,,,,,,,
1720086924,79,0,4493.589844,4384.358887,4377.179688,4390,4309.230957,4297.563965,4293.205078,4295.128418,4282.692383,4299.615234,4444.358887,4509.871582,4358.077148,4498.846191,,,,,,,,,,,,,,,,,,,,,,,,,,,,,,,,,,,,,,,,,,,,,,,,,,,,,,,,,,,,,,,,,,,,,,
1720086924,80,0,4493.461426,4378.846191,4378.589844,4385.256348,4303.974121,4297.307617,4293.077148,4293.717773,4285.897461,4302.179688,4443.333496,4514.487305,4358.846191,4498.205078,,,,,,,,,,,,,,,,,,,,,,,,,,,,,,,,,,,,,,,,,,,,,,,,,,,,,,,,,,,,,,,,,,,,,,
1720086924,81,0,4485.769043,4374.487305,4375.384766,4379.487305,4306.538574,4303.846191,4291.922852,4292.94873,4283.461426,4303.974121,4442.692383,4513.461426,4359.358887,4491.794922,,,,,,,,,,,,,,,,,,,,,,,,,,,,,,,,,,,,,,,,,,,,,,,,,,,,,,,,,,,,,,,,,,,,,,
1720086924,82,0,4479.871582,4377.179688,4373.077148,4382.692383,4312.94873,4307.692383,4292.563965,4296.794922,4278.589844,4300.384766,4443.846191,4506.538574,4359.487305,4490.384766,,,,,,,,,,,,,,,,,,,,,,,,,,,,,,,,,,,,,,,,,,,,,,,,,,,,,,,,,,,,,,,,,,,,,,
1720086924,83,0,4476.538574,4375.256348,4370.512695,4380,4304.230957,4302.692383,4293.461426,4298.974121,4280.256348,4301.282227,4441.025879,4501.794922,4356.922852,4490.256348,,,,,,,,,,,,,,,,,,,,,,,,,,,,,,,,,,,,,,,,,,,,,,,,,,,,,,,,,,,,,,,,,,,,,,
1720086924,84,0,4472.436035,4367.307617,4365,4371.922852,4295.641113,4296.410156,4293.205078,4298.333496,4288.205078,4305.384766,4442.94873,4503.717773,4357.436035,4483.846191,,,,,,,,,,,,,,,,,,,,,,,,,,,,,,,,,,,,,,,,,,,,,,,,,,,,,,,,,,,,,,,,,,,,,,
1720086924,85,0,4470.897461,4367.179688,4362.692383,4374.358887,4300.128418,4293.461426,4291.538574,4299.871582,4288.205078,4302.179688,4452.179688,4506.666504,4364.102539,4481.025879,,,,,,,,,,,,,,,,,,,,,,,,,,,,,,,,,,,,,,,,,,,,,,,,,,,,,,,,,,,,,,,,,,,,,,
1720086924,86,0,4473.205078,4376.922852,4368.717773,4382.179688,4309.358887,4304.871582,4292.820313,4298.205078,4282.94873,4299.743652,4450,4506.666504,4365.256348,4487.563965,0.945885,1.372485,0.418682,0.298891,0.116883,0.646127,1.622045,0.471326,0.295715,0.123062,0.858898,1.48714,0.531348,0.305098,0.112013,0.490893,1.352007,0.437708,0.36576,0.178873,0.321342,0.515731,0.728453,0.270339,0.207442,0.494715,0.841239,0.653534,0.244343,0.235767,0.603672,0.700195,0.314946,0.108211,0.134437,0.505303,0.909999,0.38339,0.155353,0.112349,0.701028,1.337299,0.557262,0.148131,0.144631,0.171703,0.383947,0.208159,0.0504,0.098997,0.851904,2.321491,0.842347,0.403581,0.172253,1.111158,2.372301,0.642216,0.328625,0.169158,1.334755,2.118397,0.545618,0.377703,0.124299,1.252007,1.975932,0.775702,0.307407,0.131223
1720086924,87,0,4475.384766,4379.487305,4372.94873,4379.743652,4306.922852,4314.487305,4295.641113,4299.230957,4283.974121,4302.94873,4442.692383,4512.820313,4358.589844,4494.487305,,,,,,,,,,,,,,,,,,,,,,,,,,,,,,,,,,,,,,,,,,,,,,,,,,,,,,,,,,,,,,,,,,,,,,
1720086924,88,0,4476.153809,4373.461426,4372.94873,4373.077148,4297.820313,4300.897461,4294.743652,4305.641113,4289.871582,4305.384766,4447.05127,4518.974121,4359.358887,4497.05127,,,,,,,,,,,,,,,,,,,,,,,,,,,,,,,,,,,,,,,,,,,,,,,,,,,,,,,,,,,,,,,,,,,,,,
1720086924,89,0,4473.333496,4375.384766,4375.384766,4377.94873,4301.794922,4293.846191,4293.974121,4308.077148,4293.846191,4305.769043,4451.922852,4516.025879,4368.974121,4498.974121,,,,,,,,,,,,,,,,,,,,,,,,,,,,,,,,,,,,,,,,,,,,,,,,,,,,,,,,,,,,,,,,,,,,,,
1720086924,90,0,4464.487305,4376.282227,4370.769043,4383.077148,4313.205078,4308.077148,4294.615234,4303.589844,4289.358887,4301.922852,4445.384766,4507.179688,4368.333496,4495.128418,,,,,,,,,,,,,,,,,,,,,,,,,,,,,,,,,,,,,,,,,,,,,,,,,,,,,,,,,,,,,,,,,,,,,,
1720086924,91,0,4456.666504,4368.205078,4363.974121,4377.692383,4312.563965,4309.615234,4292.820313,4299.102539,4282.820313,4302.820313,4442.307617,4506.794922,4363.589844,4489.230957,,,,,,,,,,,,,,,,,,,,,,,,,,,,,,,,,,,,,,,,,,,,,,,,,,,,,,,,,,,,,,,,,,,,,,
1720086924,92,0,4450.769043,4364.743652,4361.282227,4371.922852,4302.307617,4299.871582,4290.256348,4298.333496,4281.410156,4302.436035,4446.410156,4506.025879,4366.666504,4485.256348,,,,,,,,,,,,,,,,,,,,,,,,,,,,,,,,,,,,,,,,,,,,,,,,,,,,,,,,,,,,,,,,,,,,,,
1720086924,93,0,4444.743652,4365,4355.641113,4371.666504,4302.563965,4305.641113,4291.025879,4297.563965,4285.641113,4296.410156,4449.102539,4500.384766,4367.94873,4482.820313,,,,,,,,,,,,,,,,,,,,,,,,,,,,,,,,,,,,,,,,,,,,,,,,,,,,,,,,,,,,,,,,,,,,,,
1720086924,94,0,4443.077148,4363.717773,4355.128418,4372.179688,4310.512695,4312.820313,4292.820313,4297.563965,4290.641113,4298.846191,4452.307617,4503.205078,4367.307617,4483.974121,,,,,,,,,,,,,,,,,,,,,,,,,,,,,,,,,,,,,,,,,,,,,,,,,,,,,,,,,,,,,,,,,,,,,,
1720086924,95,0,4445.641113,4367.05127,4361.794922,4372.94873,4309.487305,4307.820313,4293.717773,4296.538574,4293.846191,4303.974121,4452.179688,4506.794922,4368.205078,4485.256348,,,,,,,,,,,,,,,,,,,,,,,,,,,,,,,,,,,,,,,,,,,,,,,,,,,,,,,,,,,,,,,,,,,,,,
1720086924,96,0,4446.025879,4365.769043,4363.077148,4372.692383,4300,4303.974121,4294.102539,4296.410156,4293.717773,4303.077148,4446.410156,4506.153809,4362.820313,4486.794922,,,,,,,,,,,,,,,,,,,,,,,,,,,,,,,,,,,,,,,,,,,,,,,,,,,,,,,,,,,,,,,,,,,,,,
1720086924,97,0,4440.256348,4354.615234,4355.384766,4368.461426,4292.563965,4293.974121,4289.102539,4295.128418,4282.179688,4297.820313,4439.487305,4500.512695,4352.692383,4479.358887,,,,,,,,,,,,,,,,,,,,,,,,,,,,,,,,,,,,,,,,,,,,,,,,,,,,,,,,,,,,,,,,,,,,,,
1720086924,98,0,4441.538574,4361.538574,4361.282227,4374.871582,4297.563965,4287.307617,4288.205078,4296.025879,4280.384766,4296.666504,4446.538574,4506.538574,4360,4476.538574,,,,,,,,,,,,,,,,,,,,,,,,,,,,,,,,,,,,,,,,,,,,,,,,,,,,,,,,,,,,,,,,,,,,,,
1720086924,99,0,4451.538574,4377.05127,4376.922852,4384.230957,4308.589844,4301.922852,4295.256348,4302.94873,4289.743652,4301.538574,4462.179688,4524.487305,4374.743652,4488.461426,,,,,,,,,,,,,,,,,,,,,,,,,,,,,,,,,,,,,,,,,,,,,,,,,,,,,,,,,,,,,,,,,,,,,,
1720086924,100,0,4445.641113,4368.333496,4372.307617,4377.307617,4309.487305,4307.563965,4295.256348,4301.922852,4285.512695,4299.102539,4457.436035,4520.897461,4367.820313,4484.615234,,,,,,,,,,,,,,,,,,,,,,,,,,,,,,,,,,,,,,,,,,,,,,,,,,,,,,,,,,,,,,,,,,,,,,
1720086924,101,0,4423.589844,4353.205078,4354.358887,4364.615234,4296.666504,4296.282227,4291.153809,4296.282227,4283.077148,4297.179688,4439.358887,4498.205078,4352.436035,4466.410156,,,,,,,,,,,,,,,,,,,,,,,,,,,,,,,,,,,,,,,,,,,,,,,,,,,,,,,,,,,,,,,,,,,,,,
1720086924,102,0,4414.615234,4353.077148,4346.153809,4363.589844,4290.384766,4303.077148,4292.307617,4297.307617,4293.974121,4305.512695,4439.615234,4490.384766,4353.589844,4463.846191,0.933076,1.161384,0.47877,0.295064,0.124227,0.639653,1.273833,0.398256,0.258553,0.127068,0.925184,1.376968,0.671644,0.317734,0.121484,0.529965,1.127746,0.376164,0.360667,0.186281,0.374478,0.549711,0.678352,0.238331,0.198024,0.400741,0.624186,0.727187,0.217043,0.237912,0.535801,0.580298,0.358982,0.092592,0.138739,0.522952,0.752894,0.424659,0.123708,0.107983,0.668692,1.111365,0.57062,0.143399,0.14436,0.176366,0.314235,0.220418,0.049912,0.092437,0.856703,2.030815,0.822372,0.360549,0.185342,1.225756,1.910481,0.758076,0.280472,0.160708,1.167593,1.764485,0.590347,0.32684,0.130646,1.382504,1.650165,0.960671,0.287632,0.125881
1720086924,103,0,4416.666504,4353.974121,4346.410156,4367.692383,4295.384766,4312.436035,4287.179688,4296.922852,4291.666504,4306.282227,4449.230957,4493.461426,4363.205078,4466.153809,,,,,,,,,,,,,,,,,,,,,,,,,,,,,,,,,,,,,,,,,,,,,,,,,,,,,,,,,,,,,,,,,,,,,,
1720086924,104,0,4415,4351.922852,4345,4361.538574,4296.666504,4298.205078,4276.410156,4291.025879,4278.077148,4294.102539,4442.179688,4486.538574,4361.282227,4458.333496,,,,,,,,,,,,,,,,,,,,,,,,,,,,,,,,,,,,,,,,,,,,,,,,,,,,,,,,,,,,,,,,,,,,,,
1720086924,105,0,4420.128418,4357.563965,4351.666504,4356.922852,4298.974121,4295.256348,4278.846191,4292.436035,4277.94873,4294.743652,4442.436035,4491.538574,4363.974121,4463.717773,,,,,,,,,,,,,,,,,,,,,,,,,,,,,,,,,,,,,,,,,,,,,,,,,,,,,,,,,,,,,,,,,,,,,,
1720086924,106,0,4425.769043,4363.846191,4358.205078,4364.615234,4305.769043,4309.487305,4284.358887,4294.487305,4281.666504,4303.846191,4457.820313,4506.153809,4378.333496,4475,,,,,,,,,,,,,,,,,,,,,,,,,,,,,,,,,,,,,,,,,,,,,,,,,,,,,,,,,,,,,,,,,,,,,,
1720086924,107,0,4417.05127,4359.487305,4351.025879,4368.205078,4306.153809,4306.922852,4282.820313,4291.025879,4276.794922,4299.358887,4455.897461,4499.230957,4373.974121,4463.333496,,,,,,,,,,,,,,,,,,,,,,,,,,,,,,,,,,,,,,,,,,,,,,,,,,,,,,,,,,,,,,,,,,,,,,
1720086924,108,0,4409.358887,4356.538574,4348.333496,4363.461426,4306.153809,4305,4287.820313,4297.436035,4277.307617,4300.641113,4440.128418,4490.512695,4356.794922,4450.897461,,,,,,,,,,,,,,,,,,,,,,,,,,,,,,,,,,,,,,,,,,,,,,,,,,,,,,,,,,,,,,,,,,,,,,
1720086924,109,0,4415.128418,4364.358887,4357.563965,4369.487305,4312.05127,4311.666504,4297.94873,4306.410156,4288.846191,4308.717773,4447.307617,4500,4361.794922,4455.256348,,,,,,,,,,,,,,,,,,,,,,,,,,,,,,,,,,,,,,,,,,,,,,,,,,,,,,,,,,,,,,,,,,,,,,
1720086924,110,0,4415.641113,4365.256348,4361.410156,4374.487305,4308.205078,4303.461426,4295.256348,4303.846191,4294.230957,4305.897461,4462.179688,4503.846191,4373.461426,4456.153809,,,,,,,,,,,,,,,,,,,,,,,,,,,,,,,,,,,,,,,,,,,,,,,,,,,,,,,,,,,,,,,,,,,,,,
1720086924,111,0,4399.102539,4351.025879,4351.410156,4359.102539,4289.487305,4290.384766,4282.307617,4292.692383,4281.794922,4300.512695,4449.615234,4490.384766,4363.205078,4445.897461,,,,,,,,,,,,,,,,,,,,,,,,,,,,,,,,,,,,,,,,,,,,,,,,,,,,,,,,,,,,,,,,,,,,,,
1720086924,112,0,4384.743652,4336.410156,4338.333496,4344.487305,4281.153809,4293.077148,4272.94873,4284.358887,4270,4296.410156,4431.025879,4479.102539,4352.692383,4437.179688,,,,,,,,,,,,,,,,,,,,,,,,,,,,,,,,,,,,,,,,,,,,,,,,,,,,,,,,,,,,,,,,,,,,,,
1720086924,113,0,4382.179688,4331.153809,4330,4342.179688,4296.538574,4297.563965,4274.102539,4281.922852,4275.256348,4295.256348,4431.410156,4478.333496,4356.153809,4436.666504,,,,,,,,,,,,,,,,,,,,,,,,,,,,,,,,,,,,,,,,,,,,,,,,,,,,,,,,,,,,,,,,,,,,,,
1720086924,114,0,4380.641113,4331.025879,4328.333496,4343.333496,4311.282227,4294.615234,4273.846191,4280.769043,4275.384766,4297.05127,4434.487305,4473.461426,4356.794922,4431.922852,,,,,,,,,,,,,,,,,,,,,,,,,,,,,,,,,,,,,,,,,,,,,,,,,,,,,,,,,,,,,,,,,,,,,,
1720086924,115,0,4372.820313,4330.769043,4327.94873,4347.436035,4300.769043,4294.871582,4268.205078,4280.384766,4266.538574,4296.794922,4430,4466.410156,4351.794922,4421.153809,,,,,,,,,,,,,,,,,,,,,,,,,,,,,,,,,,,,,,,,,,,,,,,,,,,,,,,,,,,,,,,,,,,,,,
1720086924,116,0,4363.461426,4326.025879,4323.974121,4347.05127,4283.461426,4295.897461,4270.256348,4285,4268.846191,4296.282227,4426.025879,4468.077148,4346.794922,4414.102539,,,,,,,,,,,,,,,,,,,,,,,,,,,,,,,,,,,,,,,,,,,,,,,,,,,,,,,,,,,,,,,,,,,,,,
1720086924,117,0,4362.692383,4321.410156,4326.025879,4339.230957,4282.307617,4294.102539,4279.871582,4293.333496,4277.436035,4298.589844,4430.512695,4475.256348,4349.358887,4417.05127,,,,,,,,,,,,,,,,,,,,,,,,,,,,,,,,,,,,,,,,,,,,,,,,,,,,,,,,,,,,,,,,,,,,,,
1720086924,118,0,4372.436035,4330.641113,4332.94873,4340.128418,4292.692383,4295.256348,4282.05127,4295.769043,4276.282227,4293.717773,4442.307617,4483.589844,4360.641113,4423.077148,1.024243,0.991738,0.603751,0.301028,0.146471,0.673739,0.990376,0.372261,0.229359,0.134721,1.130979,1.256301,0.837918,0.338377,0.13653,0.622652,0.939047,0.341809,0.367605,0.198187,0.449733,0.572108,0.671676,0.228358,0.207943,0.360707,0.404315,0.785075,0.18811,0.255657,0.504787,0.453065,0.41393,0.081436,0.143982,0.598671,0.58693,0.453722,0.099987,0.106997,0.645456,0.827153,0.570083,0.144805,0.145026,0.17959,0.237497,0.231387,0.04907,0.09011,0.923892,1.628972,0.862865,0.368191,0.207254,1.474798,1.464949,0.905287,0.269592,0.167788,1.085764,1.33692,0.699295,0.319064,0.149759,1.639722,1.338226,1.165157,0.290782,0.130948
1720086924,119,0,4377.820313,4337.307617,4334.102539,4345.384766,4302.307617,4299.615234,4279.230957,4294.743652,4273.717773,4292.692383,4446.538574,4487.820313,4367.05127,4423.974121,,,,,,,,,,,,,,,,,,,,,,,,,,,,,,,,,,,,,,,,,,,,,,,,,,,,,,,,,,,,,,,,,,,,,,
1720086924,120,0,4372.179688,4330.897461,4330.641113,4345,4299.487305,4297.94873,4282.307617,4296.410156,4278.974121,4300.641113,4439.743652,4482.820313,4363.333496,4424.871582,,,,,,,,,,,,,,,,,,,,,,,,,,,,,,,,,,,,,,,,,,,,,,,,,,,,,,,,,,,,,,,,,,,,,,
1720086924,121,0,4370,4327.820313,4329.871582,4341.666504,4283.589844,4284.871582,4276.922852,4292.436035,4278.589844,4295.512695,4438.846191,4477.563965,4359.102539,4425.128418,,,,,,,,,,,,,,,,,,,,,,,,,,,,,,,,,,,,,,,,,,,,,,,,,,,,,,,,,,,,,,,,,,,,,,
1720086924,122,0,4373.077148,4331.922852,4333.846191,4341.538574,4276.282227,4283.974121,4265,4285.384766,4273.333496,4291.538574,4444.871582,4483.589844,4357.94873,4426.153809,,,,,,,,,,,,,,,,,,,,,,,,,,,,,,,,,,,,,,,,,,,,,,,,,,,,,,,,,,,,,,,,,,,,,,
1720086924,123,0,4375.512695,4338.333496,4340.512695,4350.256348,4293.077148,4298.205078,4268.333496,4285.128418,4272.94873,4297.436035,4445.512695,4488.589844,4359.358887,4425.769043,,,,,,,,,,,,,,,,,,,,,,,,,,,,,,,,,,,,,,,,,,,,,,,,,,,,,,,,,,,,,,,,,,,,,,
1720086924,124,0,4375.256348,4339.615234,4345.897461,4357.05127,4302.94873,4301.153809,4278.461426,4292.307617,4273.333496,4296.922852,4441.922852,4488.846191,4361.538574,4424.102539,,,,,,,,,,,,,,,,,,,,,,,,,,,,,,,,,,,,,,,,,,,,,,,,,,,,,,,,,,,,,,,,,,,,,,
1720086924,125,0,4370.641113,4334.230957,4343.974121,4347.307617,4288.461426,4293.205078,4280.256348,4295.897461,4273.333496,4292.05127,4446.025879,4493.333496,4363.077148,4425.769043,,,,,,,,,,,,,,,,,,,,,,,,,,,,,,,,,,,,,,,,,,,,,,,,,,,,,,,,,,,,,,,,,,,,,,
1720086924,126,0,4362.94873,4326.282227,4338.205078,4337.692383,4283.974121,4293.205078,4278.461426,4293.589844,4273.333496,4291.922852,4452.05127,4493.205078,4365,4425.256348,,,,,,,,,,,,,,,,,,,,,,,,,,,,,,,,,,,,,,,,,,,,,,,,,,,,,,,,,,,,,,,,,,,,,,
1720086924,127,0,4358.717773,4325.128418,4335.641113,4343.974121,4294.102539,4297.94873,4281.922852,4295.256348,4275.512695,4298.717773,4451.410156,4490.256348,4367.692383,4423.717773,,,,,,,,,,,,,,,,,,,,,,,,,,,,,,,,,,,,,,,,,,,,,,,,,,,,,,,,,,,,,,,,,,,,,,
1720086924,0,0,4355,4326.794922,4332.820313,4341.538574,4291.794922,4294.743652,4282.436035,4296.794922,4281.410156,4301.153809,4446.282227,4485.897461,4366.025879,4418.333496,,,,,,,,,,,,,,,,,,,,,,,,,,,,,,,,,,,,,,,,,,,,,,,,,,,,,,,,,,,,,,,,,,,,,,
1720086925,1,0,4345.897461,4322.563965,4323.461426,4325.769043,4280.384766,4290.769043,4277.820313,4294.487305,4291.666504,4298.717773,4438.077148,4477.820313,4357.307617,4406.794922,,,,,,,,,,,,,,,,,,,,,,,,,,,,,,,,,,,,,,,,,,,,,,,,,,,,,,,,,,,,,,,,,,,,,,
1720086925,2,0,4340.256348,4317.692383,4312.94873,4325.512695,4277.179688,4290,4274.102539,4293.077148,4292.94873,4297.820313,4430.769043,4475.128418,4349.871582,4399.358887,,,,,,,,,,,,,,,,,,,,,,,,,,,,,,,,,,,,,,,,,,,,,,,,,,,,,,,,,,,,,,,,,,,,,,
1720086925,3,0,4346.666504,4318.205078,4313.333496,4336.410156,4281.922852,4294.487305,4274.358887,4295.512695,4283.589844,4299.743652,4429.871582,4476.666504,4349.102539,4404.358887,,,,,,,,,,,,,,,,,,,,,,,,,,,,,,,,,,,,,,,,,,,,,,,,,,,,,,,,,,,,,,,,,,,,,,
1720086925,4,0,4351.282227,4322.179688,4320.384766,4335.384766,4290.128418,4296.666504,4275.256348,4291.025879,4279.871582,4295.256348,4433.333496,4472.563965,4350.128418,4408.333496,,,,,,,,,,,,,,,,,,,,,,,,,,,,,,,,,,,,,,,,,,,,,,,,,,,,,,,,,,,,,,,,,,,,,,
1720086925,5,0,4351.025879,4324.743652,4325.384766,4332.94873,4289.871582,4285.128418,4268.846191,4282.436035,4277.820313,4289.102539,4437.05127,4475.128418,4354.871582,4408.717773,,,,,,,,,,,,,,,,,,,,,,,,,,,,,,,,,,,,,,,,,,,,,,,,,,,,,,,,,,,,,,,,,,,,,,
1720086925,6,0,4360.512695,4331.794922,4332.179688,4342.820313,4280.384766,4276.922852,4262.05127,4283.846191,4266.922852,4287.94873,4445.897461,4490.384766,4363.333496,4420.128418,1.155585,0.917318,0.789845,0.309404,0.175646,0.758804,0.837167,0.407592,0.20753,0.143995,1.426254,1.158078,1.008289,0.362845,0.151489,0.762416,0.845959,0.350614,0.376131,0.210762,0.520092,0.578222,0.71802,0.230402,0.236551,0.358446,0.231932,0.82741,0.17073,0.287767,0.477784,0.338607,0.480421,0.07847,0.145497,0.687666,0.445445,0.47269,0.08937,0.107686,0.611946,0.551762,0.553716,0.150976,0.147764,0.180407,0.172661,0.241302,0.047945,0.092234,1.02974,1.242996,0.933472,0.419492,0.23251,1.751639,1.14733,1.062436,0.29931,0.186497,1.090676,0.949834,0.834572,0.345404,0.17844,1.934438,1.110877,1.336581,0.314515,0.145531
1720086925,7,0,4371.666504,4338.974121,4338.333496,4348.589844,4278.974121,4282.820313,4264.102539,4286.538574,4259.102539,4287.692383,4456.282227,4497.05127,4371.922852,4429.871582,,,,,,,,,,,,,,,,,,,,,,,,,,,,,,,,,,,,,,,,,,,,,,,,,,,,,,,,,,,,,,,,,,,,,,
1720086925,8,0,4367.94873,4333.974121,4337.820313,4341.666504,4284.230957,4292.692383,4274.487305,4293.077148,4270.769043,4295.256348,4461.794922,4500.384766,4381.025879,4429.487305,,,,,,,,,,,,,,,,,,,,,,,,,,,,,,,,,,,,,,,,,,,,,,,,,,,,,,,,,,,,,,,,,,,,,,
1720086925,9,0,4355.512695,4322.820313,4327.563965,4331.794922,4276.922852,4293.846191,4280.128418,4301.025879,4287.436035,4300.769043,4458.846191,4501.410156,4378.077148,4423.333496,,,,,,,,,,,,,,,,,,,,,,,,,,,,,,,,,,,,,,,,,,,,,,,,,,,,,,,,,,,,,,,,,,,,,,
1720086925,10,0,4349.102539,4319.102539,4318.205078,4330.128418,4276.794922,4292.820313,4280.256348,4303.205078,4297.563965,4298.846191,4453.077148,4491.538574,4364.615234,4416.922852,,,,,,,,,,,,,,,,,,,,,,,,,,,,,,,,,,,,,,,,,,,,,,,,,,,,,,,,,,,,,,,,,,,,,,
1720086925,11,0,4341.666504,4316.025879,4308.333496,4328.717773,4290.512695,4297.179688,4282.436035,4303.589844,4301.666504,4302.179688,4442.563965,4475.897461,4353.589844,4404.615234,,,,,,,,,,,,,,,,,,,,,,,,,,,,,,,,,,,,,,,,,,,,,,,,,,,,,,,,,,,,,,,,,,,,,,
1720086925,12,0,4323.974121,4304.871582,4291.794922,4313.333496,4290.128418,4300,4274.743652,4293.846191,4292.05127,4298.589844,4415.897461,4452.436035,4335.897461,4381.410156,,,,,,,,,,,,,,,,,,,,,,,,,,,,,,,,,,,,,,,,,,,,,,,,,,,,,,,,,,,,,,,,,,,,,,
1720086925,13,0,4320.897461,4306.922852,4290.512695,4307.94873,4285.641113,4294.358887,4264.743652,4285,4286.538574,4291.410156,4400.641113,4441.153809,4323.846191,4374.102539,,,,,,,,,,,,,,,,,,,,,,,,,,,,,,,,,,,,,,,,,,,,,,,,,,,,,,,,,,,,,,,,,,,,,,
1720086925,14,0,4333.333496,4319.358887,4305.256348,4323.461426,4295.641113,4288.974121,4268.974121,4287.692383,4290.256348,4294.871582,4419.487305,4452.307617,4336.922852,4387.179688,,,,,,,,,,,,,,,,,,,,,,,,,,,,,,,,,,,,,,,,,,,,,,,,,,,,,,,,,,,,,,,,,,,,,,
1720086925,15,0,4332.307617,4315.256348,4305.897461,4329.102539,4298.333496,4292.692383,4271.025879,4287.307617,4286.025879,4295.641113,4433.205078,4458.846191,4344.871582,4387.05127,,,,,,,,,,,,,,,,,,,,,,,,,,,,,,,,,,,,,,,,,,,,,,,,,,,,,,,,,,,,,,,,,,,,,,
1720086925,16,0,4328.589844,4308.333496,4303.333496,4325.128418,4281.922852,4288.974121,4261.666504,4279.615234,4277.307617,4288.205078,4424.615234,4455.128418,4335.769043,4382.94873,,,,,,,,,,,,,,,,,,,,,,,,,,,,,,,,,,,,,,,,,,,,,,,,,,,,,,,,,,,,,,,,,,,,,,
1720086925,17,0,4342.94873,4323.589844,4322.05127,4340.128418,4275.128418,4279.230957,4259.615234,4280.641113,4271.666504,4290.512695,4431.282227,4471.153809,4349.743652,4403.846191,,,,,,,,,,,,,,,,,,,,,,,,,,,,,,,,,,,,,,,,,,,,,,,,,,,,,,,,,,,,,,,,,,,,,,
1720086925,18,0,4353.205078,4334.358887,4335.897461,4350.897461,4286.410156,4281.922852,4266.538574,4283.205078,4267.179688,4292.692383,4451.922852,4494.358887,4374.615234,4420.641113,,,,,,,,,,,,,,,,,,,,,,,,,,,,,,,,,,,,,,,,,,,,,,,,,,,,,,,,,,,,,,,,,,,,,,
1720086925,19,0,4341.282227,4316.410156,4326.538574,4333.461426,4293.589844,4297.307617,4273.974121,4284.230957,4267.94873,4287.307617,4447.05127,4493.589844,4364.102539,4410.128418,,,,,,,,,,,,,,,,,,,,,,,,,,,,,,,,,,,,,,,,,,,,,,,,,,,,,,,,,,,,,,,,,,,,,,
1720086925,20,0,4327.436035,4300.384766,4312.179688,4320.512695,4295,4306.282227,4282.179688,4296.153809,4278.974121,4290.641113,4430.384766,4482.94873,4341.282227,4399.615234,,,,,,,,,,,,,,,,,,,,,,,,,,,,,,,,,,,,,,,,,,,,,,,,,,,,,,,,,,,,,,,,,,,,,,
1720086925,21,0,4319.871582,4297.563965,4300.769043,4321.282227,4295,4301.666504,4287.05127,4299.230957,4288.589844,4293.461426,4428.846191,4478.846191,4338.205078,4391.538574,,,,,,,,,,,,,,,,,,,,,,,,,,,,,,,,,,,,,,,,,,,,,,,,,,,,,,,,,,,,,,,,,,,,,,
1720086925,22,0,4307.05127,4291.025879,4290,4315.128418,4295.256348,4303.589844,4286.794922,4293.974121,4293.333496,4294.615234,4428.589844,4476.282227,4336.922852,4378.077148,1.345108,0.942859,1.00831,0.312489,0.202231,0.892524,0.814204,0.496791,0.191112,0.153946,1.735282,1.087519,1.153327,0.38174,0.161702,0.89531,0.844335,0.40232,0.372423,0.219587,0.558313,0.566471,0.787628,0.236886,0.280336,0.370449,0.133975,0.84841,0.172577,0.327609,0.439552,0.251158,0.560306,0.084162,0.141025,0.759006,0.347341,0.492165,0.090308,0.107873,0.563055,0.3312,0.52661,0.162152,0.155008,0.178778,0.128156,0.247204,0.047878,0.097279,1.12225,0.956152,0.997628,0.482396,0.256394,1.953558,0.987579,1.202814,0.351315,0.210031,1.127847,0.673486,0.952444,0.380297,0.210788,2.238222,0.976659,1.422035,0.344289,0.165714
1720086925,23,0,4295.128418,4284.230957,4280,4305.256348,4294.743652,4309.102539,4284.358887,4296.282227,4292.563965,4296.922852,4416.538574,4465.384766,4327.05127,4369.358887,,,,,,,,,,,,,,,,,,,,,,,,,,,,,,,,,,,,,,,,,,,,,,,,,,,,,,,,,,,,,,,,,,,,,,
1720086925,24,0,4300.769043,4289.871582,4279.358887,4308.846191,4291.666504,4298.846191,4276.153809,4294.230957,4291.025879,4295.641113,4414.615234,4461.410156,4325.769043,4369.871582,,,,,,,,,,,,,,,,,,,,,,,,,,,,,,,,,,,,,,,,,,,,,,,,,,,,,,,,,,,,,,,,,,,,,,
1720086925,25,0,4321.153809,4308.333496,4295,4325.128418,4291.922852,4286.282227,4266.282227,4283.077148,4293.717773,4296.153809,4425.641113,4472.820313,4337.692383,4378.846191,,,,,,,,,,,,,,,,,,,,,,,,,,,,,,,,,,,,,,,,,,,,,,,,,,,,,,,,,,,,,,,,,,,,,,
1720086925,26,0,4336.282227,4321.538574,4313.333496,4339.487305,4301.410156,4299.615234,4266.153809,4280.641113,4288.461426,4296.282227,4431.410156,4485.128418,4350.384766,4391.410156,,,,,,,,,,,,,,,,,,,,,,,,,,,,,,,,,,,,,,,,,,,,,,,,,,,,,,,,,,,,,,,,,,,,,,
1720086925,27,0,4336.922852,4316.922852,4315,4337.94873,4304.743652,4311.538574,4276.410156,4286.794922,4280.256348,4292.563965,4426.794922,4487.820313,4351.282227,4395.897461,,,,,,,,,,,,,,,,,,,,,,,,,,,,,,,,,,,,,,,,,,,,,,,,,,,,,,,,,,,,,,,,,,,,,,
1720086925,28,0,4327.05127,4306.794922,4304.230957,4325.256348,4292.563965,4299.358887,4281.282227,4284.358887,4279.230957,4288.589844,4421.282227,4478.974121,4342.436035,4389.230957,,,,,,,,,,,,,,,,,,,,,,,,,,,,,,,,,,,,,,,,,,,,,,,,,,,,,,,,,,,,,,,,,,,,,,
1720086925,29,0,4322.563965,4307.179688,4302.436035,4323.717773,4288.461426,4297.820313,4276.666504,4282.820313,4278.333496,4288.333496,4421.025879,4475.897461,4338.589844,4388.974121,,,,,,,,,,,,,,,,,,,,,,,,,,,,,,,,,,,,,,,,,,,,,,,,,,,,,,,,,,,,,,,,,,,,,,
1720086925,30,0,4329.358887,4311.922852,4313.077148,4328.846191,4299.230957,4307.563965,4277.307617,4290.897461,4276.410156,4288.333496,4426.666504,4489.358887,4343.205078,4398.717773,,,,,,,,,,,,,,,,,,,,,,,,,,,,,,,,,,,,,,,,,,,,,,,,,,,,,,,,,,,,,,,,,,,,,,
1720086925,31,0,4331.794922,4310.641113,4319.743652,4326.794922,4301.666504,4301.538574,4286.025879,4296.794922,4280.384766,4292.692383,4438.205078,4504.615234,4349.230957,4405.384766,,,,,,,,,,,,,,,,,,,,,,,,,,,,,,,,,,,,,,,,,,,,,,,,,,,,,,,,,,,,,,,,,,,,,,
1720086925,32,0,4326.538574,4308.974121,4317.820313,4322.94873,4294.487305,4296.922852,4292.94873,4297.436035,4288.717773,4296.538574,4446.025879,4504.615234,4353.717773,4402.436035,,,,,,,,,,,,,,,,,,,,,,,,,,,,,,,,,,,,,,,,,,,,,,,,,,,,,,,,,,,,,,,,,,,,,,
1720086925,33,0,4322.179688,4307.179688,4312.820313,4321.282227,4295.128418,4309.358887,4292.820313,4300.641113,4297.307617,4294.615234,4443.461426,4496.666504,4353.077148,4394.743652,,,,,,,,,,,,,,,,,,,,,,,,,,,,,,,,,,,,,,,,,,,,,,,,,,,,,,,,,,,,,,,,,,,,,,
1720086925,34,0,4309.102539,4299.358887,4299.230957,4313.333496,4295,4307.692383,4281.666504,4298.205078,4295.256348,4296.794922,4428.717773,4478.589844,4342.179688,4381.153809,,,,,,,,,,,,,,,,,,,,,,,,,,,,,,,,,,,,,,,,,,,,,,,,,,,,,,,,,,,,,,,,,,,,,,
1720086925,35,0,4287.820313,4288.461426,4276.666504,4300.641113,4287.05127,4286.410156,4266.666504,4278.589844,4282.94873,4291.282227,4402.94873,4445.384766,4320.769043,4356.794922,,,,,,,,,,,,,,,,,,,,,,,,,,,,,,,,,,,,,,,,,,,,,,,,,,,,,,,,,,,,,,,,,,,,,,
1720086925,36,0,4273.205078,4275.256348,4263.205078,4290.384766,4275.897461,4276.538574,4258.333496,4263.461426,4278.333496,4283.717773,4382.692383,4423.717773,4303.974121,4341.666504,,,,,,,,,,,,,,,,,,,,,,,,,,,,,,,,,,,,,,,,,,,,,,,,,,,,,,,,,,,,,,,,,,,,,,
1720086925,37,0,4278.077148,4272.436035,4274.358887,4291.410156,4276.025879,4282.307617,4259.743652,4267.94873,4281.025879,4289.871582,4393.205078,4439.487305,4314.615234,4355.256348,,,,,,,,,,,,,,,,,,,,,,,,,,,,,,,,,,,,,,,,,,,,,,,,,,,,,,,,,,,,,,,,,,,,,,
1720086925,38,0,4301.794922,4296.282227,4305.384766,4314.487305,4293.205078,4293.461426,4273.589844,4281.538574,4284.487305,4296.410156,4426.410156,4476.922852,4348.077148,4385.256348,1.490912,1.054879,1.209939,0.306324,0.220623,1.035472,0.881129,0.609784,0.179259,0.165277,1.954352,1.056902,1.25795,0.384996,0.165931,0.97621,0.891674,0.480505,0.347985,0.223716,0.546954,0.538234,0.830531,0.247435,0.33561,0.381117,0.112859,0.83911,0.19356,0.366225,0.387152,0.203324,0.661241,0.098388,0.132123,0.794875,0.299816,0.534284,0.098565,0.105969,0.502017,0.201537,0.513786,0.178874,0.167365,0.178166,0.104817,0.246776,0.051144,0.102846,1.162327,0.814696,1.045194,0.51914,0.277649,2.026206,0.979621,1.319052,0.398028,0.232133,1.130444,0.538629,1.035493,0.398402,0.240757,2.388862,0.932564,1.403708,0.363317,0.186555
1720086925,39,0,4323.717773,4318.974121,4326.153809,4339.487305,4303.589844,4298.717773,4286.794922,4289.615234,4287.307617,4293.205078,4439.743652,4495.256348,4364.102539,4405.641113,,,,,,,,,,,,,,,,,,,,,,,,,,,,,,,,,,,,,,,,,,,,,,,,,,,,,,,,,,,,,,,,,,,,,,
1720086925,40,0,4325.641113,4315.384766,4326.153809,4338.717773,4297.692383,4295.512695,4282.436035,4287.179688,4278.333496,4287.436035,4432.436035,4489.615234,4359.102539,4406.282227,,,,,,,,,,,,,,,,,,,,,,,,,,,,,,,,,,,,,,,,,,,,,,,,,,,,,,,,,,,,,,,,,,,,,,
1720086925,41,0,4316.922852,4305.256348,4322.05127,4329.615234,4297.94873,4298.461426,4279.358887,4284.102539,4264.615234,4287.563965,4432.05127,4486.282227,4358.333496,4398.974121,,,,,,,,,,,,,,,,,,,,,,,,,,,,,,,,,,,,,,,,,,,,,,,,,,,,,,,,,,,,,,,,,,,,,,
1720086925,42,0,4308.333496,4300.897461,4318.589844,4327.179688,4302.692383,4307.94873,4288.589844,4287.820313,4267.94873,4290.641113,4435.769043,4492.05127,4359.743652,4394.743652,,,,,,,,,,,,,,,,,,,,,,,,,,,,,,,,,,,,,,,,,,,,,,,,,,,,,,,,,,,,,,,,,,,,,,
1720086925,43,0,4299.230957,4295.769043,4312.94873,4320.128418,4296.153809,4311.025879,4290.512695,4294.615234,4287.179688,4293.333496,4436.025879,4493.333496,4358.846191,4391.025879,,,,,,,,,,,,,,,,,,,,,,,,,,,,,,,,,,,,,,,,,,,,,,,,,,,,,,,,,,,,,,,,,,,,,,
1720086925,44,0,4295.384766,4294.230957,4306.538574,4317.05127,4293.974121,4309.230957,4290,4298.077148,4306.153809,4298.461426,4436.666504,4491.410156,4356.794922,4390.897461,,,,,,,,,,,,,,,,,,,,,,,,,,,,,,,,,,,,,,,,,,,,,,,,,,,,,,,,,,,,,,,,,,,,,,
1720086925,45,0,4295.769043,4294.871582,4299.871582,4322.820313,4298.461426,4308.974121,4296.282227,4299.615234,4313.461426,4307.563965,4430.897461,4489.487305,4350.512695,4386.666504,,,,,,,,,,,,,,,,,,,,,,,,,,,,,,,,,,,,,,,,,,,,,,,,,,,,,,,,,,,,,,,,,,,,,,
1720086925,46,0,4290,4288.589844,4293.333496,4319.743652,4294.615234,4307.307617,4289.871582,4291.538574,4304.230957,4304.871582,4415.384766,4476.153809,4340.641113,4369.358887,,,,,,,,,,,,,,,,,,,,,,,,,,,,,,,,,,,,,,,,,,,,,,,,,,,,,,,,,,,,,,,,,,,,,,
1720086925,47,0,4286.666504,4287.436035,4292.94873,4317.563965,4292.436035,4304.230957,4276.410156,4278.333496,4291.794922,4290.128418,4411.410156,4463.205078,4333.717773,4362.820313,,,,,,,,,,,,,,,,,,,,,,,,,,,,,,,,,,,,,,,,,,,,,,,,,,,,,,,,,,,,,,,,,,,,,,
1720086925,48,0,4290.897461,4297.94873,4297.05127,4326.538574,4295.128418,4297.307617,4277.307617,4276.025879,4278.717773,4286.410156,4411.025879,4462.179688,4328.974121,4370.512695,,,,,,,,,,,,,,,,,,,,,,,,,,,,,,,,,,,,,,,,,,,,,,,,,,,,,,,,,,,,,,,,,,,,,,
1720086925,49,0,4294.743652,4308.717773,4300.256348,4329.615234,4300,4292.692383,4278.846191,4275.641113,4266.153809,4286.666504,4400.641113,4465,4327.563965,4365.128418,,,,,,,,,,,,,,,,,,,,,,,,,,,,,,,,,,,,,,,,,,,,,,,,,,,,,,,,,,,,,,,,,,,,,,
1720086925,50,0,4294.615234,4308.974121,4301.410156,4327.692383,4303.589844,4297.94873,4274.615234,4274.487305,4268.717773,4287.05127,4404.487305,4470.769043,4338.077148,4362.307617,,,,,,,,,,,,,,,,,,,,,,,,,,,,,,,,,,,,,,,,,,,,,,,,,,,,,,,,,,,,,,,,,,,,,,
1720086925,51,0,4291.282227,4302.563965,4301.025879,4327.94873,4301.410156,4300.512695,4277.05127,4276.666504,4276.794922,4290,4417.307617,4473.461426,4343.717773,4373.077148,,,,,,,,,,,,,,,,,,,,,,,,,,,,,,,,,,,,,,,,,,,,,,,,,,,,,,,,,,,,,,,,,,,,,,
1720086925,52,0,4279.102539,4294.487305,4293.589844,4320.256348,4291.922852,4293.974121,4277.436035,4274.487305,4277.563965,4287.563965,4412.692383,4467.692383,4336.794922,4369.871582,,,,,,,,,,,,,,,,,,,,,,,,,,,,,,,,,,,,,,,,,,,,,,,,,,,,,,,,,,,,,,,,,,,,,,
1720086925,53,0,4265.769043,4282.179688,4282.820313,4307.563965,4285.128418,4291.025879,4275.641113,4273.974121,4285.128418,4290.384766,4407.307617,4465.641113,4336.410156,4362.179688,,,,,,,,,,,,,,,,,,,,,,,,,,,,,,,,,,,,,,,,,,,,,,,,,,,,,,,,,,,,,,,,,,,,,,
1720086925,54,0,4269.230957,4278.717773,4284.871582,4307.307617,4289.487305,4301.538574,4285.641113,4285.897461,4296.666504,4297.307617,4416.153809,4473.974121,4343.461426,4366.666504,1.571555,1.279712,1.364509,0.295372,0.230322,1.151552,1.007083,0.715302,0.173994,0.179853,2.019855,1.145012,1.341057,0.371497,0.166153,0.971818,0.970673,0.567896,0.306506,0.227142,0.495588,0.50016,0.815112,0.264959,0.396908,0.387675,0.152301,0.798079,0.227348,0.395241,0.338311,0.200304,0.799972,0.119185,0.122247,0.785384,0.295297,0.625897,0.110381,0.101724,0.435498,0.195837,0.558243,0.202197,0.182336,0.177973,0.098674,0.239941,0.059147,0.106757,1.135852,0.856844,1.110702,0.514095,0.297788,1.990672,1.13953,1.444743,0.42426,0.248786,1.078585,0.572015,1.123921,0.393202,0.265156,2.391018,1.041069,1.330958,0.366986,0.203684
1720086925,55,0,4280.769043,4286.282227,4298.461426,4316.538574,4297.563965,4308.461426,4296.410156,4297.307617,4297.307617,4296.666504,4422.05127,4479.487305,4345.256348,4371.794922,,,,,,,,,,,,,,,,,,,,,,,,,,,,,,,,,,,,,,,,,,,,,,,,,,,,,,,,,,,,,,,,,,,,,,
1720086925,56,0,4276.922852,4284.102539,4299.871582,4317.179688,4295.512695,4301.922852,4294.102539,4294.487305,4292.820313,4292.179688,4416.794922,4471.922852,4336.666504,4366.922852,,,,,,,,,,,,,,,,,,,,,,,,,,,,,,,,,,,,,,,,,,,,,,,,,,,,,,,,,,,,,,,,,,,,,,
1720086925,57,0,4270.384766,4282.94873,4292.179688,4314.871582,4292.692383,4297.94873,4289.358887,4289.358887,4292.692383,4291.794922,4410.512695,4464.358887,4327.05127,4357.436035,,,,,,,,,,,,,,,,,,,,,,,,,,,,,,,,,,,,,,,,,,,,,,,,,,,,,,,,,,,,,,,,,,,,,,
1720086925,58,0,4277.94873,4293.974121,4295.769043,4325.769043,4302.307617,4300.641113,4288.461426,4289.102539,4295.256348,4286.794922,4411.922852,4467.307617,4328.717773,4358.846191,,,,,,,,,,,,,,,,,,,,,,,,,,,,,,,,,,,,,,,,,,,,,,,,,,,,,,,,,,,,,,,,,,,,,,
