Timestamp,EEG.Counter,EEG.Interpolated,EEG.AF3,EEG.F7,EEG.F3,EEG.FC5,EEG.T7,EEG.P7,EEG.O1,EEG.O2,EEG.P8,EEG.T8,EEG.FC6,EEG.F4,EEG.F8,EEG.AF4,POW.AF3.Theta,POW.AF3.Alpha,POW.AF3.BetaL,POW.AF3.BetaH,POW.AF3.Gamma,POW.F7.Theta,POW.F7.Alpha,POW.F7.BetaL,POW.F7.BetaH,POW.F7.Gamma,POW.F3.Theta,POW.F3.Alpha,POW.F3.BetaL,POW.F3.BetaH,POW.F3.Gamma,POW.FC5.Theta,POW.FC5.Alpha,POW.FC5.BetaL,POW.FC5.BetaH,POW.FC5.Gamma,POW.T7.Theta,POW.T7.Alpha,POW.T7.BetaL,POW.T7.BetaH,POW.T7.Gamma,POW.P7.Theta,POW.P7.Alpha,POW.P7.BetaL,POW.P7.BetaH,POW.P7.Gamma,POW.O1.Theta,POW.O1.Alpha,POW.O1.BetaL,POW.O1.BetaH,POW.O1.Gamma,POW.O2.Theta,POW.O2.Alpha,POW.O2.BetaL,POW.O2.BetaH,POW.O2.Gamma,POW.P8.Theta,POW.P8.Alpha,POW.P8.BetaL,POW.P8.BetaH,POW.P8.Gamma,POW.T8.Theta,POW.T8.Alpha,POW.T8.BetaL,POW.T8.BetaH,POW.T8.Gamma,POW.FC6.Theta,POW.FC6.Alpha,POW.FC6.BetaL,POW.FC6.BetaH,POW.FC6.Gamma,POW.F4.Theta,POW.F4.Alpha,POW.F4.BetaL,POW.F4.BetaH,POW.F4.Gamma,POW.F8.Theta,POW.F8.Alpha,POW.F8.BetaL,POW.F8.BetaH,POW.F8.Gamma,POW.AF4.Theta,POW.AF4.Alpha,POW.AF4.BetaL,POW.AF4.BetaH,POW.AF4.Gamma
1720077694,94,0,4284.487305,4419.358887,4338.333496,4395.256348,4409.615234,4446.153809,4427.179688,4428.974121,4416.794922,4352.94873,4322.94873,4460.128418,4307.692383,4287.94873,,,,,,,,,,,,,,,,,,,,,,,,,,,,,,,,,,,,,,,,,,,,,,,,,,,,,,,,,,,,,,,,,,,,,,
1720077694,95,0,4277.692383,4420.128418,4331.282227,4388.589844,4414.102539,4445.128418,4427.436035,4430.641113,4416.538574,4355.384766,4318.846191,4462.436035,4314.358887,4289.615234,,,,,,,,,,,,,,,,,,,,,,,,,,,,,,,,,,,,,,,,,,,,,,,,,,,,,,,,,,,,,,,,,,,,,,
1720077694,96,0,4258.974121,4410.512695,4324.615234,4381.922852,4409.487305,4442.563965,4429.102539,4418.717773,4411.282227,4351.153809,4308.589844,4445.384766,4303.077148,4275.128418,,,,,,,,,,,,,,,,,,,,,,,,,,,,,,,,,,,,,,,,,,,,,,,,,,,,,,,,,,,,,,,,,,,,,,
1720077695,97,0,4239.487305,4399.102539,4318.205078,4377.179688,4405.641113,4447.05127,4427.05127,4402.820313,4396.282227,4341.794922,4300.512695,4422.692383,4286.153809,4259.743652,,,,,,,,,,,,,,,,,,,,,,,,,,,,,,,,,,,,,,,,,,,,,,,,,,,,,,,,,,,,,,,,,,,,,,
1720077695,98,0,4231.922852,4395.641113,4309.487305,4371.153809,4413.461426,4457.692383,4428.205078,4393.077148,4388.717773,4341.922852,4292.94873,4412.94873,4278.717773,4250.128418,,,,,,,,,,,,,,,,,,,,,,,,,,,,,,,,,,,,,,,,,,,,,,,,,,,,,,,,,,,,,,,,,,,,,,
1720077695,99,0,4225.128418,4395.897461,4302.563965,4361.666504,4417.307617,4463.205078,4434.230957,4391.666504,4388.717773,4341.666504,4288.589844,4411.410156,4275.769043,4240.512695,,,,,,,,,,,,,,,,,,,,,,,,,,,,,,,,,,,,,,,,,,,,,,,,,,,,,,,,,,,,,,,,,,,,,,
1720077695,100,0,4217.94873,4393.589844,4304.230957,4356.666504,4412.692383,4463.077148,4434.358887,4394.102539,4382.563965,4335.641113,4287.563965,4406.922852,4272.05127,4241.282227,14.730287,9.686763,2.821649,1.300518,0.444458,0.601025,4.949874,0.74676,0.817418,0.257515,1.080801,6.722785,0.919864,1.23111,0.243894,0.591928,3.598724,0.721122,2.435441,0.655069,0.337312,0.878106,0.864416,0.484519,0.41718,0.475566,9.009699,2.071568,0.190682,0.084451,0.485653,1.903503,0.647724,0.356576,0.071657,1.526552,3.932518,2.902624,0.939837,0.218939,1.643802,5.242065,3.193387,0.986554,0.223956,0.35965,1.329154,0.384618,0.231775,0.135007,2.200799,2.920264,0.729411,0.772017,0.215085,2.573718,11.378257,1.753322,1.741576,0.269385,2.915254,6.859723,1.429921,1.395802,0.328774,2.483905,7.743437,1.330656,1.525389,0.55716
1720077695,101,0,4221.794922,4396.538574,4307.563965,4360.256348,4409.102539,4458.205078,4426.153809,4390.769043,4379.743652,4341.666504,4291.410156,4409.743652,4278.461426,4253.717773,,,,,,,,,,,,,,,,,,,,,,,,,,,,,,,,,,,,,,,,,,,,,,,,,,,,,,,,,,,,,,,,,,,,,,
1720077695,102,0,4233.205078,4408.589844,4311.666504,4366.922852,4400.512695,4442.563965,4415.512695,4386.153809,4383.846191,4349.487305,4295.641113,4420.769043,4286.282227,4255,,,,,,,,,,,,,,,,,,,,,,,,,,,,,,,,,,,,,,,,,,,,,,,,,,,,,,,,,,,,,,,,,,,,,,
1720077695,103,0,4234.487305,4414.487305,4321.153809,4367.307617,4390.384766,4426.794922,4405.641113,4387.179688,4385,4342.820313,4291.153809,4424.487305,4280.512695,4250.769043,,,,,,,,,,,,,,,,,,,,,,,,,,,,,,,,,,,,,,,,,,,,,,,,,,,,,,,,,,,,,,,,,,,,,,
1720077695,104,0,4226.025879,4411.538574,4329.230957,4363.589844,4396.025879,4425.256348,4401.922852,4394.743652,4389.487305,4340.384766,4291.538574,4426.410156,4280.897461,4263.205078,,,,,,,,,,,,,,,,,,,,,,,,,,,,,,,,,,,,,,,,,,,,,,,,,,,,,,,,,,,,,,,,,,,,,,
1720077695,105,0,4228.717773,4411.538574,4337.692383,4376.410156,4398.077148,4425.512695,4404.230957,4407.179688,4396.794922,4346.794922,4305.769043,4443.333496,4300.256348,4285.641113,,,,,,,,,,,,,,,,,,,,,,,,,,,,,,,,,,,,,,,,,,,,,,,,,,,,,,,,,,,,,,,,,,,,,,
1720077695,106,0,4240.512695,4413.077148,4345.641113,4391.410156,4393.717773,4423.974121,4412.563965,4414.615234,4403.077148,4348.717773,4310.512695,4457.05127,4311.538574,4286.666504,,,,,,,,,,,,,,,,,,,,,,,,,,,,,,,,,,,,,,,,,,,,,,,,,,,,,,,,,,,,,,,,,,,,,,
1720077695,107,0,4247.94873,4413.846191,4343.461426,4384.358887,4406.410156,4433.846191,4423.461426,4412.94873,4408.077148,4350.384766,4303.974121,4455.897461,4303.077148,4276.666504,,,,,,,,,,,,,,,,,,,,,,,,,,,,,,,,,,,,,,,,,,,,,,,,,,,,,,,,,,,,,,,,,,,,,,
1720077695,108,0,4257.692383,4418.589844,4342.05127,4381.153809,4418.717773,4445.128418,4427.820313,4412.563965,4407.94873,4353.077148,4308.077148,4459.358887,4301.794922,4286.410156,,,,,,,,,,,,,,,,,,,,,,,,,,,,,,,,,,,,,,,,,,,,,,,,,,,,,,,,,,,,,,,,,,,,,,
1720077695,109,0,4266.153809,4419.615234,4349.102539,4388.717773,4414.102539,4446.153809,4427.05127,4413.974121,4401.794922,4353.205078,4310.384766,4463.461426,4314.230957,4302.563965,,,,,,,,,,,,,,,,,,,,,,,,,,,,,,,,,,,,,,,,,,,,,,,,,,,,,,,,,,,,,,,,,,,,,,
1720077695,110,0,4268.461426,4417.05127,4348.846191,4382.94873,4410,4447.563965,4430.256348,4409.358887,4395.256348,4350.384766,4302.94873,4457.820313,4311.025879,4297.563965,,,,,,,,,,,,,,,,,,,,,,,,,,,,,,,,,,,,,,,,,,,,,,,,,,,,,,,,,,,,,,,,,,,,,,
1720077695,111,0,4265.384766,4418.589844,4341.794922,4376.282227,4412.563965,4452.436035,4431.922852,4403.589844,4392.94873,4343.974121,4298.461426,4448.077148,4295.897461,4277.436035,,,,,,,,,,,,,,,,,,,,,,,,,,,,,,,,,,,,,,,,,,,,,,,,,,,,,,,,,,,,,,,,,,,,,,
1720077695,112,0,4259.615234,4417.820313,4340.384766,4385.256348,4417.05127,4451.153809,4427.563965,4403.717773,4394.230957,4341.153809,4303.717773,4448.077148,4300.384766,4275.769043,,,,,,,,,,,,,,,,,,,,,,,,,,,,,,,,,,,,,,,,,,,,,,,,,,,,,,,,,,,,,,,,,,,,,,
1720077695,113,0,4263.589844,4415.769043,4341.153809,4387.05127,4427.820313,4447.692383,4425,4408.846191,4397.307617,4349.230957,4311.282227,4458.205078,4313.077148,4291.025879,,,,,,,,,,,,,,,,,,,,,,,,,,,,,,,,,,,,,,,,,,,,,,,,,,,,,,,,,,,,,,,,,,,,,,
1720077695,114,0,4277.307617,4424.230957,4343.974121,4387.563965,4425.769043,4446.666504,4426.666504,4411.538574,4402.179688,4356.282227,4308.461426,4462.94873,4311.153809,4298.589844,,,,,,,,,,,,,,,,,,,,,,,,,,,,,,,,,,,,,,,,,,,,,,,,,,,,,,,,,,,,,,,,,,,,,,
1720077695,115,0,4284.871582,4435.256348,4349.102539,4401.410156,4410.128418,4446.025879,4428.974121,4411.538574,4405.641113,4352.94873,4305.384766,4459.871582,4307.94873,4298.205078,,,,,,,,,,,,,,,,,,,,,,,,,,,,,,,,,,,,,,,,,,,,,,,,,,,,,,,,,,,,,,,,,,,,,,
1720077695,116,0,4277.94873,4427.05127,4346.025879,4392.692383,4410.256348,4445.384766,4428.333496,4412.05127,4399.230957,4350.512695,4305.256348,4451.538574,4304.615234,4297.307617,15.23962,9.688539,2.823994,1.149584,0.467776,0.721153,5.406096,0.832403,0.717138,0.268578,1.034603,7.488764,1.154541,1.133928,0.243403,0.716545,4.166851,0.844638,2.112963,0.621234,0.393795,0.927673,1.03564,0.495456,0.369437,0.515162,7.690163,1.639248,0.193848,0.086955,0.557127,1.831404,0.521596,0.334421,0.077199,1.33715,4.026947,2.287003,0.805721,0.209465,1.665511,4.509583,2.571807,0.876177,0.210182,0.287903,1.212379,0.333356,0.201093,0.121512,1.919774,2.883002,0.79438,0.712195,0.206275,2.462419,10.697647,1.757583,1.599342,0.273089,2.627711,7.173061,1.564998,1.348356,0.302628,2.240994,8.625012,1.733167,1.647308,0.499606
1720077695,117,0,4270.897461,4416.153809,4342.179688,4373.205078,4416.025879,4440.769043,4424.871582,4412.692383,4396.153809,4355.512695,4303.205078,4443.333496,4299.358887,4290.641113,,,,,,,,,,,,,,,,,,,,,,,,,,,,,,,,,,,,,,,,,,,,,,,,,,,,,,,,,,,,,,,,,,,,,,
1720077695,118,0,4258.717773,4418.846191,4340.897461,4377.94873,4412.692383,4432.307617,4424.743652,4412.94873,4408.589844,4360.384766,4303.589844,4442.563965,4304.487305,4280.897461,,,,,,,,,,,,,,,,,,,,,,,,,,,,,,,,,,,,,,,,,,,,,,,,,,,,,,,,,,,,,,,,,,,,,,
1720077695,119,0,4242.563965,4418.846191,4332.563965,4383.461426,4411.538574,4429.615234,4427.94873,4418.589844,4416.410156,4360.384766,4307.436035,4450.769043,4312.436035,4286.153809,,,,,,,,,,,,,,,,,,,,,,,,,,,,,,,,,,,,,,,,,,,,,,,,,,,,,,,,,,,,,,,,,,,,,,
1720077695,120,0,4247.05127,4418.077148,4332.05127,4377.307617,4413.461426,4438.077148,4430.128418,4423.717773,4412.692383,4356.922852,4311.282227,4460.512695,4316.153809,4299.743652,,,,,,,,,,,,,,,,,,,,,,,,,,,,,,,,,,,,,,,,,,,,,,,,,,,,,,,,,,,,,,,,,,,,,,
1720077695,121,0,4255.512695,4424.102539,4344.230957,4379.871582,4412.179688,4445.256348,4431.922852,4416.025879,4404.230957,4353.974121,4313.717773,4462.436035,4319.358887,4300.384766,,,,,,,,,,,,,,,,,,,,,,,,,,,,,,,,,,,,,,,,,,,,,,,,,,,,,,,,,,,,,,,,,,,,,,
1720077695,122,0,4247.94873,4421.025879,4345.769043,4383.077148,4419.102539,4444.871582,4429.615234,4406.410156,4394.871582,4350.128418,4310,4457.05127,4314.871582,4293.205078,,,,,,,,,,,,,,,,,,,,,,,,,,,,,,,,,,,,,,,,,,,,,,,,,,,,,,,,,,,,,,,,,,,,,,
1720077695,123,0,4257.692383,4414.230957,4339.358887,4383.333496,4425,4449.615234,4425.641113,4406.282227,4391.410156,4346.410156,4300.512695,4452.563965,4306.922852,4301.922852,,,,,,,,,,,,,,,,,,,,,,,,,,,,,,,,,,,,,,,,,,,,,,,,,,,,,,,,,,,,,,,,,,,,,,
1720077695,124,0,4296.666504,4425,4351.025879,4403.333496,4421.153809,4461.025879,4434.230957,4411.794922,4395.769043,4348.974121,4304.615234,4462.692383,4313.461426,4315.897461,,,,,,,,,,,,,,,,,,,,,,,,,,,,,,,,,,,,,,,,,,,,,,,,,,,,,,,,,,,,,,,,,,,,,,
1720077695,125,0,4315.384766,4435.897461,4364.743652,4416.153809,4424.871582,4460.128418,4440.256348,4415.384766,4399.871582,4350.512695,4312.563965,4475.769043,4321.410156,4312.307617,,,,,,,,,,,,,,,,,,,,,,,,,,,,,,,,,,,,,,,,,,,,,,,,,,,,,,,,,,,,,,,,,,,,,,
1720077695,126,0,4301.153809,4429.358887,4356.794922,4399.487305,4427.563965,4447.307617,4431.410156,4415.256348,4403.205078,4346.025879,4307.692383,4473.717773,4317.563965,4307.05127,,,,,,,,,,,,,,,,,,,,,,,,,,,,,,,,,,,,,,,,,,,,,,,,,,,,,,,,,,,,,,,,,,,,,,
1720077695,127,0,4296.538574,4424.358887,4352.820313,4387.94873,4418.974121,4442.563965,4426.666504,4419.102539,4409.487305,4348.333496,4311.538574,4473.461426,4320.256348,4317.179688,,,,,,,,,,,,,,,,,,,,,,,,,,,,,,,,,,,,,,,,,,,,,,,,,,,,,,,,,,,,,,,,,,,,,,
1720077695,0,0,4306.282227,4427.94873,4360.512695,4388.589844,4418.846191,4443.974121,4430.769043,4426.666504,4413.717773,4357.563965,4322.179688,4481.794922,4329.230957,4329.102539,,,,,,,,,,,,,,,,,,,,,,,,,,,,,,,,,,,,,,,,,,,,,,,,,,,,,,,,,,,,,,,,,,,,,,
1720077695,1,0,4310.769043,4432.436035,4361.153809,4390.769043,4422.307617,4442.563965,4431.538574,4431.025879,4415.512695,4357.820313,4323.846191,4484.230957,4332.436035,4320.769043,,,,,,,,,,,,,,,,,,,,,,,,,,,,,,,,,,,,,,,,,,,,,,,,,,,,,,,,,,,,,,,,,,,,,,
1720077695,2,0,4305.128418,4433.717773,4361.666504,4400.897461,4413.077148,4442.179688,4430.384766,4426.794922,4415.512695,4355,4317.94873,4478.589844,4327.307617,4301.794922,,,,,,,,,,,,,,,,,,,,,,,,,,,,,,,,,,,,,,,,,,,,,,,,,,,,,,,,,,,,,,,,,,,,,,
1720077695,3,0,4294.358887,4429.871582,4363.205078,4402.563965,4415.256348,4445,4430,4415.256348,4407.563965,4355.641113,4305.897461,4467.94873,4319.358887,4297.436035,,,,,,,,,,,,,,,,,,,,,,,,,,,,,,,,,,,,,,,,,,,,,,,,,,,,,,,,,,,,,,,,,,,,,,
1720077695,4,0,4291.922852,4425,4355.769043,4387.179688,4428.077148,4446.153809,4426.794922,4403.589844,4396.794922,4352.179688,4295.897461,4455.256348,4310.384766,4300.512695,15.665343,11.00742,3.616602,1.037212,0.508636,1.048838,6.166562,1.111455,0.595413,0.284333,1.355552,8.512456,1.553437,1.019794,0.257015,0.95694,4.85078,1.111475,1.696221,0.641056,0.490976,1.02261,1.129178,0.52468,0.341772,0.549125,6.545573,1.162731,0.202861,0.091662,0.599304,1.924309,0.413436,0.315388,0.083741,1.070191,4.294499,1.666653,0.65447,0.195371,1.559531,3.720939,1.866271,0.748243,0.196943,0.232633,1.150456,0.327387,0.174985,0.115928,1.682823,3.007075,0.977442,0.629668,0.198803,2.41189,10.318275,2.082507,1.394855,0.283465,2.433913,7.941363,1.933502,1.234909,0.273037,2.254259,9.906408,2.321574,1.707342,0.44852
1720077695,5,0,4303.589844,4425.512695,4352.563965,4382.692383,4422.179688,4445.256348,4427.307617,4403.589844,4395.256348,4348.589844,4302.820313,4454.102539,4306.922852,4296.153809,,,,,,,,,,,,,,,,,,,,,,,,,,,,,,,,,,,,,,,,,,,,,,,,,,,,,,,,,,,,,,,,,,,,,,
1720077695,6,0,4312.563965,4429.230957,4355.769043,4393.589844,4409.743652,4443.974121,4428.974121,4411.538574,4397.94873,4345,4308.974121,4462.820313,4312.307617,4294.487305,,,,,,,,,,,,,,,,,,,,,,,,,,,,,,,,,,,,,,,,,,,,,,,,,,,,,,,,,,,,,,,,,,,,,,
1720077695,7,0,4308.717773,4429.871582,4351.410156,4392.307617,4418.461426,4442.436035,4425.128418,4410.641113,4394.230957,4341.410156,4300.897461,4461.794922,4313.846191,4299.743652,,,,,,,,,,,,,,,,,,,,,,,,,,,,,,,,,,,,,,,,,,,,,,,,,,,,,,,,,,,,,,,,,,,,,,
1720077695,8,0,4303.205078,4425.256348,4346.666504,4380.769043,4428.589844,4443.077148,4428.205078,4408.461426,4392.820313,4347.94873,4300.897461,4454.102539,4308.717773,4298.717773,,,,,,,,,,,,,,,,,,,,,,,,,,,,,,,,,,,,,,,,,,,,,,,,,,,,,,,,,,,,,,,,,,,,,,
1720077695,9,0,4313.974121,4427.820313,4353.717773,4394.487305,4414.487305,4444.487305,4436.666504,4416.666504,4399.871582,4355.769043,4305.512695,4456.538574,4312.05127,4291.282227,,,,,,,,,,,,,,,,,,,,,,,,,,,,,,,,,,,,,,,,,,,,,,,,,,,,,,,,,,,,,,,,,,,,,,
1720077695,10,0,4335.256348,4432.436035,4357.563965,4409.487305,4405.897461,4443.461426,4435.256348,4419.487305,4404.615234,4350.641113,4305.256348,4465.384766,4323.077148,4292.436035,,,,,,,,,,,,,,,,,,,,,,,,,,,,,,,,,,,,,,,,,,,,,,,,,,,,,,,,,,,,,,,,,,,,,,
1720077695,11,0,4346.153809,4424.102539,4352.05127,4387.692383,4418.717773,4441.025879,4427.692383,4413.333496,4404.871582,4349.358887,4305.897461,4468.717773,4321.282227,4307.179688,,,,,,,,,,,,,,,,,,,,,,,,,,,,,,,,,,,,,,,,,,,,,,,,,,,,,,,,,,,,,,,,,,,,,,
1720077695,12,0,4348.077148,4415.641113,4346.922852,4369.102539,4422.692383,4441.025879,4427.563965,4418.461426,4409.230957,4356.153809,4306.025879,4465.256348,4312.179688,4313.589844,,,,,,,,,,,,,,,,,,,,,,,,,,,,,,,,,,,,,,,,,,,,,,,,,,,,,,,,,,,,,,,,,,,,,,
1720077695,13,0,4352.179688,4414.358887,4344.487305,4382.05127,4412.692383,4443.846191,4430.512695,4429.615234,4414.102539,4353.333496,4308.077148,4461.922852,4310,4293.717773,,,,,,,,,,,,,,,,,,,,,,,,,,,,,,,,,,,,,,,,,,,,,,,,,,,,,,,,,,,,,,,,,,,,,,
1720077695,14,0,4359.230957,4410.769043,4334.743652,4381.666504,4415,4445.512695,4428.974121,4424.871582,4412.820313,4351.794922,4305.641113,4459.743652,4310.641113,4276.153809,,,,,,,,,,,,,,,,,,,,,,,,,,,,,,,,,,,,,,,,,,,,,,,,,,,,,,,,,,,,,,,,,,,,,,
1720077695,15,0,4377.563965,4416.794922,4331.922852,4382.307617,4415.897461,4446.282227,4431.153809,4417.94873,4410.256348,4361.922852,4306.538574,4464.743652,4316.794922,4295.384766,,,,,,,,,,,,,,,,,,,,,,,,,,,,,,,,,,,,,,,,,,,,,,,,,,,,,,,,,,,,,,,,,,,,,,
1720077695,16,0,4406.282227,4433.589844,4355.641113,4413.974121,4412.436035,4446.794922,4434.615234,4426.410156,4413.717773,4366.025879,4317.563965,4477.820313,4328.846191,4319.358887,,,,,,,,,,,,,,,,,,,,,,,,,,,,,,,,,,,,,,,,,,,,,,,,,,,,,,,,,,,,,,,,,,,,,,
1720077695,17,0,4416.794922,4435.769043,4371.538574,4411.282227,4422.820313,4438.461426,4426.794922,4425.897461,4415.256348,4358.846191,4318.589844,4483.077148,4331.538574,4315.256348,,,,,,,,,,,,,,,,,,,,,,,,,,,,,,,,,,,,,,,,,,,,,,,,,,,,,,,,,,,,,,,,,,,,,,
1720077695,18,0,4415.256348,4427.692383,4360.512695,4376.538574,4428.205078,4425.897461,4418.589844,4412.179688,4406.538574,4353.846191,4310,4474.487305,4320.512695,4305.769043,,,,,,,,,,,,,,,,,,,,,,,,,,,,,,,,,,,,,,,,,,,,,,,,,,,,,,,,,,,,,,,,,,,,,,
1720077695,19,0,4424.871582,4430.128418,4355.641113,4384.358887,4414.615234,4424.615234,4421.666504,4413.974121,4396.282227,4351.666504,4301.794922,4468.846191,4315.256348,4302.692383,,,,,,,,,,,,,,,,,,,,,,,,,,,,,,,,,,,,,,,,,,,,,,,,,,,,,,,,,,,,,,,,,,,,,,
1720077695,20,0,4423.717773,4431.153809,4360.256348,4406.666504,4401.282227,4429.615234,4426.922852,4427.179688,4397.94873,4350.641113,4299.230957,4468.461426,4315.256348,4296.666504,16.494705,13.375204,5.065598,1.00122,0.551524,1.668023,7.063219,1.505267,0.48617,0.301533,2.197859,9.591477,1.976203,0.923401,0.282102,1.375103,5.469773,1.418218,1.295551,0.694713,0.637443,1.143949,1.127633,0.57742,0.333864,0.561175,6.106015,0.782376,0.22037,0.097967,0.622574,2.228916,0.337474,0.310602,0.089267,0.833849,4.746834,1.163271,0.543938,0.181023,1.370134,3.159325,1.274888,0.659324,0.189481,0.213706,1.185043,0.37758,0.165166,0.11589,1.616947,3.30377,1.228572,0.558994,0.196334,2.742909,10.381254,2.634106,1.220013,0.303014,2.567067,9.082294,2.453178,1.11144,0.254053,2.747274,11.416115,2.930509,1.712594,0.419198
1720077695,21,0,4412.692383,4425.256348,4352.307617,4390.897461,4409.743652,4428.974121,4430.512695,4430.384766,4408.333496,4352.692383,4306.025879,4470.769043,4314.743652,4296.538574,,,,,,,,,,,,,,,,,,,,,,,,,,,,,,,,,,,,,,,,,,,,,,,,,,,,,,,,,,,,,,,,,,,,,,
1720077695,22,0,4422.563965,4425.384766,4345.512695,4377.94873,4421.794922,4428.717773,4438.205078,4428.717773,4413.717773,4355,4307.820313,4473.589844,4316.666504,4307.05127,,,,,,,,,,,,,,,,,,,,,,,,,,,,,,,,,,,,,,,,,,,,,,,,,,,,,,,,,,,,,,,,,,,,,,
1720077695,23,0,4439.743652,4429.743652,4355,4396.538574,4418.589844,4431.666504,4445,4433.846191,4415.769043,4356.410156,4303.461426,4476.666504,4315.641113,4312.563965,,,,,,,,,,,,,,,,,,,,,,,,,,,,,,,,,,,,,,,,,,,,,,,,,,,,,,,,,,,,,,,,,,,,,,
1720077695,24,0,4432.692383,4427.307617,4360.256348,4399.615234,4417.05127,4430.769043,4443.717773,4435.512695,4418.461426,4354.871582,4300.897461,4472.179688,4311.025879,4304.743652,,,,,,,,,,,,,,,,,,,,,,,,,,,,,,,,,,,,,,,,,,,,,,,,,,,,,,,,,,,,,,,,,,,,,,
1720077695,25,0,4426.282227,4423.974121,4352.820313,4385.769043,4421.153809,4428.974121,4437.179688,4428.589844,4413.461426,4351.538574,4300.256348,4460.512695,4314.615234,4294.102539,,,,,,,,,,,,,,,,,,,,,,,,,,,,,,,,,,,,,,,,,,,,,,,,,,,,,,,,,,,,,,,,,,,,,,
1720077695,26,0,4441.922852,4426.794922,4349.102539,4386.666504,4424.358887,4429.743652,4430,4419.743652,4403.846191,4351.410156,4300,4458.461426,4320.512695,4295.256348,,,,,,,,,,,,,,,,,,,,,,,,,,,,,,,,,,,,,,,,,,,,,,,,,,,,,,,,,,,,,,,,,,,,,,
1720077695,27,0,4450.641113,4428.974121,4356.153809,4399.102539,4420.769043,4429.871582,4426.666504,4417.563965,4400.769043,4349.615234,4302.563965,4468.717773,4315.512695,4308.974121,,,,,,,,,,,,,,,,,,,,,,,,,,,,,,,,,,,,,,,,,,,,,,,,,,,,,,,,,,,,,,,,,,,,,,
1720077695,28,0,4443.717773,4428.589844,4358.333496,4399.615234,4414.358887,4428.974121,4428.077148,4422.563965,4402.05127,4349.358887,4304.871582,4476.282227,4311.666504,4313.077148,,,,,,,,,,,,,,,,,,,,,,,,,,,,,,,,,,,,,,,,,,,,,,,,,,,,,,,,,,,,,,,,,,,,,,
1720077695,29,0,4443.205078,4428.077148,4350.769043,4387.563965,4413.589844,4427.307617,4427.563965,4428.333496,4401.794922,4351.538574,4304.102539,4474.358887,4317.179688,4304.230957,,,,,,,,,,,,,,,,,,,,,,,,,,,,,,,,,,,,,,,,,,,,,,,,,,,,,,,,,,,,,,,,,,,,,,
1720077695,30,0,4447.436035,4427.436035,4352.94873,4389.487305,4413.846191,4426.538574,4426.666504,4432.436035,4406.153809,4347.436035,4308.846191,4479.871582,4326.025879,4310.512695,,,,,,,,,,,,,,,,,,,,,,,,,,,,,,,,,,,,,,,,,,,,,,,,,,,,,,,,,,,,,,,,,,,,,,
1720077695,31,0,4454.358887,4432.05127,4364.871582,4402.179688,4408.974121,4426.538574,4428.974121,4433.589844,4411.153809,4343.333496,4313.974121,4489.615234,4330.769043,4324.487305,,,,,,,,,,,,,,,,,,,,,,,,,,,,,,,,,,,,,,,,,,,,,,,,,,,,,,,,,,,,,,,,,,,,,,
1720077695,32,0,4461.025879,4428.974121,4363.846191,4391.794922,4416.282227,4428.846191,4428.846191,4428.589844,4407.05127,4348.205078,4300.641113,4477.94873,4320.897461,4311.153809,,,,,,,,,,,,,,,,,,,,,,,,,,,,,,,,,,,,,,,,,,,,,,,,,,,,,,,,,,,,,,,,,,,,,,
1720077695,33,0,4450.641113,4411.410156,4349.487305,4367.692383,4428.077148,4431.538574,4428.461426,4422.820313,4402.179688,4353.846191,4288.974121,4455.641113,4305.384766,4288.974121,,,,,,,,,,,,,,,,,,,,,,,,,,,,,,,,,,,,,,,,,,,,,,,,,,,,,,,,,,,,,,,,,,,,,,
1720077695,34,0,4439.102539,4409.743652,4342.05127,4374.743652,4417.94873,4433.333496,4430.769043,4424.358887,4406.794922,4353.205078,4296.922852,4452.436035,4306.794922,4296.410156,,,,,,,,,,,,,,,,,,,,,,,,,,,,,,,,,,,,,,,,,,,,,,,,,,,,,,,,,,,,,,,,,,,,,,
1720077695,35,0,4451.794922,4428.333496,4347.692383,4397.692383,4409.743652,4434.871582,4434.615234,4428.461426,4414.743652,4352.94873,4304.102539,4467.307617,4318.077148,4314.743652,,,,,,,,,,,,,,,,,,,,,,,,,,,,,,,,,,,,,,,,,,,,,,,,,,,,,,,,,,,,,,,,,,,,,,
1720077695,36,0,4461.794922,4430.128418,4356.666504,4391.410156,4415.897461,4435.384766,4435.769043,4432.05127,4415.256348,4352.94873,4305.384766,4478.077148,4318.077148,4312.820313,17.832905,15.915277,6.666941,1.044871,0.583748,2.494196,7.728597,1.849287,0.41463,0.315142,3.495825,10.343529,2.241406,0.864552,0.310891,1.930996,5.802142,1.653993,0.996921,0.75136,0.818658,1.259682,1.042121,0.640617,0.338381,0.561078,6.457576,0.569915,0.245457,0.104551,0.654422,2.669175,0.29968,0.322384,0.092538,0.728854,5.272694,0.812009,0.505141,0.17011,1.169392,2.960985,0.900513,0.634928,0.188608,0.235232,1.301311,0.460953,0.173598,0.117775,1.757479,3.67407,1.451298,0.522087,0.199224,3.598011,10.674659,3.176455,1.138734,0.329813,3.058173,10.191146,2.925452,1.0181,0.254394,3.677988,12.697754,3.331416,1.670507,0.420327
1720077695,37,0,4455.512695,4418.846191,4356.538574,4373.077148,4414.871582,4430.512695,4430.256348,4430.769043,4412.436035,4351.538574,4303.717773,4475.512695,4310.641113,4306.538574,,,,,,,,,,,,,,,,,,,,,,,,,,,,,,,,,,,,,,,,,,,,,,,,,,,,,,,,,,,,,,,,,,,,,,
1720077695,38,0,4459.743652,4425.769043,4356.794922,4385.641113,4411.538574,4425.897461,4425.769043,4426.410156,4413.333496,4352.94873,4299.102539,4474.615234,4310.384766,4308.205078,,,,,,,,,,,,,,,,,,,,,,,,,,,,,,,,,,,,,,,,,,,,,,,,,,,,,,,,,,,,,,,,,,,,,,
1720077695,39,0,4461.153809,4432.563965,4357.94873,4402.05127,4413.205078,4430.128418,4426.538574,4428.205078,4411.282227,4353.333496,4297.820313,4474.743652,4312.436035,4300.384766,,,,,,,,,,,,,,,,,,,,,,,,,,,,,,,,,,,,,,,,,,,,,,,,,,,,,,,,,,,,,,,,,,,,,,
1720077695,40,0,4445.384766,4423.205078,4348.333496,4386.410156,4412.436035,4434.871582,4427.307617,4425.769043,4400.384766,4349.358887,4299.743652,4462.563965,4306.410156,4292.563965,,,,,,,,,,,,,,,,,,,,,,,,,,,,,,,,,,,,,,,,,,,,,,,,,,,,,,,,,,,,,,,,,,,,,,
1720077695,41,0,4440.769043,4421.538574,4343.333496,4374.230957,4410.769043,4431.666504,4425.897461,4418.717773,4394.102539,4343.717773,4303.077148,4459.358887,4307.563965,4302.563965,,,,,,,,,,,,,,,,,,,,,,,,,,,,,,,,,,,,,,,,,,,,,,,,,,,,,,,,,,,,,,,,,,,,,,
1720077695,42,0,4444.487305,4428.589844,4349.487305,4390.256348,4412.436035,4428.205078,4426.025879,4415.256348,4399.230957,4345.769043,4303.205078,4470.128418,4317.436035,4315.769043,,,,,,,,,,,,,,,,,,,,,,,,,,,,,,,,,,,,,,,,,,,,,,,,,,,,,,,,,,,,,,,,,,,,,,
1720077695,43,0,4431.153809,4426.794922,4349.102539,4394.871582,4412.692383,4429.358887,4427.563965,4413.974121,4401.922852,4353.717773,4300.769043,4467.179688,4316.153809,4311.025879,,,,,,,,,,,,,,,,,,,,,,,,,,,,,,,,,,,,,,,,,,,,,,,,,,,,,,,,,,,,,,,,,,,,,,
1720077695,44,0,4406.538574,4415.256348,4341.153809,4375.897461,4410.128418,4429.102539,4425.641113,4412.436035,4398.589844,4355,4300.256348,4453.717773,4309.871582,4298.333496,,,,,,,,,,,,,,,,,,,,,,,,,,,,,,,,,,,,,,,,,,,,,,,,,,,,,,,,,,,,,,,,,,,,,,
1720077695,45,0,4395.641113,4414.102539,4341.282227,4376.410156,4409.615234,4426.794922,4426.794922,4415.128418,4403.589844,4351.538574,4299.358887,4454.615234,4310.897461,4294.487305,,,,,,,,,,,,,,,,,,,,,,,,,,,,,,,,,,,,,,,,,,,,,,,,,,,,,,,,,,,,,,,,,,,,,,
1720077695,46,0,4398.461426,4424.230957,4341.025879,4385.512695,4412.179688,4427.05127,4426.282227,4417.820313,4409.230957,4348.589844,4296.666504,4460,4310.641113,4292.692383,,,,,,,,,,,,,,,,,,,,,,,,,,,,,,,,,,,,,,,,,,,,,,,,,,,,,,,,,,,,,,,,,,,,,,
1720077695,47,0,4393.846191,4425.641113,4333.461426,4374.102539,4406.025879,4427.820313,4420.769043,4419.102539,4406.538574,4344.230957,4299.102539,4457.820313,4310.256348,4295,,,,,,,,,,,,,,,,,,,,,,,,,,,,,,,,,,,,,,,,,,,,,,,,,,,,,,,,,,,,,,,,,,,,,,
1720077695,48,0,4387.05127,4423.077148,4336.282227,4378.846191,4400.128418,4428.974121,4421.153809,4429.487305,4410.256348,4345.897461,4304.230957,4465.641113,4317.692383,4308.589844,,,,,,,,,,,,,,,,,,,,,,,,,,,,,,,,,,,,,,,,,,,,,,,,,,,,,,,,,,,,,,,,,,,,,,
1720077695,49,0,4392.820313,4427.820313,4343.846191,4394.615234,4409.615234,4429.487305,4426.282227,4432.436035,4416.666504,4352.05127,4303.333496,4473.974121,4320.128418,4315,,,,,,,,,,,,,,,,,,,,,,,,,,,,,,,,,,,,,,,,,,,,,,,,,,,,,,,,,,,,,,,,,,,,,,
1720077695,50,0,4398.077148,4429.102539,4342.563965,4379.358887,4416.153809,4428.974121,4426.922852,4418.461426,4403.589844,4346.153809,4298.717773,4464.487305,4310,4300.769043,,,,,,,,,,,,,,,,,,,,,,,,,,,,,,,,,,,,,,,,,,,,,,,,,,,,,,,,,,,,,,,,,,,,,,
1720077695,51,0,4391.538574,4419.743652,4339.487305,4372.563965,4408.974121,4431.025879,4424.743652,4410.128418,4389.871582,4341.794922,4289.743652,4451.410156,4301.025879,4288.717773,,,,,,,,,,,,,,,,,,,,,,,,,,,,,,,,,,,,,,,,,,,,,,,,,,,,,,,,,,,,,,,,,,,,,,
1720077695,52,0,4387.179688,4413.846191,4344.487305,4397.692383,4408.589844,4434.871582,4428.205078,4414.615234,4396.666504,4352.820313,4288.205078,4457.307617,4303.205078,4296.538574,19.79282,17.566164,7.801384,1.128705,0.599389,3.359897,7.784639,1.987966,0.383717,0.319684,4.964892,10.387224,2.224629,0.840598,0.333714,2.528559,5.686794,1.747161,0.83253,0.789326,0.998606,1.331924,0.902956,0.685489,0.346399,0.549801,7.203129,0.523826,0.272303,0.109631,0.703762,3.074182,0.305285,0.343987,0.093181,0.772534,5.680875,0.575031,0.530129,0.163823,1.009329,3.080986,0.723825,0.659365,0.18956,0.287853,1.436082,0.532122,0.192253,0.11846,2.018197,3.946854,1.533229,0.517292,0.203819,4.845518,10.772916,3.425759,1.152672,0.355635,3.719526,10.735068,3.122341,0.957917,0.271496,4.827076,13.209842,3.346046,1.589316,0.451737
1720077695,53,0,4385.897461,4416.538574,4343.205078,4390.256348,4418.077148,4436.538574,4430.128418,4417.179688,4396.025879,4351.794922,4296.410156,4464.487305,4308.077148,4298.589844,,,,,,,,,,,,,,,,,,,,,,,,,,,,,,,,,,,,,,,,,,,,,,,,,,,,,,,,,,,,,,,,,,,,,,
1720077695,54,0,4383.077148,4423.974121,4338.717773,4369.743652,4420.512695,4436.282227,4429.487305,4414.743652,4385.512695,4342.436035,4297.436035,4460.897461,4311.153809,4292.692383,,,,,,,,,,,,,,,,,,,,,,,,,,,,,,,,,,,,,,,,,,,,,,,,,,,,,,,,,,,,,,,,,,,,,,
1720077695,55,0,4380.512695,4433.717773,4346.666504,4387.05127,4416.025879,4434.615234,4428.974121,4416.282227,4390.897461,4350.897461,4294.102539,4464.615234,4313.461426,4298.205078,,,,,,,,,,,,,,,,,,,,,,,,,,,,,,,,,,,,,,,,,,,,,,,,,,,,,,,,,,,,,,,,,,,,,,
1720077695,56,0,4376.922852,4431.282227,4348.333496,4392.563965,4413.205078,4430.897461,4420.641113,4414.615234,4395.897461,4354.102539,4292.820313,4464.743652,4309.358887,4301.410156,,,,,,,,,,,,,,,,,,,,,,,,,,,,,,,,,,,,,,,,,,,,,,,,,,,,,,,,,,,,,,,,,,,,,,
1720077695,57,0,4379.871582,4424.743652,4344.230957,4383.589844,4411.153809,4428.846191,4413.077148,4410.512695,4394.615234,4345.897461,4293.846191,4465.384766,4310.897461,4301.282227,,,,,,,,,,,,,,,,,,,,,,,,,,,,,,,,,,,,,,,,,,,,,,,,,,,,,,,,,,,,,,,,,,,,,,
1720077695,58,0,4382.692383,4428.077148,4346.153809,4391.410156,4411.538574,4428.846191,4413.461426,4415.256348,4403.589844,4350,4298.077148,4474.743652,4323.461426,4311.794922,,,,,,,,,,,,,,,,,,,,,,,,,,,,,,,,,,,,,,,,,,,,,,,,,,,,,,,,,,,,,,,,,,,,,,
1720077695,59,0,4368.461426,4425,4339.102539,4384.871582,4412.05127,4429.230957,4414.743652,4416.666504,4408.974121,4354.358887,4299.358887,4470.256348,4321.282227,4315.769043,,,,,,,,,,,,,,,,,,,,,,,,,,,,,,,,,,,,,,,,,,,,,,,,,,,,,,,,,,,,,,,,,,,,,,
1720077695,60,0,4345.897461,4406.538574,4323.974121,4370.641113,4398.333496,4427.307617,4409.358887,4408.461426,4395.512695,4341.666504,4284.743652,4445.512695,4296.922852,4295.256348,,,,,,,,,,,,,,,,,,,,,,,,,,,,,,,,,,,,,,,,,,,,,,,,,,,,,,,,,,,,,,,,,,,,,,
1720077695,61,0,4337.94873,4397.692383,4320.641113,4372.94873,4380.384766,4420.128418,4402.179688,4404.102539,4384.743652,4329.615234,4273.077148,4436.282227,4284.358887,4281.153809,,,,,,,,,,,,,,,,,,,,,,,,,,,,,,,,,,,,,,,,,,,,,,,,,,,,,,,,,,,,,,,,,,,,,,
1720077695,62,0,4356.410156,4404.871582,4326.153809,4367.436035,4389.230957,4420,4407.179688,4410.641113,4389.230957,4332.820313,4286.922852,4455.256348,4298.205078,4295.256348,,,,,,,,,,,,,,,,,,,,,,,,,,,,,,,,,,,,,,,,,,,,,,,,,,,,,,,,,,,,,,,,,,,,,,
1720077695,63,0,4375.384766,4415.512695,4329.615234,4360.384766,4411.025879,4434.102539,4421.794922,4415.384766,4395.641113,4341.282227,4297.820313,4465.769043,4316.282227,4308.205078,,,,,,,,,,,,,,,,,,,,,,,,,,,,,,,,,,,,,,,,,,,,,,,,,,,,,,,,,,,,,,,,,,,,,,
1720077695,64,0,4363.077148,4423.589844,4335.512695,4379.615234,4414.871582,4441.282227,4429.871582,4413.974121,4397.179688,4349.102539,4293.077148,4459.871582,4320,4307.307617,,,,,,,,,,,,,,,,,,,,,,,,,,,,,,,,,,,,,,,,,,,,,,,,,,,,,,,,,,,,,,,,,,,,,,
1720077695,65,0,4336.538574,4421.025879,4334.487305,4397.692383,4411.153809,4436.025879,4423.461426,4415.384766,4396.282227,4349.615234,4286.282227,4455,4309.230957,4304.487305,,,,,,,,,,,,,,,,,,,,,,,,,,,,,,,,,,,,,,,,,,,,,,,,,,,,,,,,,,,,,,,,,,,,,,
1720077695,66,0,4332.820313,4413.717773,4330.384766,4388.846191,4414.871582,4433.974121,4417.179688,4422.436035,4395.512695,4341.666504,4289.487305,4461.282227,4308.077148,4310.512695,,,,,,,,,,,,,,,,,,,,,,,,,,,,,,,,,,,,,,,,,,,,,,,,,,,,,,,,,,,,,,,,,,,,,,
1720077695,67,0,4346.922852,4422.436035,4340.641113,4383.333496,4415.256348,4435.512695,4422.436035,4429.871582,4398.974121,4345,4301.282227,4478.077148,4324.615234,4327.692383,,,,,,,,,,,,,,,,,,,,,,,,,,,,,,,,,,,,,,,,,,,,,,,,,,,,,,,,,,,,,,,,,,,,,,
1720077695,68,0,4350.641113,4432.820313,4348.974121,4393.333496,4410.512695,4434.358887,4424.487305,4424.487305,4402.179688,4352.820313,4300,4481.153809,4325.641113,4331.410156,21.968857,17.578018,8.022882,1.203145,0.599574,3.970945,7.062697,1.870068,0.376936,0.312659,6.139575,9.556104,1.944806,0.830892,0.34397,2.97217,5.108298,1.694335,0.781455,0.810341,1.123136,1.326877,0.743381,0.6853,0.352923,0.53698,7.720173,0.583333,0.292091,0.111294,0.758577,3.262746,0.357119,0.363779,0.091426,0.914984,5.771588,0.419928,0.583388,0.161501,0.916175,3.338979,0.655361,0.692773,0.185869,0.351454,1.513804,0.551195,0.209392,0.116685,2.23105,3.969871,1.434496,0.528414,0.205743,6.064899,10.31984,3.264709,1.216437,0.371596,4.211199,10.367797,2.950985,0.910463,0.294421,5.704957,12.629431,2.975623,1.485558,0.504998
1720077695,69,0,4349.615234,4425.641113,4344.615234,4392.692383,4414.230957,4434.871582,4416.666504,4412.820313,4395.512695,4348.205078,4291.538574,4467.94873,4310.256348,4314.230957,,,,,,,,,,,,,,,,,,,,,,,,,,,,,,,,,,,,,,,,,,,,,,,,,,,,,,,,,,,,,,,,,,,,,,
1720077695,70,0,4363.717773,4421.666504,4339.871582,4381.922852,4415.512695,4432.179688,4410.897461,4409.230957,4388.461426,4341.282227,4290.128418,4460,4308.717773,4306.538574,,,,,,,,,,,,,,,,,,,,,,,,,,,,,,,,,,,,,,,,,,,,,,,,,,,,,,,,,,,,,,,,,,,,,,
1720077695,71,0,4384.102539,4430,4343.589844,4387.820313,4403.846191,4429.230957,4409.615234,4411.025879,4389.743652,4342.436035,4291.666504,4466.666504,4313.846191,4323.333496,,,,,,,,,,,,,,,,,,,,,,,,,,,,,,,,,,,,,,,,,,,,,,,,,,,,,,,,,,,,,,,,,,,,,,
1720077695,72,0,4392.692383,4432.179688,4349.871582,4400,4403.974121,4438.077148,4412.179688,4417.436035,4391.538574,4343.333496,4293.333496,4475,4311.410156,4329.871582,,,,,,,,,,,,,,,,,,,,,,,,,,,,,,,,,,,,,,,,,,,,,,,,,,,,,,,,,,,,,,,,,,,,,,
1720077695,73,0,4401.153809,4431.153809,4349.358887,4400,4421.282227,4445.769043,4416.794922,4421.025879,4392.94873,4340.384766,4295,4472.179688,4308.461426,4314.871582,,,,,,,,,,,,,,,,,,,,,,,,,,,,,,,,,,,,,,,,,,,,,,,,,,,,,,,,,,,,,,,,,,,,,,
1720077695,74,0,4410.384766,4428.333496,4340.641113,4393.589844,4426.410156,4444.102539,4415.897461,4417.94873,4394.230957,4338.717773,4288.205078,4462.436035,4300.641113,4306.538574,,,,,,,,,,,,,,,,,,,,,,,,,,,,,,,,,,,,,,,,,,,,,,,,,,,,,,,,,,,,,,,,,,,,,,
1720077695,75,0,4406.282227,4416.410156,4333.846191,4383.846191,4412.307617,4440.769043,4415.384766,4419.871582,4393.077148,4340.128418,4282.94873,4463.077148,4292.436035,4312.05127,,,,,,,,,,,,,,,,,,,,,,,,,,,,,,,,,,,,,,,,,,,,,,,,,,,,,,,,,,,,,,,,,,,,,,
1720077695,76,0,4409.358887,4408.077148,4337.563965,4376.794922,4403.333496,4435.897461,4419.358887,4428.974121,4402.692383,4348.846191,4290.512695,4473.333496,4300.641113,4319.230957,,,,,,,,,,,,,,,,,,,,,,,,,,,,,,,,,,,,,,,,,,,,,,,,,,,,,,,,,,,,,,,,,,,,,,
1720077695,77,0,4425.128418,4409.871582,4338.333496,4370.769043,4406.282227,4429.615234,4416.794922,4426.282227,4411.538574,4350.128418,4287.94873,4473.077148,4307.94873,4315.769043,,,,,,,,,,,,,,,,,,,,,,,,,,,,,,,,,,,,,,,,,,,,,,,,,,,,,,,,,,,,,,,,,,,,,,
1720077695,78,0,4430.897461,4416.025879,4337.94873,4371.666504,4403.974121,4427.692383,4412.05127,4420.641113,4404.487305,4342.563965,4287.94873,4476.025879,4309.358887,4317.05127,,,,,,,,,,,,,,,,,,,,,,,,,,,,,,,,,,,,,,,,,,,,,,,,,,,,,,,,,,,,,,,,,,,,,,
1720077695,79,0,4425.897461,4420.128418,4344.871582,4385.384766,4397.692383,4427.94873,4413.333496,4425.384766,4405.512695,4346.410156,4299.102539,4489.358887,4321.025879,4332.820313,,,,,,,,,,,,,,,,,,,,,,,,,,,,,,,,,,,,,,,,,,,,,,,,,,,,,,,,,,,,,,,,,,,,,,
1720077695,80,0,4423.205078,4417.307617,4350.897461,4395.256348,4400.769043,4425.769043,4411.794922,4421.922852,4413.846191,4354.358887,4300.256348,4493.974121,4327.820313,4340,,,,,,,,,,,,,,,,,,,,,,,,,,,,,,,,,,,,,,,,,,,,,,,,,,,,,,,,,,,,,,,,,,,,,,
1720077695,81,0,4432.307617,4414.615234,4357.563965,4391.794922,4409.102539,4428.717773,4412.05127,4417.692383,4408.077148,4354.871582,4301.410156,4499.871582,4326.666504,4340.641113,,,,,,,,,,,,,,,,,,,,,,,,,,,,,,,,,,,,,,,,,,,,,,,,,,,,,,,,,,,,,,,,,,,,,,
1720077695,82,0,4443.333496,4413.589844,4356.666504,4383.461426,4414.230957,4435.384766,4413.077148,4418.589844,4395.128418,4350.384766,4302.692383,4503.717773,4324.615234,4333.077148,,,,,,,,,,,,,,,,,,,,,,,,,,,,,,,,,,,,,,,,,,,,,,,,,,,,,,,,,,,,,,,,,,,,,,
1720077695,83,0,4445.128418,4412.05127,4347.692383,4378.846191,4416.666504,4441.538574,4410.128418,4413.974121,4390.256348,4345.384766,4294.230957,4496.282227,4316.538574,4319.487305,,,,,,,,,,,,,,,,,,,,,,,,,,,,,,,,,,,,,,,,,,,,,,,,,,,,,,,,,,,,,,,,,,,,,,
1720077695,84,0,4446.922852,4414.615234,4349.102539,4389.358887,4412.563965,4444.487305,4418.205078,4414.615234,4390.256348,4339.871582,4288.077148,4492.307617,4309.615234,4317.820313,23.132915,15.848489,7.28716,1.22856,0.591293,4.144122,5.704886,1.57847,0.374062,0.297117,6.632315,7.977511,1.549991,0.812327,0.340714,3.113728,4.201623,1.562213,0.793095,0.83401,1.150358,1.240053,0.597868,0.632758,0.356459,0.52515,7.545576,0.661302,0.29705,0.108577,0.789496,3.145293,0.444318,0.370463,0.088325,1.060465,5.43828,0.345477,0.621719,0.16159,0.876874,3.537536,0.617561,0.697794,0.174363,0.404873,1.488734,0.510593,0.217089,0.113119,2.240603,3.682,1.204553,0.538037,0.203193,6.755045,9.227355,2.817311,1.272574,0.374535,4.262906,9.105965,2.50259,0.856875,0.31159,6.005421,11.015606,2.39612,1.386346,0.566308
1720077695,85,0,4456.922852,4417.436035,4350.769043,4398.974121,4408.717773,4443.461426,4429.230957,4424.358887,4392.820313,4339.743652,4288.333496,4485.769043,4305.769043,4319.358887,,,,,,,,,,,,,,,,,,,,,,,,,,,,,,,,,,,,,,,,,,,,,,,,,,,,,,,,,,,,,,,,,,,,,,
1720077695,86,0,4465,4408.589844,4336.282227,4380.897461,4414.743652,4450.384766,4430.256348,4428.333496,4402.179688,4344.871582,4286.410156,4470.641113,4299.102539,4310.256348,,,,,,,,,,,,,,,,,,,,,,,,,,,,,,,,,,,,,,,,,,,,,,,,,,,,,,,,,,,,,,,,,,,,,,
1720077695,87,0,4460.769043,4397.563965,4331.922852,4369.230957,4417.692383,4459.871582,4432.179688,4423.205078,4408.461426,4346.794922,4287.307617,4465.512695,4297.436035,4305.897461,,,,,,,,,,,,,,,,,,,,,,,,,,,,,,,,,,,,,,,,,,,,,,,,,,,,,,,,,,,,,,,,,,,,,,
1720077695,88,0,4456.538574,4393.205078,4344.230957,4379.615234,4412.563965,4453.461426,4433.974121,4418.205078,4400.384766,4342.05127,4285.897461,4464.358887,4297.820313,4302.307617,,,,,,,,,,,,,,,,,,,,,,,,,,,,,,,,,,,,,,,,,,,,,,,,,,,,,,,,,,,,,,,,,,,,,,
1720077695,89,0,4471.153809,4392.692383,4342.179688,4378.205078,4409.358887,4442.692383,4428.333496,4410.384766,4388.589844,4338.077148,4277.692383,4454.230957,4289.102539,4294.487305,,,,,,,,,,,,,,,,,,,,,,,,,,,,,,,,,,,,,,,,,,,,,,,,,,,,,,,,,,,,,,,,,,,,,,
1720077695,90,0,4493.461426,4400.512695,4335.769043,4373.846191,4407.307617,4445.128418,4424.871582,4404.871582,4388.974121,4343.205078,4282.436035,4453.846191,4292.436035,4305.384766,,,,,,,,,,,,,,,,,,,,,,,,,,,,,,,,,,,,,,,,,,,,,,,,,,,,,,,,,,,,,,,,,,,,,,
1720077695,91,0,4496.153809,4398.974121,4338.333496,4370.897461,4401.666504,4441.794922,4425.641113,4403.974121,4389.743652,4342.820313,4288.333496,4458.717773,4304.487305,4311.794922,,,,,,,,,,,,,,,,,,,,,,,,,,,,,,,,,,,,,,,,,,,,,,,,,,,,,,,,,,,,,,,,,,,,,,
1720077695,92,0,4493.717773,4396.282227,4343.846191,4373.205078,4397.307617,4431.282227,4425.256348,4413.333496,4391.410156,4340.897461,4291.794922,4465.641113,4307.179688,4305.641113,,,,,,,,,,,,,,,,,,,,,,,,,,,,,,,,,,,,,,,,,,,,,,,,,,,,,,,,,,,,,,,,,,,,,,
1720077695,93,0,4506.025879,4409.615234,4354.230957,4395,4404.871582,4435.384766,4427.563965,4428.717773,4398.205078,4345.769043,4296.538574,4474.871582,4308.846191,4316.410156,,,,,,,,,,,,,,,,,,,,,,,,,,,,,,,,,,,,,,,,,,,,,,,,,,,,,,,,,,,,,,,,,,,,,,
1720077695,94,0,4509.871582,4410.384766,4353.589844,4395.512695,4416.922852,4443.974121,4428.205078,4429.615234,4393.717773,4344.487305,4289.615234,4467.179688,4307.05127,4319.230957,,,,,,,,,,,,,,,,,,,,,,,,,,,,,,,,,,,,,,,,,,,,,,,,,,,,,,,,,,,,,,,,,,,,,,
1720077695,95,0,4507.307617,4400.256348,4342.05127,4372.820313,4416.666504,4442.563965,4425.897461,4424.743652,4388.589844,4340.769043,4287.820313,4460.897461,4303.717773,4303.333496,,,,,,,,,,,,,,,,,,,,,,,,,,,,,,,,,,,,,,,,,,,,,,,,,,,,,,,,,,,,,,,,,,,,,,
1720077695,96,0,4508.077148,4402.94873,4344.487305,4377.94873,4418.846191,4442.307617,4426.282227,4428.589844,4396.153809,4341.922852,4296.794922,4470.512695,4308.461426,4305.897461,,,,,,,,,,,,,,,,,,,,,,,,,,,,,,,,,,,,,,,,,,,,,,,,,,,,,,,,,,,,,,,,,,,,,,
1720077696,97,0,4505.384766,4400.512695,4353.589844,4386.282227,4428.077148,4449.615234,4433.846191,4432.563965,4404.230957,4343.333496,4292.307617,4471.794922,4306.538574,4321.538574,,,,,,,,,,,,,,,,,,,,,,,,,,,,,,,,,,,,,,,,,,,,,,,,,,,,,,,,,,,,,,,,,,,,,,
1720077696,98,0,4512.692383,4391.025879,4350.512695,4375.897461,4416.922852,4451.538574,4440.641113,4430,4405,4341.538574,4284.102539,4462.179688,4297.94873,4312.94873,,,,,,,,,,,,,,,,,,,,,,,,,,,,,,,,,,,,,,,,,,,,,,,,,,,,,,,,,,,,,,,,,,,,,,
1720077696,99,0,4530.384766,4401.282227,4342.692383,4380.897461,4405.256348,4449.102539,4439.871582,4431.025879,4404.487305,4338.205078,4290,4466.153809,4302.820313,4301.282227,,,,,,,,,,,,,,,,,,,,,,,,,,,,,,,,,,,,,,,,,,,,,,,,,,,,,,,,,,,,,,,,,,,,,,
1720077696,100,0,4537.05127,4413.333496,4343.589844,4391.282227,4416.153809,4449.487305,4435.512695,4440,4407.94873,4341.538574,4298.333496,4476.282227,4312.94873,4313.846191,22.373198,12.864276,5.910494,1.19615,0.584929,3.779245,4.067176,1.245845,0.368472,0.280712,6.285858,5.996719,1.18093,0.774823,0.328017,2.871078,3.167701,1.403919,0.820252,0.878035,1.060894,1.091522,0.489782,0.542069,0.357837,0.500867,6.586309,0.707602,0.283987,0.101793,0.763552,2.756774,0.546223,0.357698,0.085743,1.12962,4.730554,0.34881,0.616453,0.163391,0.874997,3.570542,0.564789,0.65758,0.158502,0.436505,1.36334,0.426832,0.214501,0.110172,2.029108,3.125868,0.922701,0.532439,0.198785,6.675113,7.62253,2.271628,1.279371,0.371164,3.817145,7.257387,1.929609,0.792915,0.319994,5.532063,8.721183,1.808882,1.315428,0.623093
1720077696,101,0,4535.897461,4410.897461,4355.384766,4392.563965,4416.666504,4447.307617,4432.05127,4446.025879,4415.128418,4353.717773,4298.461426,4480.256348,4317.179688,4327.563965,,,,,,,,,,,,,,,,,,,,,,,,,,,,,,,,,,,,,,,,,,,,,,,,,,,,,,,,,,,,,,,,,,,,,,
1720077696,102,0,4541.025879,4416.153809,4361.666504,4399.358887,4409.230957,4442.05127,4429.743652,4438.461426,4414.230957,4358.846191,4295.641113,4476.025879,4319.871582,4324.358887,,,,,,,,,,,,,,,,,,,,,,,,,,,,,,,,,,,,,,,,,,,,,,,,,,,,,,,,,,,,,,,,,,,,,,
1720077696,103,0,4537.563965,4419.615234,4352.563965,4392.436035,4419.358887,4442.179688,4428.589844,4430.256348,4404.743652,4351.538574,4296.153809,4469.358887,4320.512695,4315.256348,,,,,,,,,,,,,,,,,,,,,,,,,,,,,,,,,,,,,,,,,,,,,,,,,,,,,,,,,,,,,,,,,,,,,,
1720077696,104,0,4524.102539,4409.102539,4350.384766,4377.94873,4428.461426,4445.128418,4429.358887,4433.333496,4401.794922,4349.230957,4298.717773,4471.282227,4319.358887,4312.05127,,,,,,,,,,,,,,,,,,,,,,,,,,,,,,,,,,,,,,,,,,,,,,,,,,,,,,,,,,,,,,,,,,,,,,
1720077696,105,0,4521.025879,4401.282227,4356.025879,4376.153809,4420.897461,4441.922852,4428.205078,4430.769043,4399.871582,4351.282227,4291.538574,4468.333496,4312.820313,4308.461426,,,,,,,,,,,,,,,,,,,,,,,,,,,,,,,,,,,,,,,,,,,,,,,,,,,,,,,,,,,,,,,,,,,,,,
1720077696,106,0,4525,4407.307617,4350.256348,4383.717773,4404.871582,4440.769043,4427.05127,4425,4400.897461,4351.538574,4287.179688,4460.384766,4309.358887,4308.205078,,,,,,,,,,,,,,,,,,,,,,,,,,,,,,,,,,,,,,,,,,,,,,,,,,,,,,,,,,,,,,,,,,,,,,
1720077696,107,0,4516.025879,4412.563965,4338.846191,4392.436035,4396.153809,4442.692383,4428.846191,4427.436035,4406.025879,4351.025879,4295.641113,4460.128418,4316.922852,4310.641113,,,,,,,,,,,,,,,,,,,,,,,,,,,,,,,,,,,,,,,,,,,,,,,,,,,,,,,,,,,,,,,,,,,,,,
1720077696,108,0,4510,4410.512695,4338.846191,4386.922852,4406.922852,4443.205078,4430.897461,4428.974121,4405.128418,4345.897461,4298.333496,4461.282227,4322.692383,4308.461426,,,,,,,,,,,,,,,,,,,,,,,,,,,,,,,,,,,,,,,,,,,,,,,,,,,,,,,,,,,,,,,,,,,,,,
1720077696,109,0,4525.512695,4412.820313,4346.922852,4372.563965,4424.102539,4445,4431.794922,4427.563965,4401.282227,4342.05127,4292.94873,4461.282227,4315.641113,4307.692383,,,,,,,,,,,,,,,,,,,,,,,,,,,,,,,,,,,,,,,,,,,,,,,,,,,,,,,,,,,,,,,,,,,,,,
1720077696,110,0,4528.589844,4410.512695,4347.05127,4370.769043,4420,4444.102539,4428.461426,4426.410156,4397.307617,4338.846191,4285.769043,4461.666504,4301.794922,4305.384766,,,,,,,,,,,,,,,,,,,,,,,,,,,,,,,,,,,,,,,,,,,,,,,,,,,,,,,,,,,,,,,,,,,,,,
1720077696,111,0,4509.743652,4400.769043,4339.358887,4377.05127,4402.05127,4441.794922,4426.282227,4421.282227,4388.974121,4333.974121,4278.717773,4456.666504,4295,4302.94873,,,,,,,,,,,,,,,,,,,,,,,,,,,,,,,,,,,,,,,,,,,,,,,,,,,,,,,,,,,,,,,,,,,,,,
1720077696,112,0,4507.692383,4405.512695,4339.743652,4381.794922,4404.487305,4444.743652,4428.589844,4421.666504,4387.307617,4336.922852,4285.897461,4457.436035,4309.230957,4306.922852,,,,,,,,,,,,,,,,,,,,,,,,,,,,,,,,,,,,,,,,,,,,,,,,,,,,,,,,,,,,,,,,,,,,,,
1720077696,113,0,4524.743652,4419.743652,4346.538574,4385.128418,4418.461426,4447.692383,4430,4429.743652,4398.461426,4344.487305,4300.384766,4472.179688,4327.179688,4313.461426,,,,,,,,,,,,,,,,,,,,,,,,,,,,,,,,,,,,,,,,,,,,,,,,,,,,,,,,,,,,,,,,,,,,,,
1720077696,114,0,4524.230957,4416.538574,4348.461426,4386.282227,4417.563965,4443.333496,4427.307617,4430.769043,4404.487305,4345.256348,4295.641113,4478.077148,4326.025879,4317.179688,,,,,,,,,,,,,,,,,,,,,,,,,,,,,,,,,,,,,,,,,,,,,,,,,,,,,,,,,,,,,,,,,,,,,,
1720077696,115,0,4508.846191,4406.794922,4351.922852,4385.641113,4408.333496,4441.666504,4426.538574,4430.128418,4403.333496,4343.077148,4288.461426,4474.615234,4321.410156,4319.102539,,,,,,,,,,,,,,,,,,,,,,,,,,,,,,,,,,,,,,,,,,,,,,,,,,,,,,,,,,,,,,,,,,,,,,
1720077696,116,0,4503.846191,4408.846191,4353.461426,4383.333496,4408.846191,4444.230957,4429.358887,4433.205078,4404.615234,4343.589844,4295.384766,4470.769043,4320.512695,4321.025879,19.684074,9.415334,4.35058,1.131971,0.586871,3.040661,2.56377,0.985347,0.366316,0.270482,5.256928,4.055592,0.912197,0.720779,0.311448,2.342773,2.220726,1.251278,0.834502,0.94345,0.896064,0.925977,0.441379,0.445824,0.359214,0.468269,5.103598,0.724646,0.255676,0.093123,0.683221,2.238738,0.644107,0.32582,0.085572,1.083577,3.786371,0.423995,0.566496,0.166611,0.860989,3.390746,0.511292,0.583886,0.145462,0.441178,1.169154,0.327188,0.207597,0.110677,1.630733,2.415872,0.662612,0.508093,0.196943,5.878793,5.776214,1.790258,1.223848,0.372242,3.030664,5.264116,1.381611,0.72773,0.324443,4.527587,6.257585,1.342946,1.27914,0.666283
1720077696,117,0,4507.179688,4411.410156,4345.384766,4378.589844,4413.846191,4443.589844,4430,4430.769043,4407.436035,4345.897461,4296.025879,4469.871582,4316.922852,4320.128418,,,,,,,,,,,,,,,,,,,,,,,,,,,,,,,,,,,,,,,,,,,,,,,,,,,,,,,,,,,,,,,,,,,,,,
1720077696,118,0,4509.871582,4411.153809,4341.282227,4376.282227,4415.128418,4442.307617,4429.871582,4427.307617,4407.179688,4351.410156,4295.384766,4472.94873,4320.256348,4314.102539,,,,,,,,,,,,,,,,,,,,,,,,,,,,,,,,,,,,,,,,,,,,,,,,,,,,,,,,,,,,,,,,,,,,,,
1720077696,119,0,4509.743652,4413.589844,4341.282227,4372.692383,4417.179688,4441.538574,4424.487305,4427.692383,4400.256348,4353.589844,4295.512695,4469.743652,4324.358887,4311.538574,,,,,,,,,,,,,,,,,,,,,,,,,,,,,,,,,,,,,,,,,,,,,,,,,,,,,,,,,,,,,,,,,,,,,,
1720077696,120,0,4505,4412.179688,4343.589844,4376.282227,4407.179688,4435,4417.563965,4425.512695,4394.871582,4350.512695,4293.205078,4465.128418,4322.436035,4318.461426,,,,,,,,,,,,,,,,,,,,,,,,,,,,,,,,,,,,,,,,,,,,,,,,,,,,,,,,,,,,,,,,,,,,,,
1720077696,121,0,4503.717773,4409.230957,4348.717773,4391.282227,4395.128418,4428.461426,4418.461426,4423.717773,4395.897461,4349.743652,4292.820313,4467.820313,4321.922852,4320.384766,,,,,,,,,,,,,,,,,,,,,,,,,,,,,,,,,,,,,,,,,,,,,,,,,,,,,,,,,,,,,,,,,,,,,,
1720077696,122,0,4513.461426,4416.922852,4353.205078,4400.384766,4401.153809,4436.153809,4422.307617,4425,4397.436035,4351.410156,4297.307617,4472.436035,4329.615234,4319.230957,,,,,,,,,,,,,,,,,,,,,,,,,,,,,,,,,,,,,,,,,,,,,,,,,,,,,,,,,,,,,,,,,,,,,,
1720077696,123,0,4516.922852,4424.230957,4354.743652,4392.436035,4414.743652,4442.563965,4424.487305,4426.666504,4397.692383,4351.794922,4302.179688,4476.025879,4338.205078,4324.230957,,,,,,,,,,,,,,,,,,,,,,,,,,,,,,,,,,,,,,,,,,,,,,,,,,,,,,,,,,,,,,,,,,,,,,
1720077696,124,0,4495.769043,4415.641113,4348.846191,4373.461426,4421.538574,4434.743652,4425.512695,4426.666504,4398.589844,4350.256348,4301.153809,4474.358887,4337.179688,4327.05127,,,,,,,,,,,,,,,,,,,,,,,,,,,,,,,,,,,,,,,,,,,,,,,,,,,,,,,,,,,,,,,,,,,,,,
1720077696,125,0,4471.282227,4407.179688,4345.897461,4363.846191,4416.666504,4432.692383,4425,4427.05127,4402.94873,4348.717773,4302.05127,4468.846191,4329.743652,4326.153809,,,,,,,,,,,,,,,,,,,,,,,,,,,,,,,,,,,,,,,,,,,,,,,,,,,,,,,,,,,,,,,,,,,,,,
1720077696,126,0,4466.025879,4416.922852,4351.922852,4383.846191,4407.05127,4442.94873,4425.769043,4427.820313,4406.282227,4347.563965,4304.102539,4473.589844,4328.333496,4321.538574,,,,,,,,,,,,,,,,,,,,,,,,,,,,,,,,,,,,,,,,,,,,,,,,,,,,,,,,,,,,,,,,,,,,,,
1720077696,127,0,4456.282227,4424.487305,4348.846191,4401.025879,4407.94873,4447.436035,4429.487305,4424.230957,4400.641113,4342.692383,4297.05127,4476.666504,4327.820313,4311.153809,,,,,,,,,,,,,,,,,,,,,,,,,,,,,,,,,,,,,,,,,,,,,,,,,,,,,,,,,,,,,,,,,,,,,,
1720077696,0,0,4433.333496,4411.282227,4339.615234,4386.794922,4422.05127,4444.743652,4431.538574,4419.358887,4393.077148,4337.179688,4291.794922,4468.717773,4321.922852,4308.717773,,,,,,,,,,,,,,,,,,,,,,,,,,,,,,,,,,,,,,,,,,,,,,,,,,,,,,,,,,,,,,,,,,,,,,
1720077696,1,0,4420.128418,4398.589844,4343.077148,4371.538574,4427.563965,4443.205078,4428.974121,4418.589844,4393.077148,4338.589844,4296.025879,4462.692383,4318.974121,4312.05127,,,,,,,,,,,,,,,,,,,,,,,,,,,,,,,,,,,,,,,,,,,,,,,,,,,,,,,,,,,,,,,,,,,,,,
1720077696,2,0,4421.410156,4412.563965,4351.025879,4384.871582,4417.05127,4444.102539,4427.307617,4422.179688,4395.384766,4343.077148,4293.974121,4461.538574,4318.974121,4309.358887,,,,,,,,,,,,,,,,,,,,,,,,,,,,,,,,,,,,,,,,,,,,,,,,,,,,,,,,,,,,,,,,,,,,,,
1720077696,3,0,4424.615234,4434.743652,4357.820313,4402.436035,4411.666504,4443.846191,4428.974121,4428.717773,4398.205078,4342.820313,4290.384766,4468.974121,4321.538574,4313.974121,,,,,,,,,,,,,,,,,,,,,,,,,,,,,,,,,,,,,,,,,,,,,,,,,,,,,,,,,,,,,,,,,,,,,,
1720077696,4,0,4415.384766,4431.153809,4359.102539,4397.05127,4411.794922,4434.615234,4428.461426,4431.153809,4399.743652,4343.077148,4301.025879,4475.897461,4326.025879,4319.230957,15.61998,6.286436,3.025462,1.064123,0.597413,2.171371,1.498617,0.855437,0.37356,0.268407,3.884364,2.534087,0.75426,0.654073,0.295817,1.702261,1.526321,1.121987,0.824747,1.01238,0.718847,0.789393,0.465556,0.376975,0.362606,0.447205,3.524664,0.711739,0.21869,0.085978,0.57638,1.756864,0.715722,0.280145,0.088437,0.945509,2.788982,0.54601,0.490345,0.169621,0.814039,3.018237,0.496692,0.499889,0.14087,0.423815,0.956601,0.238355,0.202964,0.115828,1.176831,1.70936,0.469802,0.467034,0.200184,4.677058,4.053652,1.459885,1.110784,0.384409,2.144927,3.56233,0.96683,0.668196,0.330777,3.244295,4.109458,1.038301,1.252893,0.690056
1720077696,5,0,4383.717773,4415.384766,4345.897461,4379.487305,4411.666504,4424.358887,4420,4424.230957,4396.153809,4342.436035,4303.846191,4467.436035,4327.563965,4314.615234,,,,,,,,,,,,,,,,,,,,,,,,,,,,,,,,,,,,,,,,,,,,,,,,,,,,,,,,,,,,,,,,,,,,,,
1720077696,6,0,4344.743652,4414.358887,4340.769043,4378.974121,4413.205078,4425.128418,4416.282227,4415.769043,4393.974121,4338.717773,4296.153809,4459.102539,4326.922852,4308.846191,,,,,,,,,,,,,,,,,,,,,,,,,,,,,,,,,,,,,,,,,,,,,,,,,,,,,,,,,,,,,,,,,,,,,,
1720077696,7,0,4326.666504,4423.333496,4351.666504,4395.641113,4415.769043,4427.820313,4418.205078,4410.641113,4396.410156,4342.05127,4295.897461,4465.128418,4325.256348,4305.256348,,,,,,,,,,,,,,,,,,,,,,,,,,,,,,,,,,,,,,,,,,,,,,,,,,,,,,,,,,,,,,,,,,,,,,
1720077696,8,0,4319.743652,4428.974121,4351.538574,4396.538574,4414.358887,4427.563965,4413.974121,4408.846191,4395.641113,4349.743652,4298.846191,4470.897461,4326.410156,4313.846191,,,,,,,,,,,,,,,,,,,,,,,,,,,,,,,,,,,,,,,,,,,,,,,,,,,,,,,,,,,,,,,,,,,,,,
1720077696,9,0,4299.743652,4427.307617,4347.436035,4389.871582,4411.025879,4426.922852,4416.666504,4419.743652,4396.025879,4351.410156,4298.205078,4473.461426,4328.717773,4321.282227,,,,,,,,,,,,,,,,,,,,,,,,,,,,,,,,,,,,,,,,,,,,,,,,,,,,,,,,,,,,,,,,,,,,,,
1720077696,10,0,4280.384766,4426.794922,4356.922852,4399.487305,4409.358887,4428.974121,4426.538574,4428.846191,4402.05127,4348.717773,4296.922852,4475.256348,4327.05127,4313.205078,,,,,,,,,,,,,,,,,,,,,,,,,,,,,,,,,,,,,,,,,,,,,,,,,,,,,,,,,,,,,,,,,,,,,,
1720077696,11,0,4277.692383,4428.333496,4358.461426,4394.230957,4412.692383,4436.153809,4428.846191,4420.897461,4401.922852,4343.205078,4297.563965,4473.077148,4325.384766,4311.922852,,,,,,,,,,,,,,,,,,,,,,,,,,,,,,,,,,,,,,,,,,,,,,,,,,,,,,,,,,,,,,,,,,,,,,
1720077696,12,0,4276.538574,4421.282227,4351.666504,4380.128418,4420.641113,4443.461426,4429.871582,4417.692383,4396.794922,4341.025879,4299.871582,4475,4327.05127,4321.153809,,,,,,,,,,,,,,,,,,,,,,,,,,,,,,,,,,,,,,,,,,,,,,,,,,,,,,,,,,,,,,,,,,,,,,
1720077696,13,0,4258.077148,4412.820313,4354.102539,4392.05127,4421.410156,4444.615234,4434.230957,4428.205078,4397.692383,4345.512695,4301.410156,4476.794922,4327.563965,4314.615234,,,,,,,,,,,,,,,,,,,,,,,,,,,,,,,,,,,,,,,,,,,,,,,,,,,,,,,,,,,,,,,,,,,,,,
1720077696,14,0,4243.461426,4414.487305,4358.589844,4398.461426,4414.871582,4440.641113,4431.410156,4429.230957,4399.230957,4346.025879,4296.025879,4474.102539,4325,4306.922852,,,,,,,,,,,,,,,,,,,,,,,,,,,,,,,,,,,,,,,,,,,,,,,,,,,,,,,,,,,,,,,,,,,,,,
1720077696,15,0,4245.641113,4413.846191,4362.179688,4384.487305,4412.179688,4434.487305,4426.922852,4426.025879,4397.563965,4342.436035,4292.820313,4477.05127,4325.128418,4315.641113,,,,,,,,,,,,,,,,,,,,,,,,,,,,,,,,,,,,,,,,,,,,,,,,,,,,,,,,,,,,,,,,,,,,,,
1720077696,16,0,4241.282227,4409.743652,4365.769043,4394.743652,4411.410156,4429.871582,4430.128418,4430.769043,4398.974121,4344.230957,4300.128418,4485,4326.025879,4312.820313,,,,,,,,,,,,,,,,,,,,,,,,,,,,,,,,,,,,,,,,,,,,,,,,,,,,,,,,,,,,,,,,,,,,,,
1720077696,17,0,4227.692383,4411.538574,4361.410156,4401.282227,4412.05127,4428.205078,4425.512695,4428.974121,4398.717773,4345.897461,4301.282227,4478.205078,4324.743652,4305.769043,,,,,,,,,,,,,,,,,,,,,,,,,,,,,,,,,,,,,,,,,,,,,,,,,,,,,,,,,,,,,,,,,,,,,,
1720077696,18,0,4227.820313,4416.538574,4352.05127,4375,4419.871582,4426.794922,4411.794922,4422.692383,4397.307617,4346.666504,4295.512695,4470,4328.974121,4318.589844,,,,,,,,,,,,,,,,,,,,,,,,,,,,,,,,,,,,,,,,,,,,,,,,,,,,,,,,,,,,,,,,,,,,,,
1720077696,19,0,4236.538574,4421.794922,4352.94873,4372.05127,4425.256348,4424.615234,4411.282227,4422.179688,4404.230957,4351.153809,4296.666504,4481.282227,4336.025879,4332.05127,,,,,,,,,,,,,,,,,,,,,,,,,,,,,,,,,,,,,,,,,,,,,,,,,,,,,,,,,,,,,,,,,,,,,,
1720077696,20,0,4232.179688,4429.615234,4363.077148,4407.820313,4420.384766,4426.153809,4425.641113,4430.512695,4413.717773,4354.615234,4306.410156,4494.871582,4337.307617,4330.769043,11.748574,3.935741,2.125424,1.009826,0.608625,1.473025,0.951404,0.835751,0.391178,0.271686,2.601123,1.611964,0.667885,0.578395,0.283798,1.159496,1.142472,1.010277,0.799262,1.054812,0.588616,0.715616,0.552973,0.355041,0.370434,0.446129,2.239367,0.670546,0.180248,0.083305,0.480693,1.420184,0.745766,0.228771,0.093158,0.809489,1.904242,0.680057,0.415097,0.170422,0.760684,2.520902,0.543477,0.429451,0.145832,0.40176,0.77452,0.176232,0.204348,0.124339,0.793625,1.147228,0.346803,0.415972,0.208154,3.575,2.784148,1.267452,0.957762,0.405874,1.460557,2.430707,0.709443,0.621602,0.341431,2.167786,2.592286,0.855926,1.203085,0.692103
1720077696,21,0,4220.384766,4429.102539,4369.102539,4419.487305,4417.307617,4432.179688,4431.025879,4442.820313,4415.769043,4352.94873,4310.641113,4495.128418,4334.102539,4323.717773,,,,,,,,,,,,,,,,,,,,,,,,,,,,,,,,,,,,,,,,,,,,,,,,,,,,,,,,,,,,,,,,,,,,,,
1720077696,22,0,4212.820313,4416.153809,4363.974121,4391.153809,4424.743652,4435,4425.384766,4441.666504,4409.230957,4346.922852,4301.538574,4486.794922,4330.256348,4314.743652,,,,,,,,,,,,,,,,,,,,,,,,,,,,,,,,,,,,,,,,,,,,,,,,,,,,,,,,,,,,,,,,,,,,,,
1720077696,23,0,4201.794922,4410.512695,4355,4375.384766,4431.666504,4432.179688,4426.666504,4428.589844,4401.025879,4340,4293.974121,4480,4325.128418,4304.487305,,,,,,,,,,,,,,,,,,,,,,,,,,,,,,,,,,,,,,,,,,,,,,,,,,,,,,,,,,,,,,,,,,,,,,
1720077696,24,0,4188.205078,4421.922852,4356.538574,4395.641113,4417.179688,4432.179688,4429.487305,4424.487305,4398.205078,4341.538574,4296.153809,4479.102539,4324.487305,4306.025879,,,,,,,,,,,,,,,,,,,,,,,,,,,,,,,,,,,,,,,,,,,,,,,,,,,,,,,,,,,,,,,,,,,,,,
1720077696,25,0,4181.410156,4428.461426,4360.897461,4409.487305,4404.487305,4433.205078,4427.05127,4429.230957,4397.94873,4350,4299.615234,4479.871582,4324.102539,4308.333496,,,,,,,,,,,,,,,,,,,,,,,,,,,,,,,,,,,,,,,,,,,,,,,,,,,,,,,,,,,,,,,,,,,,,,
1720077696,26,0,4182.05127,4419.230957,4352.94873,4397.05127,4420,4431.666504,4426.922852,4427.436035,4397.692383,4353.846191,4296.922852,4477.692383,4314.487305,4301.794922,,,,,,,,,,,,,,,,,,,,,,,,,,,,,,,,,,,,,,,,,,,,,,,,,,,,,,,,,,,,,,,,,,,,,,
1720077696,27,0,4188.974121,4411.025879,4341.922852,4384.230957,4431.922852,4430,4424.358887,4419.487305,4396.538574,4350.512695,4295.384766,4473.205078,4314.230957,4303.589844,,,,,,,,,,,,,,,,,,,,,,,,,,,,,,,,,,,,,,,,,,,,,,,,,,,,,,,,,,,,,,,,,,,,,,
1720077696,28,0,4202.94873,4411.922852,4340,4384.102539,4422.94873,4426.794922,4419.102539,4415.256348,4395.769043,4346.153809,4299.230957,4470.769043,4330.256348,4315.512695,,,,,,,,,,,,,,,,,,,,,,,,,,,,,,,,,,,,,,,,,,,,,,,,,,,,,,,,,,,,,,,,,,,,,,
1720077696,29,0,4217.307617,4417.05127,4347.692383,4393.077148,4415.256348,4425.897461,4421.922852,4423.589844,4402.436035,4349.102539,4308.461426,4474.871582,4345.128418,4323.461426,,,,,,,,,,,,,,,,,,,,,,,,,,,,,,,,,,,,,,,,,,,,,,,,,,,,,,,,,,,,,,,,,,,,,,
1720077696,30,0,4220.384766,4421.025879,4350.384766,4399.230957,4415.384766,4427.436035,4428.205078,4433.077148,4412.307617,4352.05127,4308.974121,4480.897461,4344.358887,4321.282227,,,,,,,,,,,,,,,,,,,,,,,,,,,,,,,,,,,,,,,,,,,,,,,,,,,,,,,,,,,,,,,,,,,,,,
1720077696,31,0,4216.410156,4414.487305,4341.666504,4388.846191,4412.94873,4423.461426,4426.410156,4427.692383,4407.94873,4347.179688,4295.512695,4469.615234,4329.358887,4312.563965,,,,,,,,,,,,,,,,,,,,,,,,,,,,,,,,,,,,,,,,,,,,,,,,,,,,,,,,,,,,,,,,,,,,,,
1720077696,32,0,4218.461426,4408.205078,4340.897461,4385.769043,4413.077148,4422.05127,4425,4426.282227,4399.487305,4340.769043,4296.794922,4463.717773,4324.102539,4312.179688,,,,,,,,,,,,,,,,,,,,,,,,,,,,,,,,,,,,,,,,,,,,,,,,,,,,,,,,,,,,,,,,,,,,,,
1720077696,33,0,4213.077148,4414.743652,4351.922852,4395.897461,4414.743652,4428.974121,4428.461426,4435.769043,4402.307617,4340.769043,4308.077148,4479.102539,4334.230957,4319.487305,,,,,,,,,,,,,,,,,,,,,,,,,,,,,,,,,,,,,,,,,,,,,,,,,,,,,,,,,,,,,,,,,,,,,,
1720077696,34,0,4194.102539,4414.743652,4353.974121,4393.974121,4414.358887,4428.846191,4429.102539,4435.128418,4405.384766,4345.769043,4303.846191,4481.538574,4332.820313,4312.436035,,,,,,,,,,,,,,,,,,,,,,,,,,,,,,,,,,,,,,,,,,,,,,,,,,,,,,,,,,,,,,,,,,,,,,
1720077696,35,0,4187.692383,4402.692383,4345.897461,4386.282227,4415.256348,4422.436035,4426.666504,4426.922852,4400.641113,4348.333496,4291.666504,4468.717773,4318.333496,4298.589844,,,,,,,,,,,,,,,,,,,,,,,,,,,,,,,,,,,,,,,,,,,,,,,,,,,,,,,,,,,,,,,,,,,,,,
1720077696,36,0,4198.461426,4401.025879,4343.461426,4387.179688,4414.615234,4423.589844,4426.025879,4425.512695,4395.512695,4350.256348,4290.384766,4467.820313,4318.461426,4307.307617,9.000187,2.431689,1.632659,0.964917,0.611306,1.073777,0.793085,0.853536,0.415679,0.277204,1.666753,1.217123,0.607127,0.497855,0.27501,0.829495,1.001804,0.907811,0.7786,1.048288,0.530297,0.713984,0.668591,0.382595,0.385331,0.460018,1.452706,0.610877,0.146182,0.086364,0.41686,1.250008,0.73545,0.18047,0.097327,0.739933,1.236491,0.78875,0.362319,0.167054,0.744404,1.985675,0.636374,0.385818,0.155694,0.403155,0.653502,0.140007,0.210859,0.13263,0.556908,0.789723,0.274639,0.363034,0.2176,2.853011,2.096965,1.151997,0.785995,0.425533,1.087123,1.897295,0.57718,0.588781,0.351883,1.477584,1.754908,0.740323,1.101653,0.670068
1720077696,37,0,4205.128418,4408.846191,4344.358887,4382.820313,4416.922852,4427.05127,4428.205078,4430.897461,4400.769043,4353.717773,4301.538574,4477.05127,4328.589844,4320.128418,,,,,,,,,,,,,,,,,,,,,,,,,,,,,,,,,,,,,,,,,,,,,,,,,,,,,,,,,,,,,,,,,,,,,,
1720077696,38,0,4210.641113,4416.410156,4348.589844,4387.307617,4417.179688,4426.922852,4430,4436.410156,4412.436035,4354.102539,4309.743652,4482.436035,4331.794922,4317.05127,,,,,,,,,,,,,,,,,,,,,,,,,,,,,,,,,,,,,,,,,,,,,,,,,,,,,,,,,,,,,,,,,,,,,,
1720077696,39,0,4222.307617,4419.871582,4358.205078,4411.922852,4412.692383,4426.794922,4428.589844,4438.077148,4413.461426,4350.897461,4305.641113,4484.743652,4332.05127,4315.128418,,,,,,,,,,,,,,,,,,,,,,,,,,,,,,,,,,,,,,,,,,,,,,,,,,,,,,,,,,,,,,,,,,,,,,
1720077696,40,0,4219.615234,4411.025879,4356.025879,4406.666504,4419.743652,4425.641113,4424.230957,4430.512695,4399.487305,4349.743652,4295.641113,4476.282227,4325.641113,4313.974121,,,,,,,,,,,,,,,,,,,,,,,,,,,,,,,,,,,,,,,,,,,,,,,,,,,,,,,,,,,,,,,,,,,,,,
1720077696,41,0,4205.128418,4400.512695,4340.384766,4375.769043,4430.641113,4420.897461,4421.153809,4417.820313,4388.205078,4353.333496,4292.692383,4463.717773,4320.769043,4310.641113,,,,,,,,,,,,,,,,,,,,,,,,,,,,,,,,,,,,,,,,,,,,,,,,,,,,,,,,,,,,,,,,,,,,,,
1720077696,42,0,4201.410156,4407.692383,4334.230957,4377.05127,4422.94873,4417.179688,4421.794922,4416.794922,4390.769043,4358.333496,4297.563965,4465,4327.820313,4308.333496,,,,,,,,,,,,,,,,,,,,,,,,,,,,,,,,,,,,,,,,,,,,,,,,,,,,,,,,,,,,,,,,,,,,,,
1720077696,43,0,4203.974121,4419.102539,4343.717773,4398.589844,4403.974121,4418.205078,4421.922852,4426.153809,4401.922852,4359.230957,4302.692383,4474.358887,4331.666504,4306.794922,,,,,,,,,,,,,,,,,,,,,,,,,,,,,,,,,,,,,,,,,,,,,,,,,,,,,,,,,,,,,,,,,,,,,,
1720077696,44,0,4200.512695,4418.077148,4351.153809,4404.230957,4404.102539,4418.589844,4420.897461,4428.717773,4407.692383,4352.692383,4303.846191,4476.922852,4326.794922,4312.820313,,,,,,,,,,,,,,,,,,,,,,,,,,,,,,,,,,,,,,,,,,,,,,,,,,,,,,,,,,,,,,,,,,,,,,
1720077696,45,0,4195.256348,4410.256348,4344.743652,4393.717773,4418.717773,4415,4417.820313,4425,4402.692383,4347.692383,4296.794922,4469.487305,4326.794922,4320.384766,,,,,,,,,,,,,,,,,,,,,,,,,,,,,,,,,,,,,,,,,,,,,,,,,,,,,,,,,,,,,,,,,,,,,,
1720077696,46,0,4195.897461,4402.563965,4332.05127,4376.538574,4418.589844,4411.282227,4413.077148,4425.512695,4396.538574,4352.820313,4292.563965,4460.769043,4329.230957,4313.846191,,,,,,,,,,,,,,,,,,,,,,,,,,,,,,,,,,,,,,,,,,,,,,,,,,,,,,,,,,,,,,,,,,,,,,
1720077696,47,0,4197.179688,4405.128418,4331.922852,4372.05127,4411.666504,4411.666504,4415.128418,4427.436035,4398.589844,4356.153809,4300.256348,4460.256348,4330.128418,4306.538574,,,,,,,,,,,,,,,,,,,,,,,,,,,,,,,,,,,,,,,,,,,,,,,,,,,,,,,,,,,,,,,,,,,,,,
1720077696,48,0,4189.487305,4414.743652,4341.025879,4386.282227,4411.538574,4411.922852,4420.384766,4427.692383,4401.794922,4351.025879,4305.512695,4467.820313,4333.205078,4317.436035,,,,,,,,,,,,,,,,,,,,,,,,,,,,,,,,,,,,,,,,,,,,,,,,,,,,,,,,,,,,,,,,,,,,,,
1720077696,49,0,4179.102539,4414.358887,4346.282227,4395.769043,4413.205078,4412.94873,4416.410156,4427.436035,4399.230957,4351.025879,4304.743652,4475.256348,4335.128418,4327.563965,,,,,,,,,,,,,,,,,,,,,,,,,,,,,,,,,,,,,,,,,,,,,,,,,,,,,,,,,,,,,,,,,,,,,,
1720077696,50,0,4172.692383,4401.794922,4341.282227,4391.666504,4410.384766,4412.692383,4411.025879,4417.692383,4391.666504,4351.922852,4295.128418,4465.256348,4323.461426,4315.384766,,,,,,,,,,,,,,,,,,,,,,,,,,,,,,,,,,,,,,,,,,,,,,,,,,,,,,,,,,,,,,,,,,,,,,
1720077696,51,0,4162.05127,4389.358887,4326.153809,4375.128418,4406.538574,4408.461426,4411.538574,4401.794922,4379.358887,4338.461426,4278.333496,4443.461426,4297.563965,4285.384766,,,,,,,,,,,,,,,,,,,,,,,,,,,,,,,,,,,,,,,,,,,,,,,,,,,,,,,,,,,,,,,,,,,,,,
1720077696,52,0,4160.512695,4387.436035,4317.563965,4364.358887,4408.461426,4407.179688,4412.692383,4396.666504,4368.589844,4327.179688,4273.077148,4440.641113,4282.820313,4274.230957,7.237593,1.620679,1.462304,0.913108,0.603594,0.950686,0.813197,0.842769,0.441683,0.284967,1.130109,1.130401,0.551215,0.417583,0.267778,0.708032,0.979035,0.815482,0.78255,0.995839,0.524235,0.759332,0.760238,0.446303,0.406406,0.471815,1.157467,0.551067,0.119094,0.094184,0.384174,1.204414,0.70011,0.14234,0.099152,0.784581,0.816947,0.845758,0.341338,0.159486,0.791021,1.485283,0.733608,0.367537,0.162903,0.442958,0.592939,0.118558,0.218657,0.136307,0.457934,0.618705,0.232811,0.312626,0.224556,2.580562,1.906565,1.04645,0.613878,0.430886,1.001095,1.799389,0.515607,0.558064,0.353749,1.210739,1.456252,0.655468,0.945471,0.624243
1720077696,53,0,4186.282227,4396.153809,4330.128418,4385.769043,4410.512695,4411.922852,4419.358887,4403.461426,4373.846191,4336.153809,4285.641113,4458.589844,4300.384766,4296.282227,,,,,,,,,,,,,,,,,,,,,,,,,,,,,,,,,,,,,,,,,,,,,,,,,,,,,,,,,,,,,,,,,,,,,,
1720077696,54,0,4207.692383,4404.358887,4345,4399.358887,4413.717773,4419.615234,4428.205078,4408.589844,4387.692383,4350.256348,4296.666504,4464.102539,4319.743652,4307.05127,,,,,,,,,,,,,,,,,,,,,,,,,,,,,,,,,,,,,,,,,,,,,,,,,,,,,,,,,,,,,,,,,,,,,,
1720077696,55,0,4203.205078,4404.102539,4341.922852,4382.179688,4422.692383,4426.666504,4428.589844,4414.615234,4394.615234,4352.94873,4294.743652,4457.94873,4318.589844,4300.897461,,,,,,,,,,,,,,,,,,,,,,,,,,,,,,,,,,,,,,,,,,,,,,,,,,,,,,,,,,,,,,,,,,,,,,
1720077696,56,0,4199.230957,4404.230957,4335.384766,4382.307617,4425.897461,4425.128418,4426.794922,4427.05127,4404.230957,4351.282227,4296.410156,4465.128418,4320.769043,4309.358887,,,,,,,,,,,,,,,,,,,,,,,,,,,,,,,,,,,,,,,,,,,,,,,,,,,,,,,,,,,,,,,,,,,,,,
1720077696,57,0,4199.102539,4403.461426,4333.333496,4395.384766,4417.436035,4415.128418,4427.05127,4432.94873,4414.871582,4353.205078,4305.384766,4474.102539,4326.153809,4315.128418,,,,,,,,,,,,,,,,,,,,,,,,,,,,,,,,,,,,,,,,,,,,,,,,,,,,,,,,,,,,,,,,,,,,,,
1720077696,58,0,4193.717773,4402.05127,4334.615234,4389.615234,4415.769043,4410.256348,4422.179688,4429.487305,4413.077148,4356.794922,4309.871582,4466.538574,4326.153809,4307.307617,,,,,,,,,,,,,,,,,,,,,,,,,,,,,,,,,,,,,,,,,,,,,,,,,,,,,,,,,,,,,,,,,,,,,,
1720077696,59,0,4200.256348,4409.230957,4344.102539,4395,4418.974121,4413.846191,4415.256348,4430.256348,4411.410156,4359.102539,4306.922852,4462.94873,4331.153809,4313.077148,,,,,,,,,,,,,,,,,,,,,,,,,,,,,,,,,,,,,,,,,,,,,,,,,,,,,,,,,,,,,,,,,,,,,,
1720077696,60,0,4206.153809,4412.179688,4347.05127,4403.846191,4415.128418,4412.94873,4414.615234,4427.563965,4408.205078,4358.205078,4300.256348,4469.743652,4336.153809,4318.077148,,,,,,,,,,,,,,,,,,,,,,,,,,,,,,,,,,,,,,,,,,,,,,,,,,,,,,,,,,,,,,,,,,,,,,
1720077696,61,0,4201.025879,4404.871582,4336.153809,4388.333496,4415.384766,4405.769043,4415.384766,4414.358887,4394.743652,4352.563965,4295.256348,4462.436035,4326.922852,4303.205078,,,,,,,,,,,,,,,,,,,,,,,,,,,,,,,,,,,,,,,,,,,,,,,,,,,,,,,,,,,,,,,,,,,,,,
1720077696,62,0,4206.666504,4406.282227,4325,4377.05127,4417.563965,4400,4412.179688,4407.94873,4388.461426,4347.307617,4292.179688,4447.436035,4314.487305,4292.179688,,,,,,,,,,,,,,,,,,,,,,,,,,,,,,,,,,,,,,,,,,,,,,,,,,,,,,,,,,,,,,,,,,,,,,
1720077696,63,0,4222.307617,4413.846191,4328.717773,4389.743652,4412.179688,4395.128418,4409.358887,4411.282227,4392.94873,4351.282227,4291.794922,4451.410156,4316.794922,4299.615234,,,,,,,,,,,,,,,,,,,,,,,,,,,,,,,,,,,,,,,,,,,,,,,,,,,,,,,,,,,,,,,,,,,,,,
1720077696,64,0,4231.538574,4408.974121,4345,4402.94873,4406.922852,4389.102539,4410.256348,4411.410156,4395,4359.102539,4292.820313,4466.025879,4328.077148,4316.538574,,,,,,,,,,,,,,,,,,,,,,,,,,,,,,,,,,,,,,,,,,,,,,,,,,,,,,,,,,,,,,,,,,,,,,
1720077696,65,0,4234.102539,4405.384766,4349.615234,4395.897461,4413.717773,4389.615234,4411.666504,4410.256348,4397.179688,4358.333496,4296.282227,4467.05127,4330.512695,4324.230957,,,,,,,,,,,,,,,,,,,,,,,,,,,,,,,,,,,,,,,,,,,,,,,,,,,,,,,,,,,,,,,,,,,,,,
1720077696,66,0,4235.384766,4412.179688,4332.692383,4385.384766,4424.487305,4395.256348,4410.256348,4408.589844,4393.717773,4351.922852,4294.358887,4451.538574,4318.077148,4314.230957,,,,,,,,,,,,,,,,,,,,,,,,,,,,,,,,,,,,,,,,,,,,,,,,,,,,,,,,,,,,,,,,,,,,,,
1720077696,67,0,4239.102539,4412.436035,4323.974121,4388.589844,4423.333496,4397.820313,4415.512695,4405.897461,4380.897461,4346.153809,4285.512695,4443.846191,4309.743652,4305.384766,,,,,,,,,,,,,,,,,,,,,,,,,,,,,,,,,,,,,,,,,,,,,,,,,,,,,,,,,,,,,,,,,,,,,,
1720077696,68,0,4244.102539,4402.563965,4338.846191,4392.94873,4412.692383,4399.358887,4424.230957,4408.333496,4378.974121,4342.692383,4287.179688,4454.615234,4312.820313,4312.436035,6.766921,1.306546,1.544487,0.835156,0.588598,0.967853,0.853784,0.78056,0.464301,0.297896,0.875664,1.13928,0.506875,0.346959,0.261682,0.70501,0.961396,0.738072,0.818913,0.93115,0.531244,0.806673,0.785322,0.522864,0.428497,0.459595,1.207468,0.509119,0.099029,0.103605,0.363883,1.213623,0.661065,0.116615,0.098314,0.912821,0.600477,0.84828,0.346402,0.15018,0.874499,1.070278,0.807187,0.362575,0.162461,0.519988,0.569087,0.107099,0.2249,0.13232,0.435091,0.562906,0.214558,0.267889,0.226742,2.568782,1.966938,0.914848,0.456502,0.415334,1.037455,1.895064,0.506365,0.520505,0.341243,1.185533,1.460503,0.612511,0.761128,0.559917
1720077696,69,0,4252.820313,4396.025879,4346.922852,4390.512695,4409.230957,4402.692383,4423.974121,4413.589844,4388.846191,4342.692383,4291.282227,4459.615234,4312.820313,4312.563965,,,,,,,,,,,,,,,,,,,,,,,,,,,,,,,,,,,,,,,,,,,,,,,,,,,,,,,,,,,,,,,,,,,,,,
1720077696,70,0,4259.230957,4395.897461,4331.282227,4383.461426,4416.153809,4400.512695,4418.589844,4418.846191,4393.846191,4341.025879,4284.487305,4450.512695,4309.358887,4297.05127,,,,,,,,,,,,,,,,,,,,,,,,,,,,,,,,,,,,,,,,,,,,,,,,,,,,,,,,,,,,,,,,,,,,,,
1720077696,71,0,4259.743652,4396.025879,4322.436035,4377.179688,4419.230957,4394.743652,4416.282227,4425.128418,4396.922852,4342.307617,4284.487305,4451.922852,4307.436035,4295,,,,,,,,,,,,,,,,,,,,,,,,,,,,,,,,,,,,,,,,,,,,,,,,,,,,,,,,,,,,,,,,,,,,,,
1720077696,72,0,4270,4395.384766,4333.077148,4380.897461,4416.410156,4390.769043,4415.128418,4430.512695,4399.615234,4350.769043,4297.436035,4466.538574,4311.410156,4310.384766,,,,,,,,,,,,,,,,,,,,,,,,,,,,,,,,,,,,,,,,,,,,,,,,,,,,,,,,,,,,,,,,,,,,,,
1720077696,73,0,4289.615234,4396.282227,4336.922852,4394.230957,4406.794922,4387.692383,4412.307617,4431.025879,4398.846191,4350.384766,4298.205078,4466.282227,4317.179688,4313.205078,,,,,,,,,,,,,,,,,,,,,,,,,,,,,,,,,,,,,,,,,,,,,,,,,,,,,,,,,,,,,,,,,,,,,,
1720077696,74,0,4302.94873,4395.641113,4329.615234,4402.179688,4398.333496,4388.974121,4414.230957,4428.461426,4397.436035,4343.077148,4290.256348,4453.717773,4317.94873,4304.615234,,,,,,,,,,,,,,,,,,,,,,,,,,,,,,,,,,,,,,,,,,,,,,,,,,,,,,,,,,,,,,,,,,,,,,
1720077696,75,0,4316.282227,4392.307617,4333.205078,4396.538574,4407.436035,4396.922852,4419.230957,4428.974121,4397.307617,4345.384766,4293.333496,4457.05127,4320.128418,4309.615234,,,,,,,,,,,,,,,,,,,,,,,,,,,,,,,,,,,,,,,,,,,,,,,,,,,,,,,,,,,,,,,,,,,,,,
1720077696,76,0,4329.871582,4385.769043,4336.666504,4378.205078,4423.846191,4399.358887,4417.436035,4426.282227,4392.94873,4352.692383,4295.897461,4463.205078,4323.461426,4315.128418,,,,,,,,,,,,,,,,,,,,,,,,,,,,,,,,,,,,,,,,,,,,,,,,,,,,,,,,,,,,,,,,,,,,,,
1720077696,77,0,4329.871582,4385.128418,4324.871582,4361.025879,4422.436035,4391.410156,4411.794922,4419.743652,4386.922852,4350.769043,4295,4446.538574,4319.615234,4310,,,,,,,,,,,,,,,,,,,,,,,,,,,,,,,,,,,,,,,,,,,,,,,,,,,,,,,,,,,,,,,,,,,,,,
1720077696,78,0,4338.717773,4394.358887,4321.538574,4380.641113,4404.230957,4391.025879,4416.025879,4422.05127,4387.692383,4346.282227,4294.615234,4430.641113,4316.153809,4305.256348,,,,,,,,,,,,,,,,,,,,,,,,,,,,,,,,,,,,,,,,,,,,,,,,,,,,,,,,,,,,,,,,,,,,,,
1720077696,79,0,4362.94873,4395.256348,4328.589844,4405.641113,4399.615234,4398.077148,4425.769043,4426.666504,4390.384766,4343.717773,4293.461426,4439.230957,4314.102539,4297.179688,,,,,,,,,,,,,,,,,,,,,,,,,,,,,,,,,,,,,,,,,,,,,,,,,,,,,,,,,,,,,,,,,,,,,,
1720077696,80,0,4372.307617,4384.615234,4326.922852,4386.922852,4411.666504,4396.922852,4424.358887,4416.922852,4388.717773,4339.358887,4293.974121,4448.846191,4308.461426,4297.563965,,,,,,,,,,,,,,,,,,,,,,,,,,,,,,,,,,,,,,,,,,,,,,,,,,,,,,,,,,,,,,,,,,,,,,
1720077696,81,0,4372.94873,4383.205078,4323.846191,4364.358887,4416.538574,4393.333496,4415.128418,4409.743652,4386.282227,4341.410156,4293.974121,4443.077148,4313.205078,4309.487305,,,,,,,,,,,,,,,,,,,,,,,,,,,,,,,,,,,,,,,,,,,,,,,,,,,,,,,,,,,,,,,,,,,,,,
1720077696,82,0,4381.666504,4388.205078,4326.282227,4376.410156,4408.077148,4394.871582,4413.205078,4421.282227,4390.769043,4350.384766,4293.461426,4437.820313,4321.538574,4307.94873,,,,,,,,,,,,,,,,,,,,,,,,,,,,,,,,,,,,,,,,,,,,,,,,,,,,,,,,,,,,,,,,,,,,,,
1720077696,83,0,4388.846191,4379.102539,4326.410156,4382.307617,4402.179688,4396.922852,4421.025879,4433.077148,4401.410156,4350.897461,4294.230957,4441.666504,4315.641113,4299.358887,,,,,,,,,,,,,,,,,,,,,,,,,,,,,,,,,,,,,,,,,,,,,,,,,,,,,,,,,,,,,,,,,,,,,,
1720077696,84,0,4391.025879,4368.974121,4323.333496,4365.256348,4405.769043,4397.436035,4425.897461,4434.358887,4406.538574,4343.333496,4294.743652,4453.077148,4314.487305,4310.256348,6.632535,1.33423,1.864625,0.728505,0.570242,0.993391,0.833569,0.681848,0.47875,0.318582,0.770482,1.090756,0.482587,0.29774,0.260679,0.719447,0.877378,0.669081,0.876879,0.902659,0.522212,0.81008,0.730142,0.589146,0.445033,0.419075,1.402517,0.477535,0.085128,0.11065,0.339899,1.222409,0.624865,0.101219,0.095617,1.038606,0.51343,0.807465,0.362378,0.143027,0.934601,0.769291,0.844537,0.359046,0.155216,0.618832,0.547989,0.10917,0.229833,0.121121,0.428637,0.541206,0.22755,0.232874,0.224823,2.60671,1.996157,0.767172,0.329787,0.383861,1.078747,1.968827,0.562369,0.47295,0.315847,1.230842,1.523887,0.64393,0.583487,0.489454
1720077696,85,0,4403.333496,4379.358887,4326.922852,4372.94873,4404.358887,4398.333496,4423.589844,4432.307617,4400.512695,4345.512695,4298.846191,4463.589844,4329.615234,4323.974121,,,,,,,,,,,,,,,,,,,,,,,,,,,,,,,,,,,,,,,,,,,,,,,,,,,,,,,,,,,,,,,,,,,,,,
1720077696,86,0,4420.897461,4393.846191,4330.256348,4394.230957,4400.512695,4397.820313,4419.102539,4424.871582,4391.153809,4353.077148,4299.743652,4456.666504,4330.512695,4315,,,,,,,,,,,,,,,,,,,,,,,,,,,,,,,,,,,,,,,,,,,,,,,,,,,,,,,,,,,,,,,,,,,,,,
1720077696,87,0,4417.307617,4389.487305,4322.05127,4384.487305,4411.153809,4401.025879,4415.128418,4411.153809,4381.025879,4347.820313,4285.769043,4438.077148,4313.077148,4295.128418,,,,,,,,,,,,,,,,,,,,,,,,,,,,,,,,,,,,,,,,,,,,,,,,,,,,,,,,,,,,,,,,,,,,,,
1720077696,88,0,4404.871582,4377.436035,4320.128418,4371.538574,4420.128418,4406.282227,4417.05127,4403.717773,4372.692383,4340.897461,4280.256348,4432.94873,4305.512695,4288.589844,,,,,,,,,,,,,,,,,,,,,,,,,,,,,,,,,,,,,,,,,,,,,,,,,,,,,,,,,,,,,,,,,,,,,,
1720077696,89,0,4415.641113,4385.128418,4328.589844,4379.102539,4414.230957,4404.102539,4420.897461,4406.538574,4372.307617,4341.666504,4291.922852,4442.563965,4314.102539,4293.974121,,,,,,,,,,,,,,,,,,,,,,,,,,,,,,,,,,,,,,,,,,,,,,,,,,,,,,,,,,,,,,,,,,,,,,
1720077696,90,0,4430.897461,4397.436035,4332.307617,4384.615234,4409.487305,4397.05127,4418.205078,4412.692383,4379.230957,4344.102539,4296.282227,4451.282227,4321.282227,4298.461426,,,,,,,,,,,,,,,,,,,,,,,,,,,,,,,,,,,,,,,,,,,,,,,,,,,,,,,,,,,,,,,,,,,,,,
1720077696,91,0,4427.692383,4396.666504,4339.358887,4388.077148,4415,4396.666504,4420.897461,4421.153809,4387.94873,4346.153809,4297.436035,4459.615234,4326.794922,4309.102539,,,,,,,,,,,,,,,,,,,,,,,,,,,,,,,,,,,,,,,,,,,,,,,,,,,,,,,,,,,,,,,,,,,,,,
1720077696,92,0,4431.666504,4396.794922,4352.179688,4394.230957,4414.615234,4403.077148,4427.05127,4429.743652,4397.179688,4353.077148,4306.025879,4468.974121,4337.692383,4324.615234,,,,,,,,,,,,,,,,,,,,,,,,,,,,,,,,,,,,,,,,,,,,,,,,,,,,,,,,,,,,,,,,,,,,,,
1720077696,93,0,4442.692383,4404.358887,4355.128418,4395.769043,4402.05127,4403.846191,4422.179688,4432.307617,4403.974121,4358.461426,4312.436035,4474.871582,4343.461426,4331.538574,,,,,,,,,,,,,,,,,,,,,,,,,,,,,,,,,,,,,,,,,,,,,,,,,,,,,,,,,,,,,,,,,,,,,,
1720077696,94,0,4438.717773,4407.692383,4357.436035,4403.077148,4400.769043,4405.641113,4422.307617,4432.692383,4406.666504,4351.410156,4316.410156,4480,4346.922852,4338.077148,,,,,,,,,,,,,,,,,,,,,,,,,,,,,,,,,,,,,,,,,,,,,,,,,,,,,,,,,,,,,,,,,,,,,,
1720077696,95,0,4420.512695,4397.820313,4352.94873,4399.487305,4412.307617,4410.641113,4427.563965,4428.846191,4404.871582,4343.461426,4311.282227,4474.102539,4345.769043,4338.333496,,,,,,,,,,,,,,,,,,,,,,,,,,,,,,,,,,,,,,,,,,,,,,,,,,,,,,,,,,,,,,,,,,,,,,
1720077696,96,0,4405.769043,4389.230957,4330.897461,4375.128418,4413.589844,4408.589844,4417.94873,4420.641113,4398.205078,4346.025879,4295.769043,4454.615234,4331.025879,4317.436035,,,,,,,,,,,,,,,,,,,,,,,,,,,,,,,,,,,,,,,,,,,,,,,,,,,,,,,,,,,,,,,,,,,,,,
1720077697,97,0,4407.307617,4392.307617,4327.820313,4370.897461,4410.769043,4406.282227,4414.615234,4423.974121,4399.102539,4351.794922,4296.794922,4453.077148,4328.205078,4311.025879,,,,,,,,,,,,,,,,,,,,,,,,,,,,,,,,,,,,,,,,,,,,,,,,,,,,,,,,,,,,,,,,,,,,,,
1720077697,98,0,4403.205078,4396.666504,4347.94873,4389.743652,4417.307617,4411.153809,4428.974121,4432.179688,4405.769043,4350.512695,4310.128418,4471.410156,4343.974121,4334.743652,,,,,,,,,,,,,,,,,,,,,,,,,,,,,,,,,,,,,,,,,,,,,,,,,,,,,,,,,,,,,,,,,,,,,,
1720077697,99,0,4373.333496,4406.666504,4355.128418,4401.153809,4419.358887,4412.307617,4428.589844,4426.153809,4401.794922,4348.205078,4310.512695,4475.256348,4347.436035,4343.333496,,,,,,,,,,,,,,,,,,,,,,,,,,,,,,,,,,,,,,,,,,,,,,,,,,,,,,,,,,,,,,,,,,,,,,
1720077697,100,0,4343.205078,4407.436035,4350.641113,4404.871582,4410.256348,4405.897461,4414.487305,4419.871582,4394.230957,4352.436035,4307.436035,4466.025879,4341.410156,4331.153809,6.625359,1.597911,2.345899,0.614145,0.547906,0.974869,0.73872,0.570329,0.483753,0.34592,0.734001,0.920422,0.469476,0.282135,0.272765,0.703668,0.706254,0.594063,0.932229,0.945244,0.48866,0.739189,0.613752,0.62483,0.450659,0.37488,1.578185,0.437991,0.078225,0.11222,0.317328,1.206217,0.583621,0.09422,0.092326,1.097935,0.522492,0.755356,0.375066,0.141279,0.938251,0.612259,0.862658,0.352426,0.14633,0.722873,0.508456,0.132035,0.236593,0.106614,0.417415,0.506798,0.277898,0.212825,0.222248,2.512746,1.809738,0.630079,0.250244,0.352373,1.078359,1.907369,0.689605,0.427632,0.287624,1.248513,1.477192,0.7664,0.448068,0.42982
1720077697,101,0,4327.94873,4372.820313,4344.358887,4392.94873,4408.717773,4402.563965,4414.230957,4424.230957,4393.461426,4351.666504,4305.256348,4462.820313,4339.487305,4323.205078,,,,,,,,,,,,,,,,,,,,,,,,,,,,,,,,,,,,,,,,,,,,,,,,,,,,,,,,,,,,,,,,,,,,,,
1720077697,102,0,4312.94873,4341.410156,4339.615234,4378.205078,4414.358887,4404.871582,4423.846191,4427.563965,4396.282227,4343.589844,4302.179688,4465.769043,4336.538574,4328.717773,,,,,,,,,,,,,,,,,,,,,,,,,,,,,,,,,,,,,,,,,,,,,,,,,,,,,,,,,,,,,,,,,,,,,,
1720077697,103,0,4306.794922,4353.461426,4345.641113,4391.410156,4413.974121,4410.641113,4428.717773,4427.436035,4400.128418,4343.077148,4306.410156,4469.358887,4337.05127,4340,,,,,,,,,,,,,,,,,,,,,,,,,,,,,,,,,,,,,,,,,,,,,,,,,,,,,,,,,,,,,,,,,,,,,,
1720077697,104,0,4305.128418,4362.436035,4345.897461,4395.897461,4413.589844,4413.333496,4427.05127,4427.94873,4402.179688,4349.871582,4302.692383,4463.974121,4334.358887,4336.794922,,,,,,,,,,,,,,,,,,,,,,,,,,,,,,,,,,,,,,,,,,,,,,,,,,,,,,,,,,,,,,,,,,,,,,
1720077697,105,0,4292.94873,4345.769043,4334.871582,4374.615234,4416.922852,4411.153809,4424.358887,4425.769043,4396.538574,4350.128418,4292.05127,4453.717773,4326.410156,4325.897461,,,,,,,,,,,,,,,,,,,,,,,,,,,,,,,,,,,,,,,,,,,,,,,,,,,,,,,,,,,,,,,,,,,,,,
1720077697,106,0,4292.05127,4349.230957,4339.615234,4384.743652,4409.615234,4415.256348,4426.282227,4424.871582,4399.102539,4349.871582,4298.846191,4458.974121,4333.589844,4332.05127,,,,,,,,,,,,,,,,,,,,,,,,,,,,,,,,,,,,,,,,,,,,,,,,,,,,,,,,,,,,,,,,,,,,,,
1720077697,107,0,4292.692383,4360.769043,4347.307617,4405.384766,4401.794922,4419.358887,4429.230957,4427.94873,4412.692383,4357.179688,4306.922852,4468.589844,4341.410156,4342.94873,,,,,,,,,,,,,,,,,,,,,,,,,,,,,,,,,,,,,,,,,,,,,,,,,,,,,,,,,,,,,,,,,,,,,,
1720077697,108,0,4278.589844,4353.461426,4337.692383,4381.666504,4412.692383,4414.358887,4424.487305,4424.743652,4409.871582,4358.589844,4296.666504,4459.487305,4328.077148,4334.358887,,,,,,,,,,,,,,,,,,,,,,,,,,,,,,,,,,,,,,,,,,,,,,,,,,,,,,,,,,,,,,,,,,,,,,
1720077697,109,0,4276.282227,4355.641113,4336.282227,4366.025879,4422.692383,4412.307617,4418.846191,4416.794922,4394.743652,4353.077148,4292.94873,4455,4322.563965,4330.897461,,,,,,,,,,,,,,,,,,,,,,,,,,,,,,,,,,,,,,,,,,,,,,,,,,,,,,,,,,,,,,,,,,,,,,
1720077697,110,0,4284.871582,4369.487305,4349.871582,4387.820313,4416.282227,4415.128418,4422.436035,4415.256348,4393.846191,4354.230957,4305.641113,4467.94873,4337.307617,4346.666504,,,,,,,,,,,,,,,,,,,,,,,,,,,,,,,,,,,,,,,,,,,,,,,,,,,,,,,,,,,,,,,,,,,,,,
1720077697,111,0,4286.025879,4371.922852,4351.922852,4393.205078,4414.871582,4411.410156,4424.743652,4416.922852,4400.897461,4355.897461,4311.538574,4469.487305,4341.666504,4355.641113,,,,,,,,,,,,,,,,,,,,,,,,,,,,,,,,,,,,,,,,,,,,,,,,,,,,,,,,,,,,,,,,,,,,,,
1720077697,112,0,4291.282227,4369.102539,4352.05127,4391.794922,4414.743652,4411.153809,4421.538574,4419.871582,4404.102539,4352.563965,4308.205078,4463.077148,4336.410156,4353.974121,,,,,,,,,,,,,,,,,,,,,,,,,,,,,,,,,,,,,,,,,,,,,,,,,,,,,,,,,,,,,,,,,,,,,,
1720077697,113,0,4294.871582,4363.589844,4359.102539,4401.153809,4405.512695,4416.282227,4418.205078,4420,4403.333496,4349.102539,4307.436035,4463.974121,4335.256348,4351.153809,,,,,,,,,,,,,,,,,,,,,,,,,,,,,,,,,,,,,,,,,,,,,,,,,,,,,,,,,,,,,,,,,,,,,,
1720077697,114,0,4298.589844,4358.205078,4352.692383,4396.794922,4408.717773,4414.615234,4417.05127,4413.974121,4396.410156,4348.974121,4309.358887,4463.974121,4336.282227,4350.769043,,,,,,,,,,,,,,,,,,,,,,,,,,,,,,,,,,,,,,,,,,,,,,,,,,,,,,,,,,,,,,,,,,,,,,
1720077697,115,0,4317.436035,4364.358887,4340.384766,4385.769043,4420,4415,4417.563965,4410.512695,4393.846191,4353.077148,4306.025879,4459.743652,4335.641113,4347.820313,,,,,,,,,,,,,,,,,,,,,,,,,,,,,,,,,,,,,,,,,,,,,,,,,,,,,,,,,,,,,,,,,,,,,,
1720077697,116,0,4326.282227,4361.410156,4338.846191,4379.615234,4410,4419.871582,4420.128418,4413.717773,4401.282227,4354.487305,4300,4455.128418,4330.512695,4342.94873,6.578583,1.990782,2.850894,0.524334,0.51675,0.94582,0.590405,0.463084,0.481692,0.373708,0.723161,0.66911,0.45162,0.302964,0.304267,0.658811,0.490775,0.503414,0.964304,1.058716,0.438794,0.603977,0.47358,0.622494,0.44432,0.358292,1.636446,0.38641,0.081627,0.107394,0.305492,1.159694,0.531274,0.095854,0.08989,1.081571,0.645512,0.73006,0.37772,0.145492,0.902803,0.639545,0.90192,0.344951,0.141106,0.817634,0.448566,0.182923,0.248274,0.094499,0.4082,0.468056,0.364231,0.210816,0.222494,2.230337,1.441776,0.539692,0.230528,0.339577,1.053626,1.748437,0.881501,0.401305,0.268943,1.177629,1.317245,0.997768,0.377831,0.397151
1720077697,117,0,4314.743652,4343.974121,4337.820313,4368.846191,4398.461426,4420,4419.871582,4415.256348,4402.05127,4350.641113,4297.692383,4448.717773,4324.102539,4337.94873,,,,,,,,,,,,,,,,,,,,,,,,,,,,,,,,,,,,,,,,,,,,,,,,,,,,,,,,,,,,,,,,,,,,,,
1720077697,118,0,4318.974121,4344.230957,4335.256348,4373.461426,4404.743652,4420.897461,4414.871582,4411.410156,4396.153809,4348.846191,4297.05127,4445.128418,4326.025879,4339.743652,,,,,,,,,,,,,,,,,,,,,,,,,,,,,,,,,,,,,,,,,,,,,,,,,,,,,,,,,,,,,,,,,,,,,,
1720077697,119,0,4339.358887,4357.307617,4340.897461,4393.461426,4408.461426,4423.205078,4414.743652,4410,4397.692383,4351.282227,4295.641113,4448.717773,4329.615234,4349.230957,,,,,,,,,,,,,,,,,,,,,,,,,,,,,,,,,,,,,,,,,,,,,,,,,,,,,,,,,,,,,,,,,,,,,,
1720077697,120,0,4350.512695,4358.846191,4342.692383,4391.025879,4406.025879,4419.615234,4415.128418,4414.487305,4398.846191,4350.897461,4294.487305,4451.666504,4324.743652,4349.615234,,,,,,,,,,,,,,,,,,,,,,,,,,,,,,,,,,,,,,,,,,,,,,,,,,,,,,,,,,,,,,,,,,,,,,
1720077697,121,0,4359.871582,4360.641113,4342.692383,4382.692383,4410.384766,4417.94873,4417.307617,4421.282227,4402.692383,4352.179688,4301.153809,4459.743652,4330,4347.94873,,,,,,,,,,,,,,,,,,,,,,,,,,,,,,,,,,,,,,,,,,,,,,,,,,,,,,,,,,,,,,,,,,,,,,
1720077697,122,0,4381.922852,4371.410156,4358.846191,4397.563965,4414.871582,4420.769043,4422.563965,4425.384766,4411.025879,4357.05127,4310.641113,4475.384766,4345.641113,4367.05127,,,,,,,,,,,,,,,,,,,,,,,,,,,,,,,,,,,,,,,,,,,,,,,,,,,,,,,,,,,,,,,,,,,,,,
1720077697,123,0,4400.641113,4373.717773,4368.589844,4405.769043,4410.128418,4417.179688,4418.589844,4427.563965,4408.333496,4354.615234,4311.794922,4482.307617,4347.436035,4388.205078,,,,,,,,,,,,,,,,,,,,,,,,,,,,,,,,,,,,,,,,,,,,,,,,,,,,,,,,,,,,,,,,,,,,,,
1720077697,124,0,4400.256348,4367.94873,4355.641113,4392.563965,4408.846191,4415,4410,4428.846191,4402.436035,4349.487305,4308.077148,4475.641113,4341.410156,4378.461426,,,,,,,,,,,,,,,,,,,,,,,,,,,,,,,,,,,,,,,,,,,,,,,,,,,,,,,,,,,,,,,,,,,,,,
1720077697,125,0,4394.743652,4363.846191,4342.179688,4379.871582,4415.512695,4421.282227,4411.025879,4423.077148,4403.717773,4351.025879,4302.692383,4466.666504,4338.461426,4362.179688,,,,,,,,,,,,,,,,,,,,,,,,,,,,,,,,,,,,,,,,,,,,,,,,,,,,,,,,,,,,,,,,,,,,,,
1720077697,126,0,4396.282227,4364.743652,4341.153809,4390.512695,4410.256348,4426.922852,4418.077148,4416.922852,4400,4354.743652,4301.666504,4465.769043,4335,4368.461426,,,,,,,,,,,,,,,,,,,,,,,,,,,,,,,,,,,,,,,,,,,,,,,,,,,,,,,,,,,,,,,,,,,,,,
1720077697,127,0,4392.94873,4366.025879,4344.102539,4407.05127,4400.256348,4427.94873,4418.717773,4418.333496,4395.384766,4354.487305,4304.615234,4465.128418,4335.897461,4377.307617,,,,,,,,,,,,,,,,,,,,,,,,,,,,,,,,,,,,,,,,,,,,,,,,,,,,,,,,,,,,,,,,,,,,,,
1720077697,0,0,4385.769043,4362.05127,4345.897461,4394.615234,4407.94873,4427.692383,4418.461426,4419.102539,4398.974121,4350.512695,4303.205078,4462.307617,4337.94873,4374.230957,,,,,,,,,,,,,,,,,,,,,,,,,,,,,,,,,,,,,,,,,,,,,,,,,,,,,,,,,,,,,,,,,,,,,,
1720077697,1,0,4386.025879,4357.563965,4340.769043,4368.974121,4420.897461,4429.358887,4419.615234,4413.077148,4395.128418,4344.358887,4294.358887,4455.512695,4328.333496,4367.05127,,,,,,,,,,,,,,,,,,,,,,,,,,,,,,,,,,,,,,,,,,,,,,,,,,,,,,,,,,,,,,,,,,,,,,
1720077697,2,0,4397.179688,4360.897461,4331.794922,4372.307617,4417.307617,4430.641113,4418.974121,4411.282227,4389.358887,4341.282227,4290.384766,4447.563965,4321.666504,4363.333496,,,,,,,,,,,,,,,,,,,,,,,,,,,,,,,,,,,,,,,,,,,,,,,,,,,,,,,,,,,,,,,,,,,,,,
1720077697,3,0,4415.512695,4370,4335.512695,4391.794922,4409.743652,4429.102539,4417.179688,4416.025879,4396.410156,4347.179688,4296.025879,4451.922852,4331.538574,4368.589844,,,,,,,,,,,,,,,,,,,,,,,,,,,,,,,,,,,,,,,,,,,,,,,,,,,,,,,,,,,,,,,,,,,,,,
1720077697,4,0,4433.205078,4372.179688,4342.820313,4395.256348,4403.333496,4425.384766,4413.846191,4418.846191,4399.102539,4351.282227,4299.102539,4459.871582,4338.589844,4380.641113,6.621118,2.382804,3.225145,0.480336,0.475204,1.011826,0.437939,0.37774,0.480678,0.395348,0.738508,0.426363,0.434485,0.350027,0.354039,0.624843,0.295646,0.412515,0.969926,1.207194,0.387666,0.452568,0.350448,0.588386,0.429109,0.388648,1.564066,0.336059,0.096727,0.097966,0.314264,1.089411,0.465938,0.104931,0.090448,1.033765,0.892572,0.755191,0.370842,0.153298,0.871901,0.857956,0.991177,0.342397,0.142026,0.887956,0.377091,0.257078,0.265315,0.089669,0.424702,0.448212,0.478472,0.224287,0.227441,1.836395,1.04058,0.538007,0.266457,0.357396,1.061539,1.578514,1.118991,0.403493,0.267866,1.052356,1.118024,1.343143,0.368974,0.400499
1720077697,5,0,4455,4371.282227,4346.538574,4396.666504,4404.871582,4425.256348,4414.743652,4425,4399.871582,4349.358887,4303.589844,4468.846191,4340.641113,4390.256348,,,,,,,,,,,,,,,,,,,,,,,,,,,,,,,,,,,,,,,,,,,,,,,,,,,,,,,,,,,,,,,,,,,,,,
1720077697,6,0,4483.205078,4380.512695,4354.743652,4397.94873,4424.743652,4428.846191,4411.410156,4428.205078,4407.563965,4351.794922,4309.358887,4479.615234,4347.05127,4391.538574,,,,,,,,,,,,,,,,,,,,,,,,,,,,,,,,,,,,,,,,,,,,,,,,,,,,,,,,,,,,,,,,,,,,,,
1720077697,7,0,4495.641113,4383.846191,4352.563965,4383.846191,4429.358887,4427.820313,4403.077148,4417.820313,4406.025879,4353.077148,4304.358887,4470.641113,4344.230957,4383.077148,,,,,,,,,,,,,,,,,,,,,,,,,,,,,,,,,,,,,,,,,,,,,,,,,,,,,,,,,,,,,,,,,,,,,,
1720077697,8,0,4497.179688,4376.538574,4341.666504,4387.307617,4405.769043,4425,4404.743652,4408.717773,4394.102539,4345.641113,4296.282227,4452.820313,4335.512695,4372.307617,,,,,,,,,,,,,,,,,,,,,,,,,,,,,,,,,,,,,,,,,,,,,,,,,,,,,,,,,,,,,,,,,,,,,,
1720077697,9,0,4507.179688,4373.205078,4345.256348,4402.563965,4399.871582,4426.153809,4412.179688,4411.922852,4389.743652,4342.05127,4293.333496,4457.563965,4331.538574,4369.102539,,,,,,,,,,,,,,,,,,,,,,,,,,,,,,,,,,,,,,,,,,,,,,,,,,,,,,,,,,,,,,,,,,,,,,
1720077697,10,0,4511.666504,4372.05127,4349.230957,4386.666504,4418.205078,4428.077148,4413.717773,4413.077148,4389.487305,4346.282227,4292.563965,4463.205078,4327.05127,4370.256348,,,,,,,,,,,,,,,,,,,,,,,,,,,,,,,,,,,,,,,,,,,,,,,,,,,,,,,,,,,,,,,,,,,,,,
1720077697,11,0,4513.589844,4371.666504,4343.333496,4373.846191,4420,4429.230957,4412.563965,4409.102539,4387.820313,4344.615234,4297.692383,4455.769043,4331.410156,4368.589844,,,,,,,,,,,,,,,,,,,,,,,,,,,,,,,,,,,,,,,,,,,,,,,,,,,,,,,,,,,,,,,,,,,,,,
1720077697,12,0,4529.871582,4373.205078,4348.717773,4395.641113,4409.358887,4429.487305,4413.077148,4410.512695,4391.794922,4343.077148,4302.692383,4465.384766,4345.897461,4367.94873,,,,,,,,,,,,,,,,,,,,,,,,,,,,,,,,,,,,,,,,,,,,,,,,,,,,,,,,,,,,,,,,,,,,,,
1720077697,13,0,4545.769043,4372.820313,4355.256348,4403.333496,4411.538574,4428.717773,4412.307617,4414.487305,4396.410156,4350.128418,4299.487305,4477.05127,4349.743652,4377.179688,,,,,,,,,,,,,,,,,,,,,,,,,,,,,,,,,,,,,,,,,,,,,,,,,,,,,,,,,,,,,,,,,,,,,,
1720077697,14,0,4549.358887,4375,4345.897461,4386.153809,4415.641113,4426.538574,4411.025879,4412.94873,4394.743652,4353.077148,4297.692383,4468.077148,4339.615234,4385.128418,,,,,,,,,,,,,,,,,,,,,,,,,,,,,,,,,,,,,,,,,,,,,,,,,,,,,,,,,,,,,,,,,,,,,,
1720077697,15,0,4555.384766,4381.538574,4342.05127,4388.846191,4410.384766,4425.256348,4411.025879,4409.743652,4392.94873,4347.94873,4298.205078,4462.692383,4339.615234,4378.077148,,,,,,,,,,,,,,,,,,,,,,,,,,,,,,,,,,,,,,,,,,,,,,,,,,,,,,,,,,,,,,,,,,,,,,
1720077697,16,0,4567.05127,4383.974121,4356.538574,4403.333496,4410.641113,4430,4413.461426,4420.512695,4400.128418,4346.153809,4300.512695,4476.922852,4349.487305,4376.666504,,,,,,,,,,,,,,,,,,,,,,,,,,,,,,,,,,,,,,,,,,,,,,,,,,,,,,,,,,,,,,,,,,,,,,
1720077697,17,0,4574.743652,4382.820313,4361.794922,4403.461426,4415.512695,4432.692383,4416.538574,4429.102539,4405.769043,4346.794922,4305.897461,4482.05127,4347.692383,4381.282227,,,,,,,,,,,,,,,,,,,,,,,,,,,,,,,,,,,,,,,,,,,,,,,,,,,,,,,,,,,,,,,,,,,,,,
1720077697,18,0,4573.589844,4379.487305,4344.615234,4392.179688,4411.153809,4428.461426,4413.077148,4418.717773,4397.563965,4342.692383,4301.282227,4465.641113,4338.589844,4371.666504,,,,,,,,,,,,,,,,,,,,,,,,,,,,,,,,,,,,,,,,,,,,,,,,,,,,,,,,,,,,,,,,,,,,,,
1720077697,19,0,4562.179688,4375.384766,4330,4381.922852,4410.384766,4424.871582,4411.538574,4410.897461,4393.589844,4341.410156,4293.589844,4457.436035,4336.153809,4363.717773,,,,,,,,,,,,,,,,,,,,,,,,,,,,,,,,,,,,,,,,,,,,,,,,,,,,,,,,,,,,,,,,,,,,,,
1720077697,20,0,4558.333496,4371.794922,4329.615234,4378.589844,4415.897461,4422.307617,4411.666504,4414.230957,4398.846191,4344.102539,4293.333496,4455.512695,4335.641113,4361.666504,7.171165,2.677969,3.360182,0.483163,0.42796,1.323866,0.365267,0.326883,0.493491,0.408448,0.788275,0.265408,0.437627,0.405748,0.411859,0.63268,0.171988,0.343649,0.971156,1.33917,0.342213,0.335215,0.271919,0.538775,0.409917,0.450127,1.394073,0.307795,0.119223,0.087435,0.34072,1.002558,0.394665,0.118302,0.095903,0.999077,1.224315,0.833479,0.359771,0.160475,0.880221,1.215288,1.124968,0.349913,0.148214,0.921423,0.31277,0.338396,0.283841,0.093508,0.486702,0.463791,0.604351,0.246325,0.235902,1.487047,0.738521,0.646188,0.33768,0.402716,1.15012,1.458594,1.359027,0.432364,0.283008,0.936457,0.958812,1.759402,0.399617,0.437342
1720077697,21,0,4572.692383,4365.769043,4327.179688,4375.128418,4407.05127,4415.256348,4406.794922,4412.179688,4395.897461,4342.179688,4291.922852,4445.128418,4330.512695,4352.563965,,,,,,,,,,,,,,,,,,,,,,,,,,,,,,,,,,,,,,,,,,,,,,,,,,,,,,,,,,,,,,,,,,,,,,
1720077697,22,0,4585.897461,4368.717773,4327.820313,4383.461426,4394.230957,4410.897461,4406.794922,4410,4388.077148,4339.871582,4293.589844,4446.410156,4336.025879,4356.410156,,,,,,,,,,,,,,,,,,,,,,,,,,,,,,,,,,,,,,,,,,,,,,,,,,,,,,,,,,,,,,,,,,,,,,
1720077697,23,0,4589.743652,4383.205078,4342.179688,4399.230957,4401.282227,4416.666504,4409.487305,4413.589844,4386.282227,4344.102539,4301.410156,4460,4346.025879,4373.077148,,,,,,,,,,,,,,,,,,,,,,,,,,,,,,,,,,,,,,,,,,,,,,,,,,,,,,,,,,,,,,,,,,,,,,
1720077697,24,0,4596.666504,4390.384766,4354.615234,4394.615234,4418.461426,4422.820313,4408.974121,4414.358887,4390.128418,4350.641113,4302.820313,4467.179688,4344.358887,4374.743652,,,,,,,,,,,,,,,,,,,,,,,,,,,,,,,,,,,,,,,,,,,,,,,,,,,,,,,,,,,,,,,,,,,,,,
1720077697,25,0,4598.077148,4387.94873,4353.333496,4384.358887,4423.333496,4421.153809,4411.410156,4415.641113,4396.410156,4352.820313,4301.025879,4472.307617,4344.743652,4368.717773,,,,,,,,,,,,,,,,,,,,,,,,,,,,,,,,,,,,,,,,,,,,,,,,,,,,,,,,,,,,,,,,,,,,,,
1720077697,26,0,4586.794922,4386.410156,4346.538574,4394.487305,4413.717773,4418.717773,4412.05127,4417.563965,4398.589844,4348.077148,4304.358887,4475.769043,4349.230957,4372.563965,,,,,,,,,,,,,,,,,,,,,,,,,,,,,,,,,,,,,,,,,,,,,,,,,,,,,,,,,,,,,,,,,,,,,,
1720077697,27,0,4586.153809,4381.666504,4346.666504,4402.307617,4405.512695,4423.333496,4408.077148,4413.717773,4395,4340.512695,4304.743652,4470.128418,4347.179688,4375.256348,,,,,,,,,,,,,,,,,,,,,,,,,,,,,,,,,,,,,,,,,,,,,,,,,,,,,,,,,,,,,,,,,,,,,,
1720077697,28,0,4595.128418,4381.922852,4354.358887,4394.743652,4411.538574,4430.512695,4411.025879,4411.794922,4393.717773,4341.538574,4304.358887,4468.077148,4344.358887,4374.358887,,,,,,,,,,,,,,,,,,,,,,,,,,,,,,,,,,,,,,,,,,,,,,,,,,,,,,,,,,,,,,,,,,,,,,
1720077697,29,0,4600.641113,4395.256348,4354.615234,4399.102539,4418.461426,4430.128418,4417.179688,4412.436035,4400.897461,4350.897461,4308.461426,4472.179688,4352.94873,4379.102539,,,,,,,,,,,,,,,,,,,,,,,,,,,,,,,,,,,,,,,,,,,,,,,,,,,,,,,,,,,,,,,,,,,,,,
1720077697,30,0,4605.512695,4398.846191,4347.94873,4407.436035,4412.179688,4428.077148,4415.256348,4411.153809,4406.922852,4353.205078,4307.94873,4471.794922,4359.358887,4381.282227,,,,,,,,,,,,,,,,,,,,,,,,,,,,,,,,,,,,,,,,,,,,,,,,,,,,,,,,,,,,,,,,,,,,,,
1720077697,31,0,4605.641113,4387.94873,4346.410156,4397.692383,4411.025879,4428.077148,4413.205078,4411.282227,4404.358887,4348.333496,4305.641113,4473.461426,4355.128418,4374.358887,,,,,,,,,,,,,,,,,,,,,,,,,,,,,,,,,,,,,,,,,,,,,,,,,,,,,,,,,,,,,,,,,,,,,,
1720077697,32,0,4599.358887,4385.897461,4346.922852,4383.077148,4422.179688,4421.538574,4411.922852,4414.102539,4401.538574,4349.358887,4304.230957,4477.179688,4351.922852,4368.077148,,,,,,,,,,,,,,,,,,,,,,,,,,,,,,,,,,,,,,,,,,,,,,,,,,,,,,,,,,,,,,,,,,,,,,
1720077697,33,0,4597.820313,4391.922852,4340.769043,4384.615234,4418.077148,4411.922852,4407.692383,4414.102539,4401.666504,4352.436035,4301.153809,4474.487305,4349.102539,4368.333496,,,,,,,,,,,,,,,,,,,,,,,,,,,,,,,,,,,,,,,,,,,,,,,,,,,,,,,,,,,,,,,,,,,,,,
1720077697,34,0,4599.102539,4394.615234,4341.025879,4404.358887,4401.410156,4411.153809,4405.641113,4419.871582,4403.461426,4350.769043,4305.128418,4472.179688,4351.794922,4373.717773,,,,,,,,,,,,,,,,,,,,,,,,,,,,,,,,,,,,,,,,,,,,,,,,,,,,,,,,,,,,,,,,,,,,,,
1720077697,35,0,4592.436035,4393.461426,4349.102539,4411.538574,4403.589844,4413.461426,4404.230957,4429.358887,4410.384766,4350.897461,4308.846191,4476.538574,4358.333496,4376.666504,,,,,,,,,,,,,,,,,,,,,,,,,,,,,,,,,,,,,,,,,,,,,,,,,,,,,,,,,,,,,,,,,,,,,,
1720077697,36,0,4585,4388.717773,4345.641113,4395.512695,4419.615234,4410.641113,4403.846191,4424.871582,4412.307617,4351.410156,4303.974121,4475.641113,4355.384766,4371.538574,8.353866,2.837779,3.2495,0.51797,0.384075,1.932077,0.449429,0.309093,0.528479,0.415124,0.870115,0.226602,0.486863,0.454658,0.462895,0.686762,0.142349,0.31702,0.994474,1.414493,0.299895,0.276954,0.241891,0.491028,0.392394,0.510896,1.168071,0.301516,0.140655,0.079045,0.368291,0.898662,0.319632,0.13273,0.10638,1.01003,1.556866,0.9448,0.349823,0.162974,0.92767,1.610767,1.261803,0.365051,0.156335,0.907923,0.272068,0.403884,0.296439,0.103034,0.58888,0.516226,0.720233,0.268512,0.243863,1.302235,0.611476,0.858297,0.416687,0.458452,1.31071,1.396673,1.546816,0.474419,0.305194,0.904258,0.890422,2.169566,0.445114,0.494257
1720077697,37,0,4585.128418,4387.563965,4336.153809,4387.05127,4421.922852,4414.487305,4407.820313,4416.153809,4402.94873,4344.743652,4299.487305,4460.897461,4346.025879,4363.077148,,,,,,,,,,,,,,,,,,,,,,,,,,,,,,,,,,,,,,,,,,,,,,,,,,,,,,,,,,,,,,,,,,,,,,
1720077697,38,0,4594.230957,4394.615234,4340.769043,4397.307617,4416.025879,4425.512695,4411.666504,4421.794922,4402.94873,4340.128418,4303.205078,4460,4346.794922,4367.05127,,,,,,,,,,,,,,,,,,,,,,,,,,,,,,,,,,,,,,,,,,,,,,,,,,,,,,,,,,,,,,,,,,,,,,
1720077697,39,0,4609.615234,4398.846191,4356.922852,4406.666504,4419.358887,4430.256348,4417.307617,4432.563965,4414.102539,4346.922852,4311.025879,4483.333496,4352.436035,4380.128418,,,,,,,,,,,,,,,,,,,,,,,,,,,,,,,,,,,,,,,,,,,,,,,,,,,,,,,,,,,,,,,,,,,,,,
1720077697,40,0,4612.820313,4394.358887,4359.743652,4402.692383,4417.563965,4428.974121,4423.333496,4432.05127,4413.333496,4350.128418,4310.128418,4488.717773,4347.179688,4381.410156,,,,,,,,,,,,,,,,,,,,,,,,,,,,,,,,,,,,,,,,,,,,,,,,,,,,,,,,,,,,,,,,,,,,,,
1720077697,41,0,4593.846191,4380.897461,4344.102539,4388.717773,4398.461426,4422.436035,4419.358887,4417.436035,4392.563965,4336.666504,4293.205078,4456.794922,4331.153809,4361.538574,,,,,,,,,,,,,,,,,,,,,,,,,,,,,,,,,,,,,,,,,,,,,,,,,,,,,,,,,,,,,,,,,,,,,,
1720077697,42,0,4570.128418,4359.871582,4327.692383,4373.077148,4386.282227,4413.333496,4410.256348,4403.333496,4372.563965,4322.692383,4278.717773,4431.282227,4311.538574,4336.794922,,,,,,,,,,,,,,,,,,,,,,,,,,,,,,,,,,,,,,,,,,,,,,,,,,,,,,,,,,,,,,,,,,,,,,
1720077697,43,0,4559.102539,4352.563965,4319.615234,4366.410156,4399.102539,4410.512695,4411.282227,4403.077148,4377.05127,4325.641113,4278.717773,4434.743652,4304.487305,4333.846191,,,,,,,,,,,,,,,,,,,,,,,,,,,,,,,,,,,,,,,,,,,,,,,,,,,,,,,,,,,,,,,,,,,,,,
1720077697,44,0,4564.871582,4367.05127,4327.05127,4368.717773,4413.717773,4413.717773,4415.769043,4410.128418,4396.666504,4339.358887,4285.256348,4448.077148,4316.666504,4350.384766,,,,,,,,,,,,,,,,,,,,,,,,,,,,,,,,,,,,,,,,,,,,,,,,,,,,,,,,,,,,,,,,,,,,,,
1720077697,45,0,4583.077148,4382.179688,4348.589844,4378.461426,4413.077148,4412.692383,4412.94873,4413.205078,4405.769043,4347.820313,4295.512695,4461.538574,4335.769043,4367.436035,,,,,,,,,,,,,,,,,,,,,,,,,,,,,,,,,,,,,,,,,,,,,,,,,,,,,,,,,,,,,,,,,,,,,,
1720077697,46,0,4600,4393.077148,4365,4397.307617,4410.128418,4407.307617,4409.743652,4415.128418,4407.94873,4349.487305,4303.717773,4475.641113,4348.717773,4379.871582,,,,,,,,,,,,,,,,,,,,,,,,,,,,,,,,,,,,,,,,,,,,,,,,,,,,,,,,,,,,,,,,,,,,,,
1720077697,47,0,4607.563965,4398.717773,4366.538574,4408.205078,4407.563965,4401.538574,4409.102539,4417.05127,4411.666504,4351.666504,4304.871582,4486.794922,4351.666504,4385.384766,,,,,,,,,,,,,,,,,,,,,,,,,,,,,,,,,,,,,,,,,,,,,,,,,,,,,,,,,,,,,,,,,,,,,,
1720077697,48,0,4603.717773,4394.743652,4365,4403.974121,4406.153809,4402.692383,4410.512695,4420.769043,4407.692383,4350.641113,4309.743652,4492.307617,4353.461426,4381.153809,,,,,,,,,,,,,,,,,,,,,,,,,,,,,,,,,,,,,,,,,,,,,,,,,,,,,,,,,,,,,,,,,,,,,,
1720077697,49,0,4591.922852,4387.820313,4361.153809,4390.897461,4412.94873,4409.743652,4412.436035,4426.666504,4399.743652,4343.717773,4311.538574,4486.410156,4349.102539,4372.05127,,,,,,,,,,,,,,,,,,,,,,,,,,,,,,,,,,,,,,,,,,,,,,,,,,,,,,,,,,,,,,,,,,,,,,
1720077697,50,0,4587.307617,4388.717773,4351.282227,4382.05127,4411.922852,4407.05127,4411.538574,4426.282227,4399.487305,4342.436035,4305.512695,4475.128418,4339.358887,4374.102539,,,,,,,,,,,,,,,,,,,,,,,,,,,,,,,,,,,,,,,,,,,,,,,,,,,,,,,,,,,,,,,,,,,,,,
1720077697,51,0,4590.641113,4397.94873,4356.666504,4397.563965,4399.102539,4401.410156,4412.307617,4425.769043,4407.05127,4349.358887,4310.128418,4478.461426,4342.692383,4387.436035,,,,,,,,,,,,,,,,,,,,,,,,,,,,,,,,,,,,,,,,,,,,,,,,,,,,,,,,,,,,,,,,,,,,,,
1720077697,52,0,4581.922852,4394.487305,4362.179688,4404.102539,4402.820313,4407.820313,4417.307617,4429.487305,4412.563965,4352.94873,4312.436035,4483.846191,4350.641113,4386.410156,10.272231,2.92012,2.985593,0.559332,0.3507,2.718151,0.717127,0.321516,0.584003,0.418366,0.966933,0.317633,0.605656,0.492791,0.492715,0.766116,0.200136,0.350671,1.049545,1.420738,0.258294,0.271896,0.2431,0.456944,0.382339,0.530716,0.926084,0.304069,0.152419,0.07411,0.37714,0.773962,0.24151,0.145048,0.119386,1.061872,1.782435,1.057075,0.342378,0.1587,0.982694,1.921155,1.349839,0.378113,0.162867,0.841834,0.253519,0.437294,0.296165,0.113123,0.701492,0.587277,0.809151,0.284641,0.245786,1.305626,0.654881,1.151819,0.484287,0.501696,1.492542,1.350422,1.645116,0.511586,0.322107,0.975127,0.922148,2.497446,0.486582,0.550488
1720077697,53,0,4561.025879,4380.641113,4345.512695,4375.384766,4416.153809,4414.230957,4419.743652,4427.436035,4411.410156,4351.025879,4299.871582,4469.230957,4340.256348,4370.256348,,,,,,,,,,,,,,,,,,,,,,,,,,,,,,,,,,,,,,,,,,,,,,,,,,,,,,,,,,,,,,,,,,,,,,
1720077697,54,0,4555.256348,4380.769043,4333.846191,4362.307617,4410.769043,4411.794922,4414.743652,4422.94873,4412.436035,4350.769043,4295,4458.589844,4326.666504,4365.769043,,,,,,,,,,,,,,,,,,,,,,,,,,,,,,,,,,,,,,,,,,,,,,,,,,,,,,,,,,,,,,,,,,,,,,
1720077697,55,0,4562.94873,4386.410156,4339.615234,4379.230957,4398.717773,4408.205078,4411.922852,4422.94873,4411.410156,4349.487305,4298.205078,4462.692383,4327.179688,4368.589844,,,,,,,,,,,,,,,,,,,,,,,,,,,,,,,,,,,,,,,,,,,,,,,,,,,,,,,,,,,,,,,,,,,,,,
1720077697,56,0,4558.461426,4382.692383,4340.256348,4390.128418,4395.897461,4407.436035,4417.05127,4425.256348,4405.128418,4348.461426,4295.897461,4463.205078,4325.897461,4361.538574,,,,,,,,,,,,,,,,,,,,,,,,,,,,,,,,,,,,,,,,,,,,,,,,,,,,,,,,,,,,,,,,,,,,,,
1720077697,57,0,4551.794922,4384.230957,4337.179688,4388.333496,4401.153809,4409.871582,4420.769043,4425.897461,4405.384766,4351.666504,4295.256348,4464.358887,4320.512695,4356.666504,,,,,,,,,,,,,,,,,,,,,,,,,,,,,,,,,,,,,,,,,,,,,,,,,,,,,,,,,,,,,,,,,,,,,,
1720077697,58,0,4562.179688,4391.922852,4342.179688,4384.358887,4409.487305,4413.333496,4420.769043,4421.794922,4405.769043,4349.102539,4296.666504,4477.307617,4325.256348,4357.179688,,,,,,,,,,,,,,,,,,,,,,,,,,,,,,,,,,,,,,,,,,,,,,,,,,,,,,,,,,,,,,,,,,,,,,
1720077697,59,0,4560.641113,4385.384766,4342.307617,4378.589844,4414.743652,4409.358887,4419.102539,4414.743652,4395.512695,4342.563965,4291.153809,4484.230957,4326.666504,4352.307617,,,,,,,,,,,,,,,,,,,,,,,,,,,,,,,,,,,,,,,,,,,,,,,,,,,,,,,,,,,,,,,,,,,,,,
1720077697,60,0,4540.897461,4379.871582,4333.846191,4373.846191,4417.307617,4401.794922,4412.94873,4410.128418,4388.846191,4339.743652,4286.666504,4478.846191,4316.153809,4351.025879,,,,,,,,,,,,,,,,,,,,,,,,,,,,,,,,,,,,,,,,,,,,,,,,,,,,,,,,,,,,,,,,,,,,,,
1720077697,61,0,4541.538574,4388.974121,4336.282227,4375.641113,4413.205078,4400.128418,4414.615234,4416.282227,4393.974121,4341.538574,4289.615234,4481.282227,4314.743652,4357.05127,,,,,,,,,,,,,,,,,,,,,,,,,,,,,,,,,,,,,,,,,,,,,,,,,,,,,,,,,,,,,,,,,,,,,,
1720077697,62,0,4556.922852,4398.077148,4348.589844,4392.692383,4398.205078,4400.384766,4424.871582,4429.358887,4398.974121,4347.179688,4299.487305,4496.153809,4330.512695,4358.589844,,,,,,,,,,,,,,,,,,,,,,,,,,,,,,,,,,,,,,,,,,,,,,,,,,,,,,,,,,,,,,,,,,,,,,
1720077697,63,0,4554.230957,4399.615234,4355.897461,4408.205078,4396.282227,4400.897461,4426.153809,4428.589844,4397.179688,4352.820313,4303.974121,4506.794922,4339.743652,4360.512695,,,,,,,,,,,,,,,,,,,,,,,,,,,,,,,,,,,,,,,,,,,,,,,,,,,,,,,,,,,,,,,,,,,,,,
1720077697,64,0,4538.333496,4396.025879,4354.102539,4390.641113,4416.666504,4401.794922,4418.205078,4413.717773,4391.922852,4353.077148,4297.692383,4514.102539,4335.641113,4369.230957,,,,,,,,,,,,,,,,,,,,,,,,,,,,,,,,,,,,,,,,,,,,,,,,,,,,,,,,,,,,,,,,,,,,,,
1720077697,65,0,4519.487305,4390.897461,4351.922852,4370.128418,4420,4400.128418,4417.563965,4414.487305,4397.05127,4350.641113,4300.897461,4530.641113,4335.769043,4374.358887,,,,,,,,,,,,,,,,,,,,,,,,,,,,,,,,,,,,,,,,,,,,,,,,,,,,,,,,,,,,,,,,,,,,,,
1720077697,66,0,4503.846191,4387.820313,4350,4379.230957,4405.897461,4397.436035,4422.05127,4429.487305,4410.384766,4352.179688,4310.512695,4546.025879,4341.153809,4366.282227,,,,,,,,,,,,,,,,,,,,,,,,,,,,,,,,,,,,,,,,,,,,,,,,,,,,,,,,,,,,,,,,,,,,,,
1720077697,67,0,4504.102539,4389.871582,4344.615234,4386.025879,4405.641113,4397.307617,4424.743652,4431.794922,4412.692383,4351.410156,4305.769043,4535.512695,4337.94873,4344.615234,,,,,,,,,,,,,,,,,,,,,,,,,,,,,,,,,,,,,,,,,,,,,,,,,,,,,,,,,,,,,,,,,,,,,,
1720077697,68,0,4503.717773,4390.769043,4339.102539,4382.05127,4412.692383,4399.871582,4427.563965,4427.820313,4405.384766,4347.436035,4299.230957,4513.333496,4325.384766,4329.358887,12.444715,3.019099,2.729831,0.592542,0.328776,3.477622,1.12246,0.368253,0.648188,0.417604,1.055158,0.518282,0.80116,0.52515,0.491763,0.835029,0.322416,0.456023,1.118554,1.368363,0.220308,0.295953,0.252061,0.442648,0.384013,0.494041,0.713885,0.309517,0.151164,0.072099,0.353809,0.637652,0.172392,0.152339,0.130815,1.107174,1.82317,1.136152,0.335351,0.149105,0.997654,2.048653,1.35821,0.378033,0.167298,0.730459,0.242804,0.436216,0.280799,0.119769,0.784539,0.648486,0.870158,0.292276,0.237218,1.439476,0.805171,1.501424,0.535619,0.516091,1.628961,1.266229,1.664061,0.528404,0.324362,1.132477,1.031213,2.705088,0.514526,0.585177
1720077697,69,0,4492.179688,4387.94873,4337.692383,4384.358887,4414.871582,4399.102539,4422.820313,4422.179688,4400.384766,4347.05127,4300.641113,4503.205078,4316.922852,4333.205078,,,,,,,,,,,,,,,,,,,,,,,,,,,,,,,,,,,,,,,,,,,,,,,,,,,,,,,,,,,,,,,,,,,,,,
1720077697,70,0,4495.641113,4386.794922,4340.384766,4387.820313,4411.922852,4392.820313,4413.846191,4414.358887,4398.077148,4350.512695,4296.666504,4499.743652,4320,4338.717773,,,,,,,,,,,,,,,,,,,,,,,,,,,,,,,,,,,,,,,,,,,,,,,,,,,,,,,,,,,,,,,,,,,,,,
1720077697,71,0,4506.282227,4386.794922,4341.025879,4386.922852,4401.794922,4386.538574,4415,4414.743652,4397.179688,4350.256348,4292.436035,4495.897461,4322.692383,4332.179688,,,,,,,,,,,,,,,,,,,,,,,,,,,,,,,,,,,,,,,,,,,,,,,,,,,,,,,,,,,,,,,,,,,,,,
1720077697,72,0,4497.692383,4387.307617,4335,4384.743652,4393.717773,4388.589844,4419.358887,4416.153809,4392.563965,4343.846191,4290.128418,4485.128418,4316.025879,4323.077148,,,,,,,,,,,,,,,,,,,,,,,,,,,,,,,,,,,,,,,,,,,,,,,,,,,,,,,,,,,,,,,,,,,,,,
1720077697,73,0,4486.153809,4386.538574,4327.307617,4375.769043,4403.077148,4395.769043,4420.512695,4414.230957,4386.153809,4342.692383,4289.487305,4474.102539,4313.333496,4322.820313,,,,,,,,,,,,,,,,,,,,,,,,,,,,,,,,,,,,,,,,,,,,,,,,,,,,,,,,,,,,,,,,,,,,,,
1720077697,74,0,4490.512695,4385.128418,4326.922852,4365.128418,4409.871582,4392.563965,4419.102539,4416.538574,4386.922852,4346.666504,4292.05127,4475.897461,4323.717773,4320,,,,,,,,,,,,,,,,,,,,,,,,,,,,,,,,,,,,,,,,,,,,,,,,,,,,,,,,,,,,,,,,,,,,,,
1720077697,75,0,4494.487305,4388.333496,4338.077148,4376.410156,4395.384766,4381.922852,4415.897461,4415.769043,4388.205078,4345.641113,4292.820313,4481.410156,4331.153809,4314.487305,,,,,,,,,,,,,,,,,,,,,,,,,,,,,,,,,,,,,,,,,,,,,,,,,,,,,,,,,,,,,,,,,,,,,,
1720077697,76,0,4491.922852,4390.256348,4344.358887,4390.769043,4388.205078,4378.717773,4412.436035,4408.846191,4386.666504,4341.153809,4292.05127,4478.974121,4327.307617,4318.846191,,,,,,,,,,,,,,,,,,,,,,,,,,,,,,,,,,,,,,,,,,,,,,,,,,,,,,,,,,,,,,,,,,,,,,
1720077697,77,0,4491.538574,4384.615234,4336.410156,4376.794922,4402.563965,4381.538574,4413.205078,4414.358887,4393.461426,4345.897461,4296.282227,4477.820313,4330.256348,4328.077148,,,,,,,,,,,,,,,,,,,,,,,,,,,,,,,,,,,,,,,,,,,,,,,,,,,,,,,,,,,,,,,,,,,,,,
1720077697,78,0,4489.102539,4381.025879,4332.563965,4363.077148,4411.410156,4385,4417.820313,4426.794922,4399.358887,4352.692383,4301.025879,4480.256348,4337.436035,4327.692383,,,,,,,,,,,,,,,,,,,,,,,,,,,,,,,,,,,,,,,,,,,,,,,,,,,,,,,,,,,,,,,,,,,,,,
1720077697,79,0,4487.820313,4387.307617,4342.563965,4376.538574,4410.641113,4392.05127,4424.487305,4429.871582,4397.307617,4347.820313,4296.666504,4475.128418,4332.820313,4322.94873,,,,,,,,,,,,,,,,,,,,,,,,,,,,,,,,,,,,,,,,,,,,,,,,,,,,,,,,,,,,,,,,,,,,,,
1720077697,80,0,4487.436035,4395.512695,4347.94873,4392.179688,4414.871582,4398.461426,4429.743652,4428.077148,4397.563965,4341.538574,4289.871582,4472.563965,4329.615234,4323.717773,,,,,,,,,,,,,,,,,,,,,,,,,,,,,,,,,,,,,,,,,,,,,,,,,,,,,,,,,,,,,,,,,,,,,,
1720077697,81,0,4480.641113,4397.307617,4342.05127,4389.358887,4412.94873,4395.769043,4427.563965,4426.410156,4395.128418,4342.05127,4290.128418,4475.641113,4334.487305,4319.871582,,,,,,,,,,,,,,,,,,,,,,,,,,,,,,,,,,,,,,,,,,,,,,,,,,,,,,,,,,,,,,,,,,,,,,
1720077697,82,0,4478.974121,4397.820313,4346.538574,4386.410156,4407.179688,4393.589844,4425.384766,4426.410156,4387.692383,4344.743652,4296.922852,4478.077148,4335.384766,4312.692383,,,,,,,,,,,,,,,,,,,,,,,,,,,,,,,,,,,,,,,,,,,,,,,,,,,,,,,,,,,,,,,,,,,,,,
1720077697,83,0,4476.666504,4401.794922,4358.846191,4394.487305,4409.743652,4395.128418,4428.333496,4425.897461,4387.94873,4346.410156,4296.922852,4480.256348,4333.974121,4311.666504,,,,,,,,,,,,,,,,,,,,,,,,,,,,,,,,,,,,,,,,,,,,,,,,,,,,,,,,,,,,,,,,,,,,,,
1720077697,84,0,4462.436035,4404.871582,4359.230957,4396.153809,4406.794922,4390.256348,4427.436035,4424.102539,4394.487305,4350.512695,4292.94873,4479.743652,4339.871582,4318.077148,14.655677,3.201972,2.639169,0.629093,0.31419,3.976919,1.58751,0.451682,0.709585,0.407831,1.13606,0.800123,1.047701,0.569647,0.460637,0.871607,0.505656,0.629375,1.179065,1.278212,0.199039,0.324528,0.254035,0.450691,0.399077,0.409008,0.577273,0.317771,0.139754,0.07195,0.304791,0.51173,0.125194,0.153245,0.136622,1.101634,1.672892,1.157322,0.325929,0.138625,0.954214,1.952953,1.296176,0.36376,0.172143,0.604279,0.23187,0.415287,0.258094,0.121765,0.825783,0.692033,0.909009,0.293815,0.217757,1.664718,1.012861,1.871186,0.583161,0.500825,1.70845,1.160653,1.643184,0.523757,0.310699,1.32496,1.199347,2.787949,0.538696,0.586681
1720077697,85,0,4459.871582,4401.922852,4353.205078,4382.307617,4403.589844,4383.077148,4423.589844,4426.025879,4399.743652,4353.717773,4297.179688,4483.333496,4347.179688,4330.897461,,,,,,,,,,,,,,,,,,,,,,,,,,,,,,,,,,,,,,,,,,,,,,,,,,,,,,,,,,,,,,,,,,,,,,
1720077697,86,0,4475,4397.94873,4357.563965,4373.846191,4412.05127,4384.487305,4420.512695,4429.615234,4401.794922,4351.538574,4298.589844,4489.358887,4344.487305,4333.205078,,,,,,,,,,,,,,,,,,,,,,,,,,,,,,,,,,,,,,,,,,,,,,,,,,,,,,,,,,,,,,,,,,,,,,
1720077697,87,0,4479.358887,4398.974121,4359.743652,4382.179688,4416.153809,4386.794922,4417.179688,4427.563965,4399.102539,4347.692383,4293.717773,4483.717773,4335.769043,4318.974121,,,,,,,,,,,,,,,,,,,,,,,,,,,,,,,,,,,,,,,,,,,,,,,,,,,,,,,,,,,,,,,,,,,,,,
1720077697,88,0,4474.102539,4401.025879,4349.358887,4389.102539,4408.589844,4383.846191,4417.307617,4424.358887,4394.487305,4349.102539,4291.025879,4474.615234,4335.769043,4310.769043,,,,,,,,,,,,,,,,,,,,,,,,,,,,,,,,,,,,,,,,,,,,,,,,,,,,,,,,,,,,,,,,,,,,,,
1720077697,89,0,4476.153809,4398.974121,4345.897461,4395.128418,4403.717773,4384.871582,4424.358887,4428.846191,4394.871582,4350.512695,4292.179688,4476.922852,4342.820313,4313.974121,,,,,,,,,,,,,,,,,,,,,,,,,,,,,,,,,,,,,,,,,,,,,,,,,,,,,,,,,,,,,,,,,,,,,,
1720077697,90,0,4473.333496,4396.025879,4356.282227,4398.205078,4406.153809,4387.563965,4430.384766,4431.282227,4395.769043,4342.94873,4293.077148,4481.153809,4341.410156,4315,,,,,,,,,,,,,,,,,,,,,,,,,,,,,,,,,,,,,,,,,,,,,,,,,,,,,,,,,,,,,,,,,,,,,,
1720077697,91,0,4465.897461,4399.743652,4362.563965,4382.692383,4413.461426,4387.94873,4429.230957,4427.820313,4395,4342.307617,4293.846191,4480.769043,4342.563965,4310.897461,,,,,,,,,,,,,,,,,,,,,,,,,,,,,,,,,,,,,,,,,,,,,,,,,,,,,,,,,,,,,,,,,,,,,,
1720077697,92,0,4457.307617,4401.794922,4351.025879,4371.666504,4412.563965,4388.205078,4427.179688,4425.512695,4393.461426,4349.871582,4294.487305,4480,4348.205078,4299.615234,,,,,,,,,,,,,,,,,,,,,,,,,,,,,,,,,,,,,,,,,,,,,,,,,,,,,,,,,,,,,,,,,,,,,,
1720077697,93,0,4446.794922,4396.153809,4344.230957,4379.487305,4398.589844,4385.897461,4427.820313,4427.179688,4390.641113,4346.538574,4293.077148,4479.615234,4341.666504,4294.871582,,,,,,,,,,,,,,,,,,,,,,,,,,,,,,,,,,,,,,,,,,,,,,,,,,,,,,,,,,,,,,,,,,,,,,
1720077697,94,0,4452.563965,4402.563965,4365.512695,4386.666504,4393.205078,4383.589844,4427.94873,4429.487305,4394.615234,4342.692383,4293.589844,4484.487305,4341.025879,4314.743652,,,,,,,,,,,,,,,,,,,,,,,,,,,,,,,,,,,,,,,,,,,,,,,,,,,,,,,,,,,,,,,,,,,,,,
1720077697,95,0,4467.05127,4417.307617,4386.922852,4391.666504,4399.487305,4381.538574,4426.282227,4433.077148,4401.153809,4349.487305,4296.794922,4498.205078,4355.512695,4336.410156,,,,,,,,,,,,,,,,,,,,,,,,,,,,,,,,,,,,,,,,,,,,,,,,,,,,,,,,,,,,,,,,,,,,,,
1720077697,96,0,4464.743652,4412.179688,4379.102539,4397.436035,4395.512695,4375.128418,4421.666504,4434.487305,4398.461426,4350.769043,4299.358887,4504.487305,4356.922852,4326.538574,,,,,,,,,,,,,,,,,,,,,,,,,,,,,,,,,,,,,,,,,,,,,,,,,,,,,,,,,,,,,,,,,,,,,,
1720077698,97,0,4456.922852,4403.333496,4363.846191,4395.897461,4393.205078,4371.666504,4417.05127,4432.436035,4398.717773,4349.230957,4297.05127,4496.922852,4349.871582,4311.538574,,,,,,,,,,,,,,,,,,,,,,,,,,,,,,,,,,,,,,,,,,,,,,,,,,,,,,,,,,,,,,,,,,,,,,
1720077698,98,0,4456.282227,4406.922852,4365,4382.436035,4408.077148,4374.230957,4414.615234,4433.846191,4408.846191,4357.307617,4295,4491.410156,4350.769043,4313.461426,,,,,,,,,,,,,,,,,,,,,,,,,,,,,,,,,,,,,,,,,,,,,,,,,,,,,,,,,,,,,,,,,,,,,,
1720077698,99,0,4456.025879,4403.333496,4367.307617,4372.436035,4412.307617,4371.410156,4413.589844,4435.512695,4409.230957,4354.230957,4295,4492.307617,4347.563965,4307.820313,,,,,,,,,,,,,,,,,,,,,,,,,,,,,,,,,,,,,,,,,,,,,,,,,,,,,,,,,,,,,,,,,,,,,,
1720077698,100,0,4459.102539,4400.256348,4363.846191,4380.769043,4395.256348,4367.820313,4414.102539,4432.05127,4397.692383,4344.615234,4290.256348,4491.025879,4341.025879,4293.974121,15.974577,3.462639,2.776385,0.696537,0.301031,4.078036,2.011832,0.56569,0.763516,0.382474,1.234767,1.126616,1.290343,0.644392,0.410009,0.880122,0.753125,0.848369,1.226298,1.171936,0.204842,0.345089,0.254167,0.481488,0.426095,0.318241,0.541913,0.331025,0.125705,0.073315,0.24517,0.416963,0.105367,0.149549,0.134396,1.032454,1.408115,1.114056,0.315997,0.132339,0.890461,1.678084,1.205344,0.349168,0.180421,0.50526,0.218399,0.39579,0.241559,0.119958,0.845204,0.735816,0.929521,0.296213,0.191079,2.083948,1.292607,2.216338,0.646523,0.467826,1.775344,1.121375,1.616536,0.512526,0.286928,1.561914,1.424611,2.755754,0.582717,0.555641
1720077698,101,0,4461.025879,4408.846191,4366.153809,4391.922852,4393.589844,4369.358887,4414.230957,4427.692383,4393.717773,4350.641113,4288.589844,4484.871582,4340.384766,4291.025879,,,,,,,,,,,,,,,,,,,,,,,,,,,,,,,,,,,,,,,,,,,,,,,,,,,,,,,,,,,,,,,,,,,,,,
1720077698,102,0,4458.461426,4412.563965,4374.487305,4391.410156,4409.871582,4366.666504,4414.102539,4426.922852,4395.769043,4356.282227,4287.05127,4484.743652,4340,4298.974121,,,,,,,,,,,,,,,,,,,,,,,,,,,,,,,,,,,,,,,,,,,,,,,,,,,,,,,,,,,,,,,,,,,,,,
1720077698,103,0,4475,4412.179688,4383.974121,4394.487305,4407.436035,4362.179688,4412.563965,4426.282227,4395.897461,4350.256348,4283.589844,4497.436035,4342.563965,4308.333496,,,,,,,,,,,,,,,,,,,,,,,,,,,,,,,,,,,,,,,,,,,,,,,,,,,,,,,,,,,,,,,,,,,,,,
1720077698,104,0,4501.410156,4413.974121,4381.538574,4399.487305,4396.666504,4361.922852,4413.974121,4425.512695,4397.307617,4347.692383,4283.717773,4509.102539,4344.615234,4308.717773,,,,,,,,,,,,,,,,,,,,,,,,,,,,,,,,,,,,,,,,,,,,,,,,,,,,,,,,,,,,,,,,,,,,,,
1720077698,105,0,4500.128418,4408.461426,4365.769043,4384.615234,4405,4363.717773,4421.794922,4434.102539,4402.94873,4351.922852,4282.05127,4506.666504,4338.333496,4297.436035,,,,,,,,,,,,,,,,,,,,,,,,,,,,,,,,,,,,,,,,,,,,,,,,,,,,,,,,,,,,,,,,,,,,,,
1720077698,106,0,4483.589844,4402.563965,4356.794922,4368.589844,4408.205078,4363.846191,4425.897461,4443.589844,4403.846191,4349.487305,4281.153809,4499.871582,4335,4287.94873,,,,,,,,,,,,,,,,,,,,,,,,,,,,,,,,,,,,,,,,,,,,,,,,,,,,,,,,,,,,,,,,,,,,,,
1720077698,107,0,4488.846191,4402.05127,4363.717773,4372.563965,4393.974121,4360.769043,4418.333496,4443.077148,4400.512695,4347.692383,4284.871582,4503.205078,4342.436035,4288.333496,,,,,,,,,,,,,,,,,,,,,,,,,,,,,,,,,,,,,,,,,,,,,,,,,,,,,,,,,,,,,,,,,,,,,,
1720077698,108,0,4509.230957,4402.05127,4376.025879,4382.692383,4396.922852,4357.436035,4412.94873,4440.512695,4405.769043,4351.922852,4287.563965,4511.153809,4347.179688,4291.794922,,,,,,,,,,,,,,,,,,,,,,,,,,,,,,,,,,,,,,,,,,,,,,,,,,,,,,,,,,,,,,,,,,,,,,
1720077698,109,0,4514.102539,4407.436035,4373.717773,4381.666504,4412.692383,4357.820313,4414.230957,4438.077148,4408.205078,4349.615234,4276.666504,4504.102539,4336.153809,4290.512695,,,,,,,,,,,,,,,,,,,,,,,,,,,,,,,,,,,,,,,,,,,,,,,,,,,,,,,,,,,,,,,,,,,,,,
1720077698,110,0,4503.846191,4409.871582,4360.512695,4374.615234,4404.358887,4358.974121,4411.282227,4428.589844,4397.563965,4343.205078,4264.615234,4485.512695,4320.128418,4279.615234,,,,,,,,,,,,,,,,,,,,,,,,,,,,,,,,,,,,,,,,,,,,,,,,,,,,,,,,,,,,,,,,,,,,,,
1720077698,111,0,4513.589844,4411.794922,4362.563965,4387.563965,4388.717773,4357.692383,4415,4423.205078,4392.563965,4346.794922,4272.179688,4485.512695,4325.769043,4281.410156,,,,,,,,,,,,,,,,,,,,,,,,,,,,,,,,,,,,,,,,,,,,,,,,,,,,,,,,,,,,,,,,,,,,,,
1720077698,112,0,4546.666504,4423.846191,4383.333496,4404.743652,4398.974121,4356.794922,4425,4433.717773,4398.974121,4355.769043,4286.410156,4504.743652,4347.307617,4306.794922,,,,,,,,,,,,,,,,,,,,,,,,,,,,,,,,,,,,,,,,,,,,,,,,,,,,,,,,,,,,,,,,,,,,,,
1720077698,113,0,4561.922852,4430.512695,4394.743652,4395.769043,4417.05127,4360,4425.897461,4445.384766,4401.282227,4353.333496,4290.641113,4513.589844,4356.794922,4318.205078,,,,,,,,,,,,,,,,,,,,,,,,,,,,,,,,,,,,,,,,,,,,,,,,,,,,,,,,,,,,,,,,,,,,,,
1720077698,114,0,4547.436035,4420,4385,4378.974121,4413.717773,4358.333496,4418.333496,4442.05127,4395.256348,4347.563965,4283.589844,4503.077148,4347.820313,4301.922852,,,,,,,,,,,,,,,,,,,,,,,,,,,,,,,,,,,,,,,,,,,,,,,,,,,,,,,,,,,,,,,,,,,,,,
1720077698,115,0,4535.769043,4416.025879,4377.692383,4381.794922,4401.794922,4350.897461,4412.692383,4428.717773,4388.974121,4351.666504,4279.102539,4496.794922,4339.102539,4289.743652,,,,,,,,,,,,,,,,,,,,,,,,,,,,,,,,,,,,,,,,,,,,,,,,,,,,,,,,,,,,,,,,,,,,,,
1720077698,116,0,4540.641113,4425.769043,4387.436035,4393.461426,4401.282227,4351.282227,4412.94873,4425.769043,4388.846191,4358.205078,4283.846191,4505.384766,4347.94873,4295.256348,15.723039,3.721816,3.081645,0.81208,0.285762,3.79196,2.295559,0.694668,0.80641,0.338466,1.37953,1.441696,1.463412,0.750739,0.355814,0.882758,1.044101,1.080215,1.269201,1.065056,0.241546,0.360666,0.266707,0.530109,0.460713,0.248867,0.604058,0.350445,0.116638,0.076514,0.193612,0.367623,0.111582,0.145849,0.124262,0.927125,1.149182,1.011301,0.311665,0.132948,0.867828,1.333756,1.128962,0.352477,0.192329,0.466065,0.203204,0.393806,0.24169,0.116239,0.878753,0.800423,0.928677,0.304251,0.162722,2.884927,1.678536,2.493772,0.733522,0.432586,1.898001,1.227485,1.597604,0.511439,0.260884,1.836175,1.68706,2.624524,0.664329,0.50271
1720077698,117,0,4547.05127,4433.461426,4402.563965,4401.794922,4403.205078,4358.461426,4415.384766,4433.077148,4395.897461,4359.743652,4291.794922,4515.384766,4361.794922,4310.384766,,,,,,,,,,,,,,,,,,,,,,,,,,,,,,,,,,,,,,,,,,,,,,,,,,,,,,,,,,,,,,,,,,,,,,
1720077698,118,0,4534.743652,4426.153809,4397.179688,4397.307617,4400.769043,4357.692383,4416.794922,4434.230957,4397.05127,4355.128418,4285.769043,4505.641113,4351.794922,4307.563965,,,,,,,,,,,,,,,,,,,,,,,,,,,,,,,,,,,,,,,,,,,,,,,,,,,,,,,,,,,,,,,,,,,,,,
1720077698,119,0,4508.974121,4406.538574,4377.692383,4380.512695,4395.512695,4355.384766,4417.307617,4434.102539,4395.128418,4348.846191,4270.128418,4485.769043,4331.922852,4280.641113,,,,,,,,,,,,,,,,,,,,,,,,,,,,,,,,,,,,,,,,,,,,,,,,,,,,,,,,,,,,,,,,,,,,,,
1720077698,120,0,4501.153809,4402.307617,4378.205078,4378.974121,4388.461426,4357.179688,4420.256348,4443.974121,4404.615234,4350,4274.871582,4493.077148,4336.153809,4277.05127,,,,,,,,,,,,,,,,,,,,,,,,,,,,,,,,,,,,,,,,,,,,,,,,,,,,,,,,,,,,,,,,,,,,,,
1720077698,121,0,4510.384766,4412.179688,4388.846191,4382.05127,4389.615234,4351.922852,4417.820313,4453.846191,4416.666504,4356.666504,4287.05127,4511.922852,4346.538574,4300.384766,,,,,,,,,,,,,,,,,,,,,,,,,,,,,,,,,,,,,,,,,,,,,,,,,,,,,,,,,,,,,,,,,,,,,,
1720077698,122,0,4508.333496,4407.94873,4382.692383,4366.666504,4396.794922,4343.461426,4411.282227,4452.307617,4418.333496,4359.487305,4275.641113,4505,4337.179688,4298.717773,,,,,,,,,,,,,,,,,,,,,,,,,,,,,,,,,,,,,,,,,,,,,,,,,,,,,,,,,,,,,,,,,,,,,,
1720077698,123,0,4504.615234,4396.153809,4376.922852,4359.102539,4389.615234,4342.05127,4409.358887,4445,4413.717773,4355.769043,4260.384766,4488.974121,4327.307617,4276.153809,,,,,,,,,,,,,,,,,,,,,,,,,,,,,,,,,,,,,,,,,,,,,,,,,,,,,,,,,,,,,,,,,,,,,,
1720077698,124,0,4521.538574,4408.077148,4396.282227,4379.743652,4381.153809,4345.641113,4411.025879,4441.922852,4409.743652,4355.769043,4268.589844,4500,4337.692383,4277.563965,,,,,,,,,,,,,,,,,,,,,,,,,,,,,,,,,,,,,,,,,,,,,,,,,,,,,,,,,,,,,,,,,,,,,,
1720077698,125,0,4543.846191,4431.794922,4416.666504,4401.538574,4392.563965,4352.179688,4416.282227,4446.410156,4408.717773,4358.333496,4279.743652,4521.538574,4353.589844,4298.589844,,,,,,,,,,,,,,,,,,,,,,,,,,,,,,,,,,,,,,,,,,,,,,,,,,,,,,,,,,,,,,,,,,,,,,
