Timestamp,EEG.Counter,EEG.Interpolated,EEG.AF3,EEG.F7,EEG.F3,EEG.FC5,EEG.T7,EEG.P7,EEG.O1,EEG.O2,EEG.P8,EEG.T8,EEG.FC6,EEG.F4,EEG.F8,EEG.AF4,POW.AF3.Theta,POW.AF3.Alpha,POW.AF3.BetaL,POW.AF3.BetaH,POW.AF3.Gamma,POW.F7.Theta,POW.F7.Alpha,POW.F7.BetaL,POW.F7.BetaH,POW.F7.Gamma,POW.F3.Theta,POW.F3.Alpha,POW.F3.BetaL,POW.F3.BetaH,POW.F3.Gamma,POW.FC5.Theta,POW.FC5.Alpha,POW.FC5.BetaL,POW.FC5.BetaH,POW.FC5.Gamma,POW.T7.Theta,POW.T7.Alpha,POW.T7.BetaL,POW.T7.BetaH,POW.T7.Gamma,POW.P7.Theta,POW.P7.Alpha,POW.P7.BetaL,POW.P7.BetaH,POW.P7.Gamma,POW.O1.Theta,POW.O1.Alpha,POW.O1.BetaL,POW.O1.BetaH,POW.O1.Gamma,POW.O2.Theta,POW.O2.Alpha,POW.O2.BetaL,POW.O2.BetaH,POW.O2.Gamma,POW.P8.Theta,POW.P8.Alpha,POW.P8.BetaL,POW.P8.BetaH,POW.P8.Gamma,POW.T8.Theta,POW.T8.Alpha,POW.T8.BetaL,POW.T8.BetaH,POW.T8.Gamma,POW.FC6.Theta,POW.FC6.Alpha,POW.FC6.BetaL,POW.FC6.BetaH,POW.FC6.Gamma,POW.F4.Theta,POW.F4.Alpha,POW.F4.BetaL,POW.F4.BetaH,POW.F4.Gamma,POW.F8.Theta,POW.F8.Alpha,POW.F8.BetaL,POW.F8.BetaH,POW.F8.Gamma,POW.AF4.Theta,POW.AF4.Alpha,POW.AF4.BetaL,POW.AF4.BetaH,POW.AF4.Gamma
1720080230,31,0,4303.589844,4360.384766,4268.974121,4288.077148,4396.538574,4445.897461,4383.461426,4331.538574,4795.512695,4228.333496,4263.077148,4361.666504,6363.589844,4262.820313,,,,,,,,,,,,,,,,,,,,,,,,,,,,,,,,,,,,,,,,,,,,,,,,,,,,,,,,,,,,,,,,,,,,,,
1720080230,32,0,4289.230957,4350.641113,4267.692383,4279.102539,4396.922852,4454.102539,4384.358887,4335.512695,4766.794922,4231.410156,4260.897461,4363.974121,6358.717773,4255.897461,,,,,,,,,,,,,,,,,,,,,,,,,,,,,,,,,,,,,,,,,,,,,,,,,,,,,,,,,,,,,,,,,,,,,,
1720080230,33,0,4296.282227,4358.589844,4289.358887,4291.282227,4404.871582,4463.717773,4399.230957,4354.615234,4753.589844,4252.05127,4270.641113,4379.102539,6364.871582,4266.282227,4.619179,4.015953,1.913793,0.539937,0.580369,2.035061,1.845412,1.376964,0.573245,0.401449,2.926465,2.926324,0.950303,0.362739,0.36527,5.490183,1.67911,0.605212,0.555025,0.383914,0.797859,0.353441,0.451921,0.176113,0.167833,7.997476,2.941701,1.258449,0.2569,0.151702,1.480494,1.603198,1.274817,0.311605,0.39658,5.097545,2.793242,1.261671,1.800737,2.402129,46.685902,43.309464,28.497622,42.983753,43.365475,8.277968,8.259121,5.86321,5.494067,5.960792,1.286186,4.794289,1.94133,0.669884,0.481007,3.629103,3.381168,0.954436,0.402056,0.430076,3.408644,4.295222,2.218938,0.769252,0.442543,3.072306,6.26965,2.762484,0.806905,0.550661
1720080230,34,0,4301.538574,4361.794922,4294.743652,4293.974121,4403.461426,4469.487305,4402.563965,4351.410156,4789.615234,4234.871582,4266.794922,4377.05127,6358.846191,4266.538574,,,,,,,,,,,,,,,,,,,,,,,,,,,,,,,,,,,,,,,,,,,,,,,,,,,,,,,,,,,,,,,,,,,,,,
1720080230,35,0,4301.922852,4358.589844,4288.461426,4283.077148,4401.666504,4471.794922,4393.846191,4335.256348,4833.717773,4199.487305,4257.563965,4368.717773,6346.282227,4253.333496,,,,,,,,,,,,,,,,,,,,,,,,,,,,,,,,,,,,,,,,,,,,,,,,,,,,,,,,,,,,,,,,,,,,,,
1720080230,36,0,4320.512695,4367.820313,4302.436035,4288.846191,4408.974121,4468.589844,4391.025879,4330.897461,4858.846191,4194.102539,4263.077148,4377.05127,6355.769043,4259.871582,,,,,,,,,,,,,,,,,,,,,,,,,,,,,,,,,,,,,,,,,,,,,,,,,,,,,,,,,,,,,,,,,,,,,,
1720080230,37,0,4339.358887,4375.897461,4312.692383,4294.871582,4408.846191,4457.94873,4391.794922,4331.794922,4844.615234,4205.512695,4267.179688,4383.077148,6361.538574,4265.897461,,,,,,,,,,,,,,,,,,,,,,,,,,,,,,,,,,,,,,,,,,,,,,,,,,,,,,,,,,,,,,,,,,,,,,
1720080230,38,0,4341.666504,4368.717773,4305.512695,4284.615234,4397.436035,4443.077148,4396.410156,4349.871582,4731.282227,4236.538574,4262.94873,4387.563965,6343.589844,4253.717773,,,,,,,,,,,,,,,,,,,,,,,,,,,,,,,,,,,,,,,,,,,,,,,,,,,,,,,,,,,,,,,,,,,,,,
1720080230,39,0,4337.820313,4365.256348,4307.179688,4281.538574,4394.743652,4426.922852,4401.282227,4366.666504,4657.563965,4259.615234,4263.461426,4395.384766,6341.410156,4251.410156,,,,,,,,,,,,,,,,,,,,,,,,,,,,,,,,,,,,,,,,,,,,,,,,,,,,,,,,,,,,,,,,,,,,,,
1720080230,40,0,4331.538574,4378.333496,4317.692383,4288.717773,4402.820313,4410.641113,4396.153809,4353.333496,4729.871582,4237.05127,4264.615234,4388.205078,6355,4261.922852,,,,,,,,,,,,,,,,,,,,,,,,,,,,,,,,,,,,,,,,,,,,,,,,,,,,,,,,,,,,,,,,,,,,,,
1720080230,41,0,4332.179688,4394.230957,4328.205078,4295.769043,4411.922852,4396.410156,4392.563965,4338.846191,4819.615234,4206.794922,4270.897461,4387.692383,6361.153809,4275.256348,,,,,,,,,,,,,,,,,,,,,,,,,,,,,,,,,,,,,,,,,,,,,,,,,,,,,,,,,,,,,,,,,,,,,,
1720080230,42,0,4331.025879,4387.820313,4330,4293.589844,4413.846191,4376.794922,4394.358887,4347.436035,4806.922852,4216.538574,4279.487305,4400,6359.615234,4281.666504,,,,,,,,,,,,,,,,,,,,,,,,,,,,,,,,,,,,,,,,,,,,,,,,,,,,,,,,,,,,,,,,,,,,,,
1720080230,43,0,4316.922852,4367.05127,4324.871582,4282.692383,4404.487305,4357.307617,4403.333496,4369.230957,4719.358887,4255,4277.94873,4404.230957,6352.692383,4270.384766,,,,,,,,,,,,,,,,,,,,,,,,,,,,,,,,,,,,,,,,,,,,,,,,,,,,,,,,,,,,,,,,,,,,,,
1720080230,44,0,4314.230957,4362.94873,4323.333496,4281.538574,4398.717773,4341.922852,4410.897461,4384.871582,4664.230957,4276.666504,4275.897461,4401.922852,6347.692383,4260.641113,,,,,,,,,,,,,,,,,,,,,,,,,,,,,,,,,,,,,,,,,,,,,,,,,,,,,,,,,,,,,,,,,,,,,,
1720080230,45,0,4328.974121,4373.077148,4323.333496,4285.128418,4401.025879,4330.256348,4400,4367.179688,4725.897461,4249.358887,4272.307617,4395.512695,6345.128418,4261.410156,,,,,,,,,,,,,,,,,,,,,,,,,,,,,,,,,,,,,,,,,,,,,,,,,,,,,,,,,,,,,,,,,,,,,,
1720080230,46,0,4335.256348,4374.230957,4319.871582,4283.077148,4400.512695,4325,4389.102539,4338.974121,4802.179688,4216.794922,4255.384766,4387.563965,6332.820313,4252.05127,,,,,,,,,,,,,,,,,,,,,,,,,,,,,,,,,,,,,,,,,,,,,,,,,,,,,,,,,,,,,,,,,,,,,,
1720080230,47,0,4336.410156,4369.487305,4312.179688,4282.179688,4392.436035,4317.436035,4389.487305,4349.358887,4717.820313,4240.128418,4242.307617,4385.384766,6318.333496,4235.769043,,,,,,,,,,,,,,,,,,,,,,,,,,,,,,,,,,,,,,,,,,,,,,,,,,,,,,,,,,,,,,,,,,,,,,
1720080230,48,0,4354.230957,4378.974121,4318.461426,4286.538574,4394.230957,4310.641113,4391.666504,4373.333496,4611.666504,4273.846191,4253.333496,4392.563965,6327.820313,4244.230957,,,,,,,,,,,,,,,,,,,,,,,,,,,,,,,,,,,,,,,,,,,,,,,,,,,,,,,,,,,,,,,,,,,,,,
1720080230,49,0,4369.102539,4388.974121,4335.512695,4288.205078,4408.974121,4311.025879,4391.538574,4366.153809,4668.846191,4258.846191,4267.05127,4400.128418,6341.410156,4259.743652,4.030863,2.814358,1.490561,0.608855,0.587571,1.556922,1.639746,1.107208,0.643936,0.41851,2.660578,2.537446,0.802218,0.397505,0.362884,3.443725,1.323655,0.479378,0.545351,0.334896,0.828339,0.364808,0.457428,0.216184,0.173381,6.7846,3.092132,1.11592,0.263411,0.171299,1.246518,1.484575,1.270136,0.40702,0.44786,4.202769,2.329091,1.764289,2.831802,2.728015,51.443348,55.065983,38.48772,65.858055,49.278698,7.595628,7.478057,7.145572,8.823041,6.879085,1.632589,4.199766,1.952154,0.644406,0.541844,4.659925,2.979458,0.971971,0.520986,0.481106,1.727174,3.968004,2.267232,0.718705,0.449312,2.39635,5.96446,2.6238,0.782751,0.576385
1720080230,50,0,4365.897461,4384.871582,4335.641113,4286.794922,4410.128418,4311.538574,4388.589844,4342.563965,4793.205078,4219.230957,4262.307617,4395.512695,6333.846191,4252.563965,,,,,,,,,,,,,,,,,,,,,,,,,,,,,,,,,,,,,,,,,,,,,,,,,,,,,,,,,,,,,,,,,,,,,,
1720080230,51,0,4360.512695,4380.641113,4324.871582,4282.94873,4396.410156,4307.179688,4386.922852,4347.436035,4760.256348,4229.230957,4258.205078,4391.282227,6330.512695,4244.102539,,,,,,,,,,,,,,,,,,,,,,,,,,,,,,,,,,,,,,,,,,,,,,,,,,,,,,,,,,,,,,,,,,,,,,
1720080230,52,0,4363.974121,4385.512695,4329.358887,4284.358887,4393.717773,4303.717773,4398.846191,4380.769043,4624.358887,4285.256348,4269.743652,4404.358887,6343.077148,4254.358887,,,,,,,,,,,,,,,,,,,,,,,,,,,,,,,,,,,,,,,,,,,,,,,,,,,,,,,,,,,,,,,,,,,,,,
1720080230,53,0,4368.333496,4387.820313,4341.282227,4298.717773,4402.179688,4301.666504,4404.615234,4382.436035,4644.615234,4287.436035,4277.692383,4412.94873,6346.153809,4260.897461,,,,,,,,,,,,,,,,,,,,,,,,,,,,,,,,,,,,,,,,,,,,,,,,,,,,,,,,,,,,,,,,,,,,,,
1720080230,54,0,4371.410156,4386.153809,4342.436035,4309.230957,4403.846191,4298.461426,4386.410156,4346.922852,4750.769043,4237.820313,4266.025879,4401.153809,6333.974121,4251.025879,,,,,,,,,,,,,,,,,,,,,,,,,,,,,,,,,,,,,,,,,,,,,,,,,,,,,,,,,,,,,,,,,,,,,,
1720080230,55,0,4379.487305,4388.717773,4342.94873,4311.666504,4400.256348,4300.769043,4377.563965,4335.512695,4755.256348,4226.538574,4251.282227,4392.692383,6327.05127,4243.077148,,,,,,,,,,,,,,,,,,,,,,,,,,,,,,,,,,,,,,,,,,,,,,,,,,,,,,,,,,,,,,,,,,,,,,
1720080230,56,0,4380.512695,4388.589844,4341.666504,4308.974121,4398.333496,4304.102539,4379.743652,4340.384766,4752.820313,4229.615234,4245.128418,4387.692383,6322.820313,4237.94873,,,,,,,,,,,,,,,,,,,,,,,,,,,,,,,,,,,,,,,,,,,,,,,,,,,,,,,,,,,,,,,,,,,,,,
1720080230,57,0,4383.974121,4390.256348,4342.94873,4307.692383,4397.692383,4313.846191,4381.282227,4344.743652,4752.563965,4229.615234,4251.025879,4388.461426,6322.563965,4236.282227,,,,,,,,,,,,,,,,,,,,,,,,,,,,,,,,,,,,,,,,,,,,,,,,,,,,,,,,,,,,,,,,,,,,,,
1720080230,58,0,4394.871582,4397.05127,4351.922852,4311.410156,4398.077148,4330.256348,4393.461426,4376.025879,4608.077148,4286.666504,4261.794922,4406.666504,6325.256348,4243.717773,,,,,,,,,,,,,,,,,,,,,,,,,,,,,,,,,,,,,,,,,,,,,,,,,,,,,,,,,,,,,,,,,,,,,,
1720080230,59,0,4395.128418,4397.307617,4352.563965,4313.846191,4396.282227,4340.384766,4400.769043,4396.794922,4503.205078,4329.358887,4261.666504,4413.333496,6318.461426,4244.487305,,,,,,,,,,,,,,,,,,,,,,,,,,,,,,,,,,,,,,,,,,,,,,,,,,,,,,,,,,,,,,,,,,,,,,
1720080230,60,0,4396.538574,4396.025879,4355.128418,4313.589844,4395.512695,4351.538574,4393.589844,4373.974121,4617.436035,4283.333496,4260.128418,4404.871582,6318.333496,4242.307617,,,,,,,,,,,,,,,,,,,,,,,,,,,,,,,,,,,,,,,,,,,,,,,,,,,,,,,,,,,,,,,,,,,,,,
1720080230,61,0,4407.05127,4399.102539,4364.230957,4313.461426,4399.487305,4370.512695,4385.897461,4353.333496,4720,4241.794922,4266.282227,4406.922852,6330.384766,4248.717773,,,,,,,,,,,,,,,,,,,,,,,,,,,,,,,,,,,,,,,,,,,,,,,,,,,,,,,,,,,,,,,,,,,,,,
1720080230,62,0,4406.410156,4399.358887,4366.410156,4319.102539,4402.179688,4386.666504,4382.436035,4356.538574,4686.153809,4248.589844,4265,4413.205078,6328.589844,4251.153809,,,,,,,,,,,,,,,,,,,,,,,,,,,,,,,,,,,,,,,,,,,,,,,,,,,,,,,,,,,,,,,,,,,,,,
1720080230,63,0,4402.436035,4402.94873,4366.538574,4328.974121,4401.794922,4394.358887,4381.282227,4356.282227,4674.358887,4241.282227,4259.230957,4409.871582,6312.179688,4246.794922,,,,,,,,,,,,,,,,,,,,,,,,,,,,,,,,,,,,,,,,,,,,,,,,,,,,,,,,,,,,,,,,,,,,,,
1720080230,64,0,4403.846191,4413.461426,4372.436035,4339.358887,4404.230957,4399.743652,4382.820313,4347.179688,4725.897461,4220.256348,4261.538574,4407.820313,6310,4247.820313,,,,,,,,,,,,,,,,,,,,,,,,,,,,,,,,,,,,,,,,,,,,,,,,,,,,,,,,,,,,,,,,,,,,,,
1720080230,65,0,4383.589844,4413.974121,4371.025879,4339.871582,4403.846191,4406.538574,4385.384766,4357.563965,4687.05127,4245.512695,4267.436035,4412.692383,6315.512695,4250.769043,3.536045,2.288115,1.412911,0.732044,0.598502,1.222807,1.551779,0.915839,0.747289,0.441192,2.19972,2.293519,0.723104,0.448653,0.351248,2.006796,1.095999,0.392191,0.552875,0.285651,0.834385,0.389737,0.432263,0.265983,0.174678,6.299205,3.459892,1.062584,0.275111,0.184125,1.05481,1.389602,1.234641,0.50721,0.513105,3.511124,2.014743,2.336705,3.923534,3.013026,59.479317,69.281693,47.19751,90.023354,53.498493,7.508528,7.538453,8.276272,12.249285,7.682371,2.08902,3.884601,1.932245,0.630054,0.630826,6.89351,3.03048,1.127041,0.747539,0.570289,2.655221,3.935862,2.111769,0.669733,0.463965,2.074676,5.802438,2.384766,0.738558,0.611038
1720080230,66,0,4353.333496,4405,4363.974121,4334.102539,4397.436035,4416.153809,4389.230957,4381.410156,4579.871582,4290.512695,4265.512695,4418.205078,6306.410156,4245.512695,,,,,,,,,,,,,,,,,,,,,,,,,,,,,,,,,,,,,,,,,,,,,,,,,,,,,,,,,,,,,,,,,,,,,,
1720080230,67,0,4345.897461,4401.794922,4358.846191,4334.102539,4395.256348,4425.384766,4382.692383,4372.820313,4588.717773,4280.769043,4250.256348,4409.871582,6287.05127,4230.384766,,,,,,,,,,,,,,,,,,,,,,,,,,,,,,,,,,,,,,,,,,,,,,,,,,,,,,,,,,,,,,,,,,,,,,
1720080230,68,0,4343.717773,4405.641113,4350.256348,4334.487305,4396.666504,4436.666504,4364.230957,4338.589844,4683.846191,4227.820313,4232.692383,4388.846191,6273.333496,4216.410156,,,,,,,,,,,,,,,,,,,,,,,,,,,,,,,,,,,,,,,,,,,,,,,,,,,,,,,,,,,,,,,,,,,,,,
1720080230,69,0,4340.256348,4411.538574,4351.922852,4339.615234,4396.922852,4456.922852,4365.256348,4336.538574,4702.179688,4215.641113,4237.436035,4391.282227,6277.307617,4220.641113,,,,,,,,,,,,,,,,,,,,,,,,,,,,,,,,,,,,,,,,,,,,,,,,,,,,,,,,,,,,,,,,,,,,,,
1720080230,70,0,4349.615234,4413.717773,4358.461426,4348.077148,4398.077148,4474.358887,4372.05127,4342.179688,4719.871582,4219.871582,4252.94873,4399.487305,6281.922852,4232.307617,,,,,,,,,,,,,,,,,,,,,,,,,,,,,,,,,,,,,,,,,,,,,,,,,,,,,,,,,,,,,,,,,,,,,,
1720080230,71,0,4357.94873,4411.538574,4357.563965,4347.563965,4399.102539,4484.487305,4366.794922,4338.205078,4721.538574,4221.410156,4257.179688,4394.102539,6282.820313,4234.871582,,,,,,,,,,,,,,,,,,,,,,,,,,,,,,,,,,,,,,,,,,,,,,,,,,,,,,,,,,,,,,,,,,,,,,
1720080230,72,0,4356.922852,4408.974121,4360.641113,4342.820313,4396.538574,4496.410156,4375.384766,4371.410156,4578.461426,4279.871582,4261.025879,4408.846191,6291.410156,4241.025879,,,,,,,,,,,,,,,,,,,,,,,,,,,,,,,,,,,,,,,,,,,,,,,,,,,,,,,,,,,,,,,,,,,,,,
1720080230,73,0,4363.717773,4412.692383,4363.333496,4345.256348,4395.128418,4508.077148,4385.897461,4387.94873,4541.922852,4309.743652,4267.692383,4422.692383,6296.025879,4251.025879,,,,,,,,,,,,,,,,,,,,,,,,,,,,,,,,,,,,,,,,,,,,,,,,,,,,,,,,,,,,,,,,,,,,,,
1720080230,74,0,4377.692383,4421.153809,4364.871582,4353.461426,4399.230957,4518.846191,4375,4349.615234,4710.897461,4250.128418,4265.384766,4411.410156,6286.282227,4248.846191,,,,,,,,,,,,,,,,,,,,,,,,,,,,,,,,,,,,,,,,,,,,,,,,,,,,,,,,,,,,,,,,,,,,,,
1720080230,75,0,4384.358887,4428.974121,4371.794922,4358.846191,4404.102539,4531.538574,4369.230957,4344.230957,4724.615234,4239.358887,4262.179688,4409.487305,6276.025879,4246.794922,,,,,,,,,,,,,,,,,,,,,,,,,,,,,,,,,,,,,,,,,,,,,,,,,,,,,,,,,,,,,,,,,,,,,,
1720080230,76,0,4380.384766,4425.641113,4368.077148,4355,4402.94873,4538.589844,4375,4372.179688,4603.461426,4283.333496,4261.410156,4415.641113,6272.94873,4247.563965,,,,,,,,,,,,,,,,,,,,,,,,,,,,,,,,,,,,,,,,,,,,,,,,,,,,,,,,,,,,,,,,,,,,,,
1720080230,77,0,4376.666504,4419.487305,4355.512695,4349.615234,4398.461426,4537.563965,4372.179688,4360.769043,4657.179688,4258.717773,4256.538574,4408.333496,6268.846191,4237.307617,,,,,,,,,,,,,,,,,,,,,,,,,,,,,,,,,,,,,,,,,,,,,,,,,,,,,,,,,,,,,,,,,,,,,,
1720080230,78,0,4378.717773,4422.94873,4356.282227,4352.820313,4401.666504,4537.820313,4367.692383,4339.871582,4764.871582,4218.077148,4251.538574,4404.743652,6263.589844,4228.333496,,,,,,,,,,,,,,,,,,,,,,,,,,,,,,,,,,,,,,,,,,,,,,,,,,,,,,,,,,,,,,,,,,,,,,
1720080230,79,0,4378.974121,4428.077148,4356.025879,4352.436035,4405.384766,4540.641113,4369.487305,4347.94873,4742.179688,4231.922852,4248.846191,4402.94873,6253.717773,4224.358887,,,,,,,,,,,,,,,,,,,,,,,,,,,,,,,,,,,,,,,,,,,,,,,,,,,,,,,,,,,,,,,,,,,,,,
1720080230,80,0,4379.230957,4425.384766,4349.615234,4349.487305,4402.179688,4550.769043,4372.05127,4352.820313,4721.282227,4234.230957,4244.871582,4395.897461,6244.358887,4215,,,,,,,,,,,,,,,,,,,,,,,,,,,,,,,,,,,,,,,,,,,,,,,,,,,,,,,,,,,,,,,,,,,,,,
1720080230,81,0,4385.128418,4429.230957,4356.666504,4359.102539,4404.487305,4566.025879,4378.717773,4358.205078,4725.897461,4234.743652,4248.205078,4402.820313,6251.025879,4219.102539,3.42872,2.344047,1.53125,0.874935,0.607665,1.024999,1.53108,0.788463,0.864671,0.466824,1.890598,2.170101,0.687472,0.507293,0.337457,1.317166,0.985441,0.336695,0.564397,0.243959,0.804066,0.412206,0.382508,0.314785,0.171675,6.642033,4.05121,1.049088,0.283525,0.185826,0.910041,1.341459,1.181412,0.586307,0.575023,3.018775,1.94044,2.835542,4.79857,3.20541,66.097656,82.294281,52.274788,109.434074,55.375206,7.582606,8.30855,8.919352,14.885387,8.243108,2.587906,3.838438,1.90351,0.632755,0.720653,9.819228,3.655343,1.46259,1.085051,0.684312,2.552112,4.047094,1.859369,0.646857,0.483678,1.927692,5.740596,2.082776,0.693568,0.643188
1720080230,82,0,4392.05127,4441.153809,4365.897461,4364.487305,4410.256348,4577.563965,4386.922852,4376.282227,4666.410156,4267.307617,4261.922852,4412.307617,6258.077148,4240,,,,,,,,,,,,,,,,,,,,,,,,,,,,,,,,,,,,,,,,,,,,,,,,,,,,,,,,,,,,,,,,,,,,,,
1720080230,83,0,4391.538574,4436.794922,4364.871582,4356.922852,4407.820313,4582.94873,4390,4382.94873,4611.538574,4281.282227,4266.410156,4415.384766,6252.94873,4245.384766,,,,,,,,,,,,,,,,,,,,,,,,,,,,,,,,,,,,,,,,,,,,,,,,,,,,,,,,,,,,,,,,,,,,,,
1720080230,84,0,4384.743652,4422.692383,4363.461426,4351.282227,4400.384766,4580.256348,4380.128418,4363.333496,4655.128418,4252.563965,4255.384766,4415.128418,6241.922852,4236.025879,,,,,,,,,,,,,,,,,,,,,,,,,,,,,,,,,,,,,,,,,,,,,,,,,,,,,,,,,,,,,,,,,,,,,,
1720080230,85,0,4374.615234,4413.461426,4360.897461,4342.436035,4394.615234,4573.589844,4361.153809,4337.05127,4714.102539,4222.692383,4246.025879,4407.05127,6230.512695,4228.717773,,,,,,,,,,,,,,,,,,,,,,,,,,,,,,,,,,,,,,,,,,,,,,,,,,,,,,,,,,,,,,,,,,,,,,
1720080230,86,0,4359.487305,4399.230957,4354.743652,4330.512695,4386.153809,4568.461426,4358.717773,4345.128418,4638.589844,4240.641113,4243.717773,4403.589844,6218.846191,4220.384766,,,,,,,,,,,,,,,,,,,,,,,,,,,,,,,,,,,,,,,,,,,,,,,,,,,,,,,,,,,,,,,,,,,,,,
1720080230,87,0,4353.589844,4393.205078,4352.436035,4331.538574,4382.307617,4565.897461,4371.794922,4370,4529.615234,4275.897461,4242.179688,4407.563965,6214.230957,4218.974121,,,,,,,,,,,,,,,,,,,,,,,,,,,,,,,,,,,,,,,,,,,,,,,,,,,,,,,,,,,,,,,,,,,,,,
1720080230,88,0,4376.153809,4410.769043,4370.769043,4349.102539,4395.128418,4567.94873,4379.871582,4369.871582,4568.461426,4269.358887,4253.589844,4419.230957,6228.077148,4236.282227,,,,,,,,,,,,,,,,,,,,,,,,,,,,,,,,,,,,,,,,,,,,,,,,,,,,,,,,,,,,,,,,,,,,,,
1720080230,89,0,4405.897461,4431.153809,4394.487305,4364.102539,4409.102539,4571.922852,4379.615234,4362.307617,4645.384766,4252.436035,4274.487305,4433.333496,6246.794922,4256.153809,,,,,,,,,,,,,,,,,,,,,,,,,,,,,,,,,,,,,,,,,,,,,,,,,,,,,,,,,,,,,,,,,,,,,,
1720080230,90,0,4403.717773,4431.922852,4390.769043,4361.282227,4409.230957,4571.410156,4374.230957,4357.820313,4659.358887,4243.589844,4273.333496,4427.94873,6238.205078,4251.025879,,,,,,,,,,,,,,,,,,,,,,,,,,,,,,,,,,,,,,,,,,,,,,,,,,,,,,,,,,,,,,,,,,,,,,
1720080230,91,0,4385.897461,4426.538574,4379.102539,4354.743652,4403.333496,4568.461426,4371.025879,4351.922852,4643.846191,4235.897461,4255.256348,4415.128418,6211.922852,4229.615234,,,,,,,,,,,,,,,,,,,,,,,,,,,,,,,,,,,,,,,,,,,,,,,,,,,,,,,,,,,,,,,,,,,,,,
1720080230,92,0,4385.256348,4428.333496,4386.282227,4360.384766,4399.743652,4565.897461,4386.025879,4377.05127,4545.512695,4275.641113,4259.358887,4424.871582,6207.820313,4226.538574,,,,,,,,,,,,,,,,,,,,,,,,,,,,,,,,,,,,,,,,,,,,,,,,,,,,,,,,,,,,,,,,,,,,,,
1720080230,93,0,4395,4434.102539,4395.256348,4369.230957,4398.589844,4556.922852,4401.282227,4407.05127,4460.769043,4324.230957,4277.179688,4437.820313,6218.333496,4242.94873,,,,,,,,,,,,,,,,,,,,,,,,,,,,,,,,,,,,,,,,,,,,,,,,,,,,,,,,,,,,,,,,,,,,,,
1720080230,94,0,4394.230957,4431.025879,4392.436035,4365.512695,4398.461426,4545.769043,4388.077148,4385.641113,4553.717773,4290.384766,4276.153809,4433.077148,6214.358887,4250.128418,,,,,,,,,,,,,,,,,,,,,,,,,,,,,,,,,,,,,,,,,,,,,,,,,,,,,,,,,,,,,,,,,,,,,,
1720080230,95,0,4379.358887,4415.641113,4385.897461,4354.230957,4397.692383,4536.153809,4371.153809,4350.769043,4660.128418,4241.153809,4263.205078,4426.153809,6206.922852,4242.179688,,,,,,,,,,,,,,,,,,,,,,,,,,,,,,,,,,,,,,,,,,,,,,,,,,,,,,,,,,,,,,,,,,,,,,
1720080230,96,0,4371.794922,4405.769043,4383.589844,4347.436035,4396.153809,4524.358887,4373.333496,4345.256348,4648.717773,4248.205078,4265.128418,4418.846191,6211.794922,4240.641113,,,,,,,,,,,,,,,,,,,,,,,,,,,,,,,,,,,,,,,,,,,,,,,,,,,,,,,,,,,,,,,,,,,,,,
1720080230,97,0,4373.333496,4409.358887,4392.820313,4348.333496,4393.333496,4514.102539,4380.128418,4350.128418,4632.307617,4261.666504,4275,4415.641113,6212.94873,4246.282227,3.719146,2.821554,1.773018,0.990569,0.606307,0.910508,1.520642,0.710525,0.961707,0.489966,1.726045,2.066181,0.651793,0.558206,0.327988,1.180854,0.945749,0.300274,0.564112,0.215452,0.732377,0.416653,0.321132,0.350326,0.1665,7.827595,4.818545,1.033111,0.281384,0.174816,0.793542,1.329644,1.126704,0.631925,0.613262,2.636651,2.056133,3.128881,5.255634,3.265263,66.909805,89.353455,52.367527,119.072128,54.81424,7.445439,9.183742,8.865249,16.104622,8.466578,2.877859,3.884036,1.895187,0.650802,0.77894,12.88634,4.669583,1.949892,1.484773,0.79738,2.504832,4.063292,1.550285,0.652229,0.502879,1.801927,5.619682,1.792805,0.659756,0.659204
1720080230,98,0,4366.666504,4410.897461,4403.461426,4350.128418,4390.641113,4508.333496,4387.179688,4359.102539,4568.846191,4288.205078,4273.077148,4420.128418,6200.897461,4242.563965,,,,,,,,,,,,,,,,,,,,,,,,,,,,,,,,,,,,,,,,,,,,,,,,,,,,,,,,,,,,,,,,,,,,,,
1720080230,99,0,4364.487305,4407.179688,4406.153809,4346.666504,4392.307617,4500.641113,4395.641113,4370.512695,4437.94873,4332.179688,4265.256348,4418.461426,6191.153809,4235.128418,,,,,,,,,,,,,,,,,,,,,,,,,,,,,,,,,,,,,,,,,,,,,,,,,,,,,,,,,,,,,,,,,,,,,,
1720080230,100,0,4380.256348,4415.769043,4421.666504,4350.641113,4397.820313,4493.717773,4404.487305,4367.563965,4424.230957,4329.358887,4263.717773,4420.769043,6192.05127,4240.769043,,,,,,,,,,,,,,,,,,,,,,,,,,,,,,,,,,,,,,,,,,,,,,,,,,,,,,,,,,,,,,,,,,,,,,
1720080230,101,0,4389.743652,4429.102539,4420.512695,4361.794922,4403.077148,4493.589844,4409.615234,4356.025879,4527.179688,4295.384766,4266.538574,4423.589844,6191.410156,4246.282227,,,,,,,,,,,,,,,,,,,,,,,,,,,,,,,,,,,,,,,,,,,,,,,,,,,,,,,,,,,,,,,,,,,,,,
1720080230,102,0,4383.846191,4427.94873,4383.717773,4365.256348,4405.769043,4490.384766,4403.205078,4344.487305,4586.666504,4276.153809,4265.897461,4416.794922,6182.307617,4237.179688,,,,,,,,,,,,,,,,,,,,,,,,,,,,,,,,,,,,,,,,,,,,,,,,,,,,,,,,,,,,,,,,,,,,,,
1720080230,103,0,4377.820313,4419.743652,4353.717773,4359.871582,4401.153809,4474.487305,4390.128418,4333.974121,4559.487305,4272.94873,4261.538574,4408.846191,6174.358887,4228.717773,,,,,,,,,,,,,,,,,,,,,,,,,,,,,,,,,,,,,,,,,,,,,,,,,,,,,,,,,,,,,,,,,,,,,,
1720080230,104,0,4373.461426,4419.102539,4339.358887,4355.512695,4397.563965,4458.717773,4385.128418,4324.615234,4561.025879,4264.230957,4259.230957,4405.512695,6172.692383,4232.94873,,,,,,,,,,,,,,,,,,,,,,,,,,,,,,,,,,,,,,,,,,,,,,,,,,,,,,,,,,,,,,,,,,,,,,
1720080230,105,0,4369.230957,4420.256348,4327.179688,4356.794922,4401.794922,4447.436035,4390.384766,4326.025879,4595.641113,4264.743652,4265.641113,4414.230957,6175.641113,4245.384766,,,,,,,,,,,,,,,,,,,,,,,,,,,,,,,,,,,,,,,,,,,,,,,,,,,,,,,,,,,,,,,,,,,,,,
1720080230,106,0,4366.538574,4412.820313,4329.358887,4356.794922,4398.589844,4429.871582,4400.128418,4355.897461,4500,4313.077148,4278.333496,4431.025879,6180.641113,4259.102539,,,,,,,,,,,,,,,,,,,,,,,,,,,,,,,,,,,,,,,,,,,,,,,,,,,,,,,,,,,,,,,,,,,,,,
1720080230,107,0,4358.077148,4398.846191,4337.436035,4353.461426,4390.128418,4412.436035,4404.487305,4378.461426,4370.641113,4356.410156,4284.871582,4434.230957,6182.94873,4268.461426,,,,,,,,,,,,,,,,,,,,,,,,,,,,,,,,,,,,,,,,,,,,,,,,,,,,,,,,,,,,,,,,,,,,,,
1720080230,108,0,4344.487305,4385.256348,4334.871582,4346.410156,4388.846191,4401.794922,4392.692383,4353.333496,4439.615234,4316.410156,4279.102539,4421.794922,6174.871582,4262.820313,,,,,,,,,,,,,,,,,,,,,,,,,,,,,,,,,,,,,,,,,,,,,,,,,,,,,,,,,,,,,,,,,,,,,,
1720080230,109,0,4337.179688,4382.563965,4336.153809,4339.487305,4386.794922,4396.410156,4383.846191,4327.307617,4559.102539,4264.615234,4266.410156,4416.282227,6161.666504,4251.153809,,,,,,,,,,,,,,,,,,,,,,,,,,,,,,,,,,,,,,,,,,,,,,,,,,,,,,,,,,,,,,,,,,,,,,
1720080230,110,0,4341.410156,4389.102539,4344.358887,4340.769043,4387.692383,4389.743652,4395,4358.589844,4464.871582,4318.205078,4270.641113,4428.461426,6164.487305,4259.615234,,,,,,,,,,,,,,,,,,,,,,,,,,,,,,,,,,,,,,,,,,,,,,,,,,,,,,,,,,,,,,,,,,,,,,
1720080230,111,0,4340.897461,4384.615234,4347.436035,4341.538574,4387.563965,4376.410156,4402.179688,4389.871582,4339.487305,4374.487305,4277.692383,4440.641113,6171.794922,4271.025879,,,,,,,,,,,,,,,,,,,,,,,,,,,,,,,,,,,,,,,,,,,,,,,,,,,,,,,,,,,,,,,,,,,,,,
1720080230,112,0,4336.666504,4375.384766,4353.589844,4340.256348,4386.922852,4368.589844,4398.461426,4373.333496,4398.717773,4341.153809,4268.717773,4437.692383,6164.102539,4268.461426,,,,,,,,,,,,,,,,,,,,,,,,,,,,,,,,,,,,,,,,,,,,,,,,,,,,,,,,,,,,,,,,,,,,,,
1720080230,113,0,4344.358887,4386.153809,4367.692383,4348.461426,4394.615234,4375.512695,4398.333496,4358.974121,4496.153809,4307.05127,4266.282227,4434.358887,6157.307617,4272.94873,4.494987,3.602587,2.093737,1.037606,0.587265,0.839147,1.492705,0.690491,1.004453,0.502973,1.749546,1.906724,0.615256,0.584374,0.32508,1.269886,0.922241,0.280394,0.542152,0.201298,0.625069,0.395079,0.266284,0.364295,0.161964,9.675814,5.60101,0.991198,0.264165,0.153851,0.700158,1.300108,1.080892,0.647703,0.613855,2.234494,2.212634,3.143412,5.247794,3.185255,61.020794,87.178093,47.756092,117.045364,52.375568,6.777436,9.524039,8.07536,15.805001,8.337666,2.921929,3.834365,1.925841,0.676084,0.783547,14.990509,5.676817,2.466914,1.850665,0.878961,2.16184,3.843249,1.384602,0.670581,0.515134,1.644107,5.341246,1.583946,0.638214,0.648573
1720080230,114,0,4352.179688,4393.333496,4382.820313,4357.94873,4398.974121,4383.461426,4398.589844,4368.461426,4499.871582,4314.487305,4279.102539,4449.230957,6163.077148,4285.512695,,,,,,,,,,,,,,,,,,,,,,,,,,,,,,,,,,,,,,,,,,,,,,,,,,,,,,,,,,,,,,,,,,,,,,
1720080230,115,0,4346.410156,4379.487305,4387.05127,4357.179688,4393.077148,4382.563965,4401.282227,4384.358887,4415.128418,4346.666504,4287.820313,4463.846191,6170.128418,4292.94873,,,,,,,,,,,,,,,,,,,,,,,,,,,,,,,,,,,,,,,,,,,,,,,,,,,,,,,,,,,,,,,,,,,,,,
1720080230,116,0,4330.897461,4374.358887,4383.333496,4352.179688,4390.769043,4386.025879,4410.128418,4399.743652,4334.871582,4379.743652,4283.077148,4464.487305,6162.05127,4292.820313,,,,,,,,,,,,,,,,,,,,,,,,,,,,,,,,,,,,,,,,,,,,,,,,,,,,,,,,,,,,,,,,,,,,,,
1720080230,117,0,4314.871582,4376.410156,4378.846191,4349.487305,4395.384766,4393.589844,4411.538574,4401.794922,4355.769043,4379.615234,4277.05127,4464.230957,6150.256348,4285.897461,,,,,,,,,,,,,,,,,,,,,,,,,,,,,,,,,,,,,,,,,,,,,,,,,,,,,,,,,,,,,,,,,,,,,,
1720080230,118,0,4312.692383,4366.410156,4377.307617,4347.436035,4392.563965,4403.589844,4399.487305,4379.615234,4473.461426,4340.512695,4273.589844,4466.666504,6151.538574,4281.025879,,,,,,,,,,,,,,,,,,,,,,,,,,,,,,,,,,,,,,,,,,,,,,,,,,,,,,,,,,,,,,,,,,,,,,
1720080230,119,0,4317.563965,4363.717773,4383.205078,4347.563965,4387.436035,4419.358887,4396.922852,4373.717773,4503.077148,4336.025879,4277.820313,4473.461426,6156.025879,4289.615234,,,,,,,,,,,,,,,,,,,,,,,,,,,,,,,,,,,,,,,,,,,,,,,,,,,,,,,,,,,,,,,,,,,,,,
1720080230,120,0,4317.179688,4371.282227,4390.384766,4349.102539,4388.717773,4428.717773,4409.615234,4407.307617,4376.025879,4386.666504,4291.282227,4483.077148,6156.410156,4302.94873,,,,,,,,,,,,,,,,,,,,,,,,,,,,,,,,,,,,,,,,,,,,,,,,,,,,,,,,,,,,,,,,,,,,,,
1720080230,121,0,4317.05127,4368.846191,4388.205078,4347.692383,4389.487305,4434.230957,4414.871582,4420.256348,4321.538574,4398.974121,4294.487305,4478.205078,6154.487305,4306.025879,,,,,,,,,,,,,,,,,,,,,,,,,,,,,,,,,,,,,,,,,,,,,,,,,,,,,,,,,,,,,,,,,,,,,,
1720080230,122,0,4320.769043,4364.358887,4388.077148,4345.512695,4388.846191,4444.358887,4410.128418,4396.025879,4401.025879,4363.205078,4287.05127,4467.563965,6148.589844,4302.307617,,,,,,,,,,,,,,,,,,,,,,,,,,,,,,,,,,,,,,,,,,,,,,,,,,,,,,,,,,,,,,,,,,,,,,
1720080230,123,0,4320.641113,4366.025879,4396.153809,4344.487305,4391.538574,4450.256348,4406.153809,4380.128418,4467.820313,4338.205078,4288.333496,4471.666504,6145.769043,4300.512695,,,,,,,,,,,,,,,,,,,,,,,,,,,,,,,,,,,,,,,,,,,,,,,,,,,,,,,,,,,,,,,,,,,,,,
1720080230,124,0,4323.717773,4368.077148,4401.410156,4344.743652,4396.538574,4446.025879,4401.410156,4380.641113,4470.641113,4336.666504,4297.05127,4471.153809,6148.333496,4306.666504,,,,,,,,,,,,,,,,,,,,,,,,,,,,,,,,,,,,,,,,,,,,,,,,,,,,,,,,,,,,,,,,,,,,,,
1720080230,125,0,4328.461426,4369.102539,4401.025879,4343.974121,4395.641113,4443.717773,4401.538574,4391.410156,4393.589844,4362.820313,4297.94873,4465,6142.692383,4312.179688,,,,,,,,,,,,,,,,,,,,,,,,,,,,,,,,,,,,,,,,,,,,,,,,,,,,,,,,,,,,,,,,,,,,,,
1720080230,126,0,4324.358887,4366.282227,4403.461426,4341.538574,4393.077148,4442.94873,4410.128418,4414.743652,4272.563965,4408.205078,4300.384766,4473.717773,6134.358887,4310.512695,,,,,,,,,,,,,,,,,,,,,,,,,,,,,,,,,,,,,,,,,,,,,,,,,,,,,,,,,,,,,,,,,,,,,,
1720080230,127,0,4325.384766,4367.692383,4412.94873,4345.512695,4395.512695,4443.589844,4411.538574,4418.846191,4292.820313,4408.077148,4311.922852,4481.410156,6139.871582,4313.589844,,,,,,,,,,,,,,,,,,,,,,,,,,,,,,,,,,,,,,,,,,,,,,,,,,,,,,,,,,,,,,,,,,,,,,
1720080230,0,0,4337.820313,4374.102539,4421.538574,4354.102539,4399.487305,4452.94873,4402.692383,4391.922852,4447.692383,4355.384766,4312.692383,4478.974121,6137.692383,4316.666504,,,,,,,,,,,,,,,,,,,,,,,,,,,,,,,,,,,,,,,,,,,,,,,,,,,,,,,,,,,,,,,,,,,,,,
1720080230,1,0,4343.717773,4372.94873,4420.384766,4353.974121,4398.974121,4455.897461,4392.307617,4366.410156,4495,4321.282227,4289.487305,4465.256348,6112.179688,4306.282227,5.674456,4.531075,2.459517,1.004918,0.549738,0.788385,1.464991,0.758632,0.978662,0.498649,2.044555,1.679903,0.607723,0.579494,0.326334,1.413083,0.901658,0.298116,0.501404,0.198537,0.501004,0.35592,0.239214,0.358428,0.15969,11.684442,6.176816,0.948355,0.237692,0.128181,0.614811,1.190294,1.060127,0.652192,0.576202,1.754936,2.2445,2.936476,4.907556,2.992299,48.295063,75.971039,40.59169,105.775078,48.959595,5.465,9.00514,6.8501,14.479731,7.918627,2.768315,3.5893,1.979323,0.699881,0.732735,15.383213,6.271057,2.864267,2.080923,0.90281,1.800335,3.403329,1.313607,0.686121,0.515792,1.466252,4.906039,1.48546,0.632536,0.609091
1720080230,2,0,4336.666504,4366.282227,4417.820313,4348.589844,4395.512695,4454.871582,4387.820313,4361.794922,4452.436035,4315.769043,4265.512695,4451.922852,6084.743652,4292.307617,,,,,,,,,,,,,,,,,,,,,,,,,,,,,,,,,,,,,,,,,,,,,,,,,,,,,,,,,,,,,,,,,,,,,,
1720080230,3,0,4333.077148,4367.94873,4427.436035,4354.487305,4395.641113,4466.153809,4394.358887,4372.436035,4477.436035,4316.666504,4271.025879,4460.128418,6082.179688,4292.820313,,,,,,,,,,,,,,,,,,,,,,,,,,,,,,,,,,,,,,,,,,,,,,,,,,,,,,,,,,,,,,,,,,,,,,
1720080230,4,0,4334.102539,4375.128418,4434.358887,4362.563965,4397.436035,4477.563965,4398.846191,4377.436035,4524.358887,4314.615234,4284.102539,4466.794922,6088.205078,4297.307617,,,,,,,,,,,,,,,,,,,,,,,,,,,,,,,,,,,,,,,,,,,,,,,,,,,,,,,,,,,,,,,,,,,,,,
1720080230,5,0,4331.153809,4378.974121,4432.94873,4358.461426,4394.487305,4476.922852,4397.692383,4385.384766,4430.256348,4337.436035,4280,4458.077148,6076.025879,4292.820313,,,,,,,,,,,,,,,,,,,,,,,,,,,,,,,,,,,,,,,,,,,,,,,,,,,,,,,,,,,,,,,,,,,,,,
1720080230,6,0,4334.871582,4380.128418,4440.256348,4357.692383,4390.641113,4476.410156,4409.102539,4422.563965,4235.512695,4403.717773,4283.846191,4468.205078,6061.153809,4290.641113,,,,,,,,,,,,,,,,,,,,,,,,,,,,,,,,,,,,,,,,,,,,,,,,,,,,,,,,,,,,,,,,,,,,,,
1720080230,7,0,4343.974121,4381.025879,4445.512695,4365.512695,4391.025879,4479.487305,4420.512695,4442.692383,4212.05127,4427.307617,4293.461426,4482.820313,6061.666504,4292.692383,,,,,,,,,,,,,,,,,,,,,,,,,,,,,,,,,,,,,,,,,,,,,,,,,,,,,,,,,,,,,,,,,,,,,,
1720080230,8,0,4348.205078,4385.897461,4442.179688,4360.384766,4392.692383,4477.05127,4409.743652,4404.743652,4382.307617,4364.358887,4286.410156,4467.307617,6058.461426,4288.333496,,,,,,,,,,,,,,,,,,,,,,,,,,,,,,,,,,,,,,,,,,,,,,,,,,,,,,,,,,,,,,,,,,,,,,
1720080230,9,0,4358.717773,4393.974121,4449.487305,4347.307617,4397.436035,4478.974121,4394.230957,4373.589844,4484.871582,4317.436035,4275.897461,4456.666504,6043.846191,4284.487305,,,,,,,,,,,,,,,,,,,,,,,,,,,,,,,,,,,,,,,,,,,,,,,,,,,,,,,,,,,,,,,,,,,,,,
1720080230,10,0,4375.769043,4400.641113,4460.897461,4341.025879,4401.282227,4477.436035,4388.589844,4376.282227,4475.641113,4325.512695,4271.282227,4455.256348,6029.230957,4280.897461,,,,,,,,,,,,,,,,,,,,,,,,,,,,,,,,,,,,,,,,,,,,,,,,,,,,,,,,,,,,,,,,,,,,,,
1720080230,11,0,4381.410156,4403.077148,4460,4337.179688,4398.461426,4464.102539,4393.717773,4373.846191,4464.615234,4332.05127,4265.897461,4446.538574,6020.897461,4266.538574,,,,,,,,,,,,,,,,,,,,,,,,,,,,,,,,,,,,,,,,,,,,,,,,,,,,,,,,,,,,,,,,,,,,,,
1720080231,12,0,4377.563965,4398.974121,4452.307617,4329.487305,4394.743652,4456.666504,4396.538574,4353.461426,4484.871582,4312.820313,4258.589844,4437.563965,6011.025879,4249.871582,,,,,,,,,,,,,,,,,,,,,,,,,,,,,,,,,,,,,,,,,,,,,,,,,,,,,,,,,,,,,,,,,,,,,,
1720080231,13,0,4384.743652,4395.897461,4450.512695,4322.05127,4396.025879,4454.487305,4390.769043,4343.077148,4468.205078,4307.94873,4247.820313,4429.871582,5994.743652,4244.102539,,,,,,,,,,,,,,,,,,,,,,,,,,,,,,,,,,,,,,,,,,,,,,,,,,,,,,,,,,,,,,,,,,,,,,
1720080231,14,0,4391.922852,4396.153809,4452.820313,4317.820313,4395,4445.897461,4392.820313,4364.230957,4325,4347.563965,4235.256348,4430.641113,5972.179688,4233.846191,,,,,,,,,,,,,,,,,,,,,,,,,,,,,,,,,,,,,,,,,,,,,,,,,,,,,,,,,,,,,,,,,,,,,,
1720080231,15,0,4392.563965,4400,4449.871582,4315.641113,4392.692383,4440.897461,4400.897461,4379.871582,4223.461426,4368.589844,4231.410156,4436.538574,5958.077148,4217.307617,,,,,,,,,,,,,,,,,,,,,,,,,,,,,,,,,,,,,,,,,,,,,,,,,,,,,,,,,,,,,,,,,,,,,,
1720080231,16,0,4398.205078,4406.282227,4449.615234,4316.025879,4394.487305,4445.256348,4396.922852,4366.025879,4317.179688,4331.410156,4230.256348,4447.563965,5956.410156,4215.384766,,,,,,,,,,,,,,,,,,,,,,,,,,,,,,,,,,,,,,,,,,,,,,,,,,,,,,,,,,,,,,,,,,,,,,
1720080231,17,0,4410.384766,4411.922852,4462.563965,4321.153809,4400.384766,4447.820313,4392.563965,4359.102539,4410.897461,4306.922852,4231.922852,4476.538574,5955.769043,4229.871582,6.846265,5.399567,2.805127,0.914046,0.500323,0.769252,1.483532,0.929818,0.892935,0.474366,2.829358,1.503813,0.702627,0.5579,0.327187,1.453428,0.902937,0.374034,0.453124,0.201807,0.381532,0.324626,0.251196,0.341173,0.158585,13.503447,6.367269,0.948092,0.214531,0.103385,0.561212,0.983387,1.075246,0.670081,0.512924,1.370039,2.087324,2.646612,4.462446,2.737069,34.380062,59.28624,33.636566,90.498848,45.399879,3.963529,7.775114,5.692826,12.913589,7.327123,2.494292,3.184937,2.023987,0.716475,0.645232,13.923714,6.206426,3.011223,2.112084,0.859322,1.60621,2.85371,1.412025,0.694514,0.504322,1.31269,4.392573,1.494858,0.653355,0.549095
1720080231,18,0,4423.974121,4417.563965,4475.897461,4328.846191,4409.743652,4449.358887,4402.94873,4372.436035,4393.846191,4325.512695,4243.333496,4514.871582,5955.641113,4240.897461,,,,,,,,,,,,,,,,,,,,,,,,,,,,,,,,,,,,,,,,,,,,,,,,,,,,,,,,,,,,,,,,,,,,,,
1720080231,19,0,4430.512695,4417.820313,4478.461426,4334.230957,4414.615234,4444.230957,4407.307617,4379.230957,4392.05127,4338.077148,4252.436035,4525.641113,5959.358887,4240.384766,,,,,,,,,,,,,,,,,,,,,,,,,,,,,,,,,,,,,,,,,,,,,,,,,,,,,,,,,,,,,,,,,,,,,,
1720080231,20,0,4420,4409.871582,4472.94873,4330,4405.769043,4423.717773,4400,4375.769043,4400.769043,4333.333496,4248.589844,4507.94873,5955.512695,4233.333496,,,,,,,,,,,,,,,,,,,,,,,,,,,,,,,,,,,,,,,,,,,,,,,,,,,,,,,,,,,,,,,,,,,,,,
1720080231,21,0,4408.205078,4406.922852,4466.794922,4322.94873,4398.589844,4407.307617,4392.05127,4368.205078,4410.512695,4320.769043,4242.307617,4487.820313,5941.025879,4228.333496,,,,,,,,,,,,,,,,,,,,,,,,,,,,,,,,,,,,,,,,,,,,,,,,,,,,,,,,,,,,,,,,,,,,,,
1720080231,22,0,4416.153809,4417.692383,4469.230957,4326.922852,4402.563965,4400.512695,4390.128418,4369.230957,4407.179688,4322.692383,4241.410156,4476.025879,5928.461426,4226.153809,,,,,,,,,,,,,,,,,,,,,,,,,,,,,,,,,,,,,,,,,,,,,,,,,,,,,,,,,,,,,,,,,,,,,,
1720080231,23,0,4417.436035,4414.102539,4473.974121,4330.897461,4396.410156,4381.282227,4392.692383,4392.563965,4282.436035,4364.102539,4234.871582,4475,5917.820313,4218.846191,,,,,,,,,,,,,,,,,,,,,,,,,,,,,,,,,,,,,,,,,,,,,,,,,,,,,,,,,,,,,,,,,,,,,,
1720080231,24,0,4403.205078,4393.333496,4464.743652,4322.179688,4387.179688,4357.94873,4386.666504,4396.410156,4196.025879,4382.820313,4230.256348,4469.358887,5910.384766,4212.307617,,,,,,,,,,,,,,,,,,,,,,,,,,,,,,,,,,,,,,,,,,,,,,,,,,,,,,,,,,,,,,,,,,,,,,
1720080231,25,0,4403.461426,4388.077148,4458.077148,4316.538574,4390,4355,4373.589844,4359.487305,4322.179688,4332.563965,4231.666504,4456.666504,5907.307617,4214.230957,,,,,,,,,,,,,,,,,,,,,,,,,,,,,,,,,,,,,,,,,,,,,,,,,,,,,,,,,,,,,,,,,,,,,,
1720080231,26,0,4416.153809,4398.333496,4469.230957,4325.769043,4393.205078,4355.256348,4370.128418,4347.692383,4385.384766,4308.717773,4231.666504,4454.358887,5903.846191,4223.205078,,,,,,,,,,,,,,,,,,,,,,,,,,,,,,,,,,,,,,,,,,,,,,,,,,,,,,,,,,,,,,,,,,,,,,
1720080231,27,0,4417.820313,4402.94873,4477.692383,4333.333496,4393.077148,4342.563965,4383.974121,4389.230957,4221.794922,4372.563965,4237.94873,4463.717773,5902.94873,4233.589844,,,,,,,,,,,,,,,,,,,,,,,,,,,,,,,,,,,,,,,,,,,,,,,,,,,,,,,,,,,,,,,,,,,,,,
1720080231,28,0,4405.512695,4393.333496,4468.205078,4323.333496,4392.94873,4332.692383,4395.769043,4407.436035,4139.743652,4406.538574,4242.307617,4463.974121,5897.94873,4224.743652,,,,,,,,,,,,,,,,,,,,,,,,,,,,,,,,,,,,,,,,,,,,,,,,,,,,,,,,,,,,,,,,,,,,,,
1720080231,29,0,4403.205078,4389.358887,4459.743652,4314.743652,4392.05127,4326.922852,4395.384766,4375.256348,4274.230957,4355.128418,4233.205078,4451.410156,5886.025879,4211.410156,,,,,,,,,,,,,,,,,,,,,,,,,,,,,,,,,,,,,,,,,,,,,,,,,,,,,,,,,,,,,,,,,,,,,,
1720080231,30,0,4418.717773,4403.846191,4468.205078,4326.153809,4395,4314.871582,4392.692383,4352.692383,4396.410156,4316.282227,4229.743652,4448.589844,5881.794922,4223.077148,,,,,,,,,,,,,,,,,,,,,,,,,,,,,,,,,,,,,,,,,,,,,,,,,,,,,,,,,,,,,,,,,,,,,,
1720080231,31,0,4428.077148,4414.871582,4480.769043,4340.897461,4401.538574,4299.102539,4392.820313,4376.410156,4327.436035,4359.358887,4247.692383,4461.538574,5894.102539,4243.077148,,,,,,,,,,,,,,,,,,,,,,,,,,,,,,,,,,,,,,,,,,,,,,,,,,,,,,,,,,,,,,,,,,,,,,
1720080231,32,0,4428.589844,4410,4486.410156,4340.641113,4397.05127,4287.563965,4398.333496,4422.94873,4142.94873,4442.563965,4268.717773,4477.436035,5905.641113,4250.128418,,,,,,,,,,,,,,,,,,,,,,,,,,,,,,,,,,,,,,,,,,,,,,,,,,,,,,,,,,,,,,,,,,,,,,
1720080231,33,0,4430.769043,4403.333496,4489.743652,4336.410156,4389.230957,4274.487305,4400.897461,4439.615234,4055.256348,4479.230957,4276.282227,4481.922852,5899.230957,4259.230957,7.699584,6.007629,3.050377,0.808096,0.448831,0.778887,1.595886,1.177616,0.773626,0.433943,4.318896,1.523672,0.932775,0.54924,0.322665,1.465102,0.95635,0.503231,0.410122,0.204699,0.287637,0.334157,0.295642,0.322416,0.15541,14.566504,6.099992,1.013472,0.204495,0.083852,0.524243,0.73025,1.133004,0.713076,0.443788,1.245306,1.786062,2.453665,4.112517,2.479699,22.731224,42.488461,30.161263,76.596443,42.382519,2.67569,6.259514,5.161013,11.777557,6.715381,2.177995,2.729547,2.056017,0.7303,0.54927,11.138436,5.433448,2.870731,1.952589,0.759887,1.403872,2.335155,1.548677,0.702608,0.482516,1.222288,3.869828,1.597149,0.712664,0.481696
1720080231,34,0,4421.794922,4397.179688,4492.05127,4337.692383,4392.05127,4252.179688,4391.153809,4418.333496,4101.025879,4451.410156,4267.692383,4474.230957,5879.615234,4259.871582,,,,,,,,,,,,,,,,,,,,,,,,,,,,,,,,,,,,,,,,,,,,,,,,,,,,,,,,,,,,,,,,,,,,,,
1720080231,35,0,4415.512695,4398.077148,4492.307617,4342.820313,4397.307617,4234.871582,4378.333496,4399.487305,4165.641113,4416.922852,4254.358887,4462.307617,5867.94873,4244.102539,,,,,,,,,,,,,,,,,,,,,,,,,,,,,,,,,,,,,,,,,,,,,,,,,,,,,,,,,,,,,,,,,,,,,,
1720080231,36,0,4424.743652,4409.102539,4489.230957,4344.102539,4398.974121,4229.102539,4370.512695,4386.666504,4230.897461,4393.846191,4251.025879,4452.307617,5870.256348,4238.205078,,,,,,,,,,,,,,,,,,,,,,,,,,,,,,,,,,,,,,,,,,,,,,,,,,,,,,,,,,,,,,,,,,,,,,
1720080231,37,0,4417.820313,4404.230957,4483.461426,4336.410156,4393.974121,4219.230957,4357.820313,4356.538574,4321.282227,4346.410156,4242.94873,4445,5860,4238.333496,,,,,,,,,,,,,,,,,,,,,,,,,,,,,,,,,,,,,,,,,,,,,,,,,,,,,,,,,,,,,,,,,,,,,,
1720080231,38,0,4407.563965,4395.512695,4488.974121,4336.153809,4395.128418,4215.512695,4353.333496,4346.153809,4362.436035,4324.230957,4246.666504,4444.487305,5851.666504,4241.153809,,,,,,,,,,,,,,,,,,,,,,,,,,,,,,,,,,,,,,,,,,,,,,,,,,,,,,,,,,,,,,,,,,,,,,
1720080231,39,0,4424.743652,4411.410156,4510.897461,4353.974121,4408.205078,4234.871582,4370.384766,4360.897461,4401.410156,4341.282227,4275.384766,4455.897461,5864.871582,4258.077148,,,,,,,,,,,,,,,,,,,,,,,,,,,,,,,,,,,,,,,,,,,,,,,,,,,,,,,,,,,,,,,,,,,,,,
1720080231,40,0,4434.743652,4425.128418,4517.94873,4361.025879,4414.615234,4248.717773,4381.666504,4362.94873,4461.794922,4344.230957,4292.179688,4462.692383,5869.871582,4269.615234,,,,,,,,,,,,,,,,,,,,,,,,,,,,,,,,,,,,,,,,,,,,,,,,,,,,,,,,,,,,,,,,,,,,,,
1720080231,41,0,4421.538574,4414.102539,4505.897461,4347.563965,4404.871582,4244.871582,4381.538574,4375.384766,4388.205078,4366.538574,4288.461426,4460.256348,5857.307617,4267.179688,,,,,,,,,,,,,,,,,,,,,,,,,,,,,,,,,,,,,,,,,,,,,,,,,,,,,,,,,,,,,,,,,,,,,,
1720080231,42,0,4419.102539,4408.205078,4511.282227,4344.871582,4400.897461,4253.205078,4387.563965,4400,4287.307617,4399.358887,4292.436035,4467.436035,5851.666504,4272.820313,,,,,,,,,,,,,,,,,,,,,,,,,,,,,,,,,,,,,,,,,,,,,,,,,,,,,,,,,,,,,,,,,,,,,,
1720080231,43,0,4420.897461,4418.205078,4524.102539,4349.487305,4410.128418,4266.282227,4389.487305,4394.358887,4339.743652,4381.153809,4297.179688,4471.282227,5852.436035,4279.487305,,,,,,,,,,,,,,,,,,,,,,,,,,,,,,,,,,,,,,,,,,,,,,,,,,,,,,,,,,,,,,,,,,,,,,
1720080231,44,0,4414.743652,4422.436035,4520.769043,4345.256348,4411.922852,4265.769043,4378.077148,4367.179688,4427.307617,4341.538574,4291.153809,4461.410156,5842.94873,4277.05127,,,,,,,,,,,,,,,,,,,,,,,,,,,,,,,,,,,,,,,,,,,,,,,,,,,,,,,,,,,,,,,,,,,,,,
1720080231,45,0,4395,4404.615234,4508.974121,4335.128418,4401.282227,4264.358887,4358.333496,4345.512695,4435.128418,4321.153809,4277.307617,4447.307617,5820.256348,4265.769043,,,,,,,,,,,,,,,,,,,,,,,,,,,,,,,,,,,,,,,,,,,,,,,,,,,,,,,,,,,,,,,,,,,,,,
1720080231,46,0,4342.820313,4374.102539,4490.128418,4317.820313,4386.538574,4260.769043,4343.461426,4341.410156,4353.717773,4325.769043,4249.102539,4426.922852,5788.589844,4237.436035,,,,,,,,,,,,,,,,,,,,,,,,,,,,,,,,,,,,,,,,,,,,,,,,,,,,,,,,,,,,,,,,,,,,,,
1720080231,47,0,4302.307617,4370.128418,4485.897461,4308.846191,4383.589844,4257.179688,4350.769043,4365.128418,4232.692383,4367.820313,4240.256348,4421.153809,5783.333496,4230.769043,,,,,,,,,,,,,,,,,,,,,,,,,,,,,,,,,,,,,,,,,,,,,,,,,,,,,,,,,,,,,,,,,,,,,,
1720080231,48,0,4303.461426,4390.128418,4507.563965,4320,4391.666504,4271.410156,4371.153809,4388.333496,4229.230957,4400.384766,4273.974121,4447.563965,5813.974121,4262.820313,,,,,,,,,,,,,,,,,,,,,,,,,,,,,,,,,,,,,,,,,,,,,,,,,,,,,,,,,,,,,,,,,,,,,,
1720080231,49,0,4303.717773,4400.641113,4521.282227,4333.077148,4397.692383,4295.641113,4378.077148,4376.666504,4371.922852,4368.205078,4300.128418,4466.153809,5828.589844,4284.743652,7.931227,6.220631,3.146003,0.730331,0.404575,0.810772,1.813275,1.431453,0.652175,0.386235,6.319262,1.816242,1.279197,0.579756,0.310641,1.417265,1.092711,0.652054,0.380879,0.20341,0.229459,0.405398,0.356418,0.307497,0.147379,14.544298,5.433367,1.127775,0.209029,0.07226,0.502986,0.521007,1.218371,0.77563,0.38769,1.461257,1.495794,2.505735,3.96138,2.277884,15.993926,30.072699,33.516857,67.765007,40.514313,1.959293,4.910326,5.644903,11.380826,6.241675,1.953725,2.336529,2.063594,0.753402,0.46922,8.046067,4.27436,2.551922,1.677605,0.633588,1.375202,1.935539,1.70376,0.722396,0.453997,1.21893,3.364941,1.744462,0.813583,0.419426
1720080231,50,0,4291.666504,4401.666504,4518.077148,4336.538574,4405.128418,4300.256348,4374.743652,4356.794922,4472.05127,4330.384766,4295.769043,4456.666504,5816.410156,4280.512695,,,,,,,,,,,,,,,,,,,,,,,,,,,,,,,,,,,,,,,,,,,,,,,,,,,,,,,,,,,,,,,,,,,,,,
1720080231,51,0,4290.641113,4401.410156,4522.436035,4335,4410,4287.436035,4377.05127,4369.358887,4416.153809,4347.94873,4288.333496,4455.897461,5803.333496,4277.05127,,,,,,,,,,,,,,,,,,,,,,,,,,,,,,,,,,,,,,,,,,,,,,,,,,,,,,,,,,,,,,,,,,,,,,
1720080231,52,0,4296.794922,4403.205078,4531.922852,4337.820313,4406.025879,4278.333496,4384.102539,4397.692383,4307.05127,4391.025879,4293.077148,4465.769043,5797.692383,4280.769043,,,,,,,,,,,,,,,,,,,,,,,,,,,,,,,,,,,,,,,,,,,,,,,,,,,,,,,,,,,,,,,,,,,,,,
1720080231,53,0,4298.846191,4408.205078,4531.666504,4343.589844,4401.666504,4276.794922,4383.846191,4393.846191,4320.384766,4386.538574,4299.358887,4460.256348,5797.692383,4281.153809,,,,,,,,,,,,,,,,,,,,,,,,,,,,,,,,,,,,,,,,,,,,,,,,,,,,,,,,,,,,,,,,,,,,,,
1720080231,54,0,4301.410156,4410.897461,4529.230957,4342.307617,4405,4280.256348,4374.102539,4363.589844,4432.436035,4338.974121,4294.358887,4449.230957,5791.153809,4273.589844,,,,,,,,,,,,,,,,,,,,,,,,,,,,,,,,,,,,,,,,,,,,,,,,,,,,,,,,,,,,,,,,,,,,,,
1720080231,55,0,4304.102539,4410.128418,4532.179688,4338.717773,4409.487305,4276.666504,4373.717773,4371.538574,4387.563965,4350,4287.563965,4453.717773,5778.205078,4268.589844,,,,,,,,,,,,,,,,,,,,,,,,,,,,,,,,,,,,,,,,,,,,,,,,,,,,,,,,,,,,,,,,,,,,,,
1720080231,56,0,4310.641113,4411.025879,4537.05127,4346.025879,4411.538574,4265.512695,4386.538574,4403.974121,4256.282227,4397.05127,4292.179688,4465,5777.436035,4276.794922,,,,,,,,,,,,,,,,,,,,,,,,,,,,,,,,,,,,,,,,,,,,,,,,,,,,,,,,,,,,,,,,,,,,,,
1720080231,57,0,4311.282227,4408.077148,4534.358887,4343.717773,4408.205078,4263.974121,4384.743652,4388.846191,4309.230957,4374.871582,4292.307617,4457.179688,5778.333496,4279.102539,,,,,,,,,,,,,,,,,,,,,,,,,,,,,,,,,,,,,,,,,,,,,,,,,,,,,,,,,,,,,,,,,,,,,,
1720080231,58,0,4293.717773,4399.358887,4523.333496,4328.205078,4399.358887,4275,4364.102539,4349.615234,4427.563965,4326.410156,4279.615234,4436.538574,5766.410156,4269.358887,,,,,,,,,,,,,,,,,,,,,,,,,,,,,,,,,,,,,,,,,,,,,,,,,,,,,,,,,,,,,,,,,,,,,,
1720080231,59,0,4277.94873,4392.94873,4514.102539,4329.487305,4393.461426,4282.563965,4357.563965,4354.615234,4371.153809,4346.153809,4275.641113,4433.846191,5759.230957,4266.282227,,,,,,,,,,,,,,,,,,,,,,,,,,,,,,,,,,,,,,,,,,,,,,,,,,,,,,,,,,,,,,,,,,,,,,
1720080231,60,0,4275,4382.05127,4511.794922,4337.563965,4389.230957,4282.179688,4368.333496,4383.974121,4235,4396.282227,4279.743652,4442.94873,5755.897461,4266.410156,,,,,,,,,,,,,,,,,,,,,,,,,,,,,,,,,,,,,,,,,,,,,,,,,,,,,,,,,,,,,,,,,,,,,,
1720080231,61,0,4288.205078,4379.487305,4516.794922,4338.846191,4389.102539,4289.615234,4371.922852,4386.282227,4244.743652,4396.538574,4279.102539,4441.153809,5747.94873,4266.282227,,,,,,,,,,,,,,,,,,,,,,,,,,,,,,,,,,,,,,,,,,,,,,,,,,,,,,,,,,,,,,,,,,,,,,
1720080231,62,0,4308.333496,4398.205078,4527.307617,4344.487305,4396.282227,4303.333496,4371.153809,4370.384766,4368.333496,4361.282227,4281.282227,4440.897461,5744.743652,4273.846191,,,,,,,,,,,,,,,,,,,,,,,,,,,,,,,,,,,,,,,,,,,,,,,,,,,,,,,,,,,,,,,,,,,,,,
1720080231,63,0,4321.538574,4412.820313,4536.410156,4356.666504,4402.436035,4306.666504,4374.102539,4364.102539,4427.05127,4343.974121,4290.897461,4448.717773,5749.102539,4283.077148,,,,,,,,,,,,,,,,,,,,,,,,,,,,,,,,,,,,,,,,,,,,,,,,,,,,,,,,,,,,,,,,,,,,,,
1720080231,64,0,4329.358887,4412.05127,4535.512695,4360,4399.487305,4295.384766,4367.94873,4357.820313,4413.461426,4340.128418,4290.384766,4444.102539,5747.05127,4281.282227,,,,,,,,,,,,,,,,,,,,,,,,,,,,,,,,,,,,,,,,,,,,,,,,,,,,,,,,,,,,,,,,,,,,,,
1720080231,65,0,4334.487305,4410.512695,4536.794922,4356.153809,4399.358887,4287.692383,4363.077148,4351.666504,4429.743652,4326.410156,4281.666504,4439.487305,5734.102539,4276.025879,7.44859,5.992621,3.051468,0.70243,0.373699,0.880476,2.092283,1.604209,0.551637,0.342655,8.594705,2.310059,1.63554,0.65677,0.294172,1.487822,1.318454,0.771213,0.365221,0.198705,0.210121,0.529878,0.415902,0.294803,0.134673,13.757267,4.583808,1.246714,0.223258,0.069821,0.494305,0.458413,1.297973,0.837121,0.3555,1.97392,1.427251,2.866462,3.965083,2.173305,14.612704,23.341459,45.998627,64.188309,40.21859,1.908207,4.036597,7.264109,11.539142,6.027495,1.77159,2.117379,2.079943,0.799706,0.417264,5.752208,3.339243,2.249516,1.395797,0.516536,1.517523,1.691718,1.802308,0.760877,0.424022,1.263472,2.906367,1.909211,0.946663,0.371393
1720080231,66,0,4342.307617,4414.871582,4546.282227,4360,4409.102539,4293.461426,4370.384766,4353.589844,4467.820313,4323.589844,4287.05127,4446.153809,5728.974121,4287.563965,,,,,,,,,,,,,,,,,,,,,,,,,,,,,,,,,,,,,,,,,,,,,,,,,,,,,,,,,,,,,,,,,,,,,,
1720080231,67,0,4352.94873,4416.153809,4547.692383,4367.94873,4413.077148,4292.05127,4367.307617,4350.641113,4488.205078,4328.333496,4300.897461,4448.333496,5737.436035,4302.307617,,,,,,,,,,,,,,,,,,,,,,,,,,,,,,,,,,,,,,,,,,,,,,,,,,,,,,,,,,,,,,,,,,,,,,
1720080231,68,0,4362.05127,4415.897461,4545.641113,4370.769043,4407.820313,4275.128418,4357.179688,4341.153809,4506.794922,4314.743652,4299.230957,4446.538574,5742.94873,4303.589844,,,,,,,,,,,,,,,,,,,,,,,,,,,,,,,,,,,,,,,,,,,,,,,,,,,,,,,,,,,,,,,,,,,,,,
1720080231,69,0,4360.769043,4411.410156,4543.589844,4363.333496,4403.205078,4260.384766,4356.025879,4333.461426,4511.153809,4298.717773,4285,4440.641113,5730.769043,4297.94873,,,,,,,,,,,,,,,,,,,,,,,,,,,,,,,,,,,,,,,,,,,,,,,,,,,,,,,,,,,,,,,,,,,,,,
1720080231,70,0,4346.025879,4394.743652,4534.615234,4352.692383,4399.487305,4258.077148,4356.410156,4326.922852,4506.922852,4296.025879,4274.743652,4432.436035,5709.487305,4288.333496,,,,,,,,,,,,,,,,,,,,,,,,,,,,,,,,,,,,,,,,,,,,,,,,,,,,,,,,,,,,,,,,,,,,,,
1720080231,71,0,4338.589844,4381.410156,4525.897461,4350.256348,4396.410156,4262.307617,4355.128418,4322.436035,4519.358887,4293.589844,4268.846191,4425.128418,5697.436035,4277.820313,,,,,,,,,,,,,,,,,,,,,,,,,,,,,,,,,,,,,,,,,,,,,,,,,,,,,,,,,,,,,,,,,,,,,,
1720080231,72,0,4354.230957,4389.487305,4529.615234,4357.563965,4400.256348,4265,4358.205078,4325.256348,4530,4294.487305,4265.128418,4422.307617,5699.102539,4280.769043,,,,,,,,,,,,,,,,,,,,,,,,,,,,,,,,,,,,,,,,,,,,,,,,,,,,,,,,,,,,,,,,,,,,,,
1720080231,73,0,4371.282227,4405,4536.410156,4364.743652,4401.153809,4259.102539,4358.333496,4326.025879,4528.974121,4295,4261.538574,4423.461426,5694.230957,4284.230957,,,,,,,,,,,,,,,,,,,,,,,,,,,,,,,,,,,,,,,,,,,,,,,,,,,,,,,,,,,,,,,,,,,,,,
1720080231,74,0,4377.820313,4408.205078,4536.153809,4366.153809,4396.794922,4248.974121,4354.743652,4321.922852,4545.512695,4282.820313,4257.692383,4421.153809,5683.333496,4280.256348,,,,,,,,,,,,,,,,,,,,,,,,,,,,,,,,,,,,,,,,,,,,,,,,,,,,,,,,,,,,,,,,,,,,,,
1720080231,75,0,4378.974121,4399.102539,4532.436035,4362.692383,4397.94873,4240.384766,4366.025879,4342.692383,4481.794922,4313.589844,4261.666504,4422.179688,5684.230957,4283.717773,,,,,,,,,,,,,,,,,,,,,,,,,,,,,,,,,,,,,,,,,,,,,,,,,,,,,,,,,,,,,,,,,,,,,,
1720080231,76,0,4375.256348,4391.410156,4529.102539,4356.538574,4398.077148,4231.666504,4380.897461,4372.563965,4348.461426,4369.615234,4263.974121,4428.205078,5679.358887,4284.871582,,,,,,,,,,,,,,,,,,,,,,,,,,,,,,,,,,,,,,,,,,,,,,,,,,,,,,,,,,,,,,,,,,,,,,
1720080231,77,0,4382.436035,4396.282227,4531.538574,4358.077148,4396.410156,4226.922852,4377.307617,4366.794922,4367.436035,4354.615234,4261.666504,4427.307617,5673.846191,4284.615234,,,,,,,,,,,,,,,,,,,,,,,,,,,,,,,,,,,,,,,,,,,,,,,,,,,,,,,,,,,,,,,,,,,,,,
1720080231,78,0,4394.615234,4401.666504,4533.974121,4366.666504,4398.717773,4227.692383,4366.282227,4340.641113,4508.077148,4300.641113,4267.307617,4421.410156,5680.897461,4292.179688,,,,,,,,,,,,,,,,,,,,,,,,,,,,,,,,,,,,,,,,,,,,,,,,,,,,,,,,,,,,,,,,,,,,,,
1720080231,79,0,4386.153809,4393.846191,4528.461426,4373.077148,4398.717773,4233.846191,4367.179688,4338.846191,4531.922852,4295,4269.102539,4422.563965,5676.666504,4289.743652,,,,,,,,,,,,,,,,,,,,,,,,,,,,,,,,,,,,,,,,,,,,,,,,,,,,,,,,,,,,,,,,,,,,,,
1720080231,80,0,4377.307617,4388.717773,4523.077148,4373.333496,4396.410156,4240.769043,4368.205078,4343.589844,4472.94873,4308.461426,4254.871582,4419.615234,5657.563965,4278.846191,,,,,,,,,,,,,,,,,,,,,,,,,,,,,,,,,,,,,,,,,,,,,,,,,,,,,,,,,,,,,,,,,,,,,,
1720080231,81,0,4383.846191,4387.94873,4522.05127,4368.589844,4395.128418,4246.922852,4357.179688,4327.94873,4480.256348,4296.794922,4242.563965,4409.743652,5646.794922,4277.820313,6.689067,5.493783,2.772,0.717493,0.359906,0.978361,2.364268,1.626286,0.482279,0.315936,10.166501,2.848163,1.884107,0.760603,0.280541,1.695206,1.616086,0.820806,0.355186,0.195713,0.231537,0.67833,0.456258,0.280402,0.121237,12.428705,3.877156,1.342813,0.241152,0.078016,0.501646,0.622404,1.348563,0.870517,0.345984,2.701234,1.743689,3.512091,3.980066,2.17381,18.228933,21.562246,67.151421,63.317287,41.503731,2.594685,3.794692,9.842544,11.759639,6.093209,1.620932,2.156945,2.157368,0.876031,0.393853,4.836059,3.181139,2.146916,1.201338,0.435748,1.543469,1.613312,1.868068,0.8165,0.400481,1.348744,2.558818,2.081178,1.087582,0.342526
1720080231,82,0,4386.666504,4385,4520.897461,4367.820313,4391.538574,4257.692383,4349.743652,4320.128418,4505.641113,4287.94873,4246.794922,4410.897461,5647.692383,4280.384766,,,,,,,,,,,,,,,,,,,,,,,,,,,,,,,,,,,,,,,,,,,,,,,,,,,,,,,,,,,,,,,,,,,,,,
1720080231,83,0,4390.128418,4385.641113,4519.871582,4372.307617,4387.436035,4273.717773,4353.461426,4327.94873,4499.358887,4300,4257.05127,4416.282227,5652.05127,4280.641113,,,,,,,,,,,,,,,,,,,,,,,,,,,,,,,,,,,,,,,,,,,,,,,,,,,,,,,,,,,,,,,,,,,,,,
1720080231,84,0,4396.538574,4382.179688,4522.94873,4368.205078,4385.128418,4286.282227,4358.717773,4331.794922,4485.897461,4314.871582,4258.589844,4415.897461,5648.846191,4279.615234,,,,,,,,,,,,,,,,,,,,,,,,,,,,,,,,,,,,,,,,,,,,,,,,,,,,,,,,,,,,,,,,,,,,,,
1720080231,85,0,4398.461426,4383.461426,4526.282227,4368.461426,4388.974121,4297.94873,4357.436035,4326.025879,4506.794922,4302.05127,4255.897461,4416.666504,5637.05127,4281.282227,,,,,,,,,,,,,,,,,,,,,,,,,,,,,,,,,,,,,,,,,,,,,,,,,,,,,,,,,,,,,,,,,,,,,,
1720080231,86,0,4402.692383,4399.230957,4530.128418,4381.282227,4393.717773,4312.692383,4360.128418,4329.871582,4520.384766,4290.769043,4259.102539,4422.692383,5632.179688,4290.512695,,,,,,,,,,,,,,,,,,,,,,,,,,,,,,,,,,,,,,,,,,,,,,,,,,,,,,,,,,,,,,,,,,,,,,
1720080231,87,0,4400.769043,4405.128418,4534.230957,4382.820313,4390.769043,4325.897461,4373.846191,4354.102539,4450.897461,4329.230957,4265.128418,4429.871582,5631.922852,4295.384766,,,,,,,,,,,,,,,,,,,,,,,,,,,,,,,,,,,,,,,,,,,,,,,,,,,,,,,,,,,,,,,,,,,,,,
1720080231,88,0,4394.230957,4398.205078,4532.820313,4374.615234,4389.743652,4340.256348,4380.897461,4370.512695,4399.230957,4357.94873,4266.922852,4435.769043,5626.282227,4294.102539,,,,,,,,,,,,,,,,,,,,,,,,,,,,,,,,,,,,,,,,,,,,,,,,,,,,,,,,,,,,,,,,,,,,,,
1720080231,89,0,4402.179688,4401.666504,4532.563965,4376.794922,4396.794922,4351.794922,4372.05127,4352.05127,4464.230957,4321.410156,4262.820313,4428.333496,5623.846191,4294.487305,,,,,,,,,,,,,,,,,,,,,,,,,,,,,,,,,,,,,,,,,,,,,,,,,,,,,,,,,,,,,,,,,,,,,,
1720080231,90,0,4409.358887,4405,4539.871582,4380.897461,4396.282227,4353.461426,4370.512695,4341.025879,4496.410156,4303.077148,4263.589844,4423.717773,5622.307617,4293.589844,,,,,,,,,,,,,,,,,,,,,,,,,,,,,,,,,,,,,,,,,,,,,,,,,,,,,,,,,,,,,,,,,,,,,,
1720080231,91,0,4402.307617,4397.05127,4542.820313,4375.897461,4387.307617,4352.820313,4389.102539,4384.487305,4336.666504,4371.153809,4275.512695,4441.282227,5614.230957,4295.256348,,,,,,,,,,,,,,,,,,,,,,,,,,,,,,,,,,,,,,,,,,,,,,,,,,,,,,,,,,,,,,,,,,,,,,
1720080231,92,0,4397.179688,4393.461426,4532.05127,4371.410156,4384.487305,4351.538574,4396.153809,4424.358887,4151.538574,4435.384766,4279.102539,4446.025879,5606.025879,4294.102539,,,,,,,,,,,,,,,,,,,,,,,,,,,,,,,,,,,,,,,,,,,,,,,,,,,,,,,,,,,,,,,,,,,,,,
1720080231,93,0,4397.179688,4392.563965,4527.179688,4375.641113,4383.846191,4350.512695,4385.128418,4412.820313,4134.743652,4423.333496,4266.410156,4431.794922,5599.358887,4283.333496,,,,,,,,,,,,,,,,,,,,,,,,,,,,,,,,,,,,,,,,,,,,,,,,,,,,,,,,,,,,,,,,,,,,,,
1720080231,94,0,4398.846191,4387.436035,4531.282227,4379.230957,4380.384766,4348.717773,4380.128418,4395.512695,4198.846191,4399.102539,4259.358887,4427.820313,5586.538574,4276.153809,,,,,,,,,,,,,,,,,,,,,,,,,,,,,,,,,,,,,,,,,,,,,,,,,,,,,,,,,,,,,,,,,,,,,,
1720080231,95,0,4405.897461,4388.461426,4527.820313,4374.358887,4378.589844,4347.436035,4377.307617,4388.717773,4252.05127,4393.717773,4259.615234,4428.974121,5573.461426,4273.205078,,,,,,,,,,,,,,,,,,,,,,,,,,,,,,,,,,,,,,,,,,,,,,,,,,,,,,,,,,,,,,,,,,,,,,
1720080231,96,0,4418.333496,4401.153809,4530.128418,4377.05127,4383.974121,4358.589844,4372.307617,4369.743652,4351.410156,4360.128418,4257.94873,4429.487305,5571.153809,4268.333496,,,,,,,,,,,,,,,,,,,,,,,,,,,,,,,,,,,,,,,,,,,,,,,,,,,,,,,,,,,,,,,,,,,,,,
1720080231,97,0,4430.512695,4412.563965,4541.153809,4391.922852,4393.461426,4375.897461,4371.153809,4350.512695,4475.897461,4315.512695,4259.871582,4430.256348,5571.666504,4272.05127,6.369563,5.071408,2.397966,0.752734,0.363229,1.123112,2.592913,1.484296,0.445994,0.314375,10.983823,3.267842,1.931975,0.857146,0.27619,2.143483,1.951222,0.787706,0.343603,0.200142,0.293947,0.827172,0.467477,0.26463,0.112339,10.801403,3.550726,1.4048,0.262174,0.098897,0.536934,1.025195,1.369069,0.864288,0.34914,3.590444,2.449857,4.331822,3.887217,2.25654,27.578825,23.753496,93.211349,62.309593,44.007595,4.189414,4.189574,12.937492,11.640753,6.360239,1.471893,2.474913,2.329586,0.978749,0.39135,5.204535,3.976691,2.312309,1.13749,0.400098,1.677575,1.680099,1.930259,0.880905,0.390705,1.417624,2.393399,2.254237,1.207588,0.332051
1720080231,98,0,4441.666504,4413.974121,4548.974121,4398.333496,4395.256348,4385.128418,4373.846191,4353.205078,4507.94873,4312.436035,4262.436035,4432.563965,5567.179688,4283.589844,,,,,,,,,,,,,,,,,,,,,,,,,,,,,,,,,,,,,,,,,,,,,,,,,,,,,,,,,,,,,,,,,,,,,,
1720080231,99,0,4446.666504,4413.846191,4553.205078,4395.769043,4394.871582,4390.897461,4373.846191,4360.512695,4483.205078,4327.563965,4264.230957,4439.230957,5565.769043,4292.436035,,,,,,,,,,,,,,,,,,,,,,,,,,,,,,,,,,,,,,,,,,,,,,,,,,,,,,,,,,,,,,,,,,,,,,
1720080231,100,0,4444.102539,4411.410156,4550.897461,4395.641113,4395.128418,4400.769043,4371.666504,4356.410156,4500.769043,4319.358887,4272.94873,4442.436035,5567.820313,4298.333496,,,,,,,,,,,,,,,,,,,,,,,,,,,,,,,,,,,,,,,,,,,,,,,,,,,,,,,,,,,,,,,,,,,,,,
1720080231,101,0,4443.717773,4405.128418,4546.410156,4396.538574,4390.256348,4408.717773,4377.563965,4367.692383,4448.974121,4329.615234,4277.563965,4445,5563.205078,4302.692383,,,,,,,,,,,,,,,,,,,,,,,,,,,,,,,,,,,,,,,,,,,,,,,,,,,,,,,,,,,,,,,,,,,,,,
1720080231,102,0,4445.384766,4407.307617,4551.794922,4398.461426,4390,4416.153809,4394.230957,4400.384766,4298.589844,4380.384766,4277.563965,4455.256348,5556.025879,4311.282227,,,,,,,,,,,,,,,,,,,,,,,,,,,,,,,,,,,,,,,,,,,,,,,,,,,,,,,,,,,,,,,,,,,,,,
1720080231,103,0,4448.846191,4413.846191,4561.538574,4398.846191,4397.436035,4426.025879,4402.05127,4407.436035,4290.512695,4391.922852,4286.410156,4461.794922,5562.436035,4322.307617,,,,,,,,,,,,,,,,,,,,,,,,,,,,,,,,,,,,,,,,,,,,,,,,,,,,,,,,,,,,,,,,,,,,,,
1720080231,104,0,4453.974121,4412.436035,4563.205078,4407.307617,4398.846191,4435.641113,4391.282227,4382.563965,4417.692383,4352.436035,4296.153809,4461.025879,5570,4322.820313,,,,,,,,,,,,,,,,,,,,,,,,,,,,,,,,,,,,,,,,,,,,,,,,,,,,,,,,,,,,,,,,,,,,,,
1720080231,105,0,4458.333496,4409.871582,4556.410156,4404.487305,4395.128418,4443.333496,4377.179688,4358.077148,4473.333496,4317.692383,4284.230957,4452.05127,5554.358887,4313.333496,,,,,,,,,,,,,,,,,,,,,,,,,,,,,,,,,,,,,,,,,,,,,,,,,,,,,,,,,,,,,,,,,,,,,,
1720080231,106,0,4458.333496,4411.538574,4548.846191,4380.384766,4396.922852,4451.410156,4371.025879,4350.128418,4453.589844,4310.256348,4263.589844,4435.128418,5535.512695,4302.05127,,,,,,,,,,,,,,,,,,,,,,,,,,,,,,,,,,,,,,,,,,,,,,,,,,,,,,,,,,,,,,,,,,,,,,
1720080231,107,0,4460.641113,4411.025879,4550.641113,4451.794922,4395.897461,4459.871582,4380.128418,4374.743652,4373.205078,4345.384766,4267.692383,4435.769043,5534.102539,4297.436035,,,,,,,,,,,,,,,,,,,,,,,,,,,,,,,,,,,,,,,,,,,,,,,,,,,,,,,,,,,,,,,,,,,,,,
1720080231,108,0,4467.94873,4408.205078,4552.179688,4621.282227,4388.846191,4460.256348,4392.436035,4403.589844,4267.179688,4388.589844,4276.794922,4448.717773,5524.102539,4293.077148,,,,,,,,,,,,,,,,,,,,,,,,,,,,,,,,,,,,,,,,,,,,,,,,,,,,,,,,,,,,,,,,,,,,,,
1720080231,109,0,4473.717773,4411.153809,4547.692383,4705,4390.641113,4465.256348,4388.333496,4387.436035,4315.897461,4361.153809,4265.256348,4443.589844,5504.230957,4285.128418,,,,,,,,,,,,,,,,,,,,,,,,,,,,,,,,,,,,,,,,,,,,,,,,,,,,,,,,,,,,,,,,,,,,,,
1720080231,110,0,4484.102539,4417.94873,4555.256348,4681.282227,4400.641113,4485.128418,4380.897461,4358.717773,4473.461426,4298.205078,4257.692383,4436.666504,5501.666504,4283.974121,,,,,,,,,,,,,,,,,,,,,,,,,,,,,,,,,,,,,,,,,,,,,,,,,,,,,,,,,,,,,,,,,,,,,,
1720080231,111,0,4489.871582,4414.743652,4562.94873,4674.871582,4398.077148,4488.846191,4384.871582,4368.589844,4455.128418,4308.205078,4260.384766,4441.794922,5501.794922,4286.410156,,,,,,,,,,,,,,,,,,,,,,,,,,,,,,,,,,,,,,,,,,,,,,,,,,,,,,,,,,,,,,,,,,,,,,
1720080231,112,0,4491.153809,4415.769043,4559.743652,4685.128418,4388.333496,4475.384766,4395,4391.794922,4329.102539,4360.384766,4264.615234,4448.333496,5496.666504,4290.512695,,,,,,,,,,,,,,,,,,,,,,,,,,,,,,,,,,,,,,,,,,,,,,,,,,,,,,,,,,,,,,,,,,,,,,
1720080231,113,0,4499.358887,4427.179688,4563.333496,4674.102539,4393.589844,4476.538574,4397.563965,4389.743652,4336.025879,4361.666504,4273.461426,4452.820313,5504.487305,4297.307617,7.119302,5.061007,2.048687,0.790431,0.379338,1.301837,2.802748,1.222097,0.440704,0.337471,10.241032,3.481017,1.775286,0.91142,0.281779,2.62234,2.279214,0.686278,0.33051,0.214176,0.39198,0.97006,0.446627,0.253755,0.111212,10.083996,3.609459,1.4351,0.290396,0.131869,0.587598,1.608536,1.375626,0.824507,0.355724,4.513229,3.42163,5.161135,3.661906,2.382707,44.005665,30.511631,117.821556,60.088932,47.044659,6.773052,5.172355,15.903687,11.103948,6.702652,1.390718,3.008578,2.584403,1.087425,0.400838,6.113768,5.406174,2.641647,1.177601,0.399761,1.699184,1.835088,2.00615,0.939336,0.397895,1.452675,2.425728,2.405676,1.279305,0.335298
1720080231,114,0,4497.94873,4420.384766,4560.384766,4667.692383,4399.102539,4481.666504,4381.153809,4363.461426,4430.384766,4310.897461,4267.563965,4443.846191,5498.461426,4289.743652,,,,,,,,,,,,,,,,,,,,,,,,,,,,,,,,,,,,,,,,,,,,,,,,,,,,,,,,,,,,,,,,,,,,,,
1720080231,115,0,4489.615234,4410.897461,4550,4663.461426,4393.974121,4476.025879,4367.307617,4346.794922,4463.717773,4283.846191,4250.384766,4430.384766,5473.077148,4273.077148,,,,,,,,,,,,,,,,,,,,,,,,,,,,,,,,,,,,,,,,,,,,,,,,,,,,,,,,,,,,,,,,,,,,,,
1720080231,116,0,4495.384766,4421.410156,4558.333496,4658.846191,4395,4477.307617,4377.563965,4360.769043,4433.974121,4315.128418,4259.615234,4438.846191,5471.282227,4279.230957,,,,,,,,,,,,,,,,,,,,,,,,,,,,,,,,,,,,,,,,,,,,,,,,,,,,,,,,,,,,,,,,,,,,,,
1720080231,117,0,4499.871582,4423.333496,4562.692383,4655.256348,4398.461426,4482.307617,4382.94873,4370.128418,4421.282227,4336.410156,4270.512695,4441.922852,5482.563965,4286.153809,,,,,,,,,,,,,,,,,,,,,,,,,,,,,,,,,,,,,,,,,,,,,,,,,,,,,,,,,,,,,,,,,,,,,,
1720080231,118,0,4486.666504,4409.358887,4545,4641.666504,4391.025879,4479.871582,4372.692383,4368.077148,4365.641113,4336.025879,4251.282227,4425,5463.077148,4266.538574,,,,,,,,,,,,,,,,,,,,,,,,,,,,,,,,,,,,,,,,,,,,,,,,,,,,,,,,,,,,,,,,,,,,,,
1720080231,119,0,4484.102539,4407.692383,4545.897461,4635.512695,4385.512695,4482.94873,4377.179688,4381.666504,4279.230957,4351.538574,4238.974121,4429.102539,5438.846191,4256.794922,,,,,,,,,,,,,,,,,,,,,,,,,,,,,,,,,,,,,,,,,,,,,,,,,,,,,,,,,,,,,,,,,,,,,,
1720080231,120,0,4493.589844,4413.846191,4559.487305,4637.563965,4391.025879,4486.922852,4383.974121,4383.077148,4317.436035,4347.692383,4248.589844,4438.589844,5445.769043,4264.615234,,,,,,,,,,,,,,,,,,,,,,,,,,,,,,,,,,,,,,,,,,,,,,,,,,,,,,,,,,,,,,,,,,,,,,
1720080231,121,0,4488.717773,4410.769043,4552.436035,4632.307617,4393.461426,4481.666504,4373.461426,4356.922852,4433.205078,4300.769043,4251.666504,4429.615234,5454.743652,4264.358887,,,,,,,,,,,,,,,,,,,,,,,,,,,,,,,,,,,,,,,,,,,,,,,,,,,,,,,,,,,,,,,,,,,,,,
1720080231,122,0,4475.384766,4404.358887,4539.102539,4621.410156,4387.05127,4474.615234,4369.230957,4353.846191,4404.102539,4284.743652,4243.461426,4424.102539,5439.358887,4256.794922,,,,,,,,,,,,,,,,,,,,,,,,,,,,,,,,,,,,,,,,,,,,,,,,,,,,,,,,,,,,,,,,,,,,,,
1720080231,123,0,4470.769043,4402.820313,4539.743652,4620.384766,4387.563965,4472.820313,4385.128418,4388.717773,4261.153809,4327.820313,4248.461426,4431.538574,5431.282227,4263.205078,,,,,,,,,,,,,,,,,,,,,,,,,,,,,,,,,,,,,,,,,,,,,,,,,,,,,,,,,,,,,,,,,,,,,,
1720080231,124,0,4483.717773,4414.871582,4557.820313,4633.846191,4397.436035,4473.589844,4399.871582,4409.358887,4270.769043,4345.384766,4274.871582,4448.333496,5447.179688,4284.358887,,,,,,,,,,,,,,,,,,,,,,,,,,,,,,,,,,,,,,,,,,,,,,,,,,,,,,,,,,,,,,,,,,,,,,
1720080231,125,0,4496.153809,4427.563965,4572.94873,4638.205078,4400.769043,4468.461426,4399.230957,4396.538574,4390.512695,4316.794922,4290.384766,4460.512695,5454.743652,4294.102539,,,,,,,,,,,,,,,,,,,,,,,,,,,,,,,,,,,,,,,,,,,,,,,,,,,,,,,,,,,,,,,,,,,,,,
1720080231,126,0,4490.512695,4425.256348,4568.589844,4629.615234,4396.794922,4456.153809,4391.153809,4384.230957,4388.333496,4297.692383,4279.358887,4456.922852,5442.94873,4284.230957,,,,,,,,,,,,,,,,,,,,,,,,,,,,,,,,,,,,,,,,,,,,,,,,,,,,,,,,,,,,,,,,,,,,,,
1720080231,127,0,4479.358887,4420.384766,4557.692383,4624.871582,4395,4441.282227,4379.487305,4376.025879,4350.769043,4287.05127,4268.077148,4444.871582,5430.512695,4271.410156,,,,,,,,,,,,,,,,,,,,,,,,,,,,,,,,,,,,,,,,,,,,,,,,,,,,,,,,,,,,,,,,,,,,,,
1720080231,0,0,4467.179688,4411.794922,4547.436035,4613.717773,4390.128418,4425,4366.666504,4363.974121,4381.025879,4275.641113,4261.922852,4433.333496,5416.025879,4262.563965,,,,,,,,,,,,,,,,,,,,,,,,,,,,,,,,,,,,,,,,,,,,,,,,,,,,,,,,,,,,,,,,,,,,,,
1720080231,1,0,4448.974121,4391.538574,4533.205078,4595.641113,4382.436035,4408.846191,4369.487305,4381.410156,4308.461426,4313.974121,4250,4431.538574,5400.641113,4250.641113,9.108648,5.598298,1.80866,0.827615,0.400985,1.506215,3.045111,0.933607,0.463601,0.376032,8.74843,3.501865,1.472093,0.905563,0.292005,3.018766,2.613167,0.539451,0.340082,0.24214,0.50612,1.110133,0.400328,0.254429,0.116734,10.139168,3.862126,1.444954,0.327577,0.171224,0.670686,2.256241,1.383741,0.769156,0.361265,5.385267,4.475565,5.828716,3.358235,2.505479,66.711502,43.851379,134.563217,57.216835,49.590797,10.081938,6.678187,18.122316,10.306625,6.981021,1.34501,3.61481,2.863454,1.170212,0.41593,6.796738,6.815422,2.930653,1.24799,0.413434,1.586336,2.026467,2.115542,0.978891,0.419203,1.495398,2.611777,2.510539,1.28728,0.345622
1720080231,2,0,4437.820313,4381.410156,4527.179688,4590.641113,4381.153809,4396.410156,4384.743652,4413.846191,4189.615234,4359.743652,4246.410156,4437.692383,5393.461426,4244.102539,,,,,,,,,,,,,,,,,,,,,,,,,,,,,,,,,,,,,,,,,,,,,,,,,,,,,,,,,,,,,,,,,,,,,,
1720080231,3,0,4439.615234,4392.179688,4536.410156,4597.563965,4387.05127,4383.461426,4389.743652,4405.256348,4257.436035,4334.358887,4255.128418,4436.794922,5390.641113,4250.128418,,,,,,,,,,,,,,,,,,,,,,,,,,,,,,,,,,,,,,,,,,,,,,,,,,,,,,,,,,,,,,,,,,,,,,
1720080231,4,0,4449.102539,4405.512695,4548.333496,4606.282227,4393.077148,4368.333496,4389.487305,4385.128418,4385.256348,4301.410156,4263.717773,4440.384766,5393.717773,4261.794922,,,,,,,,,,,,,,,,,,,,,,,,,,,,,,,,,,,,,,,,,,,,,,,,,,,,,,,,,,,,,,,,,,,,,,
1720080231,5,0,4446.025879,4405.641113,4551.153809,4606.025879,4392.05127,4355.256348,4393.717773,4391.666504,4387.436035,4305.897461,4267.692383,4452.692383,5398.205078,4269.487305,,,,,,,,,,,,,,,,,,,,,,,,,,,,,,,,,,,,,,,,,,,,,,,,,,,,,,,,,,,,,,,,,,,,,,
1720080231,6,0,4417.179688,4390.512695,4544.230957,4592.05127,4385.256348,4331.922852,4390.256348,4399.358887,4318.461426,4315,4266.922852,4451.922852,5388.974121,4264.487305,,,,,,,,,,,,,,,,,,,,,,,,,,,,,,,,,,,,,,,,,,,,,,,,,,,,,,,,,,,,,,,,,,,,,,
1720080231,7,0,4391.922852,4375.769043,4538.589844,4581.025879,4378.205078,4296.153809,4383.077148,4402.820313,4233.461426,4324.871582,4254.743652,4443.974121,5366.794922,4247.820313,,,,,,,,,,,,,,,,,,,,,,,,,,,,,,,,,,,,,,,,,,,,,,,,,,,,,,,,,,,,,,,,,,,,,,
1720080231,8,0,4402.563965,4386.153809,4544.358887,4587.692383,4378.461426,4272.563965,4386.922852,4412.307617,4188.717773,4338.077148,4251.666504,4452.94873,5358.974121,4248.717773,,,,,,,,,,,,,,,,,,,,,,,,,,,,,,,,,,,,,,,,,,,,,,,,,,,,,,,,,,,,,,,,,,,,,,
1720080231,9,0,4425.384766,4405,4560,4598.974121,4390.384766,4276.025879,4395.512695,4412.94873,4244.102539,4337.94873,4276.025879,4471.410156,5378.589844,4278.461426,,,,,,,,,,,,,,,,,,,,,,,,,,,,,,,,,,,,,,,,,,,,,,,,,,,,,,,,,,,,,,,,,,,,,,
1720080231,10,0,4431.922852,4407.179688,4574.615234,4598.846191,4401.025879,4283.717773,4401.922852,4414.743652,4284.487305,4341.922852,4295.128418,4481.794922,5393.333496,4300.897461,,,,,,,,,,,,,,,,,,,,,,,,,,,,,,,,,,,,,,,,,,,,,,,,,,,,,,,,,,,,,,,,,,,,,,
1720080231,11,0,4426.410156,4399.615234,4566.282227,4588.333496,4394.487305,4266.922852,4395.769043,4415.128418,4248.846191,4347.820313,4283.333496,4472.436035,5379.615234,4291.538574,,,,,,,,,,,,,,,,,,,,,,,,,,,,,,,,,,,,,,,,,,,,,,,,,,,,,,,,,,,,,,,,,,,,,,
1720080232,12,0,4413.717773,4391.282227,4540.769043,4576.282227,4380,4232.307617,4378.717773,4399.358887,4228.717773,4336.538574,4261.410156,4451.922852,5355.897461,4268.589844,,,,,,,,,,,,,,,,,,,,,,,,,,,,,,,,,,,,,,,,,,,,,,,,,,,,,,,,,,,,,,,,,,,,,,
1720080232,13,0,4412.179688,4389.102539,4535.128418,4571.153809,4377.563965,4207.692383,4372.05127,4390.128418,4239.358887,4333.205078,4259.487305,4451.410156,5351.153809,4264.487305,,,,,,,,,,,,,,,,,,,,,,,,,,,,,,,,,,,,,,,,,,,,,,,,,,,,,,,,,,,,,,,,,,,,,,
1720080232,14,0,4420.641113,4391.153809,4545.256348,4570.641113,4384.487305,4198.589844,4379.743652,4399.230957,4252.179688,4340.897461,4270.769043,4465.256348,5359.871582,4277.179688,,,,,,,,,,,,,,,,,,,,,,,,,,,,,,,,,,,,,,,,,,,,,,,,,,,,,,,,,,,,,,,,,,,,,,
1720080232,15,0,4420.769043,4388.205078,4547.05127,4568.717773,4388.333496,4197.563965,4390.128418,4410.128418,4266.666504,4347.05127,4281.538574,4471.794922,5362.820313,4282.179688,,,,,,,,,,,,,,,,,,,,,,,,,,,,,,,,,,,,,,,,,,,,,,,,,,,,,,,,,,,,,,,,,,,,,,
1720080232,16,0,4423.717773,4392.307617,4551.538574,4568.589844,4389.487305,4203.077148,4388.974121,4413.974121,4275.769043,4353.205078,4290.128418,4477.179688,5360.641113,4283.205078,,,,,,,,,,,,,,,,,,,,,,,,,,,,,,,,,,,,,,,,,,,,,,,,,,,,,,,,,,,,,,,,,,,,,,
1720080232,17,0,4436.794922,4408.589844,4562.820313,4572.179688,4392.307617,4209.230957,4380.512695,4409.871582,4283.461426,4352.563965,4297.05127,4485.512695,5360.897461,4293.717773,11.364277,6.508493,1.716625,0.865755,0.417866,1.644342,3.328476,0.71969,0.506933,0.414476,6.377339,3.38222,1.120438,0.845154,0.299438,4.252972,3.548661,0.63909,0.505329,0.310355,0.608218,1.237988,0.344789,0.267254,0.124699,11.135896,4.058595,1.43051,0.370807,0.207723,0.765771,2.826979,1.387922,0.717625,0.364928,6.126611,5.45174,6.219117,3.050793,2.578437,94.23304,64.307732,140.186874,54.679714,50.622326,13.571786,8.597215,19.245911,9.441031,7.089202,1.440132,4.114961,3.068998,1.196561,0.4323,6.716989,7.588166,3.011944,1.273981,0.421215,1.742821,2.17311,2.202135,0.989058,0.446389,1.635546,2.886292,2.536733,1.229468,0.35501
1720080232,18,0,4437.436035,4409.871582,4564.230957,4573.974121,4394.230957,4213.974121,4378.205078,4407.436035,4296.410156,4343.717773,4301.538574,4486.538574,5365.512695,4302.307617,,,,,,,,,,,,,,,,,,,,,,,,,,,,,,,,,,,,,,,,,,,,,,,,,,,,,,,,,,,,,,,,,,,,,,
1720080232,19,0,4427.94873,4398.333496,4561.666504,4572.692383,4392.94873,4224.743652,4382.436035,4411.153809,4310,4336.666504,4295.128418,4484.102539,5358.589844,4292.563965,,,,,,,,,,,,,,,,,,,,,,,,,,,,,,,,,,,,,,,,,,,,,,,,,,,,,,,,,,,,,,,,,,,,,,
1720080232,20,0,4429.871582,4400.512695,4560.512695,4570.641113,4394.487305,4237.820313,4381.922852,4408.589844,4319.743652,4336.410156,4290.384766,4481.410156,5347.563965,4283.717773,,,,,,,,,,,,,,,,,,,,,,,,,,,,,,,,,,,,,,,,,,,,,,,,,,,,,,,,,,,,,,,,,,,,,,
1720080232,21,0,4433.461426,4403.974121,4553.974121,4563.589844,4397.179688,4251.025879,4377.307617,4403.717773,4319.358887,4336.282227,4291.282227,4476.282227,5342.820313,4284.487305,,,,,,,,,,,,,,,,,,,,,,,,,,,,,,,,,,,,,,,,,,,,,,,,,,,,,,,,,,,,,,,,,,,,,,
1720080232,22,0,4429.358887,4397.94873,4555.256348,4555.769043,4396.410156,4268.846191,4377.94873,4406.153809,4317.307617,4336.025879,4287.563965,4474.102539,5334.615234,4283.333496,,,,,,,,,,,,,,,,,,,,,,,,,,,,,,,,,,,,,,,,,,,,,,,,,,,,,,,,,,,,,,,,,,,,,,
1720080232,23,0,4424.871582,4393.205078,4555.384766,4554.743652,4395.128418,4282.820313,4370.641113,4397.05127,4320.641113,4331.282227,4276.153809,4466.025879,5319.230957,4275.897461,,,,,,,,,,,,,,,,,,,,,,,,,,,,,,,,,,,,,,,,,,,,,,,,,,,,,,,,,,,,,,,,,,,,,,
1720080232,24,0,4432.179688,4394.615234,4550,4552.692383,4395.512695,4293.589844,4364.102539,4385.897461,4322.179688,4326.538574,4270.769043,4462.692383,5315.769043,4272.820313,,,,,,,,,,,,,,,,,,,,,,,,,,,,,,,,,,,,,,,,,,,,,,,,,,,,,,,,,,,,,,,,,,,,,,
1720080232,25,0,4443.846191,4397.05127,4552.94873,4545.897461,4396.410156,4311.025879,4373.077148,4391.922852,4322.307617,4333.846191,4279.102539,4470.641113,5323.589844,4280.769043,,,,,,,,,,,,,,,,,,,,,,,,,,,,,,,,,,,,,,,,,,,,,,,,,,,,,,,,,,,,,,,,,,,,,,
1720080232,26,0,4443.974121,4397.179688,4558.077148,4546.282227,4397.436035,4325.512695,4382.563965,4400.512695,4318.205078,4345,4288.205078,4472.05127,5326.153809,4289.871582,,,,,,,,,,,,,,,,,,,,,,,,,,,,,,,,,,,,,,,,,,,,,,,,,,,,,,,,,,,,,,,,,,,,,,
1720080232,27,0,4446.153809,4400.769043,4564.743652,4554.487305,4400.512695,4333.205078,4381.666504,4400.769043,4334.615234,4339.230957,4294.487305,4475.641113,5328.846191,4301.794922,,,,,,,,,,,,,,,,,,,,,,,,,,,,,,,,,,,,,,,,,,,,,,,,,,,,,,,,,,,,,,,,,,,,,,
1720080232,28,0,4458.717773,4410.769043,4570,4557.563965,4404.102539,4340.256348,4383.717773,4401.538574,4372.563965,4326.794922,4302.307617,4483.333496,5334.743652,4316.282227,,,,,,,,,,,,,,,,,,,,,,,,,,,,,,,,,,,,,,,,,,,,,,,,,,,,,,,,,,,,,,,,,,,,,,
1720080232,29,0,4463.974121,4411.153809,4570.256348,4552.94873,4401.410156,4343.205078,4395,4418.205078,4324.102539,4354.871582,4310.769043,4489.102539,5333.974121,4325.641113,,,,,,,,,,,,,,,,,,,,,,,,,,,,,,,,,,,,,,,,,,,,,,,,,,,,,,,,,,,,,,,,,,,,,,
1720080232,30,0,4458.333496,4398.589844,4570.897461,4552.692383,4396.153809,4348.077148,4402.563965,4435.897461,4225.384766,4390.256348,4312.436035,4497.05127,5329.615234,4326.794922,,,,,,,,,,,,,,,,,,,,,,,,,,,,,,,,,,,,,,,,,,,,,,,,,,,,,,,,,,,,,,,,,,,,,,
1720080232,31,0,4458.846191,4394.358887,4573.205078,4554.230957,4397.94873,4360.512695,4398.077148,4424.102539,4253.974121,4366.538574,4300.128418,4495.128418,5325.256348,4321.922852,,,,,,,,,,,,,,,,,,,,,,,,,,,,,,,,,,,,,,,,,,,,,,,,,,,,,,,,,,,,,,,,,,,,,,
1720080232,32,0,4459.743652,4396.666504,4566.153809,4546.282227,4398.333496,4365.641113,4383.333496,4392.692383,4354.358887,4321.410156,4283.717773,4474.102539,5309.487305,4310.769043,,,,,,,,,,,,,,,,,,,,,,,,,,,,,,,,,,,,,,,,,,,,,,,,,,,,,,,,,,,,,,,,,,,,,,
1720080232,33,0,4457.05127,4390.384766,4557.692383,4538.974121,4391.410156,4368.717773,4372.436035,4382.94873,4367.307617,4318.846191,4275.769043,4461.410156,5293.974121,4296.666504,13.027263,7.383096,1.729231,0.909543,0.41907,1.659955,3.586462,0.634305,0.55934,0.43703,4.333516,3.188354,0.816908,0.760308,0.298101,9.200062,5.959377,1.37794,1.009915,0.455336,0.66336,1.327049,0.299936,0.287238,0.130071,12.891967,4.018851,1.397815,0.414455,0.232563,0.857389,3.202606,1.373357,0.687727,0.368142,6.543214,6.234874,6.288312,2.831293,2.565512,119.606995,89.838966,135.34787,53.695755,49.435169,16.280201,10.699958,19.194164,8.730939,6.974223,1.546667,4.36955,3.125898,1.153919,0.448034,5.741582,7.461553,2.816607,1.218639,0.41415,1.466935,2.257108,2.233582,0.962666,0.471462,1.916959,3.186702,2.475434,1.12326,0.357411
1720080232,34,0,4460,4386.666504,4558.205078,4540.256348,4392.05127,4383.461426,4371.666504,4391.410156,4340.769043,4335.769043,4278.205078,4461.153809,5296.538574,4294.487305,,,,,,,,,,,,,,,,,,,,,,,,,,,,,,,,,,,,,,,,,,,,,,,,,,,,,,,,,,,,,,,,,,,,,,
1720080232,35,0,4461.666504,4388.717773,4558.461426,4540.256348,4395.384766,4397.436035,4370.641113,4391.666504,4343.333496,4335.128418,4275.256348,4458.589844,5294.358887,4298.205078,,,,,,,,,,,,,,,,,,,,,,,,,,,,,,,,,,,,,,,,,,,,,,,,,,,,,,,,,,,,,,,,,,,,,,
1720080232,36,0,4457.179688,4384.102539,4553.205078,4535,4391.282227,4407.563965,4374.102539,4393.205078,4338.205078,4334.871582,4264.230957,4458.717773,5278.205078,4289.487305,,,,,,,,,,,,,,,,,,,,,,,,,,,,,,,,,,,,,,,,,,,,,,,,,,,,,,,,,,,,,,,,,,,,,,
1720080232,37,0,4460.641113,4381.025879,4546.410156,4532.820313,4387.563965,4419.615234,4378.461426,4393.461426,4338.461426,4335.384766,4261.282227,4455.256348,5268.589844,4279.487305,,,,,,,,,,,,,,,,,,,,,,,,,,,,,,,,,,,,,,,,,,,,,,,,,,,,,,,,,,,,,,,,,,,,,,
1720080232,38,0,4461.794922,4382.94873,4547.436035,4527.820313,4387.692383,4429.871582,4375.256348,4384.871582,4355,4322.820313,4261.538574,4451.538574,5265.512695,4281.666504,,,,,,,,,,,,,,,,,,,,,,,,,,,,,,,,,,,,,,,,,,,,,,,,,,,,,,,,,,,,,,,,,,,,,,
1720080232,39,0,4437.563965,4383.717773,4549.230957,4521.538574,4390.897461,4438.461426,4373.589844,4380.384766,4375,4311.025879,4257.436035,4453.589844,5259.230957,4282.820313,,,,,,,,,,,,,,,,,,,,,,,,,,,,,,,,,,,,,,,,,,,,,,,,,,,,,,,,,,,,,,,,,,,,,,
1720080232,40,0,4415.897461,4387.563965,4545.897461,4529.487305,4395.641113,4446.282227,4373.846191,4383.589844,4394.871582,4308.846191,4258.717773,4452.436035,5260.641113,4281.538574,,,,,,,,,,,,,,,,,,,,,,,,,,,,,,,,,,,,,,,,,,,,,,,,,,,,,,,,,,,,,,,,,,,,,,
1720080232,41,0,4422.436035,4396.666504,4550,4541.538574,4397.05127,4445.384766,4373.205078,4382.563965,4404.230957,4309.871582,4263.333496,4454.358887,5262.692383,4289.358887,,,,,,,,,,,,,,,,,,,,,,,,,,,,,,,,,,,,,,,,,,,,,,,,,,,,,,,,,,,,,,,,,,,,,,
1720080232,42,0,4429.358887,4403.717773,4558.589844,4541.025879,4394.358887,4442.436035,4377.05127,4379.230957,4409.743652,4308.717773,4267.179688,4461.282227,5261.153809,4297.563965,,,,,,,,,,,,,,,,,,,,,,,,,,,,,,,,,,,,,,,,,,,,,,,,,,,,,,,,,,,,,,,,,,,,,,
1720080232,43,0,4424.230957,4404.230957,4560.641113,4530.769043,4395,4449.871582,4380.256348,4381.538574,4411.282227,4312.307617,4272.692383,4462.05127,5264.358887,4299.358887,,,,,,,,,,,,,,,,,,,,,,,,,,,,,,,,,,,,,,,,,,,,,,,,,,,,,,,,,,,,,,,,,,,,,,
1720080232,44,0,4427.94873,4400.512695,4560.128418,4524.743652,4395.897461,4458.717773,4372.563965,4380,4409.102539,4311.666504,4272.563965,4454.230957,5259.230957,4297.692383,,,,,,,,,,,,,,,,,,,,,,,,,,,,,,,,,,,,,,,,,,,,,,,,,,,,,,,,,,,,,,,,,,,,,,
1720080232,45,0,4434.615234,4398.974121,4562.436035,4525.128418,4394.358887,4459.615234,4364.615234,4370.512695,4414.871582,4303.717773,4261.282227,4448.077148,5243.205078,4292.820313,,,,,,,,,,,,,,,,,,,,,,,,,,,,,,,,,,,,,,,,,,,,,,,,,,,,,,,,,,,,,,,,,,,,,,
1720080232,46,0,4430.897461,4399.871582,4555.128418,4519.358887,4393.846191,4458.461426,4364.743652,4365.512695,4427.563965,4302.820313,4253.974121,4442.94873,5230.897461,4281.153809,,,,,,,,,,,,,,,,,,,,,,,,,,,,,,,,,,,,,,,,,,,,,,,,,,,,,,,,,,,,,,,,,,,,,,
1720080232,47,0,4425.512695,4392.179688,4544.230957,4509.230957,4391.410156,4461.282227,4365,4370.641113,4431.410156,4301.282227,4249.102539,4438.846191,5217.820313,4266.410156,,,,,,,,,,,,,,,,,,,,,,,,,,,,,,,,,,,,,,,,,,,,,,,,,,,,,,,,,,,,,,,,,,,,,,
1720080232,48,0,4424.615234,4381.922852,4539.743652,4504.102539,4386.666504,4463.077148,4361.282227,4372.307617,4427.05127,4292.436035,4240.128418,4433.077148,5201.025879,4256.538574,,,,,,,,,,,,,,,,,,,,,,,,,,,,,,,,,,,,,,,,,,,,,,,,,,,,,,,,,,,,,,,,,,,,,,
1720080232,49,0,4436.538574,4389.615234,4545.384766,4507.436035,4388.974121,4460.641113,4366.538574,4372.692383,4431.666504,4293.589844,4246.025879,4436.282227,5200.512695,4262.820313,12.870763,7.771124,1.740089,0.967559,0.400745,1.513673,3.707237,0.661935,0.616373,0.43538,2.570506,2.974957,0.619162,0.69618,0.287398,19.314785,10.297964,2.947576,1.944841,0.691644,0.651888,1.34156,0.274474,0.30891,0.129984,14.984541,3.71827,1.336608,0.459862,0.241773,0.931243,3.328124,1.316949,0.693649,0.372184,6.590533,6.744925,6.046989,2.774454,2.450411,137.721786,115.242493,123.733467,55.222889,45.873898,17.625048,12.584962,18.107979,8.36,6.62837,1.615775,4.337157,2.987147,1.060294,0.463717,4.294029,6.543963,2.407902,1.093407,0.395125,1.727803,2.253419,2.147488,0.906084,0.491659,2.275836,3.468209,2.302277,1.00343,0.353666
1720080232,50,0,4460.128418,4406.153809,4564.230957,4514.358887,4403.205078,4460.512695,4381.666504,4388.077148,4445.512695,4308.333496,4263.589844,4455.384766,5216.538574,4278.589844,,,,,,,,,,,,,,,,,,,,,,,,,,,,,,,,,,,,,,,,,,,,,,,,,,,,,,,,,,,,,,,,,,,,,,
1720080232,51,0,4477.436035,4414.487305,4571.666504,4514.102539,4409.871582,4461.282227,4385.641113,4398.333496,4448.077148,4314.743652,4267.563965,4457.179688,5222.692383,4282.436035,,,,,,,,,,,,,,,,,,,,,,,,,,,,,,,,,,,,,,,,,,,,,,,,,,,,,,,,,,,,,,,,,,,,,,
1720080232,52,0,4477.94873,4412.692383,4566.410156,4507.307617,4403.717773,4461.666504,4380,4390.256348,4436.538574,4307.307617,4260.641113,4449.871582,5208.717773,4277.436035,,,,,,,,,,,,,,,,,,,,,,,,,,,,,,,,,,,,,,,,,,,,,,,,,,,,,,,,,,,,,,,,,,,,,,
1720080232,53,0,4473.974121,4409.230957,4571.025879,4507.179688,4405.256348,4460.128418,4383.077148,4391.282227,4436.025879,4307.820313,4265.384766,4459.871582,5196.794922,4285.128418,,,,,,,,,,,,,,,,,,,,,,,,,,,,,,,,,,,,,,,,,,,,,,,,,,,,,,,,,,,,,,,,,,,,,,
1720080232,54,0,4481.538574,4417.179688,4574.615234,4511.153809,4410.641113,4452.179688,4384.615234,4398.333496,4445.769043,4313.846191,4274.871582,4462.692383,5199.615234,4292.179688,,,,,,,,,,,,,,,,,,,,,,,,,,,,,,,,,,,,,,,,,,,,,,,,,,,,,,,,,,,,,,,,,,,,,,
1720080232,55,0,4493.589844,4426.410156,4569.743652,4509.230957,4408.717773,4437.563965,4379.615234,4391.410156,4446.025879,4310,4275,4455.128418,5201.282227,4286.922852,,,,,,,,,,,,,,,,,,,,,,,,,,,,,,,,,,,,,,,,,,,,,,,,,,,,,,,,,,,,,,,,,,,,,,
1720080232,56,0,4491.282227,4422.179688,4568.974121,4510,4408.589844,4425,4379.615234,4387.94873,4444.615234,4310.769043,4276.666504,4455.769043,5198.077148,4285.256348,,,,,,,,,,,,,,,,,,,,,,,,,,,,,,,,,,,,,,,,,,,,,,,,,,,,,,,,,,,,,,,,,,,,,,
1720080232,57,0,4477.436035,4416.153809,4564.487305,4508.333496,4407.563965,4415.641113,4381.282227,4388.846191,4445.128418,4321.794922,4278.077148,4455.897461,5194.230957,4287.05127,,,,,,,,,,,,,,,,,,,,,,,,,,,,,,,,,,,,,,,,,,,,,,,,,,,,,,,,,,,,,,,,,,,,,,
1720080232,58,0,4473.077148,4416.666504,4554.230957,4496.794922,4399.871582,4400.512695,4381.538574,4382.436035,4436.025879,4324.871582,4270.897461,4452.820313,5187.692383,4280.769043,,,,,,,,,,,,,,,,,,,,,,,,,,,,,,,,,,,,,,,,,,,,,,,,,,,,,,,,,,,,,,,,,,,,,,
1720080232,59,0,4476.282227,4412.820313,4551.410156,4490.512695,4396.410156,4384.230957,4378.974121,4376.282227,4427.436035,4315,4261.794922,4447.692383,5174.358887,4270.128418,,,,,,,,,,,,,,,,,,,,,,,,,,,,,,,,,,,,,,,,,,,,,,,,,,,,,,,,,,,,,,,,,,,,,,
1720080232,60,0,4473.205078,4408.333496,4546.922852,4490.897461,4397.436035,4378.077148,4375.897461,4375.256348,4423.717773,4305.384766,4257.436035,4436.538574,5157.94873,4260.128418,,,,,,,,,,,,,,,,,,,,,,,,,,,,,,,,,,,,,,,,,,,,,,,,,,,,,,,,,,,,,,,,,,,,,,
1720080232,61,0,4472.820313,4412.436035,4547.05127,4491.666504,4400.256348,4380.512695,4394.102539,4397.692383,4375.769043,4325.769043,4261.410156,4444.743652,5151.153809,4261.794922,,,,,,,,,,,,,,,,,,,,,,,,,,,,,,,,,,,,,,,,,,,,,,,,,,,,,,,,,,,,,,,,,,,,,,
1720080232,62,0,4474.615234,4409.615234,4553.717773,4488.717773,4399.743652,4369.358887,4413.461426,4427.563965,4289.358887,4361.410156,4265.769043,4462.692383,5150.769043,4270.128418,,,,,,,,,,,,,,,,,,,,,,,,,,,,,,,,,,,,,,,,,,,,,,,,,,,,,,,,,,,,,,,,,,,,,,
1720080232,63,0,4469.487305,4399.615234,4548.717773,4480.512695,4391.025879,4348.846191,4399.743652,4415.769043,4279.743652,4352.307617,4260.128418,4456.282227,5144.615234,4267.563965,,,,,,,,,,,,,,,,,,,,,,,,,,,,,,,,,,,,,,,,,,,,,,,,,,,,,,,,,,,,,,,,,,,,,,
1720080232,64,0,4464.743652,4397.820313,4545.256348,4475.384766,4389.230957,4341.025879,4388.461426,4391.666504,4347.563965,4319.487305,4261.794922,4450.128418,5144.743652,4267.94873,,,,,,,,,,,,,,,,,,,,,,,,,,,,,,,,,,,,,,,,,,,,,,,,,,,,,,,,,,,,,,,,,,,,,,
1720080232,65,0,4463.333496,4401.666504,4550.128418,4477.05127,4395.769043,4330.641113,4397.436035,4397.820313,4379.102539,4321.025879,4273.846191,4456.025879,5151.794922,4281.153809,10.9074,7.416461,1.666049,1.045954,0.367443,1.247661,3.597958,0.746435,0.676856,0.410518,1.600626,2.778189,0.529903,0.687856,0.270876,33.884922,16.056011,5.13544,3.197964,0.987762,0.575993,1.257296,0.264941,0.329414,0.125225,16.866201,3.25741,1.234705,0.514711,0.237068,0.994627,3.229352,1.199319,0.741661,0.375977,6.312778,6.922188,5.549394,2.89358,2.246166,143.992172,133.364746,109.692528,59.062798,40.5233,17.413115,13.753751,16.260162,8.370096,6.095973,1.651512,4.099766,2.679511,0.959841,0.478658,2.837376,5.223906,1.910061,0.9402,0.370967,1.436263,2.237243,1.957856,0.83858,0.506991,2.703333,3.733329,2.03099,0.912769,0.349219
1720080232,66,0,4467.820313,4406.666504,4550.897461,4480,4397.307617,4307.820313,4393.846191,4397.436035,4398.077148,4322.563965,4275.641113,4455.512695,5148.205078,4287.05127,,,,,,,,,,,,,,,,,,,,,,,,,,,,,,,,,,,,,,,,,,,,,,,,,,,,,,,,,,,,,,,,,,,,,,
1720080232,67,0,4475,4411.922852,4552.179688,4478.717773,4395,4286.025879,4390.128418,4399.230957,4366.282227,4338.846191,4279.102539,4456.025879,5153.077148,4294.871582,,,,,,,,,,,,,,,,,,,,,,,,,,,,,,,,,,,,,,,,,,,,,,,,,,,,,,,,,,,,,,,,,,,,,,
1720080232,68,0,4471.025879,4406.153809,4553.974121,4477.179688,4392.307617,4270.769043,4410.512695,4445.256348,4193.717773,4416.538574,4294.615234,4466.025879,5167.179688,4307.820313,,,,,,,,,,,,,,,,,,,,,,,,,,,,,,,,,,,,,,,,,,,,,,,,,,,,,,,,,,,,,,,,,,,,,,
1720080232,69,0,4460.128418,4392.94873,4549.487305,4477.179688,4389.102539,4260.128418,4423.205078,4474.743652,4092.05127,4458.333496,4300.769043,4475,5162.692383,4305.128418,,,,,,,,,,,,,,,,,,,,,,,,,,,,,,,,,,,,,,,,,,,,,,,,,,,,,,,,,,,,,,,,,,,,,,
1720080232,70,0,4454.743652,4386.282227,4540,4471.153809,4389.487305,4241.922852,4405.641113,4438.333496,4212.820313,4402.820313,4288.846191,4467.820313,5148.717773,4293.846191,,,,,,,,,,,,,,,,,,,,,,,,,,,,,,,,,,,,,,,,,,,,,,,,,,,,,,,,,,,,,,,,,,,,,,
1720080232,71,0,4446.153809,4377.820313,4530.128418,4458.974121,4389.102539,4206.153809,4386.922852,4396.410156,4326.666504,4348.205078,4272.436035,4446.282227,5140.769043,4291.794922,,,,,,,,,,,,,,,,,,,,,,,,,,,,,,,,,,,,,,,,,,,,,,,,,,,,,,,,,,,,,,,,,,,,,,
1720080232,72,0,4437.94873,4369.230957,4529.871582,4455.256348,4388.461426,4174.230957,4389.615234,4398.974121,4324.230957,4344.487305,4270,4442.692383,5134.102539,4295.256348,,,,,,,,,,,,,,,,,,,,,,,,,,,,,,,,,,,,,,,,,,,,,,,,,,,,,,,,,,,,,,,,,,,,,,
1720080232,73,0,4449.102539,4372.436035,4541.410156,4460.897461,4391.410156,4166.153809,4398.846191,4412.820313,4328.974121,4342.94873,4279.487305,4458.846191,5133.717773,4298.205078,,,,,,,,,,,,,,,,,,,,,,,,,,,,,,,,,,,,,,,,,,,,,,,,,,,,,,,,,,,,,,,,,,,,,,
1720080232,74,0,4458.589844,4371.922852,4543.077148,4458.461426,4392.820313,4165.256348,4394.743652,4407.94873,4338.461426,4334.358887,4277.820313,4452.179688,5131.538574,4297.307617,,,,,,,,,,,,,,,,,,,,,,,,,,,,,,,,,,,,,,,,,,,,,,,,,,,,,,,,,,,,,,,,,,,,,,
1720080232,75,0,4458.589844,4373.077148,4546.794922,4457.179688,4395,4174.102539,4393.589844,4406.794922,4329.871582,4339.871582,4278.717773,4447.179688,5132.179688,4306.410156,,,,,,,,,,,,,,,,,,,,,,,,,,,,,,,,,,,,,,,,,,,,,,,,,,,,,,,,,,,,,,,,,,,,,,
1720080232,76,0,4461.410156,4381.282227,4555.897461,4464.615234,4396.538574,4193.205078,4400.512695,4415.512695,4333.333496,4351.666504,4295.641113,4462.94873,5144.871582,4319.615234,,,,,,,,,,,,,,,,,,,,,,,,,,,,,,,,,,,,,,,,,,,,,,,,,,,,,,,,,,,,,,,,,,,,,,
1720080232,77,0,4460.128418,4376.410156,4543.717773,4462.94873,4391.538574,4199.230957,4394.487305,4414.615234,4325.512695,4354.871582,4296.410156,4459.102539,5144.102539,4316.282227,,,,,,,,,,,,,,,,,,,,,,,,,,,,,,,,,,,,,,,,,,,,,,,,,,,,,,,,,,,,,,,,,,,,,,
1720080232,78,0,4456.025879,4367.820313,4533.333496,4456.538574,4387.692383,4203.589844,4386.794922,4408.461426,4317.05127,4352.692383,4282.94873,4450.769043,5131.153809,4306.025879,,,,,,,,,,,,,,,,,,,,,,,,,,,,,,,,,,,,,,,,,,,,,,,,,,,,,,,,,,,,,,,,,,,,,,
1720080232,79,0,4456.410156,4370.897461,4543.461426,4457.692383,4390.641113,4221.922852,4392.436035,4410.512695,4327.179688,4357.94873,4289.358887,4457.307617,5132.05127,4311.025879,,,,,,,,,,,,,,,,,,,,,,,,,,,,,,,,,,,,,,,,,,,,,,,,,,,,,,,,,,,,,,,,,,,,,,
1720080232,80,0,4460.512695,4374.615234,4546.922852,4461.025879,4390.512695,4233.205078,4397.94873,4412.692383,4329.102539,4369.358887,4302.307617,4460.384766,5136.410156,4321.282227,,,,,,,,,,,,,,,,,,,,,,,,,,,,,,,,,,,,,,,,,,,,,,,,,,,,,,,,,,,,,,,,,,,,,,
1720080232,81,0,4464.615234,4372.94873,4543.589844,4458.974121,4389.487305,4239.358887,4395.641113,4412.94873,4313.846191,4377.436035,4299.743652,4458.333496,5137.820313,4319.230957,7.927073,6.364924,1.486843,1.142015,0.330408,0.968525,3.256644,0.817219,0.7382,0.37049,1.053722,2.628473,0.519574,0.740796,0.253072,49.602768,21.750595,7.326743,4.4559,1.268486,0.47238,1.085548,0.261562,0.347946,0.118594,18.513428,2.784311,1.083451,0.58426,0.223941,1.063374,2.990798,1.025707,0.826115,0.376006,5.728579,6.733917,4.894588,3.125913,1.985438,136.98793,138.120087,96.262222,63.671387,34.363834,15.732709,13.801033,13.99009,8.634807,5.443612,1.662758,3.835361,2.281355,0.902059,0.489388,1.702212,4.018204,1.447913,0.809627,0.348202,1.717522,2.275276,1.684863,0.790799,0.517316,3.068497,4.06362,1.708874,0.88733,0.349069
1720080232,82,0,4459.743652,4365.769043,4536.922852,4451.666504,4394.358887,4261.922852,4391.282227,4415.897461,4300.128418,4371.282227,4292.436035,4451.282227,5132.436035,4305.512695,,,,,,,,,,,,,,,,,,,,,,,,,,,,,,,,,,,,,,,,,,,,,,,,,,,,,,,,,,,,,,,,,,,,,,
1720080232,83,0,4444.871582,4355.384766,4524.743652,4445.897461,4394.615234,4291.282227,4386.410156,4413.333496,4301.025879,4358.077148,4279.230957,4438.846191,5106.794922,4286.410156,,,,,,,,,,,,,,,,,,,,,,,,,,,,,,,,,,,,,,,,,,,,,,,,,,,,,,,,,,,,,,,,,,,,,,
1720080232,84,0,4438.077148,4355.256348,4519.871582,4445,4388.846191,4308.589844,4379.487305,4406.538574,4306.794922,4353.846191,4263.077148,4434.102539,5083.205078,4281.922852,,,,,,,,,,,,,,,,,,,,,,,,,,,,,,,,,,,,,,,,,,,,,,,,,,,,,,,,,,,,,,,,,,,,,,
1720080232,85,0,4444.743652,4362.05127,4523.846191,4446.538574,4388.077148,4319.615234,4377.05127,4402.179688,4306.025879,4350.512695,4262.94873,4436.153809,5087.94873,4292.05127,,,,,,,,,,,,,,,,,,,,,,,,,,,,,,,,,,,,,,,,,,,,,,,,,,,,,,,,,,,,,,,,,,,,,,
1720080232,86,0,4446.153809,4357.436035,4527.05127,4443.077148,4388.589844,4333.846191,4386.282227,4407.563965,4313.717773,4344.102539,4275.641113,4443.333496,5096.794922,4293.461426,,,,,,,,,,,,,,,,,,,,,,,,,,,,,,,,,,,,,,,,,,,,,,,,,,,,,,,,,,,,,,,,,,,,,,
1720080232,87,0,4436.025879,4347.692383,4523.589844,4437.05127,4380.512695,4340.128418,4382.436035,4406.922852,4323.589844,4339.743652,4272.94873,4443.846191,5085.769043,4284.102539,,,,,,,,,,,,,,,,,,,,,,,,,,,,,,,,,,,,,,,,,,,,,,,,,,,,,,,,,,,,,,,,,,,,,,
1720080232,88,0,4430.256348,4348.205078,4515.769043,4435.256348,4375.128418,4340.769043,4358.461426,4391.025879,4324.743652,4340.384766,4263.333496,4427.436035,5074.230957,4271.666504,,,,,,,,,,,,,,,,,,,,,,,,,,,,,,,,,,,,,,,,,,,,,,,,,,,,,,,,,,,,,,,,,,,,,,
1720080232,89,0,4445.128418,4360.512695,4523.205078,4442.05127,4384.358887,4354.230957,4355,4388.717773,4343.205078,4352.94873,4281.282227,4432.436035,5086.153809,4270.384766,,,,,,,,,,,,,,,,,,,,,,,,,,,,,,,,,,,,,,,,,,,,,,,,,,,,,,,,,,,,,,,,,,,,,,
1720080232,90,0,4463.717773,4372.563965,4539.743652,4453.077148,4394.743652,4366.282227,4366.922852,4401.282227,4373.461426,4364.102539,4301.666504,4454.230957,5103.333496,4274.230957,,,,,,,,,,,,,,,,,,,,,,,,,,,,,,,,,,,,,,,,,,,,,,,,,,,,,,,,,,,,,,,,,,,,,,
1720080232,91,0,4464.358887,4374.615234,4540.384766,4459.487305,4396.025879,4365.512695,4360.641113,4397.692383,4379.871582,4353.461426,4291.025879,4448.205078,5089.615234,4268.589844,,,,,,,,,,,,,,,,,,,,,,,,,,,,,,,,,,,,,,,,,,,,,,,,,,,,,,,,,,,,,,,,,,,,,,
1720080232,92,0,4465,4372.94873,4534.487305,4459.615234,4394.743652,4375.256348,4355.897461,4389.743652,4382.436035,4341.794922,4275.384766,4436.538574,5064.487305,4260.641113,,,,,,,,,,,,,,,,,,,,,,,,,,,,,,,,,,,,,,,,,,,,,,,,,,,,,,,,,,,,,,,,,,,,,,
1720080232,93,0,4476.538574,4374.230957,4534.615234,4454.743652,4396.282227,4397.563965,4362.94873,4393.717773,4405.384766,4341.794922,4277.563965,4438.974121,5061.794922,4258.077148,,,,,,,,,,,,,,,,,,,,,,,,,,,,,,,,,,,,,,,,,,,,,,,,,,,,,,,,,,,,,,,,,,,,,,
1720080232,94,0,4474.615234,4375.769043,4536.794922,4448.717773,4397.436035,4414.230957,4362.179688,4393.077148,4421.025879,4335,4277.94873,4437.307617,5059.230957,4256.922852,,,,,,,,,,,,,,,,,,,,,,,,,,,,,,,,,,,,,,,,,,,,,,,,,,,,,,,,,,,,,,,,,,,,,,
1720080232,95,0,4462.179688,4371.922852,4533.974121,4443.205078,4397.05127,4426.025879,4358.205078,4383.717773,4416.410156,4322.05127,4263.077148,4431.025879,5041.538574,4242.692383,,,,,,,,,,,,,,,,,,,,,,,,,,,,,,,,,,,,,,,,,,,,,,,,,,,,,,,,,,,,,,,,,,,,,,
1720080232,96,0,4465.641113,4371.666504,4527.179688,4441.410156,4396.410156,4430.641113,4355.256348,4377.05127,4412.436035,4318.077148,4255.897461,4429.743652,5033.077148,4231.153809,,,,,,,,,,,,,,,,,,,,,,,,,,,,,,,,,,,,,,,,,,,,,,,,,,,,,,,,,,,,,,,,,,,,,,
1720080232,97,0,4478.974121,4379.743652,4533.333496,4447.563965,4396.794922,4432.94873,4356.025879,4381.922852,4422.692383,4323.846191,4270.512695,4436.025879,5042.692383,4243.077148,5.436707,4.907923,1.247279,1.245831,0.302758,0.780531,2.7788,0.834269,0.795025,0.327059,0.833012,2.505416,0.54578,0.829737,0.237422,61.04303,25.531502,8.796953,5.324782,1.443389,0.395713,0.869593,0.256699,0.364112,0.112782,21.287899,2.437845,0.902862,0.663389,0.208877,1.135183,2.70196,0.845093,0.927528,0.368012,4.919559,6.171312,4.211248,3.368237,1.699541,119.293907,127.100227,84.205093,66.820618,28.207212,13.067924,12.554252,11.642128,8.909876,4.712554,1.671597,3.704645,1.892759,0.912235,0.49014,1.023208,3.278782,1.106064,0.735348,0.32997,1.522867,2.475162,1.410749,0.787131,0.519906,3.354821,4.519849,1.39967,0.933435,0.354097
1720080232,98,0,4481.410156,4381.538574,4542.179688,4443.461426,4394.230957,4438.205078,4364.487305,4389.871582,4435,4328.974121,4279.102539,4442.563965,5040.769043,4251.282227,,,,,,,,,,,,,,,,,,,,,,,,,,,,,,,,,,,,,,,,,,,,,,,,,,,,,,,,,,,,,,,,,,,,,,
1720080232,99,0,4474.102539,4370.128418,4532.179688,4429.743652,4385.256348,4433.717773,4360.384766,4384.230957,4430.641113,4325.769043,4264.743652,4434.230957,5021.282227,4238.077148,,,,,,,,,,,,,,,,,,,,,,,,,,,,,,,,,,,,,,,,,,,,,,,,,,,,,,,,,,,,,,,,,,,,,,
1720080232,100,0,4474.487305,4369.358887,4523.717773,4430.897461,4382.563965,4433.205078,4348.333496,4374.743652,4418.461426,4323.717773,4258.077148,4426.794922,5013.589844,4233.077148,,,,,,,,,,,,,,,,,,,,,,,,,,,,,,,,,,,,,,,,,,,,,,,,,,,,,,,,,,,,,,,,,,,,,,
1720080232,101,0,4485.128418,4386.153809,4537.94873,4446.025879,4391.538574,4444.487305,4352.563965,4382.820313,4406.282227,4334.358887,4272.179688,4442.05127,5024.743652,4252.179688,,,,,,,,,,,,,,,,,,,,,,,,,,,,,,,,,,,,,,,,,,,,,,,,,,,,,,,,,,,,,,,,,,,,,,
1720080232,102,0,4485.256348,4390.384766,4545.897461,4445,4393.077148,4440.641113,4356.666504,4390.769043,4387.307617,4345.384766,4277.563965,4445.512695,5032.307617,4256.922852,,,,,,,,,,,,,,,,,,,,,,,,,,,,,,,,,,,,,,,,,,,,,,,,,,,,,,,,,,,,,,,,,,,,,,
1720080232,103,0,4463.077148,4368.077148,4526.538574,4423.589844,4379.358887,4426.922852,4342.436035,4378.974121,4355.897461,4336.410156,4250.512695,4421.282227,5001.666504,4225.512695,,,,,,,,,,,,,,,,,,,,,,,,,,,,,,,,,,,,,,,,,,,,,,,,,,,,,,,,,,,,,,,,,,,,,,
1720080232,104,0,4442.179688,4350,4507.94873,4409.230957,4371.666504,4424.871582,4333.205078,4368.717773,4334.358887,4321.538574,4224.871582,4409.230957,4967.179688,4198.717773,,,,,,,,,,,,,,,,,,,,,,,,,,,,,,,,,,,,,,,,,,,,,,,,,,,,,,,,,,,,,,,,,,,,,,
1720080232,105,0,4442.94873,4355.128418,4511.666504,4411.410156,4376.538574,4429.487305,4341.025879,4373.717773,4345,4324.871582,4237.692383,4415.769043,4982.307617,4209.615234,,,,,,,,,,,,,,,,,,,,,,,,,,,,,,,,,,,,,,,,,,,,,,,,,,,,,,,,,,,,,,,,,,,,,,
1720080232,106,0,4454.102539,4364.871582,4533.205078,4421.794922,4384.871582,4437.563965,4354.230957,4386.922852,4371.025879,4338.974121,4270.256348,4435,5016.025879,4241.282227,,,,,,,,,,,,,,,,,,,,,,,,,,,,,,,,,,,,,,,,,,,,,,,,,,,,,,,,,,,,,,,,,,,,,,
1720080232,107,0,4461.025879,4370.897461,4540.256348,4427.307617,4389.487305,4444.871582,4357.179688,4391.794922,4378.205078,4343.717773,4279.102539,4447.692383,5016.666504,4251.666504,,,,,,,,,,,,,,,,,,,,,,,,,,,,,,,,,,,,,,,,,,,,,,,,,,,,,,,,,,,,,,,,,,,,,,
1720080232,108,0,4457.820313,4378.077148,4527.692383,4422.692383,4388.461426,4442.94873,4348.974121,4383.333496,4365,4339.230957,4267.05127,4437.692383,5002.05127,4240.769043,,,,,,,,,,,,,,,,,,,,,,,,,,,,,,,,,,,,,,,,,,,,,,,,,,,,,,,,,,,,,,,,,,,,,,
1720080232,109,0,4442.179688,4381.922852,4524.358887,4414.871582,4385.897461,4437.179688,4345.641113,4377.307617,4353.077148,4337.307617,4265.128418,4431.538574,5002.563965,4236.666504,,,,,,,,,,,,,,,,,,,,,,,,,,,,,,,,,,,,,,,,,,,,,,,,,,,,,,,,,,,,,,,,,,,,,,
1720080232,110,0,4422.436035,4380.769043,4527.692383,4409.615234,4384.102539,4433.974121,4350.128418,4382.94873,4341.025879,4338.077148,4266.538574,4438.077148,4998.974121,4235.128418,,,,,,,,,,,,,,,,,,,,,,,,,,,,,,,,,,,,,,,,,,,,,,,,,,,,,,,,,,,,,,,,,,,,,,
1720080232,111,0,4417.05127,4381.153809,4523.461426,4415.128418,4382.692383,4429.743652,4358.589844,4393.974121,4328.077148,4343.205078,4263.205078,4443.333496,4993.974121,4235.128418,,,,,,,,,,,,,,,,,,,,,,,,,,,,,,,,,,,,,,,,,,,,,,,,,,,,,,,,,,,,,,,,,,,,,,
1720080232,112,0,4425,4382.692383,4523.846191,4425.384766,4381.666504,4422.820313,4364.102539,4400.384766,4323.717773,4352.05127,4266.538574,4445.769043,4998.333496,4241.922852,,,,,,,,,,,,,,,,,,,,,,,,,,,,,,,,,,,,,,,,,,,,,,,,,,,,,,,,,,,,,,,,,,,,,,
1720080232,113,0,4430.128418,4385.897461,4530.384766,4429.871582,4385.512695,4415.256348,4359.487305,4397.05127,4325.128418,4355.128418,4273.333496,4444.358887,4997.179688,4247.820313,4.528133,3.474975,1.03383,1.338197,0.292523,0.723485,2.334806,0.803512,0.835683,0.290792,0.753481,2.425153,0.586939,0.914243,0.225028,64.336029,26.022804,9.022916,5.502367,1.447042,0.385309,0.667861,0.247875,0.37504,0.10933,25.110779,2.340431,0.76347,0.738041,0.197049,1.181842,2.423064,0.721549,1.017421,0.352138,3.973511,5.311473,3.599899,3.523723,1.417581,95.208969,102.962982,72.012001,66.746979,22.531538,9.99615,10.375236,9.484639,8.953569,3.933965,1.658172,3.795138,1.596854,0.975464,0.477681,0.721627,3.062099,0.916,0.719572,0.316357,1.664615,2.845336,1.187803,0.833193,0.512263,3.449968,5.092768,1.15978,1.023777,0.361573
1720080232,114,0,4429.230957,4390.384766,4531.410156,4430.512695,4389.487305,4417.05127,4354.743652,4391.282227,4328.077148,4353.205078,4276.410156,4441.666504,4997.05127,4250.897461,,,,,,,,,,,,,,,,,,,,,,,,,,,,,,,,,,,,,,,,,,,,,,,,,,,,,,,,,,,,,,,,,,,,,,
1720080232,115,0,4423.846191,4383.333496,4529.358887,4428.077148,4386.538574,4426.025879,4358.717773,4394.102539,4336.410156,4350.256348,4273.333496,4443.717773,4996.025879,4246.153809,,,,,,,,,,,,,,,,,,,,,,,,,,,,,,,,,,,,,,,,,,,,,,,,,,,,,,,,,,,,,,,,,,,,,,
1720080232,116,0,4411.922852,4372.94873,4521.025879,4417.436035,4383.205078,4422.692383,4358.077148,4392.692383,4347.179688,4344.487305,4265,4434.743652,4985.256348,4232.692383,,,,,,,,,,,,,,,,,,,,,,,,,,,,,,,,,,,,,,,,,,,,,,,,,,,,,,,,,,,,,,,,,,,,,,
1720080232,117,0,4408.461426,4374.102539,4515.128418,4409.487305,4386.153809,4415.641113,4354.743652,4386.922852,4351.025879,4340.256348,4259.102539,4428.461426,4978.846191,4225.128418,,,,,,,,,,,,,,,,,,,,,,,,,,,,,,,,,,,,,,,,,,,,,,,,,,,,,,,,,,,,,,,,,,,,,,
1720080232,118,0,4421.025879,4379.871582,4519.615234,4413.205078,4388.333496,4411.153809,4358.589844,4388.589844,4353.077148,4343.205078,4262.436035,4442.307617,4985.384766,4233.077148,,,,,,,,,,,,,,,,,,,,,,,,,,,,,,,,,,,,,,,,,,,,,,,,,,,,,,,,,,,,,,,,,,,,,,
1720080232,119,0,4425.769043,4380.512695,4515.897461,4410.641113,4383.461426,4397.179688,4355.256348,4383.717773,4361.410156,4344.102539,4265.512695,4442.436035,4983.846191,4236.025879,,,,,,,,,,,,,,,,,,,,,,,,,,,,,,,,,,,,,,,,,,,,,,,,,,,,,,,,,,,,,,,,,,,,,,
1720080232,120,0,4416.922852,4378.974121,4510.897461,4401.025879,4378.974121,4385.641113,4347.179688,4371.153809,4373.589844,4335.897461,4257.179688,4432.692383,4968.974121,4225.128418,,,,,,,,,,,,,,,,,,,,,,,,,,,,,,,,,,,,,,,,,,,,,,,,,,,,,,,,,,,,,,,,,,,,,,
1720080232,121,0,4414.102539,4380.256348,4512.307617,4403.205078,4382.179688,4386.538574,4350.128418,4369.615234,4387.94873,4328.589844,4250.128418,4439.615234,4962.307617,4224.615234,,,,,,,,,,,,,,,,,,,,,,,,,,,,,,,,,,,,,,,,,,,,,,,,,,,,,,,,,,,,,,,,,,,,,,
1720080232,122,0,4419.871582,4383.589844,4513.205078,4407.05127,4386.538574,4387.94873,4356.410156,4374.743652,4401.282227,4327.563965,4254.615234,4449.743652,4966.666504,4233.589844,,,,,,,,,,,,,,,,,,,,,,,,,,,,,,,,,,,,,,,,,,,,,,,,,,,,,,,,,,,,,,,,,,,,,,
1720080232,123,0,4417.05127,4380.769043,4515.128418,4396.538574,4384.358887,4381.922852,4357.179688,4371.538574,4409.743652,4326.538574,4257.436035,4450.769043,4965.512695,4235.256348,,,,,,,,,,,,,,,,,,,,,,,,,,,,,,,,,,,,,,,,,,,,,,,,,,,,,,,,,,,,,,,,,,,,,,
1720080232,124,0,4410.384766,4377.05127,4519.871582,4384.102539,4382.692383,4377.563965,4357.692383,4370.641113,4420.384766,4324.230957,4258.077148,4451.666504,4963.589844,4237.179688,,,,,,,,,,,,,,,,,,,,,,,,,,,,,,,,,,,,,,,,,,,,,,,,,,,,,,,,,,,,,,,,,,,,,,
1720080232,125,0,4415.384766,4380.128418,4522.563965,4382.05127,4386.410156,4375.256348,4359.871582,4375.384766,4431.666504,4325.641113,4265.769043,4457.179688,4968.077148,4248.077148,,,,,,,,,,,,,,,,,,,,,,,,,,,,,,,,,,,,,,,,,,,,,,,,,,,,,,,,,,,,,,,,,,,,,,
1720080232,126,0,4418.717773,4378.077148,4519.230957,4379.743652,4386.538574,4365.641113,4357.94873,4372.563965,4427.179688,4325.128418,4265.128418,4458.461426,4963.461426,4249.615234,,,,,,,,,,,,,,,,,,,,,,,,,,,,,,,,,,,,,,,,,,,,,,,,,,,,,,,,,,,,,,,,,,,,,,
1720080232,127,0,4415.512695,4371.153809,4515.897461,4375.512695,4385.512695,4351.794922,4357.436035,4369.358887,4420,4323.717773,4251.025879,4453.333496,4950.769043,4239.487305,,,,,,,,,,,,,,,,,,,,,,,,,,,,,,,,,,,,,,,,,,,,,,,,,,,,,,,,,,,,,,,,,,,,,,
1720080232,0,0,4409.615234,4367.692383,4511.794922,4371.666504,4384.871582,4336.922852,4361.282227,4375.256348,4423.205078,4326.282227,4245.384766,4449.230957,4945.769043,4232.94873,,,,,,,,,,,,,,,,,,,,,,,,,,,,,,,,,,,,,,,,,,,,,,,,,,,,,,,,,,,,,,,,,,,,,,
1720080232,1,0,4407.179688,4363.077148,4509.487305,4367.307617,4379.487305,4320,4364.487305,4378.461426,4422.692383,4326.025879,4248.589844,4455.256348,4946.410156,4232.436035,5.289243,2.42466,0.919399,1.400332,0.298603,0.804358,2.057938,0.745601,0.847883,0.2669,0.807113,2.42136,0.630911,0.962338,0.215607,57.816338,23.0275,7.938009,4.928687,1.273086,0.453849,0.526921,0.238753,0.376405,0.108122,29.215616,2.518301,0.718584,0.795164,0.191098,1.186383,2.177413,0.675847,1.07099,0.333451,3.126794,4.316992,3.106556,3.548232,1.168262,72.725037,72.699982,58.72361,62.996021,17.605356,7.356812,7.997763,7.734192,8.669007,3.163218,1.630885,4.064843,1.426085,1.051451,0.456502,0.639588,3.153438,0.836765,0.738859,0.307663,1.561778,3.357182,1.076773,0.913606,0.498973,3.339114,5.65727,1.007627,1.115336,0.368879
1720080232,2,0,4417.563965,4368.205078,4513.846191,4374.871582,4383.461426,4310.256348,4366.922852,4378.333496,4420.384766,4327.820313,4249.487305,4461.025879,4946.922852,4242.436035,,,,,,,,,,,,,,,,,,,,,,,,,,,,,,,,,,,,,,,,,,,,,,,,,,,,,,,,,,,,,,,,,,,,,,
1720080232,3,0,4429.487305,4379.102539,4518.717773,4388.077148,4395.512695,4308.589844,4369.871582,4382.820313,4412.563965,4333.077148,4247.692383,4458.717773,4944.358887,4248.077148,,,,,,,,,,,,,,,,,,,,,,,,,,,,,,,,,,,,,,,,,,,,,,,,,,,,,,,,,,,,,,,,,,,,,,
1720080232,4,0,4423.589844,4375.512695,4519.871582,4384.871582,4391.025879,4302.563965,4364.871582,4383.717773,4385.384766,4332.179688,4239.615234,4459.487305,4933.205078,4235.512695,,,,,,,,,,,,,,,,,,,,,,,,,,,,,,,,,,,,,,,,,,,,,,,,,,,,,,,,,,,,,,,,,,,,,,
1720080232,5,0,4417.820313,4372.563965,4518.333496,4380.769043,4384.102539,4291.410156,4363.205078,4386.538574,4361.922852,4335.128418,4239.615234,4463.077148,4931.025879,4232.307617,,,,,,,,,,,,,,,,,,,,,,,,,,,,,,,,,,,,,,,,,,,,,,,,,,,,,,,,,,,,,,,,,,,,,,
1720080232,6,0,4422.94873,4377.05127,4517.692383,4384.102539,4388.974121,4286.794922,4375,4396.922852,4350.641113,4346.153809,4248.461426,4467.692383,4938.974121,4247.05127,,,,,,,,,,,,,,,,,,,,,,,,,,,,,,,,,,,,,,,,,,,,,,,,,,,,,,,,,,,,,,,,,,,,,,
1720080232,7,0,4423.077148,4374.230957,4511.666504,4379.743652,4386.666504,4281.410156,4377.94873,4400,4328.589844,4349.358887,4247.307617,4470.384766,4937.05127,4250.769043,,,,,,,,,,,,,,,,,,,,,,,,,,,,,,,,,,,,,,,,,,,,,,,,,,,,,,,,,,,,,,,,,,,,,,
1720080232,8,0,4415.897461,4370.384766,4504.487305,4372.692383,4377.94873,4266.153809,4371.538574,4396.282227,4313.077148,4353.333496,4248.717773,4466.410156,4935.128418,4245.512695,,,,,,,,,,,,,,,,,,,,,,,,,,,,,,,,,,,,,,,,,,,,,,,,,,,,,,,,,,,,,,,,,,,,,,
1720080232,9,0,4412.179688,4368.589844,4509.358887,4373.717773,4380.256348,4250.769043,4377.94873,4402.307617,4323.589844,4367.820313,4263.333496,4470.897461,4942.563965,4249.230957,,,,,,,,,,,,,,,,,,,,,,,,,,,,,,,,,,,,,,,,,,,,,,,,,,,,,,,,,,,,,,,,,,,,,,
1720080232,10,0,4415.897461,4368.333496,4511.153809,4373.717773,4385.897461,4236.538574,4383.974121,4406.282227,4335.897461,4372.05127,4263.333496,4472.94873,4940.769043,4250.384766,,,,,,,,,,,,,,,,,,,,,,,,,,,,,,,,,,,,,,,,,,,,,,,,,,,,,,,,,,,,,,,,,,,,,,
1720080232,11,0,4422.307617,4375.769043,4505,4373.333496,4386.282227,4217.94873,4378.205078,4403.846191,4337.94873,4365.384766,4248.846191,4461.666504,4927.563965,4240,,,,,,,,,,,,,,,,,,,,,,,,,,,,,,,,,,,,,,,,,,,,,,,,,,,,,,,,,,,,,,,,,,,,,,
1720080233,12,0,4428.717773,4382.563965,4511.025879,4380.769043,4389.358887,4207.94873,4380.512695,4409.102539,4342.563965,4369.230957,4252.563965,4463.589844,4922.94873,4237.307617,,,,,,,,,,,,,,,,,,,,,,,,,,,,,,,,,,,,,,,,,,,,,,,,,,,,,,,,,,,,,,,,,,,,,,
1720080233,13,0,4442.307617,4387.94873,4522.94873,4386.025879,4396.794922,4218.974121,4389.615234,4414.615234,4350.641113,4375.769043,4268.205078,4473.461426,4928.205078,4246.410156,,,,,,,,,,,,,,,,,,,,,,,,,,,,,,,,,,,,,,,,,,,,,,,,,,,,,,,,,,,,,,,,,,,,,,
1720080233,14,0,4456.410156,4395.641113,4517.94873,4382.307617,4399.487305,4231.538574,4384.230957,4408.589844,4351.794922,4366.282227,4265.897461,4463.974121,4922.05127,4243.974121,,,,,,,,,,,,,,,,,,,,,,,,,,,,,,,,,,,,,,,,,,,,,,,,,,,,,,,,,,,,,,,,,,,,,,
1720080233,15,0,4459.358887,4395.769043,4513.077148,4379.358887,4394.230957,4239.487305,4377.692383,4402.307617,4352.307617,4356.153809,4257.05127,4458.333496,4910.641113,4236.153809,,,,,,,,,,,,,,,,,,,,,,,,,,,,,,,,,,,,,,,,,,,,,,,,,,,,,,,,,,,,,,,,,,,,,,
1720080233,16,0,4462.692383,4396.922852,4520.641113,4382.179688,4395.128418,4255,4381.282227,4402.436035,4363.461426,4359.615234,4264.102539,4465.256348,4914.358887,4245.384766,,,,,,,,,,,,,,,,,,,,,,,,,,,,,,,,,,,,,,,,,,,,,,,,,,,,,,,,,,,,,,,,,,,,,,
1720080233,17,0,4466.922852,4403.717773,4518.333496,4383.077148,4400.256348,4264.615234,4379.102539,4395.256348,4375.128418,4352.563965,4265.512695,4463.205078,4915,4251.025879,7.107051,1.868147,0.90461,1.420393,0.312608,0.970645,1.981873,0.684509,0.824755,0.254277,0.997079,2.456753,0.657067,0.958848,0.210191,44.211319,17.549099,5.946801,3.818931,0.978995,0.58027,0.463095,0.236565,0.364603,0.108177,32.491627,2.90629,0.777682,0.825347,0.190256,1.148771,1.949666,0.683899,1.073837,0.319473,2.469245,3.377395,2.724514,3.446163,0.97314,55.882938,44.183754,45.081768,56.299904,13.572454,5.461763,6.13792,6.507415,8.089624,2.469106,1.592103,4.366495,1.368634,1.101312,0.43918,0.61767,3.254384,0.807439,0.760439,0.306771,1.529831,3.855719,1.073392,1.001329,0.493118,3.102192,6.022538,0.925555,1.173301,0.377229
1720080233,18,0,4460.128418,4395.769043,4505.769043,4375.512695,4393.333496,4263.333496,4370.641113,4382.05127,4372.436035,4327.94873,4246.282227,4454.358887,4895.769043,4234.230957,,,,,,,,,,,,,,,,,,,,,,,,,,,,,,,,,,,,,,,,,,,,,,,,,,,,,,,,,,,,,,,,,,,,,,
1720080233,19,0,4456.025879,4387.179688,4502.820313,4372.692383,4387.820313,4270.897461,4369.230957,4376.538574,4369.743652,4318.717773,4236.794922,4447.179688,4885.897461,4226.153809,,,,,,,,,,,,,,,,,,,,,,,,,,,,,,,,,,,,,,,,,,,,,,,,,,,,,,,,,,,,,,,,,,,,,,
1720080233,20,0,4461.922852,4399.615234,4512.94873,4379.871582,4395.512695,4287.820313,4375.512695,4382.563965,4385.897461,4331.794922,4251.025879,4452.820313,4894.230957,4240.769043,,,,,,,,,,,,,,,,,,,,,,,,,,,,,,,,,,,,,,,,,,,,,,,,,,,,,,,,,,,,,,,,,,,,,,
1720080233,21,0,4465.128418,4409.358887,4518.589844,4382.179688,4398.717773,4294.871582,4379.743652,4387.94873,4405.897461,4341.025879,4262.563965,4466.025879,4895.897461,4251.153809,,,,,,,,,,,,,,,,,,,,,,,,,,,,,,,,,,,,,,,,,,,,,,,,,,,,,,,,,,,,,,,,,,,,,,
1720080233,22,0,4466.922852,4404.487305,4515.384766,4380.641113,4395.897461,4297.563965,4379.615234,4384.615234,4417.692383,4340,4263.333496,4467.94873,4893.717773,4250.897461,,,,,,,,,,,,,,,,,,,,,,,,,,,,,,,,,,,,,,,,,,,,,,,,,,,,,,,,,,,,,,,,,,,,,,
1720080233,23,0,4466.153809,4397.692383,4511.025879,4383.077148,4396.666504,4305.897461,4380.256348,4381.666504,4431.153809,4333.974121,4264.102539,4462.692383,4894.743652,4251.794922,,,,,,,,,,,,,,,,,,,,,,,,,,,,,,,,,,,,,,,,,,,,,,,,,,,,,,,,,,,,,,,,,,,,,,
1720080233,24,0,4443.974121,4392.692383,4505.512695,4378.717773,4392.94873,4311.666504,4377.307617,4378.846191,4440.384766,4321.538574,4260.128418,4457.307617,4881.282227,4246.282227,,,,,,,,,,,,,,,,,,,,,,,,,,,,,,,,,,,,,,,,,,,,,,,,,,,,,,,,,,,,,,,,,,,,,,
1720080233,25,0,4426.666504,4397.94873,4506.410156,4376.282227,4390.256348,4315.384766,4374.487305,4375.641113,4451.282227,4317.692383,4259.871582,4458.717773,4873.974121,4242.692383,,,,,,,,,,,,,,,,,,,,,,,,,,,,,,,,,,,,,,,,,,,,,,,,,,,,,,,,,,,,,,,,,,,,,,
1720080233,26,0,4446.538574,4413.461426,4521.153809,4392.692383,4398.717773,4326.410156,4380.256348,4379.743652,4473.077148,4326.282227,4272.94873,4471.794922,4890.512695,4254.743652,,,,,,,,,,,,,,,,,,,,,,,,,,,,,,,,,,,,,,,,,,,,,,,,,,,,,,,,,,,,,,,,,,,,,,
1720080233,27,0,4460.769043,4413.333496,4522.436035,4398.461426,4400.512695,4334.230957,4381.794922,4378.333496,4479.871582,4318.461426,4267.05127,4469.102539,4883.205078,4250.897461,,,,,,,,,,,,,,,,,,,,,,,,,,,,,,,,,,,,,,,,,,,,,,,,,,,,,,,,,,,,,,,,,,,,,,
1720080233,28,0,4451.538574,4405.512695,4509.487305,4386.922852,4396.538574,4334.102539,4375.384766,4369.871582,4482.436035,4303.589844,4250.512695,4454.871582,4861.922852,4236.666504,,,,,,,,,,,,,,,,,,,,,,,,,,,,,,,,,,,,,,,,,,,,,,,,,,,,,,,,,,,,,,,,,,,,,,
1720080233,29,0,4455,4413.077148,4516.025879,4392.179688,4401.153809,4341.794922,4377.436035,4373.974121,4504.743652,4306.922852,4262.05127,4465.769043,4870.384766,4246.922852,,,,,,,,,,,,,,,,,,,,,,,,,,,,,,,,,,,,,,,,,,,,,,,,,,,,,,,,,,,,,,,,,,,,,,
1720080233,30,0,4465.512695,4421.025879,4527.563965,4405.769043,4406.666504,4353.717773,4382.692383,4379.102539,4514.102539,4306.794922,4273.974121,4474.743652,4876.282227,4256.538574,,,,,,,,,,,,,,,,,,,,,,,,,,,,,,,,,,,,,,,,,,,,,,,,,,,,,,,,,,,,,,,,,,,,,,
1720080233,31,0,4460.897461,4417.563965,4521.666504,4404.487305,4406.538574,4362.820313,4381.282227,4372.05127,4515.897461,4293.846191,4263.461426,4465.641113,4857.94873,4248.589844,,,,,,,,,,,,,,,,,,,,,,,,,,,,,,,,,,,,,,,,,,,,,,,,,,,,,,,,,,,,,,,,,,,,,,
1720080233,32,0,4456.025879,4412.563965,4516.025879,4400.512695,4403.717773,4371.538574,4381.410156,4371.538574,4527.05127,4291.538574,4258.077148,4471.282227,4844.487305,4245.641113,,,,,,,,,,,,,,,,,,,,,,,,,,,,,,,,,,,,,,,,,,,,,,,,,,,,,,,,,,,,,,,,,,,,,,
1720080233,33,0,4460.512695,4414.102539,4515.384766,4400.128418,4399.487305,4377.820313,4381.282227,4377.692383,4498.205078,4301.666504,4263.077148,4479.358887,4842.307617,4244.487305,8.796463,1.686982,0.948905,1.399446,0.324153,1.189152,2.025622,0.645311,0.768356,0.247552,1.209173,2.439859,0.652249,0.907249,0.210971,28.093035,11.371817,3.749561,2.560475,0.65978,0.726394,0.451437,0.249072,0.338944,0.108837,35.025925,3.360866,0.930647,0.823948,0.191611,1.047353,1.721724,0.687326,1.024599,0.314553,2.071592,2.646221,2.389829,3.237599,0.833044,47.136921,23.137545,33.386429,47.911968,10.342902,4.362797,5.154372,5.775424,7.301009,1.892019,1.547691,4.521896,1.372471,1.105789,0.438844,0.586225,3.174622,0.767745,0.76227,0.316743,1.57952,4.192686,1.157532,1.068752,0.507271,2.840345,6.029881,0.865173,1.18798,0.390566
1720080233,34,0,4470.641113,4422.436035,4520.128418,4396.538574,4402.563965,4382.563965,4385.512695,4383.974121,4444.615234,4313.205078,4270.641113,4486.153809,4850.512695,4247.307617,,,,,,,,,,,,,,,,,,,,,,,,,,,,,,,,,,,,,,,,,,,,,,,,,,,,,,,,,,,,,,,,,,,,,,
1720080233,35,0,4486.153809,4431.153809,4529.615234,4402.820313,4410.897461,4387.307617,4397.94873,4392.820313,4435.128418,4326.025879,4285.641113,4499.230957,4865.769043,4266.410156,,,,,,,,,,,,,,,,,,,,,,,,,,,,,,,,,,,,,,,,,,,,,,,,,,,,,,,,,,,,,,,,,,,,,,
1720080233,36,0,4491.538574,4428.205078,4524.102539,4410.256348,4411.410156,4389.743652,4397.307617,4390.128418,4445.128418,4326.282227,4280.512695,4494.230957,4856.538574,4265.128418,,,,,,,,,,,,,,,,,,,,,,,,,,,,,,,,,,,,,,,,,,,,,,,,,,,,,,,,,,,,,,,,,,,,,,
1720080233,37,0,4489.487305,4425.769043,4515.769043,4407.692383,4410.128418,4395.384766,4387.563965,4381.666504,4442.05127,4319.102539,4263.461426,4485,4837.692383,4249.358887,,,,,,,,,,,,,,,,,,,,,,,,,,,,,,,,,,,,,,,,,,,,,,,,,,,,,,,,,,,,,,,,,,,,,,
1720080233,38,0,4494.358887,4435.769043,4524.615234,4410.897461,4413.589844,4403.333496,4391.025879,4382.179688,4438.333496,4320,4273.077148,4492.820313,4843.717773,4261.153809,,,,,,,,,,,,,,,,,,,,,,,,,,,,,,,,,,,,,,,,,,,,,,,,,,,,,,,,,,,,,,,,,,,,,,
1720080233,39,0,4496.025879,4437.563965,4524.487305,4412.307617,4412.94873,4410.512695,4396.922852,4383.077148,4429.358887,4321.025879,4279.358887,4490.256348,4847.179688,4267.179688,,,,,,,,,,,,,,,,,,,,,,,,,,,,,,,,,,,,,,,,,,,,,,,,,,,,,,,,,,,,,,,,,,,,,,
1720080233,40,0,4491.410156,4426.410156,4510.256348,4400.512695,4411.025879,4430,4399.487305,4382.563965,4423.333496,4319.487305,4266.025879,4477.436035,4831.025879,4248.974121,,,,,,,,,,,,,,,,,,,,,,,,,,,,,,,,,,,,,,,,,,,,,,,,,,,,,,,,,,,,,,,,,,,,,,
1720080233,41,0,4487.05127,4417.05127,4506.538574,4393.589844,4410.128418,4449.230957,4404.230957,4383.461426,4425,4321.538574,4265.897461,4474.230957,4824.743652,4249.743652,,,,,,,,,,,,,,,,,,,,,,,,,,,,,,,,,,,,,,,,,,,,,,,,,,,,,,,,,,,,,,,,,,,,,,
1720080233,42,0,4483.461426,4418.205078,4513.077148,4395.256348,4405.384766,4444.615234,4406.538574,4385.512695,4417.692383,4331.538574,4283.077148,4477.05127,4839.358887,4268.461426,,,,,,,,,,,,,,,,,,,,,,,,,,,,,,,,,,,,,,,,,,,,,,,,,,,,,,,,,,,,,,,,,,,,,,
1720080233,43,0,4476.538574,4413.974121,4513.333496,4384.615234,4398.974121,4430.384766,4405.256348,4387.307617,4404.358887,4338.589844,4286.922852,4483.461426,4847.436035,4268.846191,,,,,,,,,,,,,,,,,,,,,,,,,,,,,,,,,,,,,,,,,,,,,,,,,,,,,,,,,,,,,,,,,,,,,,
1720080233,44,0,4466.922852,4402.05127,4500.384766,4370.897461,4395,4421.410156,4402.05127,4384.743652,4400.256348,4338.589844,4281.282227,4482.94873,4844.102539,4267.436035,,,,,,,,,,,,,,,,,,,,,,,,,,,,,,,,,,,,,,,,,,,,,,,,,,,,,,,,,,,,,,,,,,,,,,
1720080233,45,0,4460.384766,4400.641113,4492.05127,4372.436035,4396.282227,4415.384766,4402.563965,4381.538574,4409.102539,4339.102539,4288.333496,4476.922852,4842.307617,4278.333496,,,,,,,,,,,,,,,,,,,,,,,,,,,,,,,,,,,,,,,,,,,,,,,,,,,,,,,,,,,,,,,,,,,,,,
1720080233,46,0,4461.666504,4406.282227,4501.282227,4379.871582,4400.641113,4410.769043,4409.358887,4387.820313,4420.512695,4338.717773,4294.615234,4482.563965,4842.94873,4282.692383,,,,,,,,,,,,,,,,,,,,,,,,,,,,,,,,,,,,,,,,,,,,,,,,,,,,,,,,,,,,,,,,,,,,,,
1720080233,47,0,4468.589844,4408.717773,4506.410156,4380,4400.641113,4404.230957,4414.871582,4392.436035,4424.358887,4338.333496,4287.563965,4488.846191,4845.641113,4284.102539,,,,,,,,,,,,,,,,,,,,,,,,,,,,,,,,,,,,,,,,,,,,,,,,,,,,,,,,,,,,,,,,,,,,,,
1720080233,48,0,4458.461426,4398.333496,4496.538574,4371.922852,4396.153809,4391.922852,4412.179688,4388.077148,4418.205078,4330,4266.153809,4480.769043,4832.05127,4275.128418,,,,,,,,,,,,,,,,,,,,,,,,,,,,,,,,,,,,,,,,,,,,,,,,,,,,,,,,,,,,,,,,,,,,,,
1720080233,49,0,4432.820313,4381.538574,4482.179688,4360.384766,4392.94873,4385,4408.846191,4383.461426,4410.384766,4315,4238.846191,4464.871582,4800.641113,4249.487305,9.489333,1.672521,1.005942,1.352232,0.326876,1.409874,2.067776,0.644987,0.693879,0.242535,1.363037,2.297152,0.62566,0.828378,0.219992,14.507533,6.174305,1.986663,1.522396,0.403878,0.838513,0.453254,0.277134,0.304171,0.110542,36.956432,3.740601,1.161326,0.793423,0.191724,0.924078,1.483348,0.641481,0.935526,0.317232,1.981658,2.156144,2.069407,2.956518,0.736144,46.312809,11.494965,25.682827,39.339462,7.801913,4.047483,4.945189,5.411812,6.430909,1.451449,1.522088,4.414644,1.397437,1.076747,0.462187,0.548966,2.885302,0.689474,0.742955,0.336764,1.591182,4.233487,1.271434,1.103875,0.5455,2.598774,5.614382,0.794305,1.18052,0.413624
1720080233,50,0,4428.205078,4382.307617,4479.102539,4357.94873,4395,4386.410156,4409.358887,4380.897461,4409.615234,4312.94873,4226.794922,4457.05127,4792.05127,4243.974121,,,,,,,,,,,,,,,,,,,,,,,,,,,,,,,,,,,,,,,,,,,,,,,,,,,,,,,,,,,,,,,,,,,,,,
1720080233,51,0,4450.384766,4404.230957,4494.358887,4372.820313,4401.282227,4392.05127,4411.794922,4388.461426,4425.256348,4330.384766,4246.410156,4467.563965,4811.794922,4269.487305,,,,,,,,,,,,,,,,,,,,,,,,,,,,,,,,,,,,,,,,,,,,,,,,,,,,,,,,,,,,,,,,,,,,,,
1720080233,52,0,4463.846191,4418.717773,4506.794922,4385.256348,4407.436035,4403.333496,4414.743652,4398.333496,4444.871582,4340.769043,4266.153809,4480.641113,4819.871582,4286.153809,,,,,,,,,,,,,,,,,,,,,,,,,,,,,,,,,,,,,,,,,,,,,,,,,,,,,,,,,,,,,,,,,,,,,,
1720080233,53,0,4448.589844,4413.717773,4494.743652,4378.846191,4405.512695,4412.05127,4411.025879,4391.794922,4446.282227,4330.512695,4254.358887,4474.102539,4810.897461,4280.897461,,,,,,,,,,,,,,,,,,,,,,,,,,,,,,,,,,,,,,,,,,,,,,,,,,,,,,,,,,,,,,,,,,,,,,
1720080233,54,0,4431.922852,4411.538574,4486.410156,4375.128418,4400.769043,4420.897461,4409.230957,4383.461426,4446.794922,4321.666504,4248.333496,4468.974121,4809.743652,4278.846191,,,,,,,,,,,,,,,,,,,,,,,,,,,,,,,,,,,,,,,,,,,,,,,,,,,,,,,,,,,,,,,,,,,,,,
1720080233,55,0,4435.256348,4415.641113,4497.436035,4383.461426,4401.410156,4435,4413.077148,4386.922852,4457.94873,4323.205078,4261.922852,4477.05127,4813.974121,4286.025879,,,,,,,,,,,,,,,,,,,,,,,,,,,,,,,,,,,,,,,,,,,,,,,,,,,,,,,,,,,,,,,,,,,,,,
1720080233,56,0,4441.922852,4412.307617,4495.512695,4379.743652,4399.743652,4439.615234,4411.666504,4389.615234,4467.820313,4325,4262.94873,4474.102539,4812.563965,4290.512695,,,,,,,,,,,,,,,,,,,,,,,,,,,,,,,,,,,,,,,,,,,,,,,,,,,,,,,,,,,,,,,,,,,,,,
1720080233,57,0,4443.333496,4405.897461,4488.974121,4371.538574,4397.692383,4433.974121,4411.794922,4391.922852,4477.307617,4325.384766,4260.256348,4474.102539,4813.846191,4291.666504,,,,,,,,,,,,,,,,,,,,,,,,,,,,,,,,,,,,,,,,,,,,,,,,,,,,,,,,,,,,,,,,,,,,,,
1720080233,58,0,4439.358887,4403.974121,4493.205078,4374.358887,4399.102539,4429.102539,4413.589844,4392.94873,4481.282227,4321.538574,4266.666504,4479.230957,4810.641113,4286.922852,,,,,,,,,,,,,,,,,,,,,,,,,,,,,,,,,,,,,,,,,,,,,,,,,,,,,,,,,,,,,,,,,,,,,,
1720080233,59,0,4431.282227,4404.871582,4490.128418,4373.717773,4397.307617,4425.128418,4404.102539,4382.820313,4473.077148,4314.102539,4259.358887,4468.974121,4797.563965,4278.589844,,,,,,,,,,,,,,,,,,,,,,,,,,,,,,,,,,,,,,,,,,,,,,,,,,,,,,,,,,,,,,,,,,,,,,
1720080233,60,0,4431.922852,4408.205078,4488.846191,4371.794922,4396.153809,4424.487305,4397.94873,4380.384766,4474.615234,4309.230957,4250.769043,4468.717773,4791.794922,4278.461426,,,,,,,,,,,,,,,,,,,,,,,,,,,,,,,,,,,,,,,,,,,,,,,,,,,,,,,,,,,,,,,,,,,,,,
1720080233,61,0,4442.307617,4411.794922,4491.922852,4373.589844,4398.461426,4428.974121,4402.307617,4384.102539,4487.820313,4302.563965,4255.641113,4476.794922,4791.666504,4280.769043,,,,,,,,,,,,,,,,,,,,,,,,,,,,,,,,,,,,,,,,,,,,,,,,,,,,,,,,,,,,,,,,,,,,,,
