Timestamp,EEG.Counter,EEG.Interpolated,EEG.AF3,EEG.F7,EEG.F3,EEG.FC5,EEG.T7,EEG.P7,EEG.O1,EEG.O2,EEG.P8,EEG.T8,EEG.FC6,EEG.F4,EEG.F8,EEG.AF4,POW.AF3.Theta,POW.AF3.Alpha,POW.AF3.BetaL,POW.AF3.BetaH,POW.AF3.Gamma,POW.F7.Theta,POW.F7.Alpha,POW.F7.BetaL,POW.F7.BetaH,POW.F7.Gamma,POW.F3.Theta,POW.F3.Alpha,POW.F3.BetaL,POW.F3.BetaH,POW.F3.Gamma,POW.FC5.Theta,POW.FC5.Alpha,POW.FC5.BetaL,POW.FC5.BetaH,POW.FC5.Gamma,POW.T7.Theta,POW.T7.Alpha,POW.T7.BetaL,POW.T7.BetaH,POW.T7.Gamma,POW.P7.Theta,POW.P7.Alpha,POW.P7.BetaL,POW.P7.BetaH,POW.P7.Gamma,POW.O1.Theta,POW.O1.Alpha,POW.O1.BetaL,POW.O1.BetaH,POW.O1.Gamma,POW.O2.Theta,POW.O2.Alpha,POW.O2.BetaL,POW.O2.BetaH,POW.O2.Gamma,POW.P8.Theta,POW.P8.Alpha,POW.P8.BetaL,POW.P8.BetaH,POW.P8.Gamma,POW.T8.Theta,POW.T8.Alpha,POW.T8.BetaL,POW.T8.BetaH,POW.T8.Gamma,POW.FC6.Theta,POW.FC6.Alpha,POW.FC6.BetaL,POW.FC6.BetaH,POW.FC6.Gamma,POW.F4.Theta,POW.F4.Alpha,POW.F4.BetaL,POW.F4.BetaH,POW.F4.Gamma,POW.F8.Theta,POW.F8.Alpha,POW.F8.BetaL,POW.F8.BetaH,POW.F8.Gamma,POW.AF4.Theta,POW.AF4.Alpha,POW.AF4.BetaL,POW.AF4.BetaH,POW.AF4.Gamma
1720156365,118,0,4205.512695,4194.102539,4214.871582,4211.922852,4178.717773,4166.922852,4172.307617,4334.230957,4133.589844,4166.666504,4448.077148,4413.205078,4304.615234,4431.666504,,,,,,,,,,,,,,,,,,,,,,,,,,,,,,,,,,,,,,,,,,,,,,,,,,,,,,,,,,,,,,,,,,,,,,
1720156365,119,0,4206.025879,4194.487305,4216.666504,4213.205078,4176.538574,4166.282227,4170.769043,4340.769043,4136.025879,4170.128418,4458.589844,4421.538574,4306.538574,4458.846191,,,,,,,,,,,,,,,,,,,,,,,,,,,,,,,,,,,,,,,,,,,,,,,,,,,,,,,,,,,,,,,,,,,,,,
1720156365,120,0,4207.94873,4189.615234,4213.974121,4211.538574,4176.410156,4169.615234,4170.769043,4340.128418,4138.077148,4172.436035,4460.769043,4424.615234,4313.974121,4471.153809,,,,,,,,,,,,,,,,,,,,,,,,,,,,,,,,,,,,,,,,,,,,,,,,,,,,,,,,,,,,,,,,,,,,,,
1720156365,121,0,4217.563965,4197.436035,4222.436035,4216.410156,4181.538574,4176.538574,4179.871582,4335.897461,4147.820313,4180.128418,4462.563965,4427.179688,4325.384766,4466.538574,,,,,,,,,,,,,,,,,,,,,,,,,,,,,,,,,,,,,,,,,,,,,,,,,,,,,,,,,,,,,,,,,,,,,,
1720156365,122,0,4223.077148,4207.307617,4232.692383,4220.641113,4184.743652,4183.077148,4188.205078,4345.512695,4154.487305,4183.717773,4473.589844,4435.512695,4325.128418,4467.94873,,,,,,,,,,,,,,,,,,,,,,,,,,,,,,,,,,,,,,,,,,,,,,,,,,,,,,,,,,,,,,,,,,,,,,
1720156365,123,0,4213.077148,4200.128418,4231.410156,4218.846191,4188.974121,4185.769043,4184.871582,4351.538574,4151.794922,4182.94873,4472.563965,4432.94873,4319.615234,4467.563965,,,,,,,,,,,,,,,,,,,,,,,,,,,,,,,,,,,,,,,,,,,,,,,,,,,,,,,,,,,,,,,,,,,,,,
1720156365,124,0,4206.282227,4193.974121,4230.641113,4218.077148,4192.692383,4188.205078,4184.615234,4341.794922,4152.05127,4187.307617,4457.436035,4421.538574,4325.256348,4459.615234,5.543021,4.524234,1.205118,0.709892,0.22887,7.090188,5.386993,1.668732,0.787378,0.147967,9.775041,7.504803,2.494026,1.092384,0.251492,7.030483,4.805283,1.155046,0.764901,0.143662,7.862186,3.253142,1.204029,0.523937,0.159724,7.331371,4.410963,1.220469,0.52319,0.205276,5.355778,5.990829,1.656942,0.366772,0.191249,2.366626,1.92254,1.326948,0.516031,0.285218,8.867092,5.585706,2.005451,0.698394,0.256332,8.566545,3.35957,1.678089,0.60677,0.19807,13.365526,7.800065,3.17011,1.664412,0.414223,10.732711,10.105613,2.740355,1.240965,0.348994,20.93767,11.740268,3.090072,1.088891,0.391467,5.190022,5.009355,1.536332,0.698603,0.195517
1720156365,125,0,4207.436035,4193.205078,4232.436035,4216.410156,4185.128418,4186.282227,4188.717773,4339.230957,4153.589844,4186.153809,4457.05127,4421.153809,4326.153809,4458.461426,,,,,,,,,,,,,,,,,,,,,,,,,,,,,,,,,,,,,,,,,,,,,,,,,,,,,,,,,,,,,,,,,,,,,,
1720156365,126,0,4205.512695,4190.384766,4231.282227,4214.743652,4179.487305,4180.512695,4180.384766,4336.025879,4152.820313,4182.179688,4466.153809,4424.743652,4321.153809,4462.307617,,,,,,,,,,,,,,,,,,,,,,,,,,,,,,,,,,,,,,,,,,,,,,,,,,,,,,,,,,,,,,,,,,,,,,
1720156365,127,0,4207.436035,4189.871582,4232.436035,4216.538574,4183.077148,4180.384766,4175.897461,4341.666504,4156.666504,4191.025879,4473.974121,4432.692383,4334.358887,4470.512695,,,,,,,,,,,,,,,,,,,,,,,,,,,,,,,,,,,,,,,,,,,,,,,,,,,,,,,,,,,,,,,,,,,,,,
1720156365,0,0,4215.641113,4196.282227,4242.307617,4218.205078,4184.615234,4187.692383,4186.922852,4357.692383,4166.025879,4199.615234,4487.563965,4444.102539,4348.717773,4477.05127,,,,,,,,,,,,,,,,,,,,,,,,,,,,,,,,,,,,,,,,,,,,,,,,,,,,,,,,,,,,,,,,,,,,,,
1720156365,1,0,4215.512695,4201.153809,4246.410156,4221.538574,4186.794922,4189.743652,4189.871582,4349.743652,4168.205078,4193.846191,4489.230957,4442.563965,4340,4473.077148,,,,,,,,,,,,,,,,,,,,,,,,,,,,,,,,,,,,,,,,,,,,,,,,,,,,,,,,,,,,,,,,,,,,,,
1720156365,2,0,4213.461426,4198.846191,4243.461426,4229.230957,4192.94873,4187.563965,4184.487305,4343.205078,4164.615234,4191.922852,4482.179688,4445.769043,4334.615234,4475.384766,,,,,,,,,,,,,,,,,,,,,,,,,,,,,,,,,,,,,,,,,,,,,,,,,,,,,,,,,,,,,,,,,,,,,,
1720156365,3,0,4224.358887,4201.794922,4249.487305,4235,4197.436035,4190.512695,4186.025879,4346.666504,4168.333496,4202.179688,4487.94873,4460.512695,4347.692383,4484.358887,,,,,,,,,,,,,,,,,,,,,,,,,,,,,,,,,,,,,,,,,,,,,,,,,,,,,,,,,,,,,,,,,,,,,,
1720156365,4,0,4235.769043,4208.333496,4260.512695,4235.256348,4199.743652,4190.384766,4186.666504,4341.666504,4175.512695,4206.666504,4495.641113,4467.563965,4351.410156,4488.333496,,,,,,,,,,,,,,,,,,,,,,,,,,,,,,,,,,,,,,,,,,,,,,,,,,,,,,,,,,,,,,,,,,,,,,
1720156365,5,0,4233.717773,4204.102539,4259.230957,4234.358887,4196.153809,4188.589844,4185.128418,4340.769043,4176.666504,4202.179688,4494.358887,4465.256348,4345.128418,4486.538574,,,,,,,,,,,,,,,,,,,,,,,,,,,,,,,,,,,,,,,,,,,,,,,,,,,,,,,,,,,,,,,,,,,,,,
1720156365,6,0,4226.025879,4192.436035,4249.871582,4231.922852,4191.538574,4190.128418,4187.179688,4343.846191,4170.256348,4195.897461,4490.384766,4455.641113,4337.436035,4477.94873,,,,,,,,,,,,,,,,,,,,,,,,,,,,,,,,,,,,,,,,,,,,,,,,,,,,,,,,,,,,,,,,,,,,,,
1720156365,7,0,4219.230957,4186.538574,4245.641113,4229.487305,4193.205078,4193.461426,4185.128418,4343.846191,4163.205078,4186.282227,4478.077148,4438.077148,4326.410156,4466.025879,,,,,,,,,,,,,,,,,,,,,,,,,,,,,,,,,,,,,,,,,,,,,,,,,,,,,,,,,,,,,,,,,,,,,,
1720156365,8,0,4213.461426,4183.974121,4244.871582,4229.743652,4196.922852,4192.05127,4184.615234,4351.538574,4158.846191,4177.05127,4465,4431.538574,4323.974121,4461.794922,,,,,,,,,,,,,,,,,,,,,,,,,,,,,,,,,,,,,,,,,,,,,,,,,,,,,,,,,,,,,,,,,,,,,,
1720156365,9,0,4216.153809,4180.256348,4250.897461,4229.743652,4197.563965,4189.615234,4189.358887,4355.897461,4162.05127,4177.179688,4470.128418,4438.846191,4330,4462.692383,,,,,,,,,,,,,,,,,,,,,,,,,,,,,,,,,,,,,,,,,,,,,,,,,,,,,,,,,,,,,,,,,,,,,,
1720156365,10,0,4218.589844,4181.538574,4272.563965,4228.589844,4197.563965,4192.307617,4190.897461,4351.153809,4171.794922,4182.307617,4480.512695,4441.025879,4332.563965,4459.102539,,,,,,,,,,,,,,,,,,,,,,,,,,,,,,,,,,,,,,,,,,,,,,,,,,,,,,,,,,,,,,,,,,,,,,
1720156365,11,0,4213.846191,4181.153809,4301.922852,4226.922852,4195.384766,4192.179688,4188.974121,4371.153809,4173.077148,4183.717773,4484.358887,4451.282227,4333.205078,4465.641113,,,,,,,,,,,,,,,,,,,,,,,,,,,,,,,,,,,,,,,,,,,,,,,,,,,,,,,,,,,,,,,,,,,,,,
1720156365,12,0,4214.743652,4178.846191,4330,4230.384766,4194.230957,4187.307617,4187.05127,4380.769043,4171.794922,4183.589844,4490.512695,4465,4342.820313,4478.205078,6.342982,3.692409,1.223367,0.679166,0.241925,8.571771,4.622591,1.590325,0.819338,0.151289,11.041174,6.321214,2.454374,1.022565,0.257483,7.738257,4.214381,1.197131,0.773591,0.159894,9.53092,3.918468,1.402397,0.633674,0.1966,8.813874,4.67213,1.451978,0.569145,0.235443,5.892413,5.319013,1.651059,0.36861,0.206188,2.489973,2.013472,1.576044,0.602449,0.336696,10.865625,5.945831,2.074225,0.703211,0.283282,10.008256,3.703599,1.851051,0.584472,0.214298,15.106,7.22288,3.157084,1.556377,0.382469,12.328307,8.352025,2.631357,1.064016,0.31837,22.394478,10.155175,2.957715,0.935294,0.384171,6.579447,4.216423,1.432139,0.596692,0.190071
1720156365,13,0,4220.512695,4182.820313,4345.256348,4229.230957,4196.794922,4185.512695,4183.974121,4366.025879,4175.769043,4194.102539,4502.820313,4463.461426,4354.615234,4481.410156,,,,,,,,,,,,,,,,,,,,,,,,,,,,,,,,,,,,,,,,,,,,,,,,,,,,,,,,,,,,,,,,,,,,,,
1720156365,14,0,4222.436035,4185,4337.436035,4220.641113,4195.512695,4187.94873,4182.436035,4373.205078,4174.615234,4204.487305,4510.128418,4459.871582,4355.769043,4483.974121,,,,,,,,,,,,,,,,,,,,,,,,,,,,,,,,,,,,,,,,,,,,,,,,,,,,,,,,,,,,,,,,,,,,,,
1720156365,15,0,4222.820313,4181.666504,4324.743652,4221.153809,4198.461426,4190.897461,4183.205078,4381.282227,4172.820313,4203.333496,4509.230957,4466.538574,4357.692383,4481.282227,,,,,,,,,,,,,,,,,,,,,,,,,,,,,,,,,,,,,,,,,,,,,,,,,,,,,,,,,,,,,,,,,,,,,,
1720156365,16,0,4225.128418,4176.153809,4327.436035,4225.641113,4203.846191,4193.461426,4186.922852,4377.692383,4183.333496,4202.307617,4510.128418,4482.692383,4363.846191,4477.179688,,,,,,,,,,,,,,,,,,,,,,,,,,,,,,,,,,,,,,,,,,,,,,,,,,,,,,,,,,,,,,,,,,,,,,
1720156365,17,0,4222.820313,4169.358887,4329.743652,4222.563965,4198.077148,4194.615234,4193.846191,4372.820313,4193.205078,4207.307617,4512.820313,4486.538574,4357.307617,4475.769043,,,,,,,,,,,,,,,,,,,,,,,,,,,,,,,,,,,,,,,,,,,,,,,,,,,,,,,,,,,,,,,,,,,,,,
1720156365,18,0,4223.077148,4173.589844,4326.153809,4225.641113,4196.922852,4198.077148,4202.820313,4365.512695,4188.589844,4207.692383,4509.358887,4473.461426,4348.077148,4469.230957,,,,,,,,,,,,,,,,,,,,,,,,,,,,,,,,,,,,,,,,,,,,,,,,,,,,,,,,,,,,,,,,,,,,,,
1720156365,19,0,4240,4184.102539,4331.025879,4237.94873,4204.743652,4206.538574,4212.563965,4370,4180.512695,4198.974121,4502.692383,4472.179688,4351.153809,4473.077148,,,,,,,,,,,,,,,,,,,,,,,,,,,,,,,,,,,,,,,,,,,,,,,,,,,,,,,,,,,,,,,,,,,,,,
1720156365,20,0,4246.153809,4177.307617,4333.205078,4238.205078,4204.615234,4207.05127,4212.179688,4375.897461,4177.436035,4190.128418,4495,4468.077148,4346.538574,4473.077148,,,,,,,,,,,,,,,,,,,,,,,,,,,,,,,,,,,,,,,,,,,,,,,,,,,,,,,,,,,,,,,,,,,,,,
1720156365,21,0,4232.307617,4166.153809,4316.153809,4227.692383,4195.897461,4195.256348,4202.05127,4363.461426,4174.358887,4185.641113,4487.436035,4445,4331.794922,4458.589844,,,,,,,,,,,,,,,,,,,,,,,,,,,,,,,,,,,,,,,,,,,,,,,,,,,,,,,,,,,,,,,,,,,,,,
1720156365,22,0,4227.820313,4170.128418,4299.102539,4227.05127,4195.512695,4189.871582,4198.461426,4361.538574,4166.666504,4186.153809,4489.358887,4440.769043,4331.025879,4462.307617,,,,,,,,,,,,,,,,,,,,,,,,,,,,,,,,,,,,,,,,,,,,,,,,,,,,,,,,,,,,,,,,,,,,,,
1720156365,23,0,4230.256348,4172.692383,4297.692383,4230,4202.05127,4192.179688,4197.05127,4372.436035,4159.358887,4185.128418,4491.922852,4452.692383,4335.512695,4469.102539,,,,,,,,,,,,,,,,,,,,,,,,,,,,,,,,,,,,,,,,,,,,,,,,,,,,,,,,,,,,,,,,,,,,,,
1720156365,24,0,4231.282227,4170.897461,4300.256348,4231.282227,4203.333496,4189.615234,4192.436035,4363.589844,4154.615234,4176.794922,4486.153809,4450.256348,4333.974121,4461.538574,,,,,,,,,,,,,,,,,,,,,,,,,,,,,,,,,,,,,,,,,,,,,,,,,,,,,,,,,,,,,,,,,,,,,,
1720156365,25,0,4242.05127,4179.102539,4306.922852,4237.820313,4203.077148,4187.436035,4190,4364.102539,4151.025879,4175,4487.436035,4459.230957,4343.077148,4473.717773,,,,,,,,,,,,,,,,,,,,,,,,,,,,,,,,,,,,,,,,,,,,,,,,,,,,,,,,,,,,,,,,,,,,,,
1720156365,26,0,4251.794922,4189.871582,4318.974121,4245.512695,4208.077148,4192.307617,4190.384766,4371.794922,4152.692383,4182.179688,4500.641113,4478.205078,4361.282227,4491.922852,,,,,,,,,,,,,,,,,,,,,,,,,,,,,,,,,,,,,,,,,,,,,,,,,,,,,,,,,,,,,,,,,,,,,,
1720156365,27,0,4239.615234,4186.025879,4313.077148,4241.538574,4209.102539,4195.641113,4192.436035,4366.025879,4158.717773,4189.358887,4509.743652,4473.589844,4364.487305,4479.102539,,,,,,,,,,,,,,,,,,,,,,,,,,,,,,,,,,,,,,,,,,,,,,,,,,,,,,,,,,,,,,,,,,,,,,
1720156365,28,0,4221.410156,4171.153809,4291.538574,4232.05127,4205.897461,4191.666504,4198.461426,4371.410156,4168.589844,4197.179688,4506.794922,4462.436035,4355.256348,4461.153809,6.784514,2.937393,1.287524,0.640496,0.238768,9.513942,3.79894,1.614535,0.828015,0.151657,11.741065,4.907382,2.47295,0.939631,0.257451,7.796592,3.483352,1.294187,0.754212,0.167762,10.387988,4.228344,1.56704,0.709166,0.221882,9.710327,4.657986,1.589807,0.591451,0.251744,6.021169,4.578393,1.593912,0.372546,0.216431,2.649875,1.953755,1.709474,0.655749,0.377691,12.106799,6.006513,2.136559,0.733395,0.286182,10.615381,3.926943,2.024924,0.59915,0.228227,15.806842,6.48393,3.281008,1.472878,0.361756,13.277508,6.450963,2.725278,0.90362,0.283099,21.744513,8.477324,2.996572,0.867378,0.362443,7.552434,3.488096,1.445047,0.522048,0.177175
1720156365,29,0,4216.538574,4165.384766,4285.897461,4231.025879,4206.282227,4190.128418,4201.025879,4378.846191,4179.358887,4205.897461,4502.563965,4462.179688,4353.717773,4462.05127,,,,,,,,,,,,,,,,,,,,,,,,,,,,,,,,,,,,,,,,,,,,,,,,,,,,,,,,,,,,,,,,,,,,,,
1720156365,30,0,4223.205078,4170.641113,4293.974121,4235.384766,4205,4192.94873,4199.615234,4380,4182.179688,4205.641113,4505.256348,4464.743652,4359.615234,4472.820313,,,,,,,,,,,,,,,,,,,,,,,,,,,,,,,,,,,,,,,,,,,,,,,,,,,,,,,,,,,,,,,,,,,,,,
1720156365,31,0,4226.666504,4167.692383,4295.256348,4237.05127,4201.922852,4193.333496,4200.769043,4382.692383,4176.153809,4195.897461,4507.05127,4466.025879,4360.128418,4478.974121,,,,,,,,,,,,,,,,,,,,,,,,,,,,,,,,,,,,,,,,,,,,,,,,,,,,,,,,,,,,,,,,,,,,,,
1720156365,32,0,4220.128418,4160.128418,4295.256348,4235.128418,4203.974121,4193.205078,4202.179688,4385,4169.487305,4186.025879,4503.974121,4466.153809,4352.179688,4472.563965,,,,,,,,,,,,,,,,,,,,,,,,,,,,,,,,,,,,,,,,,,,,,,,,,,,,,,,,,,,,,,,,,,,,,,
1720156365,33,0,4215,4158.589844,4293.077148,4233.077148,4206.282227,4196.410156,4201.794922,4385.384766,4172.05127,4180.769043,4503.974121,4464.230957,4343.974121,4463.333496,,,,,,,,,,,,,,,,,,,,,,,,,,,,,,,,,,,,,,,,,,,,,,,,,,,,,,,,,,,,,,,,,,,,,,
1720156365,34,0,4214.230957,4158.333496,4285.384766,4233.717773,4204.743652,4200.897461,4201.410156,4384.487305,4180.384766,4184.358887,4502.05127,4462.05127,4342.692383,4461.794922,,,,,,,,,,,,,,,,,,,,,,,,,,,,,,,,,,,,,,,,,,,,,,,,,,,,,,,,,,,,,,,,,,,,,,
1720156365,35,0,4216.153809,4158.974121,4280.897461,4233.333496,4204.487305,4204.487305,4199.358887,4380.641113,4185.641113,4190.769043,4496.410156,4458.717773,4342.307617,4461.794922,,,,,,,,,,,,,,,,,,,,,,,,,,,,,,,,,,,,,,,,,,,,,,,,,,,,,,,,,,,,,,,,,,,,,,
1720156365,36,0,4219.102539,4161.922852,4276.794922,4233.333496,4204.743652,4206.282227,4194.615234,4382.563965,4180.897461,4188.589844,4489.871582,4452.307617,4340.128418,4458.077148,,,,,,,,,,,,,,,,,,,,,,,,,,,,,,,,,,,,,,,,,,,,,,,,,,,,,,,,,,,,,,,,,,,,,,
1720156365,37,0,4225.256348,4167.94873,4277.94873,4235.897461,4202.179688,4196.538574,4182.307617,4386.282227,4169.615234,4182.179688,4489.615234,4449.487305,4341.666504,4461.538574,,,,,,,,,,,,,,,,,,,,,,,,,,,,,,,,,,,,,,,,,,,,,,,,,,,,,,,,,,,,,,,,,,,,,,
1720156365,38,0,4230,4169.871582,4292.179688,4238.205078,4198.461426,4181.153809,4166.666504,4372.05127,4155.512695,4176.153809,4498.717773,4454.102539,4342.820313,4468.205078,,,,,,,,,,,,,,,,,,,,,,,,,,,,,,,,,,,,,,,,,,,,,,,,,,,,,,,,,,,,,,,,,,,,,,
1720156365,39,0,4230.128418,4160,4296.410156,4231.538574,4188.974121,4174.743652,4159.230957,4375.512695,4144.871582,4169.358887,4501.538574,4469.615234,4338.589844,4476.410156,,,,,,,,,,,,,,,,,,,,,,,,,,,,,,,,,,,,,,,,,,,,,,,,,,,,,,,,,,,,,,,,,,,,,,
1720156365,40,0,4227.692383,4148.846191,4284.102539,4218.589844,4181.666504,4174.615234,4157.179688,4389.102539,4146.538574,4169.230957,4491.410156,4478.589844,4340.384766,4482.563965,,,,,,,,,,,,,,,,,,,,,,,,,,,,,,,,,,,,,,,,,,,,,,,,,,,,,,,,,,,,,,,,,,,,,,
1720156365,41,0,4220.897461,4146.410156,4278.461426,4213.717773,4186.410156,4177.563965,4158.333496,4381.025879,4158.461426,4179.871582,4485.897461,4466.025879,4343.974121,4470.769043,,,,,,,,,,,,,,,,,,,,,,,,,,,,,,,,,,,,,,,,,,,,,,,,,,,,,,,,,,,,,,,,,,,,,,
1720156365,42,0,4217.179688,4143.846191,4281.410156,4216.794922,4187.307617,4179.615234,4168.846191,4385.384766,4167.307617,4186.153809,4491.153809,4453.717773,4338.717773,4457.563965,,,,,,,,,,,,,,,,,,,,,,,,,,,,,,,,,,,,,,,,,,,,,,,,,,,,,,,,,,,,,,,,,,,,,,
1720156365,43,0,4213.846191,4136.153809,4285.512695,4217.692383,4180,4180.512695,4175.769043,4390.769043,4171.410156,4185.384766,4488.333496,4445.384766,4334.487305,4453.461426,,,,,,,,,,,,,,,,,,,,,,,,,,,,,,,,,,,,,,,,,,,,,,,,,,,,,,,,,,,,,,,,,,,,,,
1720156365,44,0,4209.871582,4135,4291.410156,4209.743652,4179.871582,4180.128418,4170.897461,4384.615234,4172.179688,4181.666504,4483.077148,4440.641113,4335.384766,4453.461426,6.660541,2.380396,1.342826,0.611775,0.220258,9.499223,3.101869,1.7042,0.816234,0.148103,11.610395,3.584169,2.440526,0.865532,0.254592,7.141201,2.776758,1.376864,0.71514,0.163217,10.096136,4.071073,1.639377,0.730166,0.227202,9.649525,4.277053,1.593597,0.588418,0.246791,5.661102,3.734079,1.480567,0.379589,0.214457,3.007749,1.768146,1.698856,0.672202,0.396243,12.120593,5.634186,2.1293,0.784367,0.264993,10.127975,3.905475,2.133007,0.646509,0.233214,15.05291,5.704091,3.466559,1.458214,0.35996,13.186139,4.837034,2.834709,0.803582,0.250375,19.115536,7.062048,3.159146,0.91476,0.328991,7.699646,2.950912,1.552399,0.506039,0.160538
1720156365,45,0,4214.743652,4142.436035,4295.256348,4210.256348,4188.717773,4182.563965,4175.512695,4387.436035,4168.333496,4174.230957,4487.179688,4446.410156,4333.205078,4456.025879,,,,,,,,,,,,,,,,,,,,,,,,,,,,,,,,,,,,,,,,,,,,,,,,,,,,,,,,,,,,,,,,,,,,,,
1720156365,46,0,4220.512695,4152.94873,4303.205078,4224.615234,4194.230957,4186.794922,4185.641113,4390,4166.538574,4172.307617,4491.153809,4454.230957,4333.205078,4452.820313,,,,,,,,,,,,,,,,,,,,,,,,,,,,,,,,,,,,,,,,,,,,,,,,,,,,,,,,,,,,,,,,,,,,,,
1720156365,47,0,4222.436035,4154.871582,4310.512695,4229.102539,4192.820313,4184.358887,4177.563965,4388.846191,4161.025879,4176.282227,4490.769043,4454.871582,4336.282227,4450.769043,,,,,,,,,,,,,,,,,,,,,,,,,,,,,,,,,,,,,,,,,,,,,,,,,,,,,,,,,,,,,,,,,,,,,,
1720156365,48,0,4223.846191,4153.461426,4302.436035,4225,4192.436035,4179.358887,4166.282227,4386.794922,4151.922852,4177.94873,4486.282227,4453.333496,4339.487305,4459.615234,,,,,,,,,,,,,,,,,,,,,,,,,,,,,,,,,,,,,,,,,,,,,,,,,,,,,,,,,,,,,,,,,,,,,,
1720156365,49,0,4219.230957,4160.128418,4294.487305,4228.717773,4196.282227,4180.769043,4169.871582,4379.230957,4152.692383,4179.615234,4495.128418,4455.897461,4346.410156,4470.897461,,,,,,,,,,,,,,,,,,,,,,,,,,,,,,,,,,,,,,,,,,,,,,,,,,,,,,,,,,,,,,,,,,,,,,
1720156365,50,0,4215.641113,4164.615234,4298.589844,4236.410156,4198.717773,4181.538574,4167.436035,4375.897461,4152.820313,4182.692383,4505.897461,4458.589844,4350.769043,4475,,,,,,,,,,,,,,,,,,,,,,,,,,,,,,,,,,,,,,,,,,,,,,,,,,,,,,,,,,,,,,,,,,,,,,
1720156365,51,0,4224.230957,4163.589844,4298.077148,4238.974121,4200.384766,4173.974121,4153.461426,4380.128418,4141.282227,4182.179688,4500.897461,4461.282227,4353.974121,4478.461426,,,,,,,,,,,,,,,,,,,,,,,,,,,,,,,,,,,,,,,,,,,,,,,,,,,,,,,,,,,,,,,,,,,,,,
1720156365,52,0,4226.666504,4161.794922,4288.333496,4237.94873,4202.94873,4171.282227,4148.461426,4370.512695,4137.563965,4178.205078,4498.077148,4459.871582,4358.717773,4481.410156,,,,,,,,,,,,,,,,,,,,,,,,,,,,,,,,,,,,,,,,,,,,,,,,,,,,,,,,,,,,,,,,,,,,,,
1720156365,53,0,4222.563965,4158.077148,4281.666504,4233.717773,4200.384766,4179.487305,4157.179688,4372.563965,4150.897461,4180.897461,4501.282227,4457.436035,4353.589844,4473.205078,,,,,,,,,,,,,,,,,,,,,,,,,,,,,,,,,,,,,,,,,,,,,,,,,,,,,,,,,,,,,,,,,,,,,,
1720156365,54,0,4219.358887,4151.666504,4276.025879,4226.794922,4197.05127,4190.384766,4171.666504,4392.820313,4165,4190.769043,4497.05127,4455.769043,4349.230957,4454.358887,,,,,,,,,,,,,,,,,,,,,,,,,,,,,,,,,,,,,,,,,,,,,,,,,,,,,,,,,,,,,,,,,,,,,,
1720156365,55,0,4210.384766,4146.794922,4266.410156,4221.025879,4194.871582,4195.897461,4182.05127,4398.589844,4176.282227,4196.153809,4499.230957,4454.102539,4356.922852,4448.974121,,,,,,,,,,,,,,,,,,,,,,,,,,,,,,,,,,,,,,,,,,,,,,,,,,,,,,,,,,,,,,,,,,,,,,
1720156365,56,0,4209.615234,4146.410156,4264.743652,4219.871582,4190.897461,4195.384766,4184.102539,4398.717773,4187.94873,4193.974121,4517.05127,4459.230957,4358.589844,4454.743652,,,,,,,,,,,,,,,,,,,,,,,,,,,,,,,,,,,,,,,,,,,,,,,,,,,,,,,,,,,,,,,,,,,,,,
1720156365,57,0,4221.410156,4153.461426,4277.307617,4229.358887,4197.94873,4202.05127,4184.358887,4396.922852,4199.358887,4195.384766,4516.025879,4460.384766,4351.538574,4442.436035,,,,,,,,,,,,,,,,,,,,,,,,,,,,,,,,,,,,,,,,,,,,,,,,,,,,,,,,,,,,,,,,,,,,,,
1720156365,58,0,4223.974121,4157.05127,4284.743652,4235.256348,4203.333496,4205.897461,4185.512695,4400,4196.025879,4192.05127,4494.615234,4456.794922,4346.282227,4425.256348,,,,,,,,,,,,,,,,,,,,,,,,,,,,,,,,,,,,,,,,,,,,,,,,,,,,,,,,,,,,,,,,,,,,,,
1720156365,59,0,4213.205078,4150.512695,4274.615234,4227.307617,4197.05127,4197.692383,4179.230957,4399.743652,4177.179688,4180,4483.333496,4454.358887,4338.974121,4418.205078,,,,,,,,,,,,,,,,,,,,,,,,,,,,,,,,,,,,,,,,,,,,,,,,,,,,,,,,,,,,,,,,,,,,,,
1720156365,60,0,4212.94873,4154.487305,4271.282227,4229.230957,4198.589844,4192.436035,4168.461426,4391.282227,4170.897461,4181.922852,4491.794922,4465.256348,4340.897461,4418.846191,5.990197,2.038582,1.334782,0.604388,0.191864,8.387798,2.608712,1.789843,0.783855,0.141092,10.744644,2.622557,2.311455,0.83335,0.251406,5.933084,2.198155,1.382536,0.663316,0.146397,8.709629,3.493771,1.586958,0.692372,0.211181,8.582889,3.588708,1.473066,0.561577,0.220563,4.866042,2.872108,1.320089,0.384013,0.1974,3.440948,1.530349,1.56077,0.653666,0.387852,10.807814,4.864567,2.013905,0.835261,0.227121,8.670839,3.607358,2.108859,0.699043,0.226546,12.890069,4.94087,3.567173,1.505903,0.373513,11.904033,3.750713,2.784092,0.781264,0.225087,15.156672,5.990374,3.292061,1.034209,0.290688,7.027178,2.600746,1.670918,0.548748,0.146233
1720156366,61,0,4222.692383,4166.666504,4283.589844,4241.410156,4207.179688,4190.897461,4167.820313,4395.641113,4171.538574,4192.307617,4513.974121,4488.846191,4360.384766,4431.025879,,,,,,,,,,,,,,,,,,,,,,,,,,,,,,,,,,,,,,,,,,,,,,,,,,,,,,,,,,,,,,,,,,,,,,
1720156366,62,0,4225.128418,4172.05127,4293.846191,4248.333496,4208.589844,4182.94873,4166.410156,4398.205078,4160.897461,4192.692383,4525.128418,4497.820313,4378.077148,4445.128418,,,,,,,,,,,,,,,,,,,,,,,,,,,,,,,,,,,,,,,,,,,,,,,,,,,,,,,,,,,,,,,,,,,,,,
1720156366,63,0,4225.512695,4179.615234,4298.589844,4256.282227,4206.538574,4179.102539,4157.563965,4385.897461,4150.641113,4192.436035,4524.871582,4493.974121,4388.589844,4447.563965,,,,,,,,,,,,,,,,,,,,,,,,,,,,,,,,,,,,,,,,,,,,,,,,,,,,,,,,,,,,,,,,,,,,,,
1720156366,64,0,4226.538574,4187.307617,4296.922852,4260.512695,4209.487305,4187.563965,4158.205078,4385.256348,4151.410156,4198.974121,4532.436035,4498.974121,4395.897461,4443.077148,,,,,,,,,,,,,,,,,,,,,,,,,,,,,,,,,,,,,,,,,,,,,,,,,,,,,,,,,,,,,,,,,,,,,,
1720156366,65,0,4228.717773,4183.077148,4290.128418,4252.179688,4212.307617,4192.692383,4168.846191,4401.538574,4154.743652,4202.436035,4545.512695,4507.692383,4394.102539,4446.282227,,,,,,,,,,,,,,,,,,,,,,,,,,,,,,,,,,,,,,,,,,,,,,,,,,,,,,,,,,,,,,,,,,,,,,
1720156366,66,0,4225.512695,4178.974121,4281.410156,4246.410156,4212.563965,4195.384766,4169.871582,4395.641113,4164.358887,4202.563965,4541.538574,4492.94873,4386.025879,4443.589844,,,,,,,,,,,,,,,,,,,,,,,,,,,,,,,,,,,,,,,,,,,,,,,,,,,,,,,,,,,,,,,,,,,,,,
1720156366,67,0,4212.692383,4175.384766,4268.974121,4247.820313,4209.358887,4202.307617,4167.436035,4390.128418,4177.692383,4206.410156,4525.256348,4474.230957,4377.692383,4427.94873,,,,,,,,,,,,,,,,,,,,,,,,,,,,,,,,,,,,,,,,,,,,,,,,,,,,,,,,,,,,,,,,,,,,,,
1720156366,68,0,4206.282227,4163.589844,4254.743652,4239.230957,4206.666504,4204.871582,4175.641113,4401.922852,4179.871582,4205.769043,4514.487305,4470.128418,4364.487305,4416.410156,,,,,,,,,,,,,,,,,,,,,,,,,,,,,,,,,,,,,,,,,,,,,,,,,,,,,,,,,,,,,,,,,,,,,,
1720156366,69,0,4206.922852,4157.563965,4250,4228.974121,4207.307617,4205.512695,4182.307617,4390.128418,4183.717773,4201.025879,4503.717773,4455.769043,4351.538574,4411.410156,,,,,,,,,,,,,,,,,,,,,,,,,,,,,,,,,,,,,,,,,,,,,,,,,,,,,,,,,,,,,,,,,,,,,,
1720156366,70,0,4206.153809,4156.410156,4253.205078,4231.538574,4201.282227,4204.615234,4180.769043,4381.794922,4191.922852,4197.563965,4490.384766,4443.974121,4347.563965,4409.743652,,,,,,,,,,,,,,,,,,,,,,,,,,,,,,,,,,,,,,,,,,,,,,,,,,,,,,,,,,,,,,,,,,,,,,
1720156366,71,0,4213.333496,4155.769043,4259.871582,4238.846191,4203.589844,4203.461426,4180.897461,4390.897461,4192.179688,4196.025879,4487.563965,4454.230957,4348.077148,4412.436035,,,,,,,,,,,,,,,,,,,,,,,,,,,,,,,,,,,,,,,,,,,,,,,,,,,,,,,,,,,,,,,,,,,,,,
1720156366,72,0,4225,4165.128418,4273.589844,4246.153809,4215.128418,4207.307617,4186.153809,4390.769043,4184.615234,4194.102539,4497.820313,4470.512695,4352.820313,4419.871582,,,,,,,,,,,,,,,,,,,,,,,,,,,,,,,,,,,,,,,,,,,,,,,,,,,,,,,,,,,,,,,,,,,,,,
1720156366,73,0,4227.179688,4172.179688,4279.487305,4252.179688,4211.153809,4202.436035,4185,4387.563965,4170.512695,4184.615234,4500.769043,4474.871582,4355.641113,4426.153809,,,,,,,,,,,,,,,,,,,,,,,,,,,,,,,,,,,,,,,,,,,,,,,,,,,,,,,,,,,,,,,,,,,,,,
1720156366,74,0,4231.410156,4170.512695,4278.461426,4257.179688,4203.461426,4190,4173.077148,4387.179688,4161.410156,4178.846191,4510.128418,4476.410156,4352.436035,4422.307617,,,,,,,,,,,,,,,,,,,,,,,,,,,,,,,,,,,,,,,,,,,,,,,,,,,,,,,,,,,,,,,,,,,,,,
1720156366,75,0,4243.717773,4174.102539,4289.871582,4264.615234,4208.077148,4188.589844,4170.512695,4392.05127,4162.820313,4183.846191,4535.641113,4494.230957,4364.230957,4427.436035,,,,,,,,,,,,,,,,,,,,,,,,,,,,,,,,,,,,,,,,,,,,,,,,,,,,,,,,,,,,,,,,,,,,,,
1720156366,76,0,4247.307617,4182.820313,4302.820313,4274.871582,4211.282227,4193.205078,4175.897461,4397.307617,4158.205078,4189.358887,4537.307617,4508.589844,4385,4443.717773,4.941878,1.851244,1.235243,0.620052,0.161293,6.58028,2.291991,1.800343,0.729336,0.132229,9.644925,2.143744,2.114824,0.866581,0.248408,4.482638,1.76043,1.285049,0.602448,0.122178,6.617944,2.666616,1.41713,0.607308,0.180138,6.76687,2.745316,1.280513,0.513922,0.180212,3.824955,2.132626,1.137893,0.376566,0.168505,4.008922,1.319166,1.335379,0.606541,0.35743,8.568068,3.9001,1.797127,0.863393,0.183721,6.654608,3.137819,1.916557,0.725668,0.209772,9.824325,4.204326,3.437137,1.557562,0.389529,9.708314,3.189327,2.488129,0.823394,0.208739,10.831388,5.149921,3.21684,1.136111,0.254585,5.650519,2.359515,1.711939,0.622338,0.140157
1720156366,77,0,4238.589844,4180.769043,4297.563965,4275.897461,4207.820313,4195,4175.641113,4392.05127,4151.666504,4191.282227,4520.256348,4498.461426,4384.871582,4435.769043,,,,,,,,,,,,,,,,,,,,,,,,,,,,,,,,,,,,,,,,,,,,,,,,,,,,,,,,,,,,,,,,,,,,,,
1720156366,78,0,4226.282227,4166.025879,4278.717773,4267.307617,4207.436035,4199.743652,4178.205078,4397.307617,4165,4193.077148,4522.05127,4488.461426,4373.077148,4417.94873,,,,,,,,,,,,,,,,,,,,,,,,,,,,,,,,,,,,,,,,,,,,,,,,,,,,,,,,,,,,,,,,,,,,,,
1720156366,79,0,4213.205078,4149.871582,4263.333496,4258.333496,4205.512695,4205.384766,4186.025879,4418.717773,4186.410156,4197.05127,4531.153809,4490.512695,4372.563965,4416.794922,,,,,,,,,,,,,,,,,,,,,,,,,,,,,,,,,,,,,,,,,,,,,,,,,,,,,,,,,,,,,,,,,,,,,,
1720156366,80,0,4204.102539,4142.179688,4256.922852,4255.256348,4202.692383,4208.077148,4190.128418,4416.922852,4200.897461,4205.512695,4528.717773,4482.05127,4372.820313,4411.025879,,,,,,,,,,,,,,,,,,,,,,,,,,,,,,,,,,,,,,,,,,,,,,,,,,,,,,,,,,,,,,,,,,,,,,
1720156366,81,0,4204.871582,4138.205078,4254.871582,4255,4200.897461,4210.256348,4192.820313,4411.794922,4210.384766,4212.692383,4528.846191,4477.563965,4362.94873,4406.153809,,,,,,,,,,,,,,,,,,,,,,,,,,,,,,,,,,,,,,,,,,,,,,,,,,,,,,,,,,,,,,,,,,,,,,
1720156366,82,0,4211.282227,4135.384766,4255.256348,4255.769043,4196.410156,4209.230957,4194.743652,4425.128418,4218.205078,4212.563965,4533.974121,4488.333496,4359.871582,4417.436035,,,,,,,,,,,,,,,,,,,,,,,,,,,,,,,,,,,,,,,,,,,,,,,,,,,,,,,,,,,,,,,,,,,,,,
1720156366,83,0,4219.102539,4140.256348,4258.974121,4267.179688,4197.05127,4210.641113,4191.794922,4422.563965,4225,4217.563965,4534.615234,4492.94873,4368.205078,4424.358887,,,,,,,,,,,,,,,,,,,,,,,,,,,,,,,,,,,,,,,,,,,,,,,,,,,,,,,,,,,,,,,,,,,,,,
1720156366,84,0,4218.846191,4144.358887,4259.871582,4279.743652,4199.871582,4209.487305,4186.794922,4417.94873,4217.05127,4217.179688,4529.615234,4488.974121,4368.205078,4417.179688,,,,,,,,,,,,,,,,,,,,,,,,,,,,,,,,,,,,,,,,,,,,,,,,,,,,,,,,,,,,,,,,,,,,,,
1720156366,85,0,4208.974121,4137.563965,4255.897461,4283.333496,4196.282227,4195.512695,4175.384766,4416.410156,4188.846191,4191.538574,4510.384766,4472.692383,4349.102539,4403.846191,,,,,,,,,,,,,,,,,,,,,,,,,,,,,,,,,,,,,,,,,,,,,,,,,,,,,,,,,,,,,,,,,,,,,,
1720156366,86,0,4204.230957,4128.974121,4258.461426,4286.666504,4189.871582,4180,4159.743652,4409.230957,4167.563965,4166.538574,4488.717773,4455.769043,4327.05127,4394.743652,,,,,,,,,,,,,,,,,,,,,,,,,,,,,,,,,,,,,,,,,,,,,,,,,,,,,,,,,,,,,,,,,,,,,,
1720156366,87,0,4210.256348,4130.384766,4271.025879,4304.102539,4189.102539,4174.487305,4160.256348,4414.230957,4172.307617,4169.487305,4491.410156,4463.717773,4328.205078,4398.846191,,,,,,,,,,,,,,,,,,,,,,,,,,,,,,,,,,,,,,,,,,,,,,,,,,,,,,,,,,,,,,,,,,,,,,
1720156366,88,0,4221.025879,4142.179688,4286.538574,4332.307617,4197.436035,4182.94873,4167.179688,4424.487305,4184.615234,4186.025879,4511.538574,4477.820313,4346.282227,4410.641113,,,,,,,,,,,,,,,,,,,,,,,,,,,,,,,,,,,,,,,,,,,,,,,,,,,,,,,,,,,,,,,,,,,,,,
1720156366,89,0,4228.717773,4152.563965,4307.563965,4357.436035,4205.384766,4195,4168.461426,4436.282227,4188.077148,4188.333496,4521.666504,4480.641113,4358.461426,4416.025879,,,,,,,,,,,,,,,,,,,,,,,,,,,,,,,,,,,,,,,,,,,,,,,,,,,,,,,,,,,,,,,,,,,,,,
1720156366,90,0,4231.025879,4153.333496,4333.974121,4374.102539,4206.410156,4199.871582,4176.666504,4450.641113,4189.615234,4182.179688,4525.897461,4487.563965,4363.717773,4414.871582,,,,,,,,,,,,,,,,,,,,,,,,,,,,,,,,,,,,,,,,,,,,,,,,,,,,,,,,,,,,,,,,,,,,,,
1720156366,91,0,4229.743652,4147.436035,4349.487305,4374.871582,4205.384766,4202.179688,4185.256348,4449.487305,4191.025879,4185.384766,4532.436035,4495.256348,4371.538574,4413.333496,,,,,,,,,,,,,,,,,,,,,,,,,,,,,,,,,,,,,,,,,,,,,,,,,,,,,,,,,,,,,,,,,,,,,,
1720156366,92,0,4225.384766,4146.922852,4355.256348,4362.436035,4207.436035,4208.205078,4186.922852,4443.205078,4193.205078,4191.538574,4532.436035,4496.538574,4378.461426,4412.307617,3.793717,1.723238,1.052771,0.651378,0.136198,4.478707,2.090926,1.692298,0.655387,0.124187,8.908504,2.118802,1.908568,0.964458,0.245432,3.114483,1.448449,1.096564,0.535762,0.098843,4.420704,1.82168,1.171885,0.495968,0.144853,4.706061,1.958063,1.081717,0.452662,0.13743,2.762118,1.682537,0.962644,0.353243,0.136924,4.411462,1.212116,1.084017,0.538237,0.316463,6.075364,3.109627,1.530019,0.857011,0.145322,4.687502,2.679553,1.595797,0.71098,0.187203,6.73419,3.554239,3.045277,1.541351,0.39507,7.195763,3.045711,1.989511,0.897197,0.200971,7.132404,4.452115,2.850974,1.144231,0.225969,4.134593,2.217025,1.632945,0.691183,0.145938
1720156366,93,0,4224.487305,4149.615234,4372.436035,4351.922852,4207.307617,4214.230957,4194.230957,4464.358887,4198.333496,4186.282227,4536.666504,4507.563965,4380.256348,4416.410156,,,,,,,,,,,,,,,,,,,,,,,,,,,,,,,,,,,,,,,,,,,,,,,,,,,,,,,,,,,,,,,,,,,,,,
1720156366,94,0,4226.794922,4145.641113,4396.538574,4354.358887,4204.487305,4215.256348,4201.538574,4476.153809,4201.666504,4178.589844,4543.205078,4514.230957,4376.922852,4416.538574,,,,,,,,,,,,,,,,,,,,,,,,,,,,,,,,,,,,,,,,,,,,,,,,,,,,,,,,,,,,,,,,,,,,,,
1720156366,95,0,4224.487305,4137.179688,4404.230957,4358.205078,4203.461426,4212.94873,4192.307617,4466.410156,4201.282227,4178.974121,4538.974121,4509.743652,4372.307617,4410.897461,,,,,,,,,,,,,,,,,,,,,,,,,,,,,,,,,,,,,,,,,,,,,,,,,,,,,,,,,,,,,,,,,,,,,,
1720156366,96,0,4223.461426,4135.769043,4403.461426,4358.974121,4202.692383,4207.94873,4182.692383,4471.282227,4202.563965,4183.846191,4542.307617,4517.692383,4376.666504,4419.615234,,,,,,,,,,,,,,,,,,,,,,,,,,,,,,,,,,,,,,,,,,,,,,,,,,,,,,,,,,,,,,,,,,,,,,
1720156366,97,0,4230.384766,4145,4410.384766,4371.282227,4201.794922,4204.871582,4182.820313,4472.820313,4207.05127,4192.94873,4557.05127,4530.128418,4390.512695,4433.205078,,,,,,,,,,,,,,,,,,,,,,,,,,,,,,,,,,,,,,,,,,,,,,,,,,,,,,,,,,,,,,,,,,,,,,
1720156366,98,0,4239.871582,4148.974121,4413.717773,4387.94873,4199.615234,4199.230957,4172.05127,4472.563965,4205,4198.205078,4563.717773,4534.615234,4396.666504,4438.205078,,,,,,,,,,,,,,,,,,,,,,,,,,,,,,,,,,,,,,,,,,,,,,,,,,,,,,,,,,,,,,,,,,,,,,
1720156366,99,0,4245.128418,4147.563965,4406.538574,4397.436035,4194.743652,4185.897461,4154.615234,4475,4194.230957,4191.410156,4555.641113,4525.769043,4392.94873,4437.179688,,,,,,,,,,,,,,,,,,,,,,,,,,,,,,,,,,,,,,,,,,,,,,,,,,,,,,,,,,,,,,,,,,,,,,
1720156366,100,0,4241.794922,4150.384766,4395.384766,4406.282227,4192.05127,4176.922852,4149.615234,4466.794922,4180.256348,4183.717773,4545.641113,4508.077148,4386.410156,4426.282227,,,,,,,,,,,,,,,,,,,,,,,,,,,,,,,,,,,,,,,,,,,,,,,,,,,,,,,,,,,,,,,,,,,,,,
1720156366,101,0,4236.025879,4147.179688,4385.256348,4411.153809,4192.692383,4176.410156,4153.717773,4473.717773,4173.333496,4181.025879,4538.589844,4505,4378.589844,4417.563965,,,,,,,,,,,,,,,,,,,,,,,,,,,,,,,,,,,,,,,,,,,,,,,,,,,,,,,,,,,,,,,,,,,,,,
1720156366,102,0,4226.538574,4129.743652,4376.922852,4404.743652,4184.743652,4177.05127,4154.102539,4497.436035,4176.666504,4173.461426,4529.487305,4511.538574,4372.820313,4417.563965,,,,,,,,,,,,,,,,,,,,,,,,,,,,,,,,,,,,,,,,,,,,,,,,,,,,,,,,,,,,,,,,,,,,,,
1720156366,103,0,4213.077148,4113.077148,4368.461426,4402.692383,4172.94873,4175.384766,4153.205078,4509.230957,4179.102539,4164.743652,4526.410156,4507.436035,4360.641113,4409.102539,,,,,,,,,,,,,,,,,,,,,,,,,,,,,,,,,,,,,,,,,,,,,,,,,,,,,,,,,,,,,,,,,,,,,,
1720156366,104,0,4209.487305,4114.615234,4359.358887,4413.974121,4176.282227,4179.871582,4159.615234,4532.436035,4180.128418,4165.256348,4533.717773,4505.897461,4346.922852,4402.05127,,,,,,,,,,,,,,,,,,,,,,,,,,,,,,,,,,,,,,,,,,,,,,,,,,,,,,,,,,,,,,,,,,,,,,
1720156366,105,0,4206.666504,4117.563965,4350.128418,4416.794922,4186.410156,4187.179688,4164.743652,4587.820313,4184.230957,4166.025879,4540.641113,4517.05127,4352.820313,4403.974121,,,,,,,,,,,,,,,,,,,,,,,,,,,,,,,,,,,,,,,,,,,,,,,,,,,,,,,,,,,,,,,,,,,,,,
1720156366,106,0,4192.179688,4109.358887,4345,4400.128418,4182.94873,4186.410156,4164.487305,4617.820313,4185.256348,4162.179688,4537.179688,4519.743652,4362.307617,4400.512695,,,,,,,,,,,,,,,,,,,,,,,,,,,,,,,,,,,,,,,,,,,,,,,,,,,,,,,,,,,,,,,,,,,,,,
1720156366,107,0,4192.820313,4106.282227,4342.692383,4381.538574,4177.820313,4181.025879,4163.333496,4592.820313,4180.384766,4160.512695,4537.05127,4511.025879,4351.922852,4399.230957,,,,,,,,,,,,,,,,,,,,,,,,,,,,,,,,,,,,,,,,,,,,,,,,,,,,,,,,,,,,,,,,,,,,,,
1720156366,108,0,4205.641113,4115,4342.436035,4378.717773,4184.871582,4178.333496,4157.307617,4576.025879,4176.666504,4162.436035,4544.102539,4511.153809,4346.282227,4403.205078,2.801456,1.6354,0.854856,0.685815,0.120836,2.870233,2.029619,1.491213,0.572163,0.119132,8.83012,2.56164,1.754616,1.097875,0.241853,2.084538,1.330979,0.880259,0.471612,0.084329,2.641559,1.151713,0.911411,0.382684,0.115722,2.924447,1.424154,0.919934,0.388594,0.103368,1.918271,1.661089,0.816683,0.319144,0.112964,4.637778,1.23075,0.849874,0.456427,0.278191,4.044517,2.91088,1.273676,0.825225,0.119167,3.215495,2.395503,1.240656,0.666725,0.163997,4.350242,3.193131,2.556126,1.426342,0.384832,5.006587,3.317912,1.469482,0.971904,0.200745,4.624182,4.037366,2.31601,1.043424,0.206457,2.821588,2.305109,1.492024,0.735829,0.163674
1720156366,109,0,4216.538574,4128.717773,4345.769043,4384.487305,4200.897461,4186.538574,4159.615234,4499.358887,4187.692383,4173.846191,4526.922852,4493.846191,4359.102539,4401.410156,,,,,,,,,,,,,,,,,,,,,,,,,,,,,,,,,,,,,,,,,,,,,,,,,,,,,,,,,,,,,,,,,,,,,,
1720156366,110,0,4246.282227,4155.641113,4356.538574,4391.538574,4230.256348,4215.256348,4193.461426,4218.333496,4220.641113,4203.974121,4476.666504,4420.641113,4364.615234,4392.692383,,,,,,,,,,,,,,,,,,,,,,,,,,,,,,,,,,,,,,,,,,,,,,,,,,,,,,,,,,,,,,,,,,,,,,
1720156366,111,0,4285.256348,4192.307617,4381.025879,4405.128418,4263.461426,4250.128418,4233.717773,3883.974365,4254.615234,4236.153809,4434.615234,4337.820313,4363.333496,4387.307617,,,,,,,,,,,,,,,,,,,,,,,,,,,,,,,,,,,,,,,,,,,,,,,,,,,,,,,,,,,,,,,,,,,,,,
1720156366,112,0,4305.512695,4208.589844,4402.179688,4413.589844,4275.641113,4262.05127,4245.769043,3766.794922,4262.692383,4246.666504,4426.538574,4316.025879,4369.487305,4396.410156,,,,,,,,,,,,,,,,,,,,,,,,,,,,,,,,,,,,,,,,,,,,,,,,,,,,,,,,,,,,,,,,,,,,,,
1720156366,113,0,4305.512695,4203.589844,4400.128418,4403.333496,4275.897461,4264.358887,4247.94873,3782.692383,4262.307617,4246.666504,4422.307617,4313.974121,4368.077148,4397.05127,,,,,,,,,,,,,,,,,,,,,,,,,,,,,,,,,,,,,,,,,,,,,,,,,,,,,,,,,,,,,,,,,,,,,,
1720156366,114,0,4295.128418,4196.025879,4380.641113,4385.769043,4276.666504,4273.717773,4254.487305,3767.820557,4269.102539,4247.05127,4413.846191,4288.589844,4350.128418,4380,,,,,,,,,,,,,,,,,,,,,,,,,,,,,,,,,,,,,,,,,,,,,,,,,,,,,,,,,,,,,,,,,,,,,,
1720156366,115,0,4280,4185.384766,4366.282227,4370,4266.282227,4268.205078,4252.563965,3774.615479,4268.461426,4244.871582,4413.077148,4282.436035,4340.256348,4371.410156,,,,,,,,,,,,,,,,,,,,,,,,,,,,,,,,,,,,,,,,,,,,,,,,,,,,,,,,,,,,,,,,,,,,,,
1720156366,116,0,4271.538574,4176.410156,4368.461426,4358.717773,4259.230957,4260.128418,4249.871582,3799.230713,4267.692383,4244.615234,4409.230957,4294.615234,4343.974121,4374.487305,,,,,,,,,,,,,,,,,,,,,,,,,,,,,,,,,,,,,,,,,,,,,,,,,,,,,,,,,,,,,,,,,,,,,,
1720156366,117,0,4277.307617,4175.384766,4375.769043,4356.282227,4267.05127,4272.05127,4256.922852,3804.615479,4276.666504,4246.794922,4405,4296.025879,4339.230957,4377.179688,,,,,,,,,,,,,,,,,,,,,,,,,,,,,,,,,,,,,,,,,,,,,,,,,,,,,,,,,,,,,,,,,,,,,,
1720156366,118,0,4282.05127,4181.025879,4377.692383,4357.820313,4269.871582,4278.077148,4260.256348,3815.128174,4282.179688,4248.205078,4415.897461,4301.922852,4341.410156,4378.077148,,,,,,,,,,,,,,,,,,,,,,,,,,,,,,,,,,,,,,,,,,,,,,,,,,,,,,,,,,,,,,,,,,,,,,
1720156366,119,0,4283.846191,4188.846191,4379.487305,4355.641113,4269.102539,4270,4260.641113,3819.358887,4283.333496,4250.769043,4427.179688,4318.461426,4361.794922,4385.641113,,,,,,,,,,,,,,,,,,,,,,,,,,,,,,,,,,,,,,,,,,,,,,,,,,,,,,,,,,,,,,,,,,,,,,
1720156366,120,0,4292.436035,4197.307617,4389.871582,4355.769043,4276.153809,4272.563965,4260.128418,3820.769287,4287.692383,4257.179688,4428.205078,4329.487305,4369.230957,4380.512695,,,,,,,,,,,,,,,,,,,,,,,,,,,,,,,,,,,,,,,,,,,,,,,,,,,,,,,,,,,,,,,,,,,,,,
1720156366,121,0,4306.410156,4207.820313,4402.692383,4360.128418,4279.871582,4275.641113,4253.461426,3831.281982,4283.846191,4259.743652,4433.077148,4333.077148,4367.179688,4345.256348,,,,,,,,,,,,,,,,,,,,,,,,,,,,,,,,,,,,,,,,,,,,,,,,,,,,,,,,,,,,,,,,,,,,,,
1720156366,122,0,4314.102539,4216.794922,4403.589844,4362.692383,4278.589844,4269.615234,4245.384766,3829.615479,4271.153809,4254.871582,4444.102539,4334.615234,4379.615234,4311.410156,,,,,,,,,,,,,,,,,,,,,,,,,,,,,,,,,,,,,,,,,,,,,,,,,,,,,,,,,,,,,,,,,,,,,,
1720156366,123,0,4315.384766,4224.615234,4401.153809,4363.077148,4281.922852,4270,4245.384766,3822.820557,4271.922852,4258.077148,4455.769043,4338.077148,4389.487305,4315.641113,,,,,,,,,,,,,,,,,,,,,,,,,,,,,,,,,,,,,,,,,,,,,,,,,,,,,,,,,,,,,,,,,,,,,,
1720156366,124,0,4322.179688,4233.333496,4406.666504,4360.256348,4281.794922,4271.538574,4247.820313,3838.589844,4275.897461,4264.871582,4461.666504,4345.384766,4386.153809,4340.897461,2.127517,1.633462,0.709374,0.711951,0.115268,1.729391,2.193118,1.253796,0.493237,0.117758,9.458068,3.467388,1.650924,1.219247,0.236884,1.560623,1.571529,0.688622,0.425921,0.082283,1.503634,0.756343,0.679283,0.285461,0.098272,1.696734,1.292425,0.807566,0.332996,0.083739,1.428998,2.121034,0.713682,0.283188,0.102472,4.523186,1.605908,0.790001,0.370238,0.255598,2.79735,3.639137,1.080797,0.789163,0.108171,2.364513,2.389432,0.939831,0.620781,0.144681,3.057994,3.290784,2.146435,1.232887,0.363214,3.614208,4.019056,1.075788,1.026846,0.20714,3.388275,4.124436,1.766299,0.877746,0.19479,2.003712,2.716522,1.344158,0.75565,0.188827
1720156366,125,0,4325.384766,4235.769043,4407.820313,4358.717773,4280.128418,4268.077148,4245.384766,3843.461426,4266.538574,4256.282227,4453.077148,4342.307617,4384.487305,4341.922852,,,,,,,,,,,,,,,,,,,,,,,,,,,,,,,,,,,,,,,,,,,,,,,,,,,,,,,,,,,,,,,,,,,,,,
1720156366,126,0,4320.897461,4232.307617,4398.846191,4356.922852,4282.692383,4273.589844,4250.897461,3840.512939,4263.461426,4244.230957,4442.179688,4338.974121,4381.410156,4329.230957,,,,,,,,,,,,,,,,,,,,,,,,,,,,,,,,,,,,,,,,,,,,,,,,,,,,,,,,,,,,,,,,,,,,,,
1720156366,127,0,4317.179688,4230.128418,4389.871582,4347.307617,4281.922852,4280.769043,4264.743652,3853.333252,4277.05127,4249.487305,4443.333496,4347.05127,4372.179688,4328.717773,,,,,,,,,,,,,,,,,,,,,,,,,,,,,,,,,,,,,,,,,,,,,,,,,,,,,,,,,,,,,,,,,,,,,,
1720156366,0,0,4312.05127,4232.820313,4384.358887,4339.871582,4275.384766,4278.589844,4275.384766,3858.333252,4292.179688,4260.897461,4450.384766,4347.05127,4373.077148,4325.769043,,,,,,,,,,,,,,,,,,,,,,,,,,,,,,,,,,,,,,,,,,,,,,,,,,,,,,,,,,,,,,,,,,,,,,
1720156366,1,0,4309.102539,4228.846191,4376.666504,4335.384766,4267.436035,4273.461426,4275.384766,3862.94873,4297.94873,4266.410156,4455.641113,4343.589844,4377.692383,4323.461426,,,,,,,,,,,,,,,,,,,,,,,,,,,,,,,,,,,,,,,,,,,,,,,,,,,,,,,,,,,,,,,,,,,,,,
1720156366,2,0,4303.333496,4222.563965,4359.102539,4326.666504,4263.461426,4272.820313,4268.077148,3870.769287,4296.410156,4267.692383,4455,4345.256348,4373.974121,4327.563965,,,,,,,,,,,,,,,,,,,,,,,,,,,,,,,,,,,,,,,,,,,,,,,,,,,,,,,,,,,,,,,,,,,,,,
1720156366,3,0,4292.692383,4223.461426,4338.717773,4320.256348,4265.128418,4272.820313,4262.94873,3867.435791,4292.307617,4260.256348,4451.282227,4344.102539,4370.256348,4328.461426,,,,,,,,,,,,,,,,,,,,,,,,,,,,,,,,,,,,,,,,,,,,,,,,,,,,,,,,,,,,,,,,,,,,,,
1720156366,4,0,4295.769043,4230.128418,4336.666504,4321.025879,4268.205078,4268.333496,4258.717773,3869.871826,4284.102539,4254.358887,4455.769043,4350.256348,4374.871582,4330.641113,,,,,,,,,,,,,,,,,,,,,,,,,,,,,,,,,,,,,,,,,,,,,,,,,,,,,,,,,,,,,,,,,,,,,,
1720156366,5,0,4310,4238.077148,4347.820313,4323.205078,4269.102539,4263.846191,4251.666504,3879.615479,4272.179688,4255.769043,4460.128418,4358.974121,4381.153809,4335.384766,,,,,,,,,,,,,,,,,,,,,,,,,,,,,,,,,,,,,,,,,,,,,,,,,,,,,,,,,,,,,,,,,,,,,,
1720156366,6,0,4316.282227,4247.692383,4354.487305,4326.410156,4270.769043,4263.333496,4245.641113,3872.307617,4267.307617,4254.358887,4461.666504,4358.205078,4386.538574,4335,,,,,,,,,,,,,,,,,,,,,,,,,,,,,,,,,,,,,,,,,,,,,,,,,,,,,,,,,,,,,,,,,,,,,,
1720156366,7,0,4323.846191,4258.333496,4366.282227,4331.794922,4273.333496,4260.769043,4245.641113,3871.666748,4265.256348,4256.282227,4474.102539,4375.256348,4397.05127,4347.563965,,,,,,,,,,,,,,,,,,,,,,,,,,,,,,,,,,,,,,,,,,,,,,,,,,,,,,,,,,,,,,,,,,,,,,
1720156366,8,0,4336.666504,4263.846191,4388.077148,4331.922852,4276.922852,4261.794922,4243.077148,3882.05127,4259.230957,4261.666504,4483.333496,4396.153809,4405.897461,4363.333496,,,,,,,,,,,,,,,,,,,,,,,,,,,,,,,,,,,,,,,,,,,,,,,,,,,,,,,,,,,,,,,,,,,,,,
1720156366,9,0,4338.461426,4266.794922,4402.436035,4329.871582,4281.025879,4265.256348,4241.410156,3881.025635,4260.512695,4258.717773,4478.205078,4386.666504,4408.717773,4357.94873,,,,,,,,,,,,,,,,,,,,,,,,,,,,,,,,,,,,,,,,,,,,,,,,,,,,,,,,,,,,,,,,,,,,,,
1720156366,10,0,4329.230957,4265.256348,4405.641113,4325.128418,4279.230957,4266.794922,4251.282227,3886.538574,4266.410156,4254.615234,4472.563965,4372.436035,4399.615234,4344.487305,,,,,,,,,,,,,,,,,,,,,,,,,,,,,,,,,,,,,,,,,,,,,,,,,,,,,,,,,,,,,,,,,,,,,,
1720156366,11,0,4314.871582,4256.153809,4410.256348,4313.846191,4273.461426,4274.230957,4260.641113,3894.871826,4272.563965,4261.538574,4465.256348,4367.692383,4379.871582,4333.717773,,,,,,,,,,,,,,,,,,,,,,,,,,,,,,,,,,,,,,,,,,,,,,,,,,,,,,,,,,,,,,,,,,,,,,
1720156366,12,0,4305.641113,4248.846191,4429.871582,4302.436035,4269.871582,4281.922852,4264.615234,3902.435791,4287.05127,4265,4460.512695,4368.974121,4369.487305,4333.077148,1.926932,1.831035,0.662882,0.730035,0.116371,1.400255,2.668035,1.046479,0.436608,0.119346,11.114461,4.708497,1.564111,1.286044,0.23113,1.403945,2.317634,0.553394,0.423955,0.09109,1.190623,0.654463,0.503811,0.217112,0.092093,1.298651,1.605473,0.741217,0.300403,0.077746,1.546564,2.959452,0.659718,0.258767,0.10593,11.631441,5.840228,2.029605,0.513675,0.296717,2.473383,5.313111,0.979125,0.776234,0.112191,2.185105,2.657548,0.746914,0.601862,0.133105,2.782247,3.91247,1.982245,1.021106,0.342636,3.484919,5.284917,0.952917,1.057004,0.222182,3.138704,4.750388,1.329868,0.714638,0.190057,1.629062,3.387087,1.217662,0.763216,0.214031
1720156366,13,0,4303.589844,4245.384766,4452.94873,4295.512695,4270,4280.897461,4267.820313,3909.358887,4301.410156,4261.794922,4462.307617,4370.128418,4368.846191,4334.487305,,,,,,,,,,,,,,,,,,,,,,,,,,,,,,,,,,,,,,,,,,,,,,,,,,,,,,,,,,,,,,,,,,,,,,
1720156366,14,0,4299.358887,4239.102539,4462.179688,4291.666504,4267.820313,4279.615234,4265.641113,3907.179443,4301.794922,4266.538574,4455.384766,4359.102539,4362.692383,4324.615234,,,,,,,,,,,,,,,,,,,,,,,,,,,,,,,,,,,,,,,,,,,,,,,,,,,,,,,,,,,,,,,,,,,,,,
1720156366,15,0,4295.512695,4228.846191,4465.256348,4285.897461,4262.563965,4277.820313,4261.794922,3908.333252,4297.94873,4267.05127,4443.461426,4348.717773,4353.077148,4320,,,,,,,,,,,,,,,,,,,,,,,,,,,,,,,,,,,,,,,,,,,,,,,,,,,,,,,,,,,,,,,,,,,,,,
1720156366,16,0,4293.589844,4227.692383,4471.282227,4282.820313,4262.692383,4275.512695,4261.922852,3911.281982,4296.666504,4261.666504,4442.563965,4348.974121,4351.538574,4326.153809,,,,,,,,,,,,,,,,,,,,,,,,,,,,,,,,,,,,,,,,,,,,,,,,,,,,,,,,,,,,,,,,,,,,,,
1720156366,17,0,4300.256348,4240.897461,4486.410156,4288.077148,4269.230957,4277.692383,4263.846191,3914.230713,4294.358887,4264.487305,4451.922852,4359.743652,4357.179688,4335.256348,,,,,,,,,,,,,,,,,,,,,,,,,,,,,,,,,,,,,,,,,,,,,,,,,,,,,,,,,,,,,,,,,,,,,,
1720156366,18,0,4315.641113,4252.692383,4508.974121,4295.256348,4273.333496,4277.820313,4266.538574,3919.743652,4289.615234,4265,4459.487305,4372.179688,4365.128418,4342.307617,,,,,,,,,,,,,,,,,,,,,,,,,,,,,,,,,,,,,,,,,,,,,,,,,,,,,,,,,,,,,,,,,,,,,,
1720156366,19,0,4320.512695,4252.307617,4517.436035,4295.256348,4268.846191,4270,4261.922852,3920.769287,4275.256348,4254.230957,4459.358887,4372.05127,4370.128418,4343.589844,,,,,,,,,,,,,,,,,,,,,,,,,,,,,,,,,,,,,,,,,,,,,,,,,,,,,,,,,,,,,,,,,,,,,,
1720156366,20,0,4315.384766,4254.615234,4504.487305,4297.05127,4268.205078,4264.871582,4249.230957,3912.307617,4254.358887,4245.897461,4457.563965,4360.897461,4372.307617,4340.128418,,,,,,,,,,,,,,,,,,,,,,,,,,,,,,,,,,,,,,,,,,,,,,,,,,,,,,,,,,,,,,,,,,,,,,
1720156366,21,0,4317.436035,4266.666504,4488.717773,4303.333496,4274.487305,4260.897461,4245.512695,3916.410156,4238.589844,4239.743652,4456.666504,4362.307617,4370.897461,4340.256348,,,,,,,,,,,,,,,,,,,,,,,,,,,,,,,,,,,,,,,,,,,,,,,,,,,,,,,,,,,,,,,,,,,,,,
1720156366,22,0,4317.94873,4267.05127,4466.025879,4299.743652,4269.871582,4254.615234,4247.307617,3923.974365,4231.538574,4228.846191,4448.846191,4368.846191,4362.820313,4341.153809,,,,,,,,,,,,,,,,,,,,,,,,,,,,,,,,,,,,,,,,,,,,,,,,,,,,,,,,,,,,,,,,,,,,,,
1720156366,23,0,4307.692383,4260.641113,4432.563965,4289.102539,4258.846191,4257.05127,4243.717773,3916.923096,4233.333496,4225.384766,4438.461426,4362.436035,4356.922852,4332.94873,,,,,,,,,,,,,,,,,,,,,,,,,,,,,,,,,,,,,,,,,,,,,,,,,,,,,,,,,,,,,,,,,,,,,,
1720156366,24,0,4304.230957,4265,4411.794922,4284.102539,4259.487305,4265.512695,4251.153809,3926.153809,4242.820313,4232.05127,4445.769043,4365.512695,4357.820313,4332.05127,,,,,,,,,,,,,,,,,,,,,,,,,,,,,,,,,,,,,,,,,,,,,,,,,,,,,,,,,,,,,,,,,,,,,,
1720156366,25,0,4303.717773,4262.692383,4396.794922,4281.794922,4263.205078,4270.384766,4265.256348,3940.384521,4255.641113,4237.05127,4455.256348,4373.461426,4356.922852,4335.641113,,,,,,,,,,,,,,,,,,,,,,,,,,,,,,,,,,,,,,,,,,,,,,,,,,,,,,,,,,,,,,,,,,,,,,
1720156366,26,0,4295.512695,4252.436035,4375,4277.563965,4257.94873,4269.743652,4264.358887,3943.461426,4271.025879,4243.077148,4450.256348,4372.436035,4355.512695,4331.922852,,,,,,,,,,,,,,,,,,,,,,,,,,,,,,,,,,,,,,,,,,,,,,,,,,,,,,,,,,,,,,,,,,,,,,
1720156366,27,0,4293.333496,4255.512695,4359.871582,4275.256348,4255.256348,4268.974121,4262.179688,3952.564209,4285.897461,4250.128418,4446.538574,4372.820313,4357.692383,4334.743652,,,,,,,,,,,,,,,,,,,,,,,,,,,,,,,,,,,,,,,,,,,,,,,,,,,,,,,,,,,,,,,,,,,,,,
1720156366,28,0,4295.897461,4265,4358.205078,4278.333496,4261.922852,4272.820313,4268.077148,3954.615479,4285.641113,4249.615234,4448.461426,4370,4358.205078,4340.769043,2.27158,2.433766,0.728191,0.749288,0.119105,1.804819,3.538652,0.92244,0.421652,0.121619,14.222099,6.16326,1.446468,1.279073,0.225138,1.610668,3.581922,0.488775,0.486961,0.104748,1.796578,0.816915,0.402092,0.189889,0.09272,1.886313,2.251062,0.7132,0.306764,0.080743,2.496588,3.93431,0.673981,0.266481,0.119384,44.770817,21.258896,7.043496,1.464809,0.503192,3.031368,7.554532,0.993602,0.810557,0.12843,2.674477,3.129454,0.690516,0.628887,0.13135,3.579871,4.994839,2.139936,0.861355,0.335069,5.771745,7.339505,1.205652,1.076256,0.251043,3.628361,5.717654,1.080557,0.612933,0.192459,1.599781,4.075444,1.14906,0.783398,0.232599
1720156366,29,0,4292.436035,4262.436035,4353.846191,4277.94873,4263.333496,4270.256348,4262.179688,3951.538574,4272.307617,4245.769043,4451.922852,4365.128418,4354.615234,4341.153809,,,,,,,,,,,,,,,,,,,,,,,,,,,,,,,,,,,,,,,,,,,,,,,,,,,,,,,,,,,,,,,,,,,,,,
1720156366,30,0,4290.384766,4257.820313,4340.384766,4274.358887,4255.128418,4257.307617,4248.846191,3954.487061,4266.025879,4249.487305,4457.05127,4365.128418,4354.743652,4342.436035,,,,,,,,,,,,,,,,,,,,,,,,,,,,,,,,,,,,,,,,,,,,,,,,,,,,,,,,,,,,,,,,,,,,,,
1720156366,31,0,4294.871582,4267.563965,4335,4276.153809,4253.717773,4248.333496,4243.333496,3954.487061,4267.94873,4256.410156,4461.410156,4369.871582,4368.077148,4350.769043,,,,,,,,,,,,,,,,,,,,,,,,,,,,,,,,,,,,,,,,,,,,,,,,,,,,,,,,,,,,,,,,,,,,,,
1720156366,32,0,4302.05127,4279.743652,4338.717773,4282.820313,4259.871582,4250.384766,4236.922852,3953.974365,4261.025879,4253.333496,4460.769043,4378.077148,4381.538574,4362.94873,,,,,,,,,,,,,,,,,,,,,,,,,,,,,,,,,,,,,,,,,,,,,,,,,,,,,,,,,,,,,,,,,,,,,,
1720156366,33,0,4307.05127,4281.153809,4336.025879,4287.05127,4260.256348,4249.358887,4229.615234,3959.487061,4245.641113,4244.102539,4460.769043,4382.820313,4381.025879,4369.102539,,,,,,,,,,,,,,,,,,,,,,,,,,,,,,,,,,,,,,,,,,,,,,,,,,,,,,,,,,,,,,,,,,,,,,
1720156366,34,0,4307.820313,4280.128418,4332.563965,4288.461426,4255.897461,4247.563965,4236.922852,3954.230713,4238.589844,4237.820313,4460.128418,4376.282227,4375.641113,4363.717773,,,,,,,,,,,,,,,,,,,,,,,,,,,,,,,,,,,,,,,,,,,,,,,,,,,,,,,,,,,,,,,,,,,,,,
1720156366,35,0,4306.282227,4279.871582,4331.538574,4285.641113,4256.794922,4251.666504,4247.94873,3955.641113,4241.282227,4232.307617,4455.769043,4375.384766,4373.589844,4360.128418,,,,,,,,,,,,,,,,,,,,,,,,,,,,,,,,,,,,,,,,,,,,,,,,,,,,,,,,,,,,,,,,,,,,,,
1720156366,36,0,4302.436035,4275.769043,4319.615234,4281.153809,4258.333496,4258.461426,4250.128418,3968.205078,4253.846191,4236.153809,4462.179688,4386.153809,4376.410156,4365,,,,,,,,,,,,,,,,,,,,,,,,,,,,,,,,,,,,,,,,,,,,,,,,,,,,,,,,,,,,,,,,,,,,,,
1720156366,37,0,4295.256348,4270.384766,4308.077148,4279.871582,4253.717773,4264.743652,4255,3968.846191,4271.025879,4248.333496,4470,4390.769043,4380,4367.05127,,,,,,,,,,,,,,,,,,,,,,,,,,,,,,,,,,,,,,,,,,,,,,,,,,,,,,,,,,,,,,,,,,,,,,
1720156366,38,0,4290.641113,4263.846191,4310.512695,4276.794922,4251.666504,4267.307617,4264.487305,3975.512939,4278.974121,4250.769043,4467.692383,4391.153809,4372.05127,4364.487305,,,,,,,,,,,,,,,,,,,,,,,,,,,,,,,,,,,,,,,,,,,,,,,,,,,,,,,,,,,,,,,,,,,,,,
1720156366,39,0,4287.563965,4259.871582,4312.563965,4274.230957,4255.384766,4267.436035,4267.820313,3984.102539,4280.897461,4246.538574,4466.410156,4395.384766,4362.436035,4360.256348,,,,,,,,,,,,,,,,,,,,,,,,,,,,,,,,,,,,,,,,,,,,,,,,,,,,,,,,,,,,,,,,,,,,,,
1720156366,40,0,4286.153809,4261.538574,4306.538574,4274.871582,4255.512695,4270.769043,4267.820313,3983.846191,4285.769043,4250.256348,4475.512695,4403.846191,4367.94873,4366.538574,,,,,,,,,,,,,,,,,,,,,,,,,,,,,,,,,,,,,,,,,,,,,,,,,,,,,,,,,,,,,,,,,,,,,,
1720156366,41,0,4289.743652,4262.820313,4305.641113,4277.05127,4255,4274.615234,4269.102539,3987.692383,4290.769043,4257.94873,4481.538574,4411.794922,4374.615234,4378.205078,,,,,,,,,,,,,,,,,,,,,,,,,,,,,,,,,,,,,,,,,,,,,,,,,,,,,,,,,,,,,,,,,,,,,,
1720156366,42,0,4290,4260.897461,4305.384766,4278.205078,4258.077148,4271.538574,4267.563965,3991.153809,4290.384766,4263.077148,4476.153809,4410.384766,4376.666504,4376.538574,,,,,,,,,,,,,,,,,,,,,,,,,,,,,,,,,,,,,,,,,,,,,,,,,,,,,,,,,,,,,,,,,,,,,,
1720156366,43,0,4288.974121,4259.615234,4294.487305,4275.641113,4258.333496,4271.410156,4264.230957,3994.230713,4283.205078,4267.307617,4473.846191,4407.692383,4378.846191,4375.128418,,,,,,,,,,,,,,,,,,,,,,,,,,,,,,,,,,,,,,,,,,,,,,,,,,,,,,,,,,,,,,,,,,,,,,
1720156366,44,0,4294.743652,4265.641113,4283.974121,4276.666504,4262.563965,4276.538574,4254.743652,3997.435791,4274.871582,4269.487305,4480.769043,4407.307617,4381.153809,4380.128418,3.160609,3.621001,0.902483,0.776466,0.119273,2.773365,4.808858,0.906938,0.454069,0.122277,19.5839,7.521573,1.30698,1.207155,0.220158,1.930221,5.187055,0.499123,0.612574,0.116448,3.195889,1.204572,0.39288,0.209055,0.09547,3.38367,3.042376,0.740858,0.356401,0.087926,4.335399,4.809509,0.785138,0.317177,0.1367,122.615707,53.656349,17.875008,3.736073,0.956492,4.292991,9.84867,1.166673,0.891682,0.151714,3.693036,3.745049,0.790792,0.696721,0.139193,5.614663,6.35005,2.569593,0.798747,0.344464,11.695255,10.274152,1.848808,1.104928,0.296922,4.359479,6.715281,1.012388,0.592502,0.201973,1.846063,4.507098,1.175089,0.843021,0.242295
1720156366,45,0,4304.615234,4276.794922,4285.384766,4282.820313,4270.641113,4274.743652,4236.794922,3994.871826,4271.153809,4269.871582,4490.641113,4410.512695,4391.153809,4386.666504,,,,,,,,,,,,,,,,,,,,,,,,,,,,,,,,,,,,,,,,,,,,,,,,,,,,,,,,,,,,,,,,,,,,,,
1720156366,46,0,4309.615234,4281.153809,4293.077148,4285.384766,4269.615234,4269.358887,4224.743652,3996.281982,4269.615234,4273.461426,4494.743652,4421.922852,4403.077148,4392.563965,,,,,,,,,,,,,,,,,,,,,,,,,,,,,,,,,,,,,,,,,,,,,,,,,,,,,,,,,,,,,,,,,,,,,,
1720156366,47,0,4310.769043,4277.05127,4290.128418,4282.820313,4267.179688,4264.487305,4222.307617,4006.025635,4263.589844,4272.563965,4490.769043,4430.384766,4398.461426,4392.05127,,,,,,,,,,,,,,,,,,,,,,,,,,,,,,,,,,,,,,,,,,,,,,,,,,,,,,,,,,,,,,,,,,,,,,
1720156366,48,0,4312.820313,4278.974121,4278.974121,4283.974121,4268.205078,4263.077148,4221.794922,4002.692383,4258.589844,4263.589844,4487.179688,4425.769043,4389.487305,4391.025879,,,,,,,,,,,,,,,,,,,,,,,,,,,,,,,,,,,,,,,,,,,,,,,,,,,,,,,,,,,,,,,,,,,,,,
1720156366,49,0,4307.179688,4279.102539,4277.307617,4285.641113,4266.794922,4264.743652,4225.897461,4005.769287,4260.128418,4258.205078,4490.384766,4424.230957,4391.282227,4397.05127,,,,,,,,,,,,,,,,,,,,,,,,,,,,,,,,,,,,,,,,,,,,,,,,,,,,,,,,,,,,,,,,,,,,,,
1720156366,50,0,4301.410156,4268.589844,4276.794922,4281.794922,4264.743652,4270.128418,4235.512695,4025.128174,4270.769043,4262.436035,4496.153809,4426.153809,4386.282227,4395,,,,,,,,,,,,,,,,,,,,,,,,,,,,,,,,,,,,,,,,,,,,,,,,,,,,,,,,,,,,,,,,,,,,,,
1720156366,51,0,4294.102539,4262.563965,4268.333496,4278.974121,4263.846191,4273.846191,4236.410156,4025.256348,4280.769043,4264.871582,4493.717773,4420.512695,4377.179688,4379.102539,,,,,,,,,,,,,,,,,,,,,,,,,,,,,,,,,,,,,,,,,,,,,,,,,,,,,,,,,,,,,,,,,,,,,,
1720156366,52,0,4276.666504,4258.461426,4262.436035,4278.589844,4259.743652,4271.153809,4234.487305,4021.153809,4278.333496,4259.615234,4490.769043,4422.94873,4374.230957,4377.436035,,,,,,,,,,,,,,,,,,,,,,,,,,,,,,,,,,,,,,,,,,,,,,,,,,,,,,,,,,,,,,,,,,,,,,
1720156366,53,0,4268.205078,4257.94873,4270.128418,4278.461426,4260.512695,4270.897461,4240.128418,4031.025635,4274.871582,4260,4489.102539,4430.256348,4373.846191,4391.282227,,,,,,,,,,,,,,,,,,,,,,,,,,,,,,,,,,,,,,,,,,,,,,,,,,,,,,,,,,,,,,,,,,,,,,
1720156366,54,0,4269.358887,4257.307617,4275,4277.436035,4265.384766,4273.205078,4239.487305,4033.205078,4274.615234,4259.358887,4482.692383,4425.897461,4374.615234,4392.05127,,,,,,,,,,,,,,,,,,,,,,,,,,,,,,,,,,,,,,,,,,,,,,,,,,,,,,,,,,,,,,,,,,,,,,
1720156366,55,0,4267.820313,4251.794922,4270.128418,4277.563965,4263.205078,4270.897461,4231.538574,4030.641113,4270.897461,4253.589844,4481.794922,4430.897461,4377.563965,4391.282227,,,,,,,,,,,,,,,,,,,,,,,,,,,,,,,,,,,,,,,,,,,,,,,,,,,,,,,,,,,,,,,,,,,,,,
1720156366,56,0,4270.256348,4256.282227,4266.153809,4280.256348,4263.461426,4270.769043,4230.512695,4032.564209,4265.384766,4257.692383,4487.820313,4443.333496,4378.461426,4398.846191,,,,,,,,,,,,,,,,,,,,,,,,,,,,,,,,,,,,,,,,,,,,,,,,,,,,,,,,,,,,,,,,,,,,,,
1720156366,57,0,4273.205078,4260.512695,4264.743652,4280.512695,4264.358887,4272.94873,4232.692383,4038.076904,4259.871582,4262.692383,4491.025879,4442.820313,4378.589844,4396.922852,,,,,,,,,,,,,,,,,,,,,,,,,,,,,,,,,,,,,,,,,,,,,,,,,,,,,,,,,,,,,,,,,,,,,,
1720156366,58,0,4270.769043,4253.846191,4263.846191,4277.179688,4256.794922,4265.512695,4226.153809,4041.025635,4252.179688,4255.128418,4490.641113,4433.589844,4376.666504,4391.025879,,,,,,,,,,,,,,,,,,,,,,,,,,,,,,,,,,,,,,,,,,,,,,,,,,,,,,,,,,,,,,,,,,,,,,
1720156366,59,0,4269.871582,4253.077148,4262.94873,4277.94873,4254.743652,4256.282227,4217.05127,4034.871826,4249.871582,4255.769043,4488.589844,4432.05127,4371.153809,4391.922852,,,,,,,,,,,,,,,,,,,,,,,,,,,,,,,,,,,,,,,,,,,,,,,,,,,,,,,,,,,,,,,,,,,,,,
1720156366,60,0,4271.666504,4261.538574,4265.897461,4282.563965,4260.256348,4259.102539,4218.205078,4034.230713,4254.358887,4270.641113,4491.794922,4446.922852,4380.769043,4404.743652,4.371351,5.415458,1.160883,0.808039,0.116541,4.067295,6.381567,0.984332,0.520007,0.121376,27.527292,8.508961,1.20306,1.1005,0.218511,2.366244,6.820175,0.567401,0.769794,0.121742,5.082016,1.775972,0.470923,0.267536,0.09846,5.482388,3.771169,0.829268,0.436867,0.096671,6.718949,5.430398,0.999624,0.403838,0.152686,243.764236,101.760849,34.132492,7.310393,1.638604,5.951735,11.742238,1.467954,0.992663,0.176023,4.992167,4.387607,1.007923,0.778355,0.153935,8.930747,7.710066,3.127564,0.835864,0.364426,21.22319,13.85376,2.797538,1.153973,0.358083,5.195764,7.511262,1.060094,0.629424,0.216635,2.321771,4.520087,1.323093,0.950484,0.246244
1720156367,61,0,4273.205078,4256.922852,4267.563965,4282.563965,4260.384766,4261.410156,4223.717773,4049.102539,4251.282227,4270.384766,4503.333496,4459.102539,4396.282227,4426.282227,,,,,,,,,,,,,,,,,,,,,,,,,,,,,,,,,,,,,,,,,,,,,,,,,,,,,,,,,,,,,,,,,,,,,,
1720156367,62,0,4267.820313,4246.794922,4254.743652,4277.692383,4257.179688,4258.974121,4225.897461,4046.923096,4242.94873,4260.128418,4503.846191,4442.820313,4392.179688,4429.871582,,,,,,,,,,,,,,,,,,,,,,,,,,,,,,,,,,,,,,,,,,,,,,,,,,,,,,,,,,,,,,,,,,,,,,
1720156367,63,0,4260,4248.846191,4243.461426,4276.410156,4256.794922,4259.871582,4227.436035,4041.281982,4241.410156,4261.153809,4484.487305,4430.128418,4379.871582,4422.307617,,,,,,,,,,,,,,,,,,,,,,,,,,,,,,,,,,,,,,,,,,,,,,,,,,,,,,,,,,,,,,,,,,,,,,
1720156367,64,0,4263.717773,4252.05127,4252.307617,4278.974121,4254.615234,4260.256348,4230.512695,4057.564209,4246.922852,4266.282227,4474.743652,4443.589844,4379.358887,4426.025879,,,,,,,,,,,,,,,,,,,,,,,,,,,,,,,,,,,,,,,,,,,,,,,,,,,,,,,,,,,,,,,,,,,,,,
1720156367,65,0,4269.487305,4250.641113,4258.717773,4277.563965,4254.615234,4259.871582,4230,4060.256348,4249.615234,4261.922852,4482.436035,4448.333496,4381.025879,4434.358887,,,,,,,,,,,,,,,,,,,,,,,,,,,,,,,,,,,,,,,,,,,,,,,,,,,,,,,,,,,,,,,,,,,,,,
1720156367,66,0,4265.384766,4245.512695,4243.205078,4274.102539,4253.205078,4257.692383,4228.974121,4055,4243.461426,4252.94873,4482.94873,4440.641113,4374.230957,4440.256348,,,,,,,,,,,,,,,,,,,,,,,,,,,,,,,,,,,,,,,,,,,,,,,,,,,,,,,,,,,,,,,,,,,,,,
1720156367,67,0,4259.102539,4246.794922,4234.230957,4275.384766,4252.820313,4256.922852,4230.769043,4059.743652,4238.333496,4250.384766,4473.589844,4435.769043,4369.230957,4434.743652,,,,,,,,,,,,,,,,,,,,,,,,,,,,,,,,,,,,,,,,,,,,,,,,,,,,,,,,,,,,,,,,,,,,,,
1720156367,68,0,4260.641113,4251.410156,4244.871582,4278.205078,4262.820313,4265.256348,4231.794922,4059.487061,4238.205078,4250.384766,4471.922852,4430.384766,4364.230957,4422.05127,,,,,,,,,,,,,,,,,,,,,,,,,,,,,,,,,,,,,,,,,,,,,,,,,,,,,,,,,,,,,,,,,,,,,,
1720156367,69,0,4267.436035,4250.384766,4251.410156,4277.820313,4269.230957,4271.025879,4230.128418,4059.358887,4232.94873,4250.512695,4474.358887,4432.94873,4364.743652,4424.358887,,,,,,,,,,,,,,,,,,,,,,,,,,,,,,,,,,,,,,,,,,,,,,,,,,,,,,,,,,,,,,,,,,,,,,
1720156367,70,0,4271.410156,4253.205078,4253.717773,4278.846191,4266.794922,4268.974121,4229.871582,4062.05127,4228.077148,4257.179688,4480.641113,4446.025879,4377.05127,4435.128418,,,,,,,,,,,,,,,,,,,,,,,,,,,,,,,,,,,,,,,,,,,,,,,,,,,,,,,,,,,,,,,,,,,,,,
1720156367,71,0,4273.846191,4258.717773,4263.077148,4283.333496,4265.256348,4267.05127,4231.538574,4063.718018,4230.769043,4262.692383,4497.05127,4461.666504,4388.589844,4443.205078,,,,,,,,,,,,,,,,,,,,,,,,,,,,,,,,,,,,,,,,,,,,,,,,,,,,,,,,,,,,,,,,,,,,,,
1720156367,72,0,4275.769043,4259.230957,4266.153809,4285.897461,4267.563965,4269.871582,4229.615234,4065.769287,4230,4261.410156,4505.256348,4468.461426,4393.589844,4446.922852,,,,,,,,,,,,,,,,,,,,,,,,,,,,,,,,,,,,,,,,,,,,,,,,,,,,,,,,,,,,,,,,,,,,,,
1720156367,73,0,4271.282227,4252.692383,4255.641113,4283.205078,4267.307617,4268.077148,4223.205078,4067.94873,4221.922852,4259.871582,4492.179688,4459.871582,4391.025879,4437.436035,,,,,,,,,,,,,,,,,,,,,,,,,,,,,,,,,,,,,,,,,,,,,,,,,,,,,,,,,,,,,,,,,,,,,,
1720156367,74,0,4265.769043,4247.692383,4247.307617,4278.461426,4261.410156,4260.384766,4221.282227,4069.743652,4224.871582,4259.615234,4485.512695,4451.153809,4386.922852,4426.282227,,,,,,,,,,,,,,,,,,,,,,,,,,,,,,,,,,,,,,,,,,,,,,,,,,,,,,,,,,,,,,,,,,,,,,
1720156367,75,0,4268.974121,4250,4248.461426,4280.641113,4260.128418,4259.743652,4226.922852,4077.564209,4236.666504,4261.153809,4498.846191,4461.794922,4391.282227,4436.410156,,,,,,,,,,,,,,,,,,,,,,,,,,,,,,,,,,,,,,,,,,,,,,,,,,,,,,,,,,,,,,,,,,,,,,
1720156367,76,0,4272.94873,4252.307617,4251.410156,4286.538574,4264.615234,4262.436035,4228.974121,4080.641113,4241.153809,4269.102539,4508.589844,4472.820313,4396.282227,4451.538574,5.606522,7.569759,1.45126,0.827794,0.112588,5.206886,8.021723,1.099573,0.590164,0.120425,37.795322,9.028879,1.184531,0.996558,0.220856,2.544564,8.089076,0.65581,0.906062,0.119147,7.061113,2.423737,0.601776,0.343926,0.101039,7.784876,4.268389,0.962578,0.520006,0.104845,9.149779,5.783088,1.277742,0.501599,0.163243,386.005615,155.220505,52.382988,11.451714,2.401688,7.806279,13.069923,1.820534,1.069787,0.195445,6.332209,4.963615,1.266758,0.838339,0.169728,12.626451,8.76429,3.592734,0.926948,0.381446,32.144497,17.354471,3.808874,1.212811,0.423609,5.623319,7.995931,1.118693,0.674676,0.231683,2.953693,4.130283,1.557435,1.080589,0.249007
1720156367,77,0,4264.230957,4250,4250.641113,4282.94873,4264.743652,4262.05127,4226.922852,4077.179443,4240.641113,4268.717773,4497.436035,4462.692383,4389.102539,4445.256348,,,,,,,,,,,,,,,,,,,,,,,,,,,,,,,,,,,,,,,,,,,,,,,,,,,,,,,,,,,,,,,,,,,,,,
1720156367,78,0,4253.974121,4248.077148,4244.487305,4277.05127,4257.179688,4260.128418,4227.436035,4081.281982,4238.974121,4258.589844,4476.153809,4448.846191,4379.615234,4433.974121,,,,,,,,,,,,,,,,,,,,,,,,,,,,,,,,,,,,,,,,,,,,,,,,,,,,,,,,,,,,,,,,,,,,,,
1720156367,79,0,4253.846191,4245,4234.615234,4277.692383,4255,4259.871582,4230.256348,4082.05127,4238.461426,4258.205078,4467.692383,4447.692383,4375.512695,4436.153809,,,,,,,,,,,,,,,,,,,,,,,,,,,,,,,,,,,,,,,,,,,,,,,,,,,,,,,,,,,,,,,,,,,,,,
1720156367,80,0,4255,4236.153809,4228.589844,4272.307617,4256.410156,4261.153809,4233.461426,4086.153809,4239.230957,4263.077148,4473.205078,4451.538574,4370.128418,4441.282227,,,,,,,,,,,,,,,,,,,,,,,,,,,,,,,,,,,,,,,,,,,,,,,,,,,,,,,,,,,,,,,,,,,,,,
1720156367,81,0,4253.461426,4230,4228.717773,4264.615234,4253.717773,4261.282227,4227.692383,4091.025635,4236.538574,4253.205078,4471.666504,4451.410156,4365.641113,4440.641113,,,,,,,,,,,,,,,,,,,,,,,,,,,,,,,,,,,,,,,,,,,,,,,,,,,,,,,,,,,,,,,,,,,,,,
1720156367,82,0,4251.794922,4230.641113,4229.230957,4266.410156,4252.436035,4259.102539,4219.615234,4083.205078,4228.589844,4240.512695,4464.102539,4449.487305,4365.256348,4438.461426,,,,,,,,,,,,,,,,,,,,,,,,,,,,,,,,,,,,,,,,,,,,,,,,,,,,,,,,,,,,,,,,,,,,,,
1720156367,83,0,4254.487305,4230.384766,4229.102539,4271.538574,4252.94873,4256.410156,4222.94873,4086.153809,4222.179688,4243.461426,4464.743652,4452.94873,4368.205078,4445,,,,,,,,,,,,,,,,,,,,,,,,,,,,,,,,,,,,,,,,,,,,,,,,,,,,,,,,,,,,,,,,,,,,,,
1720156367,84,0,4262.820313,4234.743652,4232.820313,4275,4256.922852,4258.077148,4225.897461,4095,4219.230957,4248.205078,4472.820313,4460.897461,4379.358887,4456.666504,,,,,,,,,,,,,,,,,,,,,,,,,,,,,,,,,,,,,,,,,,,,,,,,,,,,,,,,,,,,,,,,,,,,,,
1720156367,85,0,4271.153809,4246.282227,4241.922852,4281.794922,4260.128418,4256.410156,4219.230957,4091.025635,4212.820313,4245.128418,4480.897461,4469.358887,4393.974121,4465.384766,,,,,,,,,,,,,,,,,,,,,,,,,,,,,,,,,,,,,,,,,,,,,,,,,,,,,,,,,,,,,,,,,,,,,,
1720156367,86,0,4277.94873,4250.897461,4250.384766,4284.615234,4256.922852,4248.333496,4215.256348,4093.718018,4210.128418,4245.512695,4490.384766,4479.230957,4403.333496,4475.897461,,,,,,,,,,,,,,,,,,,,,,,,,,,,,,,,,,,,,,,,,,,,,,,,,,,,,,,,,,,,,,,,,,,,,,
1720156367,87,0,4281.153809,4248.589844,4249.871582,4280.512695,4255.897461,4248.846191,4220.128418,4102.05127,4219.358887,4254.487305,4505.384766,4484.615234,4402.307617,4482.563965,,,,,,,,,,,,,,,,,,,,,,,,,,,,,,,,,,,,,,,,,,,,,,,,,,,,,,,,,,,,,,,,,,,,,,
1720156367,88,0,4275.128418,4250.897461,4247.307617,4282.692383,4264.743652,4262.307617,4226.153809,4095.641113,4234.743652,4265.897461,4511.025879,4477.692383,4397.563965,4473.974121,,,,,,,,,,,,,,,,,,,,,,,,,,,,,,,,,,,,,,,,,,,,,,,,,,,,,,,,,,,,,,,,,,,,,,
1720156367,89,0,4266.025879,4249.487305,4247.05127,4286.794922,4268.717773,4268.589844,4233.205078,4099.358887,4236.794922,4269.487305,4499.358887,4467.692383,4395.128418,4466.666504,,,,,,,,,,,,,,,,,,,,,,,,,,,,,,,,,,,,,,,,,,,,,,,,,,,,,,,,,,,,,,,,,,,,,,
1720156367,90,0,4264.487305,4247.436035,4245,4283.846191,4261.025879,4265.641113,4238.333496,4106.666504,4232.692383,4265.512695,4491.666504,4460,4393.077148,4465.769043,,,,,,,,,,,,,,,,,,,,,,,,,,,,,,,,,,,,,,,,,,,,,,,,,,,,,,,,,,,,,,,,,,,,,,
1720156367,91,0,4264.615234,4249.615234,4246.410156,4281.153809,4258.589844,4266.666504,4232.94873,4101.410156,4233.333496,4258.589844,4487.94873,4458.974121,4387.820313,4463.461426,,,,,,,,,,,,,,,,,,,,,,,,,,,,,,,,,,,,,,,,,,,,,,,,,,,,,,,,,,,,,,,,,,,,,,
1720156367,92,0,4257.179688,4239.871582,4249.230957,4277.820313,4258.589844,4265.256348,4222.563965,4102.307617,4224.743652,4245,4465,4446.538574,4366.025879,4455.512695,6.461537,9.589063,1.682786,0.814498,0.108988,5.89448,9.34888,1.176174,0.628482,0.121037,48.531937,9.014824,1.240426,0.919548,0.225838,2.54461,8.65419,0.714124,0.9658,0.109495,8.546374,2.956097,0.725019,0.406346,0.102597,9.615014,4.424159,1.095858,0.571576,0.110196,10.898472,5.954427,1.53602,0.577414,0.165657,505.252197,198.032272,67.144379,14.929288,3.015189,9.27992,13.877168,2.112502,1.081431,0.205471,7.306096,5.343286,1.459839,0.847219,0.179967,15.747216,9.184935,3.753378,1.000681,0.382283,41.308846,19.741432,4.552037,1.247837,0.476135,5.686722,8.091032,1.098185,0.683528,0.241341,3.613851,3.49676,1.78666,1.186214,0.253527
1720156367,93,0,4244.487305,4222.436035,4243.333496,4266.666504,4252.692383,4257.820313,4214.487305,4100.512695,4212.179688,4228.846191,4438.333496,4414.487305,4337.820313,4437.820313,,,,,,,,,,,,,,,,,,,,,,,,,,,,,,,,,,,,,,,,,,,,,,,,,,,,,,,,,,,,,,,,,,,,,,
1720156367,94,0,4243.846191,4220,4240.256348,4260.769043,4248.333496,4254.358887,4213.717773,4100.512695,4218.333496,4226.410156,4442.307617,4410.897461,4335.769043,4439.102539,,,,,,,,,,,,,,,,,,,,,,,,,,,,,,,,,,,,,,,,,,,,,,,,,,,,,,,,,,,,,,,,,,,,,,
1720156367,95,0,4260.769043,4230.128418,4253.077148,4271.794922,4254.230957,4259.487305,4218.846191,4109.743652,4235.769043,4242.179688,4468.333496,4446.538574,4362.307617,4465.512695,,,,,,,,,,,,,,,,,,,,,,,,,,,,,,,,,,,,,,,,,,,,,,,,,,,,,,,,,,,,,,,,,,,,,,
1720156367,96,0,4275.256348,4244.230957,4270.256348,4284.102539,4263.205078,4264.615234,4218.589844,4112.820313,4237.05127,4257.820313,4491.794922,4468.205078,4387.307617,4482.05127,,,,,,,,,,,,,,,,,,,,,,,,,,,,,,,,,,,,,,,,,,,,,,,,,,,,,,,,,,,,,,,,,,,,,,
1720156367,97,0,4284.743652,4259.615234,4277.692383,4290.384766,4268.846191,4261.666504,4214.358887,4113.846191,4226.794922,4264.358887,4507.692383,4473.461426,4403.846191,4486.282227,,,,,,,,,,,,,,,,,,,,,,,,,,,,,,,,,,,,,,,,,,,,,,,,,,,,,,,,,,,,,,,,,,,,,,
1720156367,98,0,4288.589844,4267.307617,4279.102539,4296.922852,4274.871582,4260.256348,4212.692383,4117.179688,4228.333496,4268.846191,4518.846191,4490.641113,4421.666504,4490.512695,,,,,,,,,,,,,,,,,,,,,,,,,,,,,,,,,,,,,,,,,,,,,,,,,,,,,,,,,,,,,,,,,,,,,,
1720156367,99,0,4281.025879,4265.256348,4282.94873,4300.128418,4273.205078,4264.230957,4216.794922,4120.897461,4235.641113,4271.282227,4529.871582,4505.769043,4427.307617,4491.282227,,,,,,,,,,,,,,,,,,,,,,,,,,,,,,,,,,,,,,,,,,,,,,,,,,,,,,,,,,,,,,,,,,,,,,
1720156367,100,0,4264.871582,4258.461426,4278.846191,4291.922852,4262.692383,4264.743652,4223.461426,4124.358887,4238.589844,4271.538574,4527.563965,4495.897461,4414.743652,4483.974121,,,,,,,,,,,,,,,,,,,,,,,,,,,,,,,,,,,,,,,,,,,,,,,,,,,,,,,,,,,,,,,,,,,,,,
1720156367,101,0,4251.794922,4250.641113,4263.717773,4281.025879,4259.615234,4264.102539,4230.384766,4125.384766,4245.512695,4274.102539,4510.512695,4475,4400.641113,4476.922852,,,,,,,,,,,,,,,,,,,,,,,,,,,,,,,,,,,,,,,,,,,,,,,,,,,,,,,,,,,,,,,,,,,,,,
1720156367,102,0,4251.538574,4247.692383,4267.692383,4281.282227,4262.179688,4270.384766,4240.897461,4129.230957,4261.794922,4279.358887,4503.077148,4471.282227,4395.769043,4477.692383,,,,,,,,,,,,,,,,,,,,,,,,,,,,,,,,,,,,,,,,,,,,,,,,,,,,,,,,,,,,,,,,,,,,,,
1720156367,103,0,4252.692383,4248.077148,4293.974121,4286.794922,4262.307617,4277.436035,4248.333496,4143.846191,4271.794922,4283.077148,4513.077148,4482.563965,4395.256348,4481.794922,,,,,,,,,,,,,,,,,,,,,,,,,,,,,,,,,,,,,,,,,,,,,,,,,,,,,,,,,,,,,,,,,,,,,,
1720156367,104,0,4248.077148,4249.743652,4303.846191,4288.333496,4265.769043,4278.461426,4247.307617,4142.563965,4272.05127,4284.230957,4512.436035,4480.256348,4392.307617,4480.512695,,,,,,,,,,,,,,,,,,,,,,,,,,,,,,,,,,,,,,,,,,,,,,,,,,,,,,,,,,,,,,,,,,,,,,
1720156367,105,0,4242.05127,4251.153809,4297.307617,4290,4269.102539,4280.769043,4244.358887,4130.769043,4268.205078,4280.384766,4494.487305,4467.05127,4389.615234,4473.461426,,,,,,,,,,,,,,,,,,,,,,,,,,,,,,,,,,,,,,,,,,,,,,,,,,,,,,,,,,,,,,,,,,,,,,
1720156367,106,0,4239.615234,4249.358887,4297.692383,4293.589844,4265.384766,4277.692383,4243.077148,4141.922852,4254.615234,4267.436035,4491.794922,4467.307617,4385.384766,4472.94873,,,,,,,,,,,,,,,,,,,,,,,,,,,,,,,,,,,,,,,,,,,,,,,,,,,,,,,,,,,,,,,,,,,,,,
1720156367,107,0,4248.589844,4254.102539,4297.307617,4294.871582,4266.666504,4267.563965,4241.794922,4142.94873,4240,4261.282227,4503.333496,4475,4387.692383,4479.743652,,,,,,,,,,,,,,,,,,,,,,,,,,,,,,,,,,,,,,,,,,,,,,,,,,,,,,,,,,,,,,,,,,,,,,
1720156367,108,0,4266.153809,4263.589844,4299.743652,4296.153809,4271.794922,4265.769043,4241.153809,4131.794922,4237.436035,4266.794922,4509.230957,4487.179688,4402.436035,4485.641113,6.611294,10.904238,1.762537,0.756932,0.106538,5.807303,9.983762,1.152563,0.612028,0.123559,57.087948,8.487797,1.301375,0.874519,0.231301,2.210826,8.362132,0.700449,0.918945,0.095338,9.041615,3.190916,0.780592,0.428672,0.102699,10.39314,4.233183,1.171576,0.569044,0.111038,11.396979,6.036382,1.680956,0.605965,0.159569,562.458435,215.565475,73.363312,16.546669,3.26672,9.898089,14.264322,2.23594,1.012161,0.205005,7.561843,5.41623,1.505529,0.796281,0.18148,17.072409,8.855803,3.514106,1.003099,0.364282,45.422279,20.187218,4.770402,1.225083,0.502133,5.08673,7.822646,0.979021,0.640863,0.242259,4.080107,2.852957,1.914994,1.224341,0.26043
1720156367,109,0,4276.794922,4268.333496,4309.743652,4300.384766,4271.922852,4268.205078,4241.538574,4139.871582,4238.974121,4265.769043,4510.897461,4507.436035,4413.846191,4492.179688,,,,,,,,,,,,,,,,,,,,,,,,,,,,,,,,,,,,,,,,,,,,,,,,,,,,,,,,,,,,,,,,,,,,,,
1720156367,110,0,4277.94873,4271.025879,4316.025879,4307.563965,4274.230957,4265.897461,4241.282227,4144.102539,4227.94873,4254.871582,4513.205078,4516.410156,4411.153809,4497.563965,,,,,,,,,,,,,,,,,,,,,,,,,,,,,,,,,,,,,,,,,,,,,,,,,,,,,,,,,,,,,,,,,,,,,,
1720156367,111,0,4284.358887,4270.769043,4310.641113,4311.282227,4276.025879,4259.615234,4243.205078,4137.94873,4209.358887,4247.563965,4514.615234,4506.538574,4403.077148,4495.769043,,,,,,,,,,,,,,,,,,,,,,,,,,,,,,,,,,,,,,,,,,,,,,,,,,,,,,,,,,,,,,,,,,,,,,
1720156367,112,0,4293.461426,4266.282227,4295.769043,4310.256348,4272.820313,4260.769043,4244.871582,4136.153809,4210,4246.666504,4512.05127,4494.230957,4403.077148,4487.307617,,,,,,,,,,,,,,,,,,,,,,,,,,,,,,,,,,,,,,,,,,,,,,,,,,,,,,,,,,,,,,,,,,,,,,
1720156367,113,0,4291.025879,4259.487305,4278.974121,4306.025879,4271.153809,4267.436035,4248.717773,4133.077148,4232.05127,4251.410156,4506.922852,4485,4407.05127,4476.410156,,,,,,,,,,,,,,,,,,,,,,,,,,,,,,,,,,,,,,,,,,,,,,,,,,,,,,,,,,,,,,,,,,,,,,
1720156367,114,0,4284.102539,4251.282227,4267.179688,4299.102539,4268.461426,4271.153809,4258.589844,4135.512695,4253.717773,4262.563965,4506.794922,4478.205078,4406.538574,4475.128418,,,,,,,,,,,,,,,,,,,,,,,,,,,,,,,,,,,,,,,,,,,,,,,,,,,,,,,,,,,,,,,,,,,,,,
1720156367,115,0,4285.641113,4246.282227,4262.179688,4296.282227,4261.153809,4275,4268.717773,4148.461426,4267.563965,4269.102539,4512.94873,4478.461426,4402.820313,4487.436035,,,,,,,,,,,,,,,,,,,,,,,,,,,,,,,,,,,,,,,,,,,,,,,,,,,,,,,,,,,,,,,,,,,,,,
1720156367,116,0,4283.205078,4243.461426,4257.820313,4297.436035,4260,4282.05127,4275,4140.512695,4276.922852,4268.846191,4508.717773,4472.820313,4395.384766,4487.563965,,,,,,,,,,,,,,,,,,,,,,,,,,,,,,,,,,,,,,,,,,,,,,,,,,,,,,,,,,,,,,,,,,,,,,
1720156367,117,0,4273.077148,4234.615234,4252.179688,4293.717773,4264.615234,4286.794922,4278.333496,4134.487305,4274.230957,4268.717773,4504.102539,4466.153809,4385.641113,4480.897461,,,,,,,,,,,,,,,,,,,,,,,,,,,,,,,,,,,,,,,,,,,,,,,,,,,,,,,,,,,,,,,,,,,,,,
1720156367,118,0,4271.922852,4229.615234,4247.05127,4292.436035,4265.384766,4282.307617,4271.282227,4144.102539,4261.153809,4262.179688,4503.717773,4468.846191,4381.282227,4486.794922,,,,,,,,,,,,,,,,,,,,,,,,,,,,,,,,,,,,,,,,,,,,,,,,,,,,,,,,,,,,,,,,,,,,,,
1720156367,119,0,4275.128418,4232.179688,4244.871582,4295.641113,4263.846191,4271.410156,4251.538574,4137.94873,4247.05127,4249.615234,4494.230957,4472.05127,4380,4492.563965,,,,,,,,,,,,,,,,,,,,,,,,,,,,,,,,,,,,,,,,,,,,,,,,,,,,,,,,,,,,,,,,,,,,,,
1720156367,120,0,4277.94873,4232.820313,4244.102539,4295.512695,4265.512695,4264.102539,4241.025879,4137.307617,4235.384766,4244.743652,4490.256348,4473.205078,4378.461426,4498.205078,,,,,,,,,,,,,,,,,,,,,,,,,,,,,,,,,,,,,,,,,,,,,,,,,,,,,,,,,,,,,,,,,,,,,,
1720156367,121,0,4287.05127,4238.717773,4246.922852,4297.436035,4269.358887,4264.615234,4245.512695,4142.436035,4228.846191,4246.538574,4490.897461,4477.05127,4384.615234,4506.025879,,,,,,,,,,,,,,,,,,,,,,,,,,,,,,,,,,,,,,,,,,,,,,,,,,,,,,,,,,,,,,,,,,,,,,
1720156367,122,0,4297.820313,4247.820313,4258.846191,4306.922852,4270.769043,4260.128418,4244.487305,4138.205078,4220.384766,4237.94873,4491.666504,4487.05127,4391.410156,4514.230957,,,,,,,,,,,,,,,,,,,,,,,,,,,,,,,,,,,,,,,,,,,,,,,,,,,,,,,,,,,,,,,,,,,,,,
1720156367,123,0,4295.641113,4251.153809,4267.94873,4312.820313,4269.230957,4253.205078,4239.871582,4138.205078,4209.487305,4225.256348,4502.307617,4493.846191,4392.307617,4520.897461,,,,,,,,,,,,,,,,,,,,,,,,,,,,,,,,,,,,,,,,,,,,,,,,,,,,,,,,,,,,,,,,,,,,,,
1720156367,124,0,4284.358887,4246.794922,4265,4305.641113,4270.641113,4258.717773,4243.333496,4143.077148,4209.230957,4227.436035,4507.05127,4491.794922,4391.922852,4517.692383,6.062858,11.163094,1.662816,0.660597,0.10521,5.050556,9.742194,1.032164,0.542177,0.126733,60.793114,7.546284,1.292903,0.844664,0.23481,1.777684,7.317004,0.612791,0.777137,0.080353,8.35524,3.047454,0.743841,0.401477,0.101076,9.796362,3.776054,1.148758,0.510615,0.106922,10.459024,6.055452,1.656106,0.578473,0.146864,535.881165,201.43219,68.770119,15.725073,3.06297,9.318401,14.243527,2.134163,0.876515,0.196795,6.951211,5.160779,1.40125,0.697233,0.176036,16.250586,7.959189,2.950597,0.930211,0.338456,43.178711,18.473173,4.395971,1.133746,0.500721,4.162782,7.406978,0.826008,0.564493,0.236276,4.231073,2.411228,1.885797,1.175524,0.269904
1720156367,125,0,4281.538574,4235.384766,4253.974121,4294.102539,4269.615234,4265,4249.743652,4148.205078,4217.436035,4232.820313,4494.743652,4488.333496,4382.05127,4512.179688,,,,,,,,,,,,,,,,,,,,,,,,,,,,,,,,,,,,,,,,,,,,,,,,,,,,,,,,,,,,,,,,,,,,,,
1720156367,126,0,4280.384766,4231.025879,4247.179688,4293.077148,4264.487305,4270.256348,4256.410156,4151.025879,4230.384766,4231.153809,4488.589844,4481.922852,4369.487305,4507.692383,,,,,,,,,,,,,,,,,,,,,,,,,,,,,,,,,,,,,,,,,,,,,,,,,,,,,,,,,,,,,,,,,,,,,,
1720156367,127,0,4273.974121,4234.358887,4243.717773,4296.538574,4264.871582,4282.05127,4265.512695,4154.487305,4249.615234,4235.128418,4492.307617,4477.307617,4371.538574,4502.307617,,,,,,,,,,,,,,,,,,,,,,,,,,,,,,,,,,,,,,,,,,,,,,,,,,,,,,,,,,,,,,,,,,,,,,
1720156367,0,0,4274.230957,4231.153809,4240,4289.358887,4267.179688,4287.179688,4269.743652,4158.717773,4264.615234,4249.358887,4493.974121,4482.436035,4377.94873,4503.333496,,,,,,,,,,,,,,,,,,,,,,,,,,,,,,,,,,,,,,,,,,,,,,,,,,,,,,,,,,,,,,,,,,,,,,
1720156367,1,0,4283.717773,4228.846191,4240,4283.333496,4266.922852,4287.307617,4274.102539,4163.974121,4271.282227,4262.179688,4501.794922,4486.282227,4378.846191,4508.461426,,,,,,,,,,,,,,,,,,,,,,,,,,,,,,,,,,,,,,,,,,,,,,,,,,,,,,,,,,,,,,,,,,,,,,
1720156367,2,0,4287.179688,4234.487305,4238.589844,4287.820313,4271.410156,4295.384766,4282.179688,4161.794922,4279.230957,4268.589844,4504.487305,4481.282227,4380.384766,4504.487305,,,,,,,,,,,,,,,,,,,,,,,,,,,,,,,,,,,,,,,,,,,,,,,,,,,,,,,,,,,,,,,,,,,,,,
1720156367,3,0,4286.794922,4233.077148,4228.333496,4286.538574,4275.897461,4294.230957,4278.717773,4162.820313,4278.461426,4263.205078,4501.410156,4481.666504,4383.717773,4501.666504,,,,,,,,,,,,,,,,,,,,,,,,,,,,,,,,,,,,,,,,,,,,,,,,,,,,,,,,,,,,,,,,,,,,,,
1720156367,4,0,4294.615234,4233.589844,4226.282227,4284.871582,4274.743652,4280.641113,4264.230957,4166.153809,4265.769043,4255.384766,4510.769043,4487.94873,4387.179688,4511.666504,,,,,,,,,,,,,,,,,,,,,,,,,,,,,,,,,,,,,,,,,,,,,,,,,,,,,,,,,,,,,,,,,,,,,,
1720156367,5,0,4300.256348,4245,4241.538574,4290.641113,4274.871582,4277.05127,4257.307617,4158.589844,4258.974121,4260,4514.358887,4489.615234,4390.897461,4515.128418,,,,,,,,,,,,,,,,,,,,,,,,,,,,,,,,,,,,,,,,,,,,,,,,,,,,,,,,,,,,,,,,,,,,,,
1720156367,6,0,4297.179688,4247.692383,4249.871582,4293.846191,4276.666504,4277.692383,4261.794922,4163.717773,4256.410156,4260.384766,4506.538574,4496.282227,4392.179688,4512.94873,,,,,,,,,,,,,,,,,,,,,,,,,,,,,,,,,,,,,,,,,,,,,,,,,,,,,,,,,,,,,,,,,,,,,,
1720156367,7,0,4300.641113,4249.102539,4254.102539,4298.461426,4274.615234,4269.102539,4263.846191,4171.025879,4248.205078,4250.641113,4508.974121,4507.307617,4398.333496,4519.358887,,,,,,,,,,,,,,,,,,,,,,,,,,,,,,,,,,,,,,,,,,,,,,,,,,,,,,,,,,,,,,,,,,,,,,
1720156367,8,0,4312.436035,4260.641113,4270.256348,4308.717773,4276.282227,4261.538574,4260.769043,4165.128418,4250.128418,4253.589844,4523.589844,4518.717773,4412.436035,4530,,,,,,,,,,,,,,,,,,,,,,,,,,,,,,,,,,,,,,,,,,,,,,,,,,,,,,,,,,,,,,,,,,,,,,
1720156367,9,0,4318.205078,4265.128418,4282.692383,4313.974121,4279.487305,4264.615234,4265.897461,4169.230957,4263.589844,4266.282227,4537.820313,4531.410156,4420.256348,4537.307617,,,,,,,,,,,,,,,,,,,,,,,,,,,,,,,,,,,,,,,,,,,,,,,,,,,,,,,,,,,,,,,,,,,,,,
1720156367,10,0,4314.743652,4258.589844,4279.871582,4309.358887,4277.179688,4271.410156,4275.897461,4175.769043,4267.179688,4265.512695,4540.256348,4527.820313,4415.641113,4533.717773,,,,,,,,,,,,,,,,,,,,,,,,,,,,,,,,,,,,,,,,,,,,,,,,,,,,,,,,,,,,,,,,,,,,,,
1720156367,11,0,4313.589844,4253.717773,4278.333496,4305.897461,4271.025879,4273.846191,4278.974121,4174.487305,4258.589844,4253.333496,4528.589844,4516.666504,4409.871582,4524.615234,,,,,,,,,,,,,,,,,,,,,,,,,,,,,,,,,,,,,,,,,,,,,,,,,,,,,,,,,,,,,,,,,,,,,,
1720156367,12,0,4319.487305,4253.974121,4278.974121,4307.307617,4270.128418,4275.128418,4280.128418,4177.307617,4255.384766,4246.025879,4519.871582,4516.666504,4405.769043,4521.538574,5.0035,10.423868,1.439828,0.547414,0.104466,3.830848,8.729332,0.878868,0.443331,0.128053,58.414936,6.364396,1.179313,0.810929,0.234652,1.253529,5.852362,0.488222,0.586491,0.067676,6.719388,2.581166,0.634743,0.336117,0.097906,8.041499,3.1892,1.012419,0.414464,0.099134,8.414333,5.99298,1.456497,0.505884,0.130735,436.263123,160.770508,55.054264,12.765607,2.474814,7.757306,13.768357,1.809555,0.711392,0.18612,5.693978,4.671702,1.204639,0.575907,0.168173,13.502955,6.991534,2.284962,0.811646,0.321231,35.35136,15.274666,3.581749,0.99158,0.483324,3.057151,7.17758,0.744197,0.490443,0.228231,4.103637,2.283364,1.697891,1.05271,0.281407
1720156367,13,0,4313.205078,4251.025879,4265.641113,4302.436035,4273.461426,4277.94873,4279.487305,4181.538574,4259.102539,4245.128418,4524.743652,4513.333496,4396.025879,4513.333496,,,,,,,,,,,,,,,,,,,,,,,,,,,,,,,,,,,,,,,,,,,,,,,,,,,,,,,,,,,,,,,,,,,,,,
1720156367,14,0,4294.102539,4240.512695,4253.205078,4288.077148,4271.666504,4279.615234,4274.615234,4182.307617,4259.487305,4247.179688,4520.384766,4499.871582,4387.05127,4498.974121,,,,,,,,,,,,,,,,,,,,,,,,,,,,,,,,,,,,,,,,,,,,,,,,,,,,,,,,,,,,,,,,,,,,,,
1720156367,15,0,4285.641113,4230,4245.384766,4277.820313,4270.512695,4280.128418,4267.436035,4183.717773,4258.846191,4248.846191,4505.641113,4493.333496,4384.743652,4499.871582,,,,,,,,,,,,,,,,,,,,,,,,,,,,,,,,,,,,,,,,,,,,,,,,,,,,,,,,,,,,,,,,,,,,,,
1720156367,16,0,4281.666504,4230.769043,4233.589844,4277.692383,4272.563965,4279.743652,4251.538574,4176.538574,4260.128418,4251.538574,4505.128418,4492.436035,4387.05127,4502.179688,,,,,,,,,,,,,,,,,,,,,,,,,,,,,,,,,,,,,,,,,,,,,,,,,,,,,,,,,,,,,,,,,,,,,,
1720156367,17,0,4280,4239.871582,4232.692383,4282.307617,4271.410156,4278.333496,4232.563965,4175.897461,4259.358887,4258.589844,4511.282227,4493.974121,4395.384766,4501.666504,,,,,,,,,,,,,,,,,,,,,,,,,,,,,,,,,,,,,,,,,,,,,,,,,,,,,,,,,,,,,,,,,,,,,,
1720156367,18,0,4289.358887,4245.641113,4245,4285.128418,4273.205078,4275.769043,4228.974121,4185.641113,4258.077148,4260.384766,4513.589844,4497.05127,4399.743652,4508.333496,,,,,,,,,,,,,,,,,,,,,,,,,,,,,,,,,,,,,,,,,,,,,,,,,,,,,,,,,,,,,,,,,,,,,,
1720156367,19,0,4291.538574,4249.230957,4249.102539,4285.897461,4277.94873,4270.769043,4233.461426,4177.692383,4256.538574,4253.974121,4520.384766,4492.436035,4395.384766,4507.820313,,,,,,,,,,,,,,,,,,,,,,,,,,,,,,,,,,,,,,,,,,,,,,,,,,,,,,,,,,,,,,,,,,,,,,
1720156367,20,0,4287.563965,4251.666504,4248.205078,4284.615234,4272.307617,4264.871582,4228.461426,4176.282227,4255.256348,4253.974121,4525.769043,4495.769043,4396.922852,4511.025879,,,,,,,,,,,,,,,,,,,,,,,,,,,,,,,,,,,,,,,,,,,,,,,,,,,,,,,,,,,,,,,,,,,,,,
1720156367,21,0,4293.077148,4247.05127,4257.05127,4283.974121,4265,4267.436035,4232.179688,4188.077148,4258.461426,4262.05127,4521.666504,4507.692383,4410.256348,4518.333496,,,,,,,,,,,,,,,,,,,,,,,,,,,,,,,,,,,,,,,,,,,,,,,,,,,,,,,,,,,,,,,,,,,,,,
1720156367,22,0,4296.410156,4239.743652,4260.769043,4280.256348,4268.974121,4270.641113,4251.282227,4188.974121,4261.025879,4260.384766,4521.922852,4509.358887,4418.077148,4512.94873,,,,,,,,,,,,,,,,,,,,,,,,,,,,,,,,,,,,,,,,,,,,,,,,,,,,,,,,,,,,,,,,,,,,,,
1720156367,23,0,4289.615234,4240.128418,4255,4276.538574,4268.333496,4264.871582,4255.897461,4188.846191,4257.179688,4248.461426,4526.025879,4503.333496,4410.256348,4504.358887,,,,,,,,,,,,,,,,,,,,,,,,,,,,,,,,,,,,,,,,,,,,,,,,,,,,,,,,,,,,,,,,,,,,,,
1720156367,24,0,4285.256348,4247.820313,4257.436035,4279.871582,4266.666504,4269.230957,4250.384766,4190.128418,4261.922852,4247.820313,4521.153809,4496.922852,4403.461426,4500.128418,,,,,,,,,,,,,,,,,,,,,,,,,,,,,,,,,,,,,,,,,,,,,,,,,,,,,,,,,,,,,,,,,,,,,,
1720156367,25,0,4291.025879,4249.102539,4264.743652,4282.563965,4271.922852,4280.128418,4254.743652,4191.025879,4264.230957,4252.692383,4519.487305,4500.769043,4404.487305,4505.384766,,,,,,,,,,,,,,,,,,,,,,,,,,,,,,,,,,,,,,,,,,,,,,,,,,,,,,,,,,,,,,,,,,,,,,
1720156367,26,0,4293.717773,4245,4265.128418,4280.256348,4275.128418,4281.922852,4258.333496,4195.897461,4254.871582,4249.743652,4523.461426,4506.025879,4399.615234,4509.487305,,,,,,,,,,,,,,,,,,,,,,,,,,,,,,,,,,,,,,,,,,,,,,,,,,,,,,,,,,,,,,,,,,,,,,
1720156367,27,0,4284.487305,4247.820313,4258.461426,4281.794922,4278.205078,4286.025879,4252.179688,4195,4254.358887,4244.743652,4515.897461,4498.205078,4389.358887,4501.410156,,,,,,,,,,,,,,,,,,,,,,,,,,,,,,,,,,,,,,,,,,,,,,,,,,,,,,,,,,,,,,,,,,,,,,
1720156367,28,0,4275.384766,4253.846191,4257.179688,4292.179688,4284.230957,4291.538574,4250,4189.102539,4252.820313,4241.922852,4508.589844,4495.769043,4392.692383,4501.025879,3.831396,9.074769,1.183911,0.448523,0.104293,2.599229,7.275175,0.760509,0.351998,0.125288,50.519058,5.124538,1.008035,0.775521,0.229554,0.823184,4.377185,0.373554,0.407638,0.059458,4.686499,1.951084,0.498693,0.257936,0.093425,5.721884,2.639215,0.795183,0.310637,0.090301,5.945527,5.810195,1.135898,0.417167,0.11469,298.180115,107.53244,36.942535,8.700197,1.703717,5.777992,12.944798,1.376429,0.570209,0.178009,4.240477,4.13962,1.023416,0.467224,0.16263,9.797432,6.513699,1.781282,0.690333,0.323379,24.808186,11.896912,2.649259,0.843171,0.465742,2.132349,7.392853,0.821426,0.455391,0.222585,3.755202,2.471546,1.425723,0.896461,0.293433
1720156367,29,0,4274.102539,4253.589844,4262.692383,4296.282227,4285.769043,4285.641113,4250.384766,4194.615234,4243.846191,4242.94873,4515.897461,4510,4408.333496,4512.05127,,,,,,,,,,,,,,,,,,,,,,,,,,,,,,,,,,,,,,,,,,,,,,,,,,,,,,,,,,,,,,,,,,,,,,
1720156367,30,0,4268.589844,4248.077148,4261.666504,4284.358887,4282.179688,4279.102539,4245.641113,4197.692383,4253.717773,4251.666504,4524.358887,4518.589844,4416.025879,4512.179688,,,,,,,,,,,,,,,,,,,,,,,,,,,,,,,,,,,,,,,,,,,,,,,,,,,,,,,,,,,,,,,,,,,,,,
1720156367,31,0,4259.487305,4245.897461,4248.846191,4276.922852,4277.436035,4282.94873,4244.871582,4195.769043,4266.282227,4258.717773,4525.512695,4514.230957,4411.153809,4506.666504,,,,,,,,,,,,,,,,,,,,,,,,,,,,,,,,,,,,,,,,,,,,,,,,,,,,,,,,,,,,,,,,,,,,,,
1720156367,32,0,4257.436035,4246.025879,4244.358887,4279.358887,4271.025879,4281.282227,4244.230957,4201.922852,4254.743652,4253.589844,4523.205078,4511.153809,4404.743652,4506.025879,,,,,,,,,,,,,,,,,,,,,,,,,,,,,,,,,,,,,,,,,,,,,,,,,,,,,,,,,,,,,,,,,,,,,,
1720156367,33,0,4262.179688,4247.436035,4257.563965,4281.538574,4271.794922,4274.230957,4241.025879,4201.538574,4248.205078,4252.563965,4522.436035,4506.666504,4405.384766,4501.410156,,,,,,,,,,,,,,,,,,,,,,,,,,,,,,,,,,,,,,,,,,,,,,,,,,,,,,,,,,,,,,,,,,,,,,
1720156367,34,0,4265.769043,4250.769043,4264.871582,4281.282227,4275.512695,4273.589844,4242.307617,4201.153809,4256.794922,4261.282227,4529.102539,4503.846191,4407.563965,4497.436035,,,,,,,,,,,,,,,,,,,,,,,,,,,,,,,,,,,,,,,,,,,,,,,,,,,,,,,,,,,,,,,,,,,,,,
1720156367,35,0,4261.794922,4248.461426,4260,4277.94873,4268.077148,4273.717773,4246.153809,4206.538574,4259.743652,4264.871582,4534.743652,4503.717773,4406.410156,4501.794922,,,,,,,,,,,,,,,,,,,,,,,,,,,,,,,,,,,,,,,,,,,,,,,,,,,,,,,,,,,,,,,,,,,,,,
1720156367,36,0,4260.256348,4245.128418,4265.897461,4278.974121,4261.025879,4273.717773,4254.871582,4208.717773,4265.897461,4265.128418,4527.05127,4505.512695,4407.436035,4508.077148,,,,,,,,,,,,,,,,,,,,,,,,,,,,,,,,,,,,,,,,,,,,,,,,,,,,,,,,,,,,,,,,,,,,,,
1720156367,37,0,4263.846191,4250,4277.563965,4285.512695,4263.333496,4274.358887,4262.94873,4210.256348,4275.769043,4266.153809,4521.794922,4516.666504,4414.615234,4511.794922,,,,,,,,,,,,,,,,,,,,,,,,,,,,,,,,,,,,,,,,,,,,,,,,,,,,,,,,,,,,,,,,,,,,,,
1720156367,38,0,4263.974121,4254.358887,4276.922852,4285.128418,4268.205078,4274.358887,4257.94873,4208.717773,4268.846191,4266.794922,4528.205078,4518.974121,4413.717773,4509.487305,,,,,,,,,,,,,,,,,,,,,,,,,,,,,,,,,,,,,,,,,,,,,,,,,,,,,,,,,,,,,,,,,,,,,,
1720156367,39,0,4256.025879,4249.871582,4270.641113,4280.769043,4269.743652,4274.871582,4245,4207.436035,4257.820313,4261.153809,4522.820313,4505.256348,4397.05127,4500,,,,,,,,,,,,,,,,,,,,,,,,,,,,,,,,,,,,,,,,,,,,,,,,,,,,,,,,,,,,,,,,,,,,,,
1720156367,40,0,4243.205078,4244.871582,4265.641113,4280.897461,4269.487305,4276.025879,4243.333496,4211.666504,4259.871582,4252.436035,4508.205078,4500.769043,4387.563965,4494.743652,,,,,,,,,,,,,,,,,,,,,,,,,,,,,,,,,,,,,,,,,,,,,,,,,,,,,,,,,,,,,,,,,,,,,,
1720156367,41,0,4236.410156,4245.128418,4264.230957,4281.794922,4273.461426,4279.871582,4249.871582,4210.769043,4263.974121,4249.358887,4513.205078,4509.487305,4396.282227,4497.820313,,,,,,,,,,,,,,,,,,,,,,,,,,,,,,,,,,,,,,,,,,,,,,,,,,,,,,,,,,,,,,,,,,,,,,
1720156367,42,0,4235.769043,4241.410156,4264.743652,4280.769043,4277.692383,4281.666504,4243.974121,4206.410156,4260.384766,4253.333496,4524.230957,4508.589844,4399.615234,4496.922852,,,,,,,,,,,,,,,,,,,,,,,,,,,,,,,,,,,,,,,,,,,,,,,,,,,,,,,,,,,,,,,,,,,,,,
1720156367,43,0,4232.436035,4236.922852,4257.820313,4280.384766,4274.743652,4279.102539,4232.820313,4211.794922,4251.153809,4250,4516.922852,4499.487305,4388.974121,4491.025879,,,,,,,,,,,,,,,,,,,,,,,,,,,,,,,,,,,,,,,,,,,,,,,,,,,,,,,,,,,,,,,,,,,,,,
1720156367,44,0,4225.256348,4238.589844,4248.846191,4279.102539,4274.487305,4280.512695,4231.025879,4210.128418,4245.641113,4244.102539,4503.974121,4493.717773,4386.538574,4482.820313,2.924985,7.65235,0.983812,0.388266,0.105153,1.664743,5.835585,0.716503,0.297976,0.117896,39.175072,4.113343,0.83675,0.753787,0.219613,0.551259,3.219363,0.30589,0.286813,0.056806,2.835382,1.352173,0.383017,0.1924,0.087809,3.529383,2.276225,0.566194,0.226142,0.083423,3.761078,5.525079,0.783427,0.342653,0.101788,164.851822,57.988251,19.981863,4.799853,0.985529,4.047354,12.073606,0.990057,0.495844,0.17454,3.058507,3.781002,0.947287,0.399948,0.161896,6.305924,6.777399,1.61224,0.602785,0.34468,14.891324,9.513219,1.924687,0.737551,0.45823,1.575044,8.091111,1.083062,0.477339,0.220369,3.309565,2.878139,1.170927,0.75236,0.302884
1720156367,45,0,4225.384766,4237.307617,4247.179688,4277.563965,4278.717773,4283.589844,4232.692383,4205.256348,4246.538574,4244.871582,4505.641113,4490.384766,4395.128418,4481.538574,,,,,,,,,,,,,,,,,,,,,,,,,,,,,,,,,,,,,,,,,,,,,,,,,,,,,,,,,,,,,,,,,,,,,,
1720156367,46,0,4233.717773,4231.282227,4249.615234,4276.666504,4270.641113,4277.05127,4231.666504,4216.282227,4253.205078,4246.282227,4514.102539,4498.717773,4397.307617,4489.230957,,,,,,,,,,,,,,,,,,,,,,,,,,,,,,,,,,,,,,,,,,,,,,,,,,,,,,,,,,,,,,,,,,,,,,
1720156367,47,0,4237.05127,4234.487305,4254.358887,4275.512695,4263.333496,4276.794922,4233.717773,4218.461426,4268.974121,4255.512695,4521.666504,4505.128418,4397.692383,4481.666504,,,,,,,,,,,,,,,,,,,,,,,,,,,,,,,,,,,,,,,,,,,,,,,,,,,,,,,,,,,,,,,,,,,,,,
1720156367,48,0,4234.230957,4239.230957,4254.743652,4276.025879,4263.077148,4280.256348,4235.641113,4219.743652,4284.230957,4266.282227,4523.974121,4499.743652,4396.153809,4468.333496,,,,,,,,,,,,,,,,,,,,,,,,,,,,,,,,,,,,,,,,,,,,,,,,,,,,,,,,,,,,,,,,,,,,,,
1720156367,49,0,4230.256348,4235.512695,4248.205078,4276.282227,4259.230957,4269.102539,4230.384766,4226.410156,4287.179688,4264.871582,4519.743652,4499.743652,4396.282227,4472.307617,,,,,,,,,,,,,,,,,,,,,,,,,,,,,,,,,,,,,,,,,,,,,,,,,,,,,,,,,,,,,,,,,,,,,,
1720156367,50,0,4231.666504,4238.333496,4253.846191,4278.589844,4260.512695,4259.487305,4229.102539,4223.333496,4285.769043,4265.641113,4529.743652,4511.282227,4408.077148,4485.256348,,,,,,,,,,,,,,,,,,,,,,,,,,,,,,,,,,,,,,,,,,,,,,,,,,,,,,,,,,,,,,,,,,,,,,
1720156367,51,0,4241.282227,4248.717773,4273.974121,4283.589844,4266.410156,4266.153809,4229.358887,4224.230957,4284.743652,4270.512695,4547.179688,4514.230957,4408.333496,4492.179688,,,,,,,,,,,,,,,,,,,,,,,,,,,,,,,,,,,,,,,,,,,,,,,,,,,,,,,,,,,,,,,,,,,,,,
1720156367,52,0,4240.641113,4250.897461,4280.384766,4284.487305,4268.589844,4277.692383,4221.922852,4223.589844,4273.974121,4264.743652,4534.230957,4493.974121,4387.307617,4478.717773,,,,,,,,,,,,,,,,,,,,,,,,,,,,,,,,,,,,,,,,,,,,,,,,,,,,,,,,,,,,,,,,,,,,,,
1720156367,53,0,4229.358887,4242.692383,4269.358887,4279.487305,4266.666504,4281.666504,4214.871582,4218.461426,4255.256348,4249.615234,4506.025879,4478.717773,4382.179688,4465.128418,,,,,,,,,,,,,,,,,,,,,,,,,,,,,,,,,,,,,,,,,,,,,,,,,,,,,,,,,,,,,,,,,,,,,,
1720156367,54,0,4236.410156,4241.922852,4263.333496,4276.538574,4264.615234,4278.974121,4214.487305,4219.102539,4244.358887,4242.563965,4502.94873,4485.256348,4395.384766,4475.897461,,,,,,,,,,,,,,,,,,,,,,,,,,,,,,,,,,,,,,,,,,,,,,,,,,,,,,,,,,,,,,,,,,,,,,
1720156367,55,0,4250.769043,4244.615234,4266.025879,4280.641113,4266.153809,4276.794922,4216.666504,4219.487305,4245.641113,4245.641113,4512.563965,4491.282227,4393.974121,4483.077148,,,,,,,,,,,,,,,,,,,,,,,,,,,,,,,,,,,,,,,,,,,,,,,,,,,,,,,,,,,,,,,,,,,,,,
1720156367,56,0,4247.05127,4236.666504,4267.179688,4278.077148,4264.743652,4279.871582,4215.897461,4217.436035,4248.333496,4247.179688,4516.025879,4489.487305,4388.846191,4477.179688,,,,,,,,,,,,,,,,,,,,,,,,,,,,,,,,,,,,,,,,,,,,,,,,,,,,,,,,,,,,,,,,,,,,,,
1720156367,57,0,4235.512695,4228.461426,4264.230957,4266.794922,4257.94873,4277.820313,4212.436035,4223.461426,4246.282227,4244.487305,4524.358887,4489.102539,4393.461426,4474.102539,,,,,,,,,,,,,,,,,,,,,,,,,,,,,,,,,,,,,,,,,,,,,,,,,,,,,,,,,,,,,,,,,,,,,,
1720156367,58,0,4230.897461,4230.897461,4259.230957,4261.922852,4251.282227,4271.282227,4211.538574,4226.410156,4253.205078,4249.615234,4526.025879,4488.461426,4393.846191,4469.230957,,,,,,,,,,,,,,,,,,,,,,,,,,,,,,,,,,,,,,,,,,,,,,,,,,,,,,,,,,,,,,,,,,,,,,
1720156367,59,0,4230.897461,4231.410156,4249.615234,4263.589844,4248.717773,4271.282227,4217.179688,4222.05127,4268.333496,4257.05127,4513.205078,4486.153809,4390.384766,4461.666504,,,,,,,,,,,,,,,,,,,,,,,,,,,,,,,,,,,,,,,,,,,,,,,,,,,,,,,,,,,,,,,,,,,,,,
1720156367,60,0,4229.487305,4223.589844,4247.563965,4262.563965,4246.666504,4271.153809,4217.179688,4227.307617,4274.230957,4254.102539,4510.128418,4483.333496,4384.743652,4459.487305,2.517004,6.594004,0.896504,0.370714,0.108105,1.284467,4.769289,0.747029,0.289935,0.107415,27.297171,3.656771,0.702885,0.751999,0.206622,0.492286,2.52112,0.304889,0.236609,0.059794,1.564046,0.923902,0.313385,0.153717,0.081481,1.957218,2.191399,0.389046,0.173924,0.08065,2.407037,5.291794,0.498527,0.300694,0.094524,68.767464,23.375193,8.055902,2.000715,0.483794,3.052905,11.492891,0.774905,0.502802,0.174611,2.453023,3.714731,1.004457,0.385053,0.165479,3.875533,7.565977,1.761957,0.566004,0.374538,7.950589,8.571418,1.558213,0.696612,0.458968,1.481439,9.027526,1.465205,0.547958,0.219325,2.860892,3.358195,1.002317,0.648243,0.305233
1720156368,61,0,4226.025879,4226.025879,4255.897461,4261.922852,4250.256348,4265.769043,4207.436035,4231.153809,4267.94873,4248.846191,4520.256348,4475.128418,4380.641113,4456.025879,,,,,,,,,,,,,,,,,,,,,,,,,,,,,,,,,,,,,,,,,,,,,,,,,,,,,,,,,,,,,,,,,,,,,,
1720156368,62,0,4224.871582,4231.922852,4259.615234,4263.333496,4252.94873,4257.05127,4202.436035,4230.128418,4264.743652,4249.487305,4522.94873,4475.641113,4387.307617,4453.205078,,,,,,,,,,,,,,,,,,,,,,,,,,,,,,,,,,,,,,,,,,,,,,,,,,,,,,,,,,,,,,,,,,,,,,
1720156368,63,0,4229.230957,4233.974121,4262.179688,4267.179688,4249.358887,4254.487305,4205.512695,4232.94873,4262.436035,4249.871582,4514.871582,4486.282227,4392.307617,4459.871582,,,,,,,,,,,,,,,,,,,,,,,,,,,,,,,,,,,,,,,,,,,,,,,,,,,,,,,,,,,,,,,,,,,,,,
1720156368,64,0,4234.871582,4238.333496,4263.205078,4270.128418,4252.307617,4262.179688,4207.94873,4233.461426,4252.436035,4247.05127,4508.846191,4482.563965,4382.820313,4463.077148,,,,,,,,,,,,,,,,,,,,,,,,,,,,,,,,,,,,,,,,,,,,,,,,,,,,,,,,,,,,,,,,,,,,,,
1720156368,65,0,4236.538574,4240,4258.461426,4267.94873,4256.922852,4267.05127,4205.512695,4232.692383,4243.333496,4240.769043,4507.94873,4473.589844,4377.692383,4457.94873,,,,,,,,,,,,,,,,,,,,,,,,,,,,,,,,,,,,,,,,,,,,,,,,,,,,,,,,,,,,,,,,,,,,,,
1720156368,66,0,4234.358887,4240.769043,4260.641113,4269.743652,4257.692383,4267.820313,4202.436035,4228.205078,4237.94873,4234.230957,4508.974121,4479.487305,4383.461426,4458.077148,,,,,,,,,,,,,,,,,,,,,,,,,,,,,,,,,,,,,,,,,,,,,,,,,,,,,,,,,,,,,,,,,,,,,,
1720156368,67,0,4229.871582,4240.128418,4262.436035,4274.358887,4258.589844,4268.461426,4202.436035,4224.615234,4228.205078,4231.666504,4508.717773,4483.589844,4383.846191,4456.538574,,,,,,,,,,,,,,,,,,,,,,,,,,,,,,,,,,,,,,,,,,,,,,,,,,,,,,,,,,,,,,,,,,,,,,
1720156368,68,0,4227.179688,4235.128418,4251.794922,4269.230957,4256.282227,4268.717773,4204.615234,4229.615234,4223.589844,4230.769043,4506.410156,4476.538574,4379.615234,4448.461426,,,,,,,,,,,,,,,,,,,,,,,,,,,,,,,,,,,,,,,,,,,,,,,,,,,,,,,,,,,,,,,,,,,,,,
1720156368,69,0,4223.974121,4229.743652,4245.897461,4262.436035,4248.717773,4270.897461,4208.589844,4234.358887,4235.128418,4232.820313,4508.205078,4470.769043,4379.230957,4447.692383,,,,,,,,,,,,,,,,,,,,,,,,,,,,,,,,,,,,,,,,,,,,,,,,,,,,,,,,,,,,,,,,,,,,,,
1720156368,70,0,4214.102539,4228.974121,4245.128418,4263.717773,4246.538574,4274.102539,4213.461426,4231.666504,4248.461426,4240.256348,4512.307617,4467.692383,4382.563965,4450.897461,,,,,,,,,,,,,,,,,,,,,,,,,,,,,,,,,,,,,,,,,,,,,,,,,,,,,,,,,,,,,,,,,,,,,,
1720156368,71,0,4213.205078,4228.333496,4236.922852,4265.512695,4247.820313,4268.077148,4215.897461,4238.717773,4252.179688,4245.384766,4515.128418,4473.846191,4386.538574,4456.025879,,,,,,,,,,,,,,,,,,,,,,,,,,,,,,,,,,,,,,,,,,,,,,,,,,,,,,,,,,,,,,,,,,,,,,
1720156368,72,0,4227.820313,4228.461426,4241.666504,4263.717773,4245,4260,4215.256348,4246.025879,4259.102539,4248.205078,4520.256348,4488.205078,4387.94873,4463.717773,,,,,,,,,,,,,,,,,,,,,,,,,,,,,,,,,,,,,,,,,,,,,,,,,,,,,,,,,,,,,,,,,,,,,,
1720156368,73,0,4235.641113,4233.461426,4261.025879,4264.230957,4243.589844,4259.743652,4217.05127,4240.128418,4269.230957,4250.512695,4526.025879,4490.384766,4388.717773,4460,,,,,,,,,,,,,,,,,,,,,,,,,,,,,,,,,,,,,,,,,,,,,,,,,,,,,,,,,,,,,,,,,,,,,,
1720156368,74,0,4235.769043,4234.743652,4265.384766,4268.077148,4241.538574,4255.641113,4216.794922,4245,4269.615234,4250.641113,4524.871582,4490.256348,4393.077148,4458.077148,,,,,,,,,,,,,,,,,,,,,,,,,,,,,,,,,,,,,,,,,,,,,,,,,,,,,,,,,,,,,,,,,,,,,,
1720156368,75,0,4237.179688,4236.410156,4260.897461,4271.922852,4245.512695,4256.538574,4214.615234,4247.563965,4267.179688,4254.615234,4523.205078,4499.358887,4399.358887,4466.794922,,,,,,,,,,,,,,,,,,,,,,,,,,,,,,,,,,,,,,,,,,,,,,,,,,,,,,,,,,,,,,,,,,,,,,
1720156368,76,0,4234.230957,4236.153809,4260.769043,4265.769043,4251.410156,4265.256348,4216.794922,4241.410156,4264.230957,4256.794922,4526.538574,4502.692383,4395.769043,4469.743652,2.542878,6.027471,0.924216,0.378766,0.114855,1.324353,4.201264,0.815888,0.311517,0.096799,17.35693,3.926494,0.632176,0.757809,0.194284,0.614837,2.239373,0.362476,0.235777,0.067644,0.915723,0.723839,0.285049,0.139671,0.075076,1.108483,2.392082,0.282258,0.149212,0.082375,1.977125,5.252065,0.328221,0.290249,0.094521,18.578928,6.102763,2.033031,0.559955,0.232464,2.861713,11.400997,0.764831,0.569054,0.175647,2.423801,3.896063,1.137099,0.409395,0.170823,2.720042,8.343302,2.055242,0.572634,0.398332,4.632524,8.705002,1.508317,0.700732,0.456806,1.731244,9.771486,1.835372,0.638112,0.216921,2.472394,3.782504,0.936173,0.584693,0.297067
1720156368,77,0,4231.794922,4231.025879,4257.436035,4260.769043,4246.410156,4265.128418,4213.974121,4241.410156,4249.487305,4244.743652,4518.974121,4489.743652,4384.358887,4463.846191,,,,,,,,,,,,,,,,,,,,,,,,,,,,,,,,,,,,,,,,,,,,,,,,,,,,,,,,,,,,,,,,,,,,,,
1720156368,78,0,4235.512695,4236.410156,4255.512695,4273.461426,4245.512695,4262.94873,4203.589844,4236.410156,4234.230957,4231.410156,4510.128418,4478.589844,4383.974121,4464.487305,,,,,,,,,,,,,,,,,,,,,,,,,,,,,,,,,,,,,,,,,,,,,,,,,,,,,,,,,,,,,,,,,,,,,,
1720156368,79,0,4241.794922,4241.666504,4261.153809,4277.692383,4250.384766,4264.230957,4198.589844,4236.282227,4227.436035,4231.794922,4518.589844,4487.179688,4388.846191,4478.461426,,,,,,,,,,,,,,,,,,,,,,,,,,,,,,,,,,,,,,,,,,,,,,,,,,,,,,,,,,,,,,,,,,,,,,
1720156368,80,0,4242.05127,4236.282227,4262.692383,4266.153809,4250.128418,4264.487305,4205.641113,4242.307617,4228.717773,4235.256348,4523.717773,4490.897461,4383.846191,4483.461426,,,,,,,,,,,,,,,,,,,,,,,,,,,,,,,,,,,,,,,,,,,,,,,,,,,,,,,,,,,,,,,,,,,,,,
1720156368,81,0,4236.666504,4237.563965,4260.512695,4268.077148,4248.846191,4266.922852,4215.641113,4245.641113,4240.128418,4236.025879,4520.512695,4484.871582,4383.461426,4477.307617,,,,,,,,,,,,,,,,,,,,,,,,,,,,,,,,,,,,,,,,,,,,,,,,,,,,,,,,,,,,,,,,,,,,,,
1720156368,82,0,4238.077148,4248.205078,4267.820313,4279.743652,4249.358887,4269.102539,4214.230957,4247.307617,4248.077148,4240.769043,4525.512695,4492.179688,4393.333496,4478.077148,,,,,,,,,,,,,,,,,,,,,,,,,,,,,,,,,,,,,,,,,,,,,,,,,,,,,,,,,,,,,,,,,,,,,,
1720156368,83,0,4245.641113,4252.436035,4278.205078,4282.436035,4249.487305,4267.94873,4206.153809,4247.563965,4248.974121,4243.974121,4527.05127,4499.102539,4394.358887,4477.94873,,,,,,,,,,,,,,,,,,,,,,,,,,,,,,,,,,,,,,,,,,,,,,,,,,,,,,,,,,,,,,,,,,,,,,
1720156368,84,0,4249.358887,4250.128418,4285.384766,4284.230957,4250.512695,4265.384766,4205.769043,4251.410156,4258.589844,4249.615234,4519.230957,4501.025879,4391.666504,4478.717773,,,,,,,,,,,,,,,,,,,,,,,,,,,,,,,,,,,,,,,,,,,,,,,,,,,,,,,,,,,,,,,,,,,,,,
1720156368,85,0,4247.436035,4249.743652,4285.897461,4286.794922,4249.358887,4260.769043,4206.922852,4261.666504,4269.743652,4259.615234,4523.077148,4509.871582,4398.205078,4483.205078,,,,,,,,,,,,,,,,,,,,,,,,,,,,,,,,,,,,,,,,,,,,,,,,,,,,,,,,,,,,,,,,,,,,,,
1720156368,86,0,4245.897461,4250.512695,4282.94873,4282.820313,4247.307617,4258.205078,4202.563965,4261.025879,4263.846191,4258.974121,4530.897461,4509.743652,4402.307617,4466.025879,,,,,,,,,,,,,,,,,,,,,,,,,,,,,,,,,,,,,,,,,,,,,,,,,,,,,,,,,,,,,,,,,,,,,,
1720156368,87,0,4246.666504,4250.384766,4286.153809,4281.666504,4251.025879,4262.820313,4201.922852,4249.871582,4251.282227,4247.307617,4525.641113,4499.743652,4390.769043,4435,,,,,,,,,,,,,,,,,,,,,,,,,,,,,,,,,,,,,,,,,,,,,,,,,,,,,,,,,,,,,,,,,,,,,,
1720156368,88,0,4245.897461,4246.794922,4288.461426,4281.282227,4250.641113,4264.230957,4202.563965,4254.871582,4242.563965,4240.769043,4521.025879,4500.256348,4379.358887,4427.820313,,,,,,,,,,,,,,,,,,,,,,,,,,,,,,,,,,,,,,,,,,,,,,,,,,,,,,,,,,,,,,,,,,,,,,
1720156368,89,0,4248.077148,4247.179688,4281.794922,4280.384766,4249.358887,4264.230957,4202.692383,4256.538574,4238.717773,4242.179688,4523.077148,4502.94873,4386.922852,4435.512695,,,,,,,,,,,,,,,,,,,,,,,,,,,,,,,,,,,,,,,,,,,,,,,,,,,,,,,,,,,,,,,,,,,,,,
1720156368,90,0,4245.512695,4252.563965,4269.871582,4281.282227,4253.333496,4267.94873,4203.077148,4247.307617,4231.538574,4234.230957,4516.538574,4495.384766,4387.820313,4429.102539,,,,,,,,,,,,,,,,,,,,,,,,,,,,,,,,,,,,,,,,,,,,,,,,,,,,,,,,,,,,,,,,,,,,,,
1720156368,91,0,4221.794922,4237.563965,4249.102539,4266.410156,4245.384766,4263.589844,4192.563965,4243.333496,4208.846191,4211.410156,4489.743652,4472.307617,4356.025879,4408.077148,,,,,,,,,,,,,,,,,,,,,,,,,,,,,,,,,,,,,,,,,,,,,,,,,,,,,,,,,,,,,,,,,,,,,,
1720156368,92,0,4198.205078,4214.102539,4222.563965,4248.974121,4230.641113,4256.794922,4180.769043,4241.794922,4198.717773,4199.230957,4467.05127,4442.692383,4325.769043,4393.077148,2.760721,5.777889,1.02369,0.383954,0.126005,1.565339,3.999509,0.868887,0.333817,0.089384,10.659444,4.816839,0.611097,0.748572,0.186616,0.820859,2.21721,0.447551,0.248173,0.078381,0.703518,0.711695,0.276491,0.137024,0.069239,0.789923,2.781271,0.229633,0.138216,0.087328,2.188777,5.411734,0.257767,0.293135,0.101611,2.744119,0.957656,0.210971,0.111076,0.154258,3.105037,11.726913,0.919087,0.647611,0.175501,2.693363,4.158625,1.246554,0.443477,0.175083,2.458989,8.551286,2.265426,0.598379,0.40648,3.834524,9.068865,1.591228,0.706382,0.440846,2.078154,9.896904,2.044302,0.71001,0.213776,2.160936,4.041883,0.927396,0.541683,0.27947
1720156368,93,0,4202.820313,4213.589844,4223.589844,4254.230957,4228.333496,4257.436035,4187.179688,4247.563965,4219.230957,4214.615234,4481.025879,4444.615234,4337.563965,4400.897461,,,,,,,,,,,,,,,,,,,,,,,,,,,,,,,,,,,,,,,,,,,,,,,,,,,,,,,,,,,,,,,,,,,,,,
1720156368,94,0,4226.025879,4232.307617,4252.692383,4270.256348,4238.974121,4263.077148,4200.384766,4254.358887,4242.94873,4239.743652,4509.230957,4472.692383,4370.128418,4425.512695,,,,,,,,,,,,,,,,,,,,,,,,,,,,,,,,,,,,,,,,,,,,,,,,,,,,,,,,,,,,,,,,,,,,,,
1720156368,95,0,4238.717773,4244.615234,4266.666504,4278.333496,4244.871582,4265.769043,4202.179688,4256.410156,4256.025879,4256.282227,4527.94873,4488.205078,4385,4442.820313,,,,,,,,,,,,,,,,,,,,,,,,,,,,,,,,,,,,,,,,,,,,,,,,,,,,,,,,,,,,,,,,,,,,,,
1720156368,96,0,4234.615234,4244.743652,4258.974121,4280,4240.769043,4256.794922,4198.846191,4260,4267.05127,4265.384766,4537.563965,4491.025879,4385.769043,4441.922852,,,,,,,,,,,,,,,,,,,,,,,,,,,,,,,,,,,,,,,,,,,,,,,,,,,,,,,,,,,,,,,,,,,,,,
1720156368,97,0,4235.384766,4252.436035,4261.282227,4284.615234,4241.410156,4251.153809,4197.94873,4261.538574,4270.512695,4265.128418,4532.94873,4491.410156,4393.461426,4442.563965,,,,,,,,,,,,,,,,,,,,,,,,,,,,,,,,,,,,,,,,,,,,,,,,,,,,,,,,,,,,,,,,,,,,,,
1720156368,98,0,4243.846191,4261.666504,4275.512695,4289.102539,4244.487305,4255.897461,4194.487305,4259.871582,4262.692383,4260.384766,4525.128418,4488.717773,4403.589844,4449.487305,,,,,,,,,,,,,,,,,,,,,,,,,,,,,,,,,,,,,,,,,,,,,,,,,,,,,,,,,,,,,,,,,,,,,,
1720156368,99,0,4241.153809,4253.974121,4274.230957,4285.256348,4241.538574,4255.769043,4192.820313,4268.333496,4255.512695,4257.563965,4523.589844,4490.256348,4395,4445.256348,,,,,,,,,,,,,,,,,,,,,,,,,,,,,,,,,,,,,,,,,,,,,,,,,,,,,,,,,,,,,,,,,,,,,,
1720156368,100,0,4230.512695,4241.410156,4261.922852,4277.05127,4238.077148,4252.563965,4195.641113,4269.871582,4247.436035,4251.282227,4524.230957,4492.820313,4381.538574,4434.487305,,,,,,,,,,,,,,,,,,,,,,,,,,,,,,,,,,,,,,,,,,,,,,,,,,,,,,,,,,,,,,,,,,,,,,
1720156368,101,0,4232.820313,4245.256348,4263.717773,4277.94873,4239.743652,4262.307617,4200.512695,4257.307617,4239.487305,4246.282227,4532.563965,4491.794922,4386.794922,4433.717773,,,,,,,,,,,,,,,,,,,,,,,,,,,,,,,,,,,,,,,,,,,,,,,,,,,,,,,,,,,,,,,,,,,,,,
1720156368,102,0,4241.282227,4249.743652,4269.871582,4279.615234,4237.692383,4266.025879,4207.05127,4263.461426,4232.307617,4245.769043,4530.512695,4492.563965,4393.589844,4441.538574,,,,,,,,,,,,,,,,,,,,,,,,,,,,,,,,,,,,,,,,,,,,,,,,,,,,,,,,,,,,,,,,,,,,,,
1720156368,103,0,4233.974121,4241.794922,4263.205078,4277.179688,4233.077148,4259.358887,4216.153809,4269.615234,4226.282227,4243.077148,4508.333496,4487.05127,4385.641113,4436.922852,,,,,,,,,,,,,,,,,,,,,,,,,,,,,,,,,,,,,,,,,,,,,,,,,,,,,,,,,,,,,,,,,,,,,,
1720156368,104,0,4223.205078,4239.871582,4258.205078,4278.717773,4233.461426,4265.128418,4226.666504,4261.922852,4231.922852,4242.05127,4508.333496,4485.256348,4378.717773,4429.615234,,,,,,,,,,,,,,,,,,,,,,,,,,,,,,,,,,,,,,,,,,,,,,,,,,,,,,,,,,,,,,,,,,,,,,
1720156368,105,0,4228.333496,4246.538574,4265.769043,4281.025879,4239.615234,4268.461426,4230.641113,4263.461426,4244.102539,4245.641113,4528.333496,4499.487305,4383.077148,4442.179688,,,,,,,,,,,,,,,,,,,,,,,,,,,,,,,,,,,,,,,,,,,,,,,,,,,,,,,,,,,,,,,,,,,,,,
1720156368,106,0,4237.179688,4251.922852,4266.025879,4281.282227,4244.230957,4262.692383,4228.846191,4261.538574,4249.743652,4248.333496,4525,4500.128418,4389.358887,4454.871582,,,,,,,,,,,,,,,,,,,,,,,,,,,,,,,,,,,,,,,,,,,,,,,,,,,,,,,,,,,,,,,,,,,,,,
1720156368,107,0,4236.794922,4248.333496,4249.615234,4277.692383,4238.846191,4263.717773,4232.179688,4259.358887,4252.05127,4248.846191,4516.410156,4483.846191,4387.94873,4456.666504,,,,,,,,,,,,,,,,,,,,,,,,,,,,,,,,,,,,,,,,,,,,,,,,,,,,,,,,,,,,,,,,,,,,,,
1720156368,108,0,4238.461426,4244.487305,4242.436035,4275.128418,4233.205078,4262.179688,4242.94873,4265.384766,4259.743652,4253.461426,4529.230957,4479.743652,4389.230957,4460.128418,2.941904,5.529574,1.129701,0.366534,0.140701,1.731628,3.881634,0.856274,0.33445,0.087506,7.078417,5.924067,0.622914,0.708973,0.185665,1.044433,2.258007,0.517905,0.245728,0.08989,0.640705,0.791037,0.263411,0.132158,0.06454,0.680175,3.195899,0.200578,0.129422,0.093127,2.564803,5.638985,0.241531,0.288372,0.113649,0.80673,0.428217,0.036062,0.060869,0.1384,3.341747,12.224192,1.145382,0.69383,0.173653,2.93362,4.360679,1.257948,0.45968,0.176709,2.503886,7.917506,2.254428,0.623864,0.398409,3.911537,8.873736,1.641587,0.679019,0.408303,2.346941,9.196998,2.023085,0.735854,0.213875,1.887208,4.054781,0.921664,0.496269,0.257924
1720156368,109,0,4251.282227,4248.974121,4260.384766,4284.358887,4239.358887,4252.436035,4252.307617,4267.307617,4268.077148,4263.205078,4539.358887,4494.102539,4396.922852,4462.563965,,,,,,,,,,,,,,,,,,,,,,,,,,,,,,,,,,,,,,,,,,,,,,,,,,,,,,,,,,,,,,,,,,,,,,
1720156368,110,0,4264.230957,4250.897461,4272.179688,4295.128418,4242.94873,4246.666504,4254.743652,4267.05127,4266.794922,4263.846191,4531.410156,4505.512695,4397.05127,4464.230957,,,,,,,,,,,,,,,,,,,,,,,,,,,,,,,,,,,,,,,,,,,,,,,,,,,,,,,,,,,,,,,,,,,,,,
1720156368,111,0,4261.153809,4247.179688,4261.794922,4293.461426,4240.128418,4249.743652,4252.820313,4268.846191,4258.205078,4251.922852,4520.897461,4500.128418,4392.05127,4461.153809,,,,,,,,,,,,,,,,,,,,,,,,,,,,,,,,,,,,,,,,,,,,,,,,,,,,,,,,,,,,,,,,,,,,,,
1720156368,112,0,4255.128418,4246.025879,4256.025879,4290.769043,4241.922852,4252.563965,4250.384766,4267.307617,4247.436035,4245.256348,4523.461426,4495.384766,4391.410156,4459.615234,,,,,,,,,,,,,,,,,,,,,,,,,,,,,,,,,,,,,,,,,,,,,,,,,,,,,,,,,,,,,,,,,,,,,,
1720156368,113,0,4268.589844,4246.410156,4266.025879,4295.897461,4241.666504,4254.743652,4252.820313,4270.256348,4238.717773,4243.333496,4528.205078,4500.769043,4386.282227,4469.230957,,,,,,,,,,,,,,,,,,,,,,,,,,,,,,,,,,,,,,,,,,,,,,,,,,,,,,,,,,,,,,,,,,,,,,
1720156368,114,0,4276.666504,4240.256348,4269.871582,4298.077148,4235.512695,4257.307617,4251.410156,4275.384766,4233.205078,4234.871582,4516.794922,4493.974121,4374.102539,4468.461426,,,,,,,,,,,,,,,,,,,,,,,,,,,,,,,,,,,,,,,,,,,,,,,,,,,,,,,,,,,,,,,,,,,,,,
1720156368,115,0,4266.282227,4231.922852,4258.589844,4290.769043,4232.05127,4261.666504,4245.897461,4269.102539,4230.641113,4228.333496,4505.897461,4473.846191,4369.358887,4455.641113,,,,,,,,,,,,,,,,,,,,,,,,,,,,,,,,,,,,,,,,,,,,,,,,,,,,,,,,,,,,,,,,,,,,,,
1720156368,116,0,4267.436035,4228.717773,4248.077148,4281.794922,4231.794922,4261.666504,4248.846191,4268.077148,4226.410156,4228.974121,4506.666504,4472.05127,4368.974121,4460.641113,,,,,,,,,,,,,,,,,,,,,,,,,,,,,,,,,,,,,,,,,,,,,,,,,,,,,,,,,,,,,,,,,,,,,,
1720156368,117,0,4275.897461,4229.102539,4244.487305,4279.487305,4232.563965,4255.897461,4246.025879,4271.538574,4223.077148,4231.538574,4504.230957,4479.615234,4363.589844,4471.282227,,,,,,,,,,,,,,,,,,,,,,,,,,,,,,,,,,,,,,,,,,,,,,,,,,,,,,,,,,,,,,,,,,,,,,
1720156368,118,0,4273.333496,4234.615234,4239.743652,4286.282227,4237.820313,4256.025879,4233.846191,4268.974121,4231.410156,4237.05127,4507.436035,4476.025879,4369.358887,4475.128418,,,,,,,,,,,,,,,,,,,,,,,,,,,,,,,,,,,,,,,,,,,,,,,,,,,,,,,,,,,,,,,,,,,,,,
1720156368,119,0,4277.820313,4244.871582,4240.641113,4303.846191,4245.384766,4256.922852,4229.487305,4270.897461,4247.05127,4247.179688,4522.692383,4478.461426,4386.153809,4487.94873,,,,,,,,,,,,,,,,,,,,,,,,,,,,,,,,,,,,,,,,,,,,,,,,,,,,,,,,,,,,,,,,,,,,,,
1720156368,120,0,4292.436035,4251.153809,4257.436035,4321.794922,4247.820313,4252.436035,4229.230957,4272.307617,4259.358887,4258.205078,4524.743652,4488.077148,4388.974121,4495.897461,,,,,,,,,,,,,,,,,,,,,,,,,,,,,,,,,,,,,,,,,,,,,,,,,,,,,,,,,,,,,,,,,,,,,,
1720156368,121,0,4297.692383,4248.717773,4264.743652,4323.205078,4243.717773,4251.282227,4227.692383,4270.769043,4261.538574,4261.922852,4514.743652,4485.128418,4378.205078,4486.410156,,,,,,,,,,,,,,,,,,,,,,,,,,,,,,,,,,,,,,,,,,,,,,,,,,,,,,,,,,,,,,,,,,,,,,
1720156368,122,0,4295.512695,4248.974121,4251.282227,4313.461426,4240.384766,4252.436035,4227.94873,4270.128418,4254.615234,4255.641113,4522.436035,4479.871582,4378.974121,4481.538574,,,,,,,,,,,,,,,,,,,,,,,,,,,,,,,,,,,,,,,,,,,,,,,,,,,,,,,,,,,,,,,,,,,,,,
1720156368,123,0,4293.717773,4247.436035,4248.846191,4310.769043,4242.307617,4247.563965,4227.436035,4274.743652,4248.077148,4247.307617,4530.512695,4485.641113,4385.897461,4481.538574,,,,,,,,,,,,,,,,,,,,,,,,,,,,,,,,,,,,,,,,,,,,,,,,,,,,,,,,,,,,,,,,,,,,,,
1720156368,124,0,4291.282227,4236.922852,4260.128418,4312.692383,4241.538574,4244.358887,4224.487305,4277.179688,4238.333496,4240.512695,4508.589844,4483.077148,4372.94873,4474.102539,2.991787,5.06815,1.190785,0.332643,0.157972,1.725377,3.645597,0.762713,0.312019,0.091916,5.622152,6.826733,0.636794,0.645226,0.1916,1.221641,2.228834,0.544114,0.223793,0.10112,0.576336,0.889808,0.235556,0.121105,0.061661,0.595036,3.454026,0.177874,0.121991,0.097539,2.795614,5.709998,0.241659,0.270458,0.127436,0.740412,0.443064,0.046826,0.054749,0.124967,3.277225,12.608883,1.349976,0.690202,0.171611,2.94,4.472818,1.158039,0.449795,0.175981,2.499329,6.601096,2.000859,0.648227,0.381705,3.882276,7.867799,1.588936,0.619194,0.36808,2.455574,7.801414,1.788598,0.711722,0.224136,1.741147,3.824513,0.875835,0.439965,0.242634
1720156368,125,0,4293.205078,4235.641113,4263.461426,4309.871582,4238.717773,4249.230957,4228.077148,4271.538574,4221.794922,4233.717773,4486.153809,4469.743652,4357.307617,4471.153809,,,,,,,,,,,,,,,,,,,,,,,,,,,,,,,,,,,,,,,,,,,,,,,,,,,,,,,,,,,,,,,,,,,,,,
1720156368,126,0,4296.410156,4246.922852,4259.615234,4309.230957,4242.179688,4259.743652,4238.717773,4266.153809,4210.256348,4229.230957,4493.077148,4468.077148,4362.179688,4474.871582,,,,,,,,,,,,,,,,,,,,,,,,,,,,,,,,,,,,,,,,,,,,,,,,,,,,,,,,,,,,,,,,,,,,,,
1720156368,127,0,4296.794922,4251.538574,4263.589844,4315.384766,4248.974121,4274.871582,4249.871582,4272.94873,4216.153809,4232.94873,4514.102539,4482.94873,4374.871582,4477.94873,,,,,,,,,,,,,,,,,,,,,,,,,,,,,,,,,,,,,,,,,,,,,,,,,,,,,,,,,,,,,,,,,,,,,,
1720156368,0,0,4302.692383,4246.922852,4272.05127,4316.794922,4249.743652,4282.436035,4255.128418,4280.897461,4230,4237.692383,4526.153809,4495.641113,4379.230957,4485.769043,,,,,,,,,,,,,,,,,,,,,,,,,,,,,,,,,,,,,,,,,,,,,,,,,,,,,,,,,,,,,,,,,,,,,,
1720156368,1,0,4306.410156,4245.769043,4274.743652,4312.820313,4248.589844,4279.230957,4247.05127,4267.820313,4237.307617,4236.666504,4521.794922,4488.205078,4379.871582,4484.358887,,,,,,,,,,,,,,,,,,,,,,,,,,,,,,,,,,,,,,,,,,,,,,,,,,,,,,,,,,,,,,,,,,,,,,
1720156368,2,0,4303.205078,4253.077148,4273.974121,4316.538574,4248.333496,4270.769043,4236.282227,4264.487305,4239.871582,4237.05127,4519.871582,4484.102539,4387.820313,4482.436035,,,,,,,,,,,,,,,,,,,,,,,,,,,,,,,,,,,,,,,,,,,,,,,,,,,,,,,,,,,,,,,,,,,,,,
1720156368,3,0,4301.538574,4258.205078,4277.179688,4322.820313,4248.333496,4263.974121,4233.333496,4272.436035,4244.743652,4244.358887,4530.641113,4497.563965,4399.743652,4493.205078,,,,,,,,,,,,,,,,,,,,,,,,,,,,,,,,,,,,,,,,,,,,,,,,,,,,,,,,,,,,,,,,,,,,,,
1720156368,4,0,4301.025879,4255.641113,4277.307617,4320.641113,4249.871582,4265,4227.179688,4270.897461,4253.077148,4253.333496,4540,4507.820313,4402.307617,4495.641113,,,,,,,,,,,,,,,,,,,,,,,,,,,,,,,,,,,,,,,,,,,,,,,,,,,,,,,,,,,,,,,,,,,,,,
1720156368,5,0,4300.769043,4252.94873,4266.538574,4316.922852,4245.769043,4262.563965,4218.974121,4272.692383,4257.563965,4257.307617,4540.384766,4504.743652,4402.05127,4490.641113,,,,,,,,,,,,,,,,,,,,,,,,,,,,,,,,,,,,,,,,,,,,,,,,,,,,,,,,,,,,,,,,,,,,,,
1720156368,6,0,4302.307617,4258.589844,4267.692383,4319.358887,4245.128418,4256.922852,4220,4273.333496,4257.94873,4260.384766,4543.717773,4498.333496,4411.025879,4489.487305,,,,,,,,,,,,,,,,,,,,,,,,,,,,,,,,,,,,,,,,,,,,,,,,,,,,,,,,,,,,,,,,,,,,,,
1720156368,7,0,4311.025879,4267.436035,4291.282227,4326.538574,4250.512695,4258.589844,4232.307617,4273.974121,4256.410156,4263.846191,4551.282227,4502.436035,4413.333496,4494.487305,,,,,,,,,,,,,,,,,,,,,,,,,,,,,,,,,,,,,,,,,,,,,,,,,,,,,,,,,,,,,,,,,,,,,,
1720156368,8,0,4315.897461,4266.538574,4307.05127,4330.384766,4252.179688,4263.077148,4238.974121,4276.922852,4251.410156,4262.436035,4545.128418,4505.769043,4400.769043,4497.307617,,,,,,,,,,,,,,,,,,,,,,,,,,,,,,,,,,,,,,,,,,,,,,,,,,,,,,,,,,,,,,,,,,,,,,
1720156368,9,0,4299.102539,4253.846191,4301.666504,4320.769043,4247.436035,4260.512695,4236.666504,4272.820313,4243.205078,4250.897461,4525.128418,4491.282227,4388.974121,4485.128418,,,,,,,,,,,,,,,,,,,,,,,,,,,,,,,,,,,,,,,,,,,,,,,,,,,,,,,,,,,,,,,,,,,,,,
1720156368,10,0,4289.615234,4243.846191,4306.410156,4308.205078,4243.717773,4258.589844,4240.256348,4274.871582,4234.230957,4235.512695,4516.666504,4482.692383,4382.820313,4475.769043,,,,,,,,,,,,,,,,,,,,,,,,,,,,,,,,,,,,,,,,,,,,,,,,,,,,,,,,,,,,,,,,,,,,,,
1720156368,11,0,4305.128418,4245.897461,4329.615234,4308.974121,4241.153809,4262.692383,4250.256348,4286.666504,4226.666504,4228.589844,4529.871582,4497.820313,4378.333496,4483.461426,,,,,,,,,,,,,,,,,,,,,,,,,,,,,,,,,,,,,,,,,,,,,,,,,,,,,,,,,,,,,,,,,,,,,,
1720156368,12,0,4309.358887,4247.94873,4338.974121,4312.692383,4235.512695,4264.358887,4248.717773,4280.256348,4220.256348,4231.794922,4537.820313,4504.871582,4380.128418,4488.717773,2.894018,4.409159,1.201387,0.307804,0.177751,1.644016,3.270756,0.625392,0.282682,0.102287,4.812691,7.239057,0.655899,0.586262,0.204836,1.251358,2.096168,0.524674,0.19711,0.112256,0.513353,0.982157,0.202157,0.109417,0.061271,0.510349,3.430482,0.160274,0.121341,0.099595,2.836174,5.407829,0.239358,0.249163,0.139522,0.655574,0.520968,0.056645,0.048539,0.109473,2.929645,12.755699,1.449147,0.641543,0.172016,2.769187,4.577538,0.991525,0.42142,0.174492,2.431133,5.100539,1.603197,0.693746,0.368779,3.661666,6.341105,1.457987,0.565284,0.336435,2.463158,6.154788,1.441793,0.658734,0.251175,1.907453,3.464652,0.78745,0.389186,0.245052
1720156368,13,0,4297.94873,4243.974121,4330,4306.794922,4231.666504,4263.205078,4238.333496,4270.641113,4221.666504,4238.717773,4527.05127,4493.461426,4385.897461,4486.153809,,,,,,,,,,,,,,,,,,,,,,,,,,,,,,,,,,,,,,,,,,,,,,,,,,,,,,,,,,,,,,,,,,,,,,
1720156368,14,0,4292.692383,4238.974121,4319.102539,4297.94873,4232.436035,4261.922852,4231.666504,4279.230957,4230.897461,4240.769043,4514.743652,4480.256348,4382.179688,4481.666504,,,,,,,,,,,,,,,,,,,,,,,,,,,,,,,,,,,,,,,,,,,,,,,,,,,,,,,,,,,,,,,,,,,,,,
1720156368,15,0,4291.410156,4235,4313.974121,4292.692383,4232.05127,4260,4222.692383,4279.743652,4234.230957,4236.538574,4513.717773,4475.256348,4371.922852,4475.769043,,,,,,,,,,,,,,,,,,,,,,,,,,,,,,,,,,,,,,,,,,,,,,,,,,,,,,,,,,,,,,,,,,,,,,
1720156368,16,0,4295.512695,4238.333496,4315.641113,4292.179688,4232.563965,4257.563965,4216.282227,4275.128418,4234.102539,4233.974121,4520.641113,4484.358887,4369.487305,4476.922852,,,,,,,,,,,,,,,,,,,,,,,,,,,,,,,,,,,,,,,,,,,,,,,,,,,,,,,,,,,,,,,,,,,,,,
1720156368,17,0,4301.922852,4245.512695,4315.384766,4293.846191,4236.153809,4248.461426,4213.846191,4273.077148,4235.128418,4236.410156,4522.05127,4490.769043,4376.282227,4479.871582,,,,,,,,,,,,,,,,,,,,,,,,,,,,,,,,,,,,,,,,,,,,,,,,,,,,,,,,,,,,,,,,,,,,,,
1720156368,18,0,4301.794922,4246.410156,4306.410156,4294.102539,4234.358887,4233.077148,4199.358887,4270.769043,4232.436035,4239.615234,4517.563965,4487.436035,4381.153809,4477.179688,,,,,,,,,,,,,,,,,,,,,,,,,,,,,,,,,,,,,,,,,,,,,,,,,,,,,,,,,,,,,,,,,,,,,,
1720156368,19,0,4299.743652,4246.282227,4303.717773,4294.487305,4230.769043,4229.871582,4191.025879,4274.487305,4231.922852,4241.922852,4519.615234,4492.820313,4386.153809,4477.563965,,,,,,,,,,,,,,,,,,,,,,,,,,,,,,,,,,,,,,,,,,,,,,,,,,,,,,,,,,,,,,,,,,,,,,
1720156368,20,0,4302.436035,4249.102539,4310.641113,4294.615234,4232.563965,4246.282227,4204.102539,4269.615234,4230.512695,4233.333496,4527.820313,4498.077148,4389.487305,4481.025879,,,,,,,,,,,,,,,,,,,,,,,,,,,,,,,,,,,,,,,,,,,,,,,,,,,,,,,,,,,,,,,,,,,,,,
