Timestamp,EEG.Counter,EEG.Interpolated,EEG.AF3,EEG.F7,EEG.F3,EEG.FC5,EEG.T7,EEG.P7,EEG.O1,EEG.O2,EEG.P8,EEG.T8,EEG.FC6,EEG.F4,EEG.F8,EEG.AF4,POW.AF3.Theta,POW.AF3.Alpha,POW.AF3.BetaL,POW.AF3.BetaH,POW.AF3.Gamma,POW.F7.Theta,POW.F7.Alpha,POW.F7.BetaL,POW.F7.BetaH,POW.F7.Gamma,POW.F3.Theta,POW.F3.Alpha,POW.F3.BetaL,POW.F3.BetaH,POW.F3.Gamma,POW.FC5.Theta,POW.FC5.Alpha,POW.FC5.BetaL,POW.FC5.BetaH,POW.FC5.Gamma,POW.T7.Theta,POW.T7.Alpha,POW.T7.BetaL,POW.T7.BetaH,POW.T7.Gamma,POW.P7.Theta,POW.P7.Alpha,POW.P7.BetaL,POW.P7.BetaH,POW.P7.Gamma,POW.O1.Theta,POW.O1.Alpha,POW.O1.BetaL,POW.O1.BetaH,POW.O1.Gamma,POW.O2.Theta,POW.O2.Alpha,POW.O2.BetaL,POW.O2.BetaH,POW.O2.Gamma,POW.P8.Theta,POW.P8.Alpha,POW.P8.BetaL,POW.P8.BetaH,POW.P8.Gamma,POW.T8.Theta,POW.T8.Alpha,POW.T8.BetaL,POW.T8.BetaH,POW.T8.Gamma,POW.FC6.Theta,POW.FC6.Alpha,POW.FC6.BetaL,POW.FC6.BetaH,POW.FC6.Gamma,POW.F4.Theta,POW.F4.Alpha,POW.F4.BetaL,POW.F4.BetaH,POW.F4.Gamma,POW.F8.Theta,POW.F8.Alpha,POW.F8.BetaL,POW.F8.BetaH,POW.F8.Gamma,POW.AF4.Theta,POW.AF4.Alpha,POW.AF4.BetaL,POW.AF4.BetaH,POW.AF4.Gamma
1720085304,28,0,4189.871582,4140.512695,4125.897461,4204.230957,4248.846191,4251.666504,4281.666504,4361.794922,4526.153809,4135.384766,4331.666504,4508.205078,4203.717773,4323.846191,,,,,,,,,,,,,,,,,,,,,,,,,,,,,,,,,,,,,,,,,,,,,,,,,,,,,,,,,,,,,,,,,,,,,,
1720085304,29,0,4186.794922,4140.512695,4124.487305,4198.205078,4252.563965,4252.692383,4284.358887,4367.307617,4527.05127,4127.179688,4353.589844,4513.461426,4206.922852,4320.897461,,,,,,,,,,,,,,,,,,,,,,,,,,,,,,,,,,,,,,,,,,,,,,,,,,,,,,,,,,,,,,,,,,,,,,
1720085304,30,0,4190.769043,4146.794922,4125.897461,4198.077148,4254.102539,4248.333496,4273.333496,4363.717773,4522.692383,4119.487305,4365.641113,4513.717773,4215.641113,4316.025879,,,,,,,,,,,,,,,,,,,,,,,,,,,,,,,,,,,,,,,,,,,,,,,,,,,,,,,,,,,,,,,,,,,,,,
1720085304,31,0,4205.512695,4157.692383,4131.410156,4210.384766,4249.871582,4236.794922,4264.743652,4365.769043,4530.256348,4126.025879,4362.05127,4518.846191,4216.410156,4324.102539,,,,,,,,,,,,,,,,,,,,,,,,,,,,,,,,,,,,,,,,,,,,,,,,,,,,,,,,,,,,,,,,,,,,,,
1720085304,32,0,4215.512695,4169.743652,4139.230957,4222.436035,4250.256348,4230.256348,4267.179688,4371.153809,4544.615234,4144.487305,4358.974121,4530.641113,4225.897461,4343.974121,,,,,,,,,,,,,,,,,,,,,,,,,,,,,,,,,,,,,,,,,,,,,,,,,,,,,,,,,,,,,,,,,,,,,,
1720085304,33,0,4207.692383,4167.563965,4137.692383,4228.461426,4250.512695,4223.205078,4263.077148,4362.94873,4544.230957,4156.922852,4367.179688,4531.666504,4243.205078,4358.333496,,,,,,,,,,,,,,,,,,,,,,,,,,,,,,,,,,,,,,,,,,,,,,,,,,,,,,,,,,,,,,,,,,,,,,
1720085304,34,0,4203.205078,4164.358887,4132.820313,4226.666504,4241.794922,4204.358887,4243.461426,4345.641113,4528.077148,4155.384766,4379.743652,4522.179688,4247.436035,4355.256348,,,,,,,,,,,,,,,,,,,,,,,,,,,,,,,,,,,,,,,,,,,,,,,,,,,,,,,,,,,,,,,,,,,,,,
1720085304,35,0,4219.487305,4180.512695,4139.102539,4234.102539,4236.282227,4196.922852,4233.717773,4332.94873,4522.436035,4156.410156,4391.025879,4516.666504,4250.128418,4350,,,,,,,,,,,,,,,,,,,,,,,,,,,,,,,,,,,,,,,,,,,,,,,,,,,,,,,,,,,,,,,,,,,,,,
1720085304,36,0,4226.538574,4187.436035,4141.410156,4242.179688,4242.179688,4206.282227,4235.769043,4323.717773,4518.717773,4155.897461,4381.794922,4504.102539,4251.153809,4344.230957,,,,,,,,,,,,,,,,,,,,,,,,,,,,,,,,,,,,,,,,,,,,,,,,,,,,,,,,,,,,,,,,,,,,,,
1720085304,37,0,4218.077148,4180.512695,4134.871582,4236.153809,4251.025879,4216.922852,4244.230957,4330.128418,4505.769043,4143.974121,4359.358887,4495.769043,4244.871582,4341.922852,,,,,,,,,,,,,,,,,,,,,,,,,,,,,,,,,,,,,,,,,,,,,,,,,,,,,,,,,,,,,,,,,,,,,,
1720085304,38,0,4216.666504,4193.974121,4138.461426,4237.563965,4253.974121,4228.846191,4264.230957,4353.589844,4512.94873,4145.641113,4361.666504,4514.358887,4249.743652,4353.717773,,,,,,,,,,,,,,,,,,,,,,,,,,,,,,,,,,,,,,,,,,,,,,,,,,,,,,,,,,,,,,,,,,,,,,
1720085304,39,0,4211.538574,4200.769043,4136.922852,4244.358887,4243.205078,4232.436035,4271.410156,4361.666504,4525.256348,4154.743652,4379.230957,4523.846191,4252.692383,4351.282227,,,,,,,,,,,,,,,,,,,,,,,,,,,,,,,,,,,,,,,,,,,,,,,,,,,,,,,,,,,,,,,,,,,,,,
1720085304,40,0,4207.179688,4191.538574,4130,4244.871582,4233.077148,4233.589844,4268.205078,4360.641113,4520.769043,4151.794922,4388.205078,4508.333496,4248.717773,4336.410156,,,,,,,,,,,,,,,,,,,,,,,,,,,,,,,,,,,,,,,,,,,,,,,,,,,,,,,,,,,,,,,,,,,,,,
1720085304,41,0,4221.538574,4201.282227,4141.922852,4255.384766,4232.692383,4244.487305,4279.230957,4375.897461,4524.743652,4156.666504,4394.615234,4512.820313,4262.307617,4346.153809,,,,,,,,,,,,,,,,,,,,,,,,,,,,,,,,,,,,,,,,,,,,,,,,,,,,,,,,,,,,,,,,,,,,,,
1720085304,42,0,4230.128418,4213.974121,4158.205078,4266.922852,4221.153809,4243.846191,4288.589844,4389.230957,4540.897461,4171.666504,4395.769043,4534.743652,4279.871582,4366.153809,4.114911,4.477931,0.997835,0.752281,0.617087,5.03034,4.458249,1.720408,0.546009,0.516659,8.251097,8.353576,1.595764,1.223063,0.70232,3.143342,2.667923,0.506493,0.755169,0.896001,1.57538,1.862583,1.387472,0.523025,0.385875,1.448661,6.695536,3.70738,0.58635,0.188084,1.607547,22.091948,0.957309,0.719848,0.31853,2.676322,31.539984,2.436678,0.953622,0.37759,3.031326,10.447413,2.59805,1.187181,0.557288,7.972035,10.218958,3.203026,1.695609,0.778409,4.48638,11.956085,3.710948,6.413743,2.212881,5.800937,30.51737,4.285852,2.171119,0.855537,3.757356,6.100339,2.448442,1.593968,0.550153,4.380013,10.430111,3.017892,1.77886,0.792473
1720085304,43,0,4216.794922,4205,4152.563965,4258.717773,4203.205078,4233.717773,4282.436035,4384.871582,4543.589844,4177.05127,4390.641113,4538.589844,4283.461426,4374.102539,,,,,,,,,,,,,,,,,,,,,,,,,,,,,,,,,,,,,,,,,,,,,,,,,,,,,,,,,,,,,,,,,,,,,,
1720085304,44,0,4210.384766,4198.461426,4145.128418,4259.230957,4204.102539,4238.461426,4281.153809,4380.769043,4536.410156,4174.743652,4402.692383,4534.487305,4284.743652,4378.461426,,,,,,,,,,,,,,,,,,,,,,,,,,,,,,,,,,,,,,,,,,,,,,,,,,,,,,,,,,,,,,,,,,,,,,
1720085304,45,0,4222.94873,4208.589844,4160.769043,4278.077148,4212.820313,4240.384766,4287.179688,4381.282227,4535.897461,4173.461426,4429.102539,4542.563965,4290,4382.820313,,,,,,,,,,,,,,,,,,,,,,,,,,,,,,,,,,,,,,,,,,,,,,,,,,,,,,,,,,,,,,,,,,,,,,
1720085304,46,0,4233.333496,4217.820313,4177.563965,4286.922852,4212.05127,4229.743652,4280.512695,4377.179688,4546.282227,4177.94873,4438.461426,4556.538574,4298.589844,4391.410156,,,,,,,,,,,,,,,,,,,,,,,,,,,,,,,,,,,,,,,,,,,,,,,,,,,,,,,,,,,,,,,,,,,,,,
1720085304,47,0,4232.820313,4217.307617,4175.512695,4277.307617,4213.717773,4225,4268.077148,4364.230957,4556.282227,4184.102539,4420.512695,4564.102539,4302.692383,4402.307617,,,,,,,,,,,,,,,,,,,,,,,,,,,,,,,,,,,,,,,,,,,,,,,,,,,,,,,,,,,,,,,,,,,,,,
1720085304,48,0,4227.692383,4215.128418,4165.128418,4269.358887,4213.974121,4224.358887,4258.717773,4344.615234,4553.461426,4177.179688,4394.230957,4556.153809,4297.05127,4399.230957,,,,,,,,,,,,,,,,,,,,,,,,,,,,,,,,,,,,,,,,,,,,,,,,,,,,,,,,,,,,,,,,,,,,,,
1720085304,49,0,4237.307617,4235.897461,4167.94873,4299.871582,4213.589844,4223.333496,4265.769043,4343.974121,4559.615234,4169.358887,4405.897461,4552.692383,4303.589844,4398.205078,,,,,,,,,,,,,,,,,,,,,,,,,,,,,,,,,,,,,,,,,,,,,,,,,,,,,,,,,,,,,,,,,,,,,,
1720085304,50,0,4256.794922,4261.282227,4177.307617,4331.922852,4227.05127,4231.025879,4286.025879,4360,4573.077148,4174.487305,4446.025879,4559.230957,4312.436035,4405.384766,,,,,,,,,,,,,,,,,,,,,,,,,,,,,,,,,,,,,,,,,,,,,,,,,,,,,,,,,,,,,,,,,,,,,,
1720085304,51,0,4253.461426,4252.94873,4166.153809,4297.692383,4236.538574,4242.05127,4293.717773,4363.333496,4569.615234,4171.538574,4446.922852,4549.615234,4298.846191,4397.563965,,,,,,,,,,,,,,,,,,,,,,,,,,,,,,,,,,,,,,,,,,,,,,,,,,,,,,,,,,,,,,,,,,,,,,
1720085304,52,0,4239.358887,4245.384766,4154.358887,4248.589844,4230.512695,4249.487305,4296.410156,4363.333496,4563.717773,4161.794922,4421.410156,4546.410156,4293.589844,4393.589844,,,,,,,,,,,,,,,,,,,,,,,,,,,,,,,,,,,,,,,,,,,,,,,,,,,,,,,,,,,,,,,,,,,,,,
1720085304,53,0,4255.128418,4265.384766,4169.871582,4260.512695,4227.692383,4251.282227,4307.307617,4376.282227,4569.615234,4167.692383,4428.333496,4572.94873,4318.846191,4423.077148,,,,,,,,,,,,,,,,,,,,,,,,,,,,,,,,,,,,,,,,,,,,,,,,,,,,,,,,,,,,,,,,,,,,,,
1720085304,54,0,4284.358887,4281.153809,4194.358887,4289.871582,4234.871582,4252.436035,4316.410156,4393.461426,4578.333496,4184.743652,4450.641113,4593.077148,4337.563965,4452.436035,,,,,,,,,,,,,,,,,,,,,,,,,,,,,,,,,,,,,,,,,,,,,,,,,,,,,,,,,,,,,,,,,,,,,,
1720085304,55,0,4276.025879,4274.743652,4186.025879,4279.615234,4236.153809,4254.615234,4315.641113,4400.641113,4578.717773,4191.794922,4460,4573.846191,4330,4436.282227,,,,,,,,,,,,,,,,,,,,,,,,,,,,,,,,,,,,,,,,,,,,,,,,,,,,,,,,,,,,,,,,,,,,,,
1720085304,56,0,4248.333496,4271.538574,4156.025879,4274.743652,4232.820313,4253.077148,4307.94873,4392.05127,4566.666504,4181.666504,4479.615234,4543.846191,4321.025879,4408.974121,,,,,,,,,,,,,,,,,,,,,,,,,,,,,,,,,,,,,,,,,,,,,,,,,,,,,,,,,,,,,,,,,,,,,,
1720085304,57,0,4243.205078,4279.487305,4146.666504,4302.563965,4240.512695,4252.563965,4300,4383.333496,4563.077148,4188.846191,4485.641113,4534.230957,4333.846191,4415.256348,,,,,,,,,,,,,,,,,,,,,,,,,,,,,,,,,,,,,,,,,,,,,,,,,,,,,,,,,,,,,,,,,,,,,,
1720085304,58,0,4248.974121,4279.358887,4154.358887,4308.846191,4245.769043,4247.436035,4288.974121,4381.538574,4581.025879,4221.410156,4450.641113,4529.487305,4349.615234,4425.256348,4.970571,4.117456,1.239664,0.806356,0.644233,4.611352,3.890683,1.915274,0.587305,0.557844,8.153193,6.815245,1.543177,0.983801,0.718584,3.172426,2.349251,0.568853,0.904174,0.825707,1.537537,2.249896,1.57331,0.536878,0.367064,1.265098,8.209345,3.591384,0.539366,0.192787,0.979982,25.398878,0.905585,0.632203,0.326226,2.318335,31.419161,2.347335,0.672513,0.397432,2.97211,10.216572,2.089452,0.918459,0.528844,4.894198,6.547879,2.451522,1.426497,0.693727,4.132266,10.439677,3.193159,7.355116,2.528497,5.665141,27.84252,4.283989,2.262202,0.922656,3.372441,4.933562,2.02089,1.373593,0.535995,4.549449,10.307449,2.892322,1.758074,0.861847
1720085304,59,0,4255.897461,4279.102539,4165.384766,4289.358887,4237.307617,4233.461426,4274.230957,4372.436035,4592.179688,4225.384766,4450,4527.692383,4353.077148,4423.589844,,,,,,,,,,,,,,,,,,,,,,,,,,,,,,,,,,,,,,,,,,,,,,,,,,,,,,,,,,,,,,,,,,,,,,
1720085304,60,0,4274.615234,4292.563965,4178.589844,4297.94873,4232.179688,4227.307617,4262.436035,4356.794922,4587.820313,4198.717773,4486.794922,4537.05127,4354.230957,4426.282227,,,,,,,,,,,,,,,,,,,,,,,,,,,,,,,,,,,,,,,,,,,,,,,,,,,,,,,,,,,,,,,,,,,,,,
1720085304,61,0,4283.333496,4309.615234,4173.717773,4319.358887,4230.128418,4227.05127,4258.717773,4349.102539,4589.615234,4193.846191,4473.205078,4544.743652,4351.538574,4428.461426,,,,,,,,,,,,,,,,,,,,,,,,,,,,,,,,,,,,,,,,,,,,,,,,,,,,,,,,,,,,,,,,,,,,,,
1720085304,62,0,4277.307617,4318.974121,4149.615234,4325.256348,4219.615234,4219.358887,4261.282227,4347.436035,4596.410156,4211.153809,4445.256348,4546.538574,4351.282227,4431.538574,,,,,,,,,,,,,,,,,,,,,,,,,,,,,,,,,,,,,,,,,,,,,,,,,,,,,,,,,,,,,,,,,,,,,,
1720085304,63,0,4286.153809,4325.128418,4154.358887,4334.102539,4217.94873,4209.743652,4261.666504,4345,4591.666504,4216.794922,4470.384766,4549.871582,4371.282227,4443.846191,,,,,,,,,,,,,,,,,,,,,,,,,,,,,,,,,,,,,,,,,,,,,,,,,,,,,,,,,,,,,,,,,,,,,,
1720085304,64,0,4302.436035,4328.846191,4192.692383,4337.179688,4227.820313,4212.692383,4262.05127,4340.256348,4574.230957,4204.230957,4492.436035,4550.384766,4383.717773,4448.846191,,,,,,,,,,,,,,,,,,,,,,,,,,,,,,,,,,,,,,,,,,,,,,,,,,,,,,,,,,,,,,,,,,,,,,
1720085304,65,0,4310.769043,4335.256348,4220.256348,4332.692383,4232.436035,4226.025879,4270.384766,4340.769043,4565.769043,4199.871582,4477.563965,4553.589844,4375.641113,4446.794922,,,,,,,,,,,,,,,,,,,,,,,,,,,,,,,,,,,,,,,,,,,,,,,,,,,,,,,,,,,,,,,,,,,,,,
1720085304,66,0,4313.717773,4346.153809,4225.384766,4339.487305,4239.230957,4233.717773,4285.128418,4353.205078,4567.692383,4211.666504,4476.794922,4568.717773,4381.410156,4461.153809,,,,,,,,,,,,,,,,,,,,,,,,,,,,,,,,,,,,,,,,,,,,,,,,,,,,,,,,,,,,,,,,,,,,,,
1720085304,67,0,4299.230957,4338.077148,4208.974121,4333.205078,4249.358887,4234.871582,4293.974121,4359.230957,4567.436035,4213.974121,4493.333496,4573.205078,4390,4477.05127,,,,,,,,,,,,,,,,,,,,,,,,,,,,,,,,,,,,,,,,,,,,,,,,,,,,,,,,,,,,,,,,,,,,,,
1720085304,68,0,4273.974121,4311.666504,4185.384766,4304.358887,4248.846191,4243.333496,4293.846191,4355.512695,4565.512695,4201.666504,4492.94873,4557.820313,4381.794922,4471.410156,,,,,,,,,,,,,,,,,,,,,,,,,,,,,,,,,,,,,,,,,,,,,,,,,,,,,,,,,,,,,,,,,,,,,,
1720085304,69,0,4271.666504,4306.922852,4187.94873,4296.922852,4243.589844,4256.025879,4296.922852,4367.307617,4572.05127,4198.077148,4491.794922,4552.820313,4386.025879,4461.538574,,,,,,,,,,,,,,,,,,,,,,,,,,,,,,,,,,,,,,,,,,,,,,,,,,,,,,,,,,,,,,,,,,,,,,
1720085304,70,0,4280.769043,4323.205078,4204.487305,4307.307617,4243.461426,4254.358887,4296.282227,4378.717773,4577.436035,4205.256348,4491.153809,4548.205078,4392.94873,4447.179688,,,,,,,,,,,,,,,,,,,,,,,,,,,,,,,,,,,,,,,,,,,,,,,,,,,,,,,,,,,,,,,,,,,,,,
1720085304,71,0,4275.769043,4327.692383,4198.974121,4302.436035,4243.717773,4240.128418,4281.282227,4365.512695,4565.641113,4204.230957,4481.153809,4525,4383.717773,4433.205078,,,,,,,,,,,,,,,,,,,,,,,,,,,,,,,,,,,,,,,,,,,,,,,,,,,,,,,,,,,,,,,,,,,,,,
1720085304,72,0,4283.846191,4338.077148,4191.410156,4311.282227,4245,4228.974121,4270.641113,4358.077148,4553.974121,4201.025879,4489.871582,4523.974121,4392.563965,4454.615234,,,,,,,,,,,,,,,,,,,,,,,,,,,,,,,,,,,,,,,,,,,,,,,,,,,,,,,,,,,,,,,,,,,,,,
1720085304,73,0,4309.358887,4369.230957,4205,4334.487305,4249.871582,4228.205078,4274.230957,4370.769043,4554.743652,4208.974121,4522.307617,4554.102539,4415,4487.436035,,,,,,,,,,,,,,,,,,,,,,,,,,,,,,,,,,,,,,,,,,,,,,,,,,,,,,,,,,,,,,,,,,,,,,
1720085304,74,0,4322.94873,4388.205078,4219.871582,4335,4258.589844,4231.410156,4279.230957,4375.769043,4552.179688,4216.025879,4534.487305,4570.897461,4411.025879,4489.102539,5.82935,3.84262,1.640722,0.904133,0.669362,4.164384,3.494284,2.089288,0.652852,0.62392,8.020545,5.409662,1.55624,0.835067,0.76277,3.357146,1.943941,0.66081,1.117025,0.794937,1.52192,2.556942,1.679755,0.553777,0.348888,1.19653,11.042853,3.404126,0.51354,0.196166,0.763865,32.13588,0.958381,0.635717,0.338351,2.122268,31.85918,2.246306,0.488821,0.413276,2.904115,9.44001,1.646189,0.70432,0.507754,2.976012,4.614279,1.949237,1.300996,0.617866,3.833158,9.766486,3.143581,8.260074,2.847566,5.528389,26.600512,4.565146,2.297096,1.035392,3.599508,4.45905,1.902095,1.226347,0.582024,4.604959,10.83695,3.08838,1.70876,0.966748
1720085304,75,0,4327.94873,4384.487305,4228.589844,4328.717773,4265.128418,4234.102539,4278.717773,4367.307617,4538.205078,4208.205078,4505.384766,4566.282227,4397.692383,4482.563965,,,,,,,,,,,,,,,,,,,,,,,,,,,,,,,,,,,,,,,,,,,,,,,,,,,,,,,,,,,,,,,,,,,,,,
1720085304,76,0,4327.94873,4373.717773,4228.077148,4323.846191,4266.282227,4242.563965,4275.384766,4353.333496,4521.666504,4187.179688,4471.025879,4558.461426,4388.589844,4475.641113,,,,,,,,,,,,,,,,,,,,,,,,,,,,,,,,,,,,,,,,,,,,,,,,,,,,,,,,,,,,,,,,,,,,,,
1720085304,77,0,4321.794922,4366.538574,4225.769043,4314.487305,4271.282227,4251.794922,4278.333496,4345.256348,4507.307617,4180.384766,4482.307617,4556.410156,4381.794922,4469.230957,,,,,,,,,,,,,,,,,,,,,,,,,,,,,,,,,,,,,,,,,,,,,,,,,,,,,,,,,,,,,,,,,,,,,,
1720085304,78,0,4330.512695,4375,4239.615234,4331.538574,4280.641113,4251.922852,4299.615234,4360.384766,4505.128418,4194.487305,4523.974121,4568.205078,4396.922852,4486.538574,,,,,,,,,,,,,,,,,,,,,,,,,,,,,,,,,,,,,,,,,,,,,,,,,,,,,,,,,,,,,,,,,,,,,,
1720085304,79,0,4343.974121,4386.153809,4253.589844,4359.487305,4288.717773,4251.282227,4324.230957,4382.820313,4521.282227,4206.410156,4526.538574,4580.256348,4413.846191,4503.077148,,,,,,,,,,,,,,,,,,,,,,,,,,,,,,,,,,,,,,,,,,,,,,,,,,,,,,,,,,,,,,,,,,,,,,
1720085304,80,0,4334.871582,4377.563965,4243.461426,4339.102539,4289.871582,4247.563965,4324.743652,4382.307617,4526.025879,4205.384766,4498.205078,4570.769043,4410,4497.05127,,,,,,,,,,,,,,,,,,,,,,,,,,,,,,,,,,,,,,,,,,,,,,,,,,,,,,,,,,,,,,,,,,,,,,
1720085304,81,0,4334.487305,4375.769043,4232.94873,4300.641113,4283.717773,4237.05127,4314.358887,4374.358887,4515,4198.589844,4505.384766,4558.717773,4408.461426,4493.974121,,,,,,,,,,,,,,,,,,,,,,,,,,,,,,,,,,,,,,,,,,,,,,,,,,,,,,,,,,,,,,,,,,,,,,
1720085304,82,0,4357.307617,4395.384766,4239.230957,4302.05127,4278.461426,4230.256348,4310.897461,4376.025879,4506.025879,4197.179688,4534.743652,4557.94873,4415,4490.512695,,,,,,,,,,,,,,,,,,,,,,,,,,,,,,,,,,,,,,,,,,,,,,,,,,,,,,,,,,,,,,,,,,,,,,
1720085304,83,0,4365.769043,4403.589844,4236.794922,4320.641113,4280.128418,4228.717773,4305.256348,4369.487305,4496.282227,4198.846191,4531.282227,4552.820313,4415.769043,4478.461426,,,,,,,,,,,,,,,,,,,,,,,,,,,,,,,,,,,,,,,,,,,,,,,,,,,,,,,,,,,,,,,,,,,,,,
1720085304,84,0,4362.94873,4405.512695,4229.487305,4327.563965,4288.333496,4229.615234,4295.769043,4360.128418,4489.487305,4202.563965,4496.025879,4541.153809,4422.692383,4487.05127,,,,,,,,,,,,,,,,,,,,,,,,,,,,,,,,,,,,,,,,,,,,,,,,,,,,,,,,,,,,,,,,,,,,,,
1720085304,85,0,4365.256348,4419.102539,4230.512695,4325,4295.641113,4238.846191,4293.461426,4360,4485,4204.743652,4473.333496,4532.692383,4431.025879,4502.307617,,,,,,,,,,,,,,,,,,,,,,,,,,,,,,,,,,,,,,,,,,,,,,,,,,,,,,,,,,,,,,,,,,,,,,
1720085304,86,0,4362.563965,4426.922852,4234.230957,4324.102539,4297.820313,4248.974121,4292.820313,4361.794922,4478.461426,4203.846191,4475.641113,4532.436035,4423.333496,4496.538574,,,,,,,,,,,,,,,,,,,,,,,,,,,,,,,,,,,,,,,,,,,,,,,,,,,,,,,,,,,,,,,,,,,,,,
1720085304,87,0,4360.641113,4420.897461,4238.717773,4332.05127,4297.307617,4246.666504,4284.743652,4361.153809,4476.282227,4204.615234,4478.205078,4540.641113,4416.153809,4488.846191,,,,,,,,,,,,,,,,,,,,,,,,,,,,,,,,,,,,,,,,,,,,,,,,,,,,,,,,,,,,,,,,,,,,,,
1720085304,88,0,4359.743652,4411.538574,4240.641113,4349.615234,4293.461426,4240.897461,4282.436035,4357.820313,4469.743652,4200.512695,4487.307617,4551.025879,4411.153809,4481.153809,,,,,,,,,,,,,,,,,,,,,,,,,,,,,,,,,,,,,,,,,,,,,,,,,,,,,,,,,,,,,,,,,,,,,,
1720085304,89,0,4360.512695,4409.871582,4248.846191,4370.897461,4293.333496,4243.461426,4300.128418,4363.333496,4466.666504,4206.538574,4517.05127,4565.769043,4412.179688,4479.487305,,,,,,,,,,,,,,,,,,,,,,,,,,,,,,,,,,,,,,,,,,,,,,,,,,,,,,,,,,,,,,,,,,,,,,
1720085304,90,0,4373.974121,4423.205078,4266.538574,4381.410156,4301.025879,4246.282227,4320,4378.333496,4480.384766,4223.205078,4519.102539,4583.205078,4431.538574,4501.410156,6.278867,3.688847,2.094916,1.005409,0.691558,3.925931,3.306866,2.211334,0.71506,0.699315,7.547549,4.475744,1.645532,0.833591,0.819297,3.654161,1.548972,0.74765,1.331022,0.808991,1.642826,2.724334,1.658448,0.559636,0.333271,1.255548,14.465761,3.207876,0.524185,0.195999,0.944809,40.465252,1.071193,0.72308,0.348501,2.083885,33.619301,2.1231,0.434031,0.424715,2.61133,8.290623,1.36966,0.571634,0.499817,2.273378,3.912298,1.705547,1.291826,0.56012,3.582427,10.014939,3.449581,8.878379,3.09399,5.349692,27.126804,4.936151,2.264785,1.155022,4.255965,4.580706,2.021836,1.136364,0.652917,4.373791,11.837023,3.452475,1.621189,1.084918
1720085304,91,0,4386.153809,4441.538574,4279.230957,4385.897461,4303.461426,4247.94873,4326.410156,4388.077148,4486.282227,4226.153809,4494.615234,4591.666504,4448.717773,4520.512695,,,,,,,,,,,,,,,,,,,,,,,,,,,,,,,,,,,,,,,,,,,,,,,,,,,,,,,,,,,,,,,,,,,,,,
1720085304,92,0,4381.538574,4447.692383,4278.717773,4393.846191,4296.666504,4247.179688,4328.205078,4392.436035,4478.846191,4217.563965,4501.282227,4590.897461,4449.871582,4518.846191,,,,,,,,,,,,,,,,,,,,,,,,,,,,,,,,,,,,,,,,,,,,,,,,,,,,,,,,,,,,,,,,,,,,,,
1720085304,93,0,4376.025879,4444.615234,4277.94873,4401.153809,4293.974121,4243.077148,4329.487305,4396.666504,4485.769043,4215.897461,4534.358887,4593.461426,4456.025879,4514.743652,,,,,,,,,,,,,,,,,,,,,,,,,,,,,,,,,,,,,,,,,,,,,,,,,,,,,,,,,,,,,,,,,,,,,,
1720085304,94,0,4373.846191,4438.333496,4281.538574,4394.615234,4293.974121,4243.333496,4320.897461,4391.153809,4480.897461,4211.410156,4544.102539,4591.794922,4466.410156,4508.846191,,,,,,,,,,,,,,,,,,,,,,,,,,,,,,,,,,,,,,,,,,,,,,,,,,,,,,,,,,,,,,,,,,,,,,
1720085304,95,0,4365.384766,4433.589844,4282.563965,4381.538574,4296.282227,4243.974121,4308.461426,4377.307617,4447.94873,4192.05127,4529.230957,4578.974121,4461.410156,4499.743652,,,,,,,,,,,,,,,,,,,,,,,,,,,,,,,,,,,,,,,,,,,,,,,,,,,,,,,,,,,,,,,,,,,,,,
1720085304,96,0,4342.820313,4427.179688,4265.256348,4377.563965,4294.102539,4234.230957,4291.794922,4356.794922,4421.153809,4165.256348,4510.256348,4549.487305,4443.461426,4486.922852,,,,,,,,,,,,,,,,,,,,,,,,,,,,,,,,,,,,,,,,,,,,,,,,,,,,,,,,,,,,,,,,,,,,,,
1720085304,97,0,4319.743652,4417.436035,4234.230957,4384.230957,4279.615234,4223.333496,4273.333496,4334.615234,4412.94873,4142.94873,4486.922852,4514.487305,4429.230957,4469.487305,,,,,,,,,,,,,,,,,,,,,,,,,,,,,,,,,,,,,,,,,,,,,,,,,,,,,,,,,,,,,,,,,,,,,,
1720085304,98,0,4335.128418,4433.461426,4238.205078,4396.025879,4282.307617,4230.769043,4278.846191,4351.025879,4426.922852,4155.512695,4498.205078,4521.666504,4450.384766,4474.230957,,,,,,,,,,,,,,,,,,,,,,,,,,,,,,,,,,,,,,,,,,,,,,,,,,,,,,,,,,,,,,,,,,,,,,
1720085304,99,0,4357.820313,4456.666504,4265,4391.153809,4305.769043,4244.487305,4297.05127,4380.641113,4444.230957,4180.384766,4543.077148,4553.461426,4486.025879,4495.769043,,,,,,,,,,,,,,,,,,,,,,,,,,,,,,,,,,,,,,,,,,,,,,,,,,,,,,,,,,,,,,,,,,,,,,
1720085304,100,0,4351.282227,4454.358887,4264.871582,4382.820313,4313.205078,4247.820313,4296.153809,4374.871582,4439.358887,4177.563965,4561.025879,4561.794922,4493.974121,4510,,,,,,,,,,,,,,,,,,,,,,,,,,,,,,,,,,,,,,,,,,,,,,,,,,,,,,,,,,,,,,,,,,,,,,
1720085304,101,0,4349.871582,4456.410156,4260.384766,4396.282227,4307.05127,4243.846191,4286.153809,4365.769043,4431.794922,4175.384766,4549.743652,4563.205078,4496.410156,4518.461426,,,,,,,,,,,,,,,,,,,,,,,,,,,,,,,,,,,,,,,,,,,,,,,,,,,,,,,,,,,,,,,,,,,,,,
1720085304,102,0,4358.205078,4477.692383,4274.102539,4413.205078,4310,4243.077148,4287.94873,4374.487305,4441.794922,4196.282227,4552.05127,4575.769043,4504.743652,4521.410156,,,,,,,,,,,,,,,,,,,,,,,,,,,,,,,,,,,,,,,,,,,,,,,,,,,,,,,,,,,,,,,,,,,,,,
1720085304,103,0,4345.641113,4483.333496,4281.538574,4416.282227,4318.461426,4253.461426,4301.025879,4377.94873,4446.538574,4219.102539,4558.077148,4575.384766,4500.256348,4512.563965,,,,,,,,,,,,,,,,,,,,,,,,,,,,,,,,,,,,,,,,,,,,,,,,,,,,,,,,,,,,,,,,,,,,,,
1720085304,104,0,4327.05127,4465.384766,4271.794922,4406.410156,4325.256348,4261.538574,4313.333496,4377.05127,4434.102539,4218.974121,4540.897461,4558.717773,4489.487305,4497.307617,,,,,,,,,,,,,,,,,,,,,,,,,,,,,,,,,,,,,,,,,,,,,,,,,,,,,,,,,,,,,,,,,,,,,,
1720085304,105,0,4331.410156,4461.666504,4269.102539,4396.153809,4333.461426,4263.077148,4321.410156,4383.974121,4427.563965,4202.307617,4528.846191,4558.077148,4489.871582,4490,,,,,,,,,,,,,,,,,,,,,,,,,,,,,,,,,,,,,,,,,,,,,,,,,,,,,,,,,,,,,,,,,,,,,,
1720085304,106,0,4338.974121,4470.256348,4275,4392.692383,4331.794922,4264.102539,4325,4386.410156,4425,4201.794922,4542.179688,4558.461426,4488.077148,4489.102539,6.157382,3.646899,2.463914,1.065997,0.711143,3.944857,3.284607,2.256408,0.742777,0.762823,6.804046,4.099917,1.769279,0.977049,0.872689,4.056738,1.324417,0.788008,1.487785,0.866217,1.957056,2.717925,1.511506,0.544539,0.318936,1.434363,17.533543,3.004565,0.56667,0.191977,1.408931,47.767788,1.184993,0.847112,0.351144,2.106475,36.423702,1.946478,0.480275,0.431752,2.39476,7.031923,1.276538,0.503667,0.5021,2.666785,3.779536,1.613558,1.325324,0.529042,3.307173,10.735573,3.783565,8.977517,3.207651,5.191117,28.522005,5.09751,2.171776,1.235384,5.146514,4.947198,2.16976,1.068408,0.711771,3.829383,12.75467,3.714685,1.517419,1.185959
1720085304,107,0,4339.615234,4460.769043,4279.743652,4401.153809,4320.256348,4258.589844,4327.692383,4387.563965,4415.128418,4195.128418,4565.897461,4550.128418,4486.666504,4489.102539,,,,,,,,,,,,,,,,,,,,,,,,,,,,,,,,,,,,,,,,,,,,,,,,,,,,,,,,,,,,,,,,,,,,,,
1720085304,108,0,4340.769043,4439.102539,4285.641113,4401.922852,4320.384766,4247.563965,4325.128418,4390.641113,4401.282227,4136.922852,4572.820313,4549.743652,4495.256348,4491.025879,,,,,,,,,,,,,,,,,,,,,,,,,,,,,,,,,,,,,,,,,,,,,,,,,,,,,,,,,,,,,,,,,,,,,,
1720085304,109,0,4345.128418,4437.179688,4296.153809,4393.589844,4333.717773,4245.256348,4320.384766,4380.897461,4395.128418,4095.897461,4570.769043,4561.282227,4509.871582,4502.179688,,,,,,,,,,,,,,,,,,,,,,,,,,,,,,,,,,,,,,,,,,,,,,,,,,,,,,,,,,,,,,,,,,,,,,
1720085304,110,0,4348.846191,4446.025879,4299.487305,4402.05127,4334.871582,4247.94873,4312.436035,4364.358887,4396.922852,4143.974121,4588.205078,4566.153809,4520.897461,4516.153809,,,,,,,,,,,,,,,,,,,,,,,,,,,,,,,,,,,,,,,,,,,,,,,,,,,,,,,,,,,,,,,,,,,,,,
1720085304,111,0,4333.974121,4440.128418,4285.897461,4401.282227,4324.230957,4245.256348,4296.538574,4352.307617,4396.410156,4213.077148,4596.794922,4552.05127,4515.128418,4515.384766,,,,,,,,,,,,,,,,,,,,,,,,,,,,,,,,,,,,,,,,,,,,,,,,,,,,,,,,,,,,,,,,,,,,,,
1720085304,112,0,4314.358887,4438.974121,4274.871582,4383.589844,4325.128418,4245.256348,4288.717773,4345,4398.333496,4240.897461,4587.563965,4538.333496,4509.230957,4503.461426,,,,,,,,,,,,,,,,,,,,,,,,,,,,,,,,,,,,,,,,,,,,,,,,,,,,,,,,,,,,,,,,,,,,,,
1720085304,113,0,4308.589844,4443.077148,4269.358887,4378.717773,4328.974121,4249.871582,4289.743652,4338.974121,4398.974121,4247.94873,4583.974121,4533.974121,4508.974121,4495.128418,,,,,,,,,,,,,,,,,,,,,,,,,,,,,,,,,,,,,,,,,,,,,,,,,,,,,,,,,,,,,,,,,,,,,,
1720085304,114,0,4306.538574,4440,4261.538574,4383.846191,4327.692383,4263.589844,4294.615234,4343.205078,4397.692383,4253.846191,4575.512695,4535.769043,4505.641113,4495.769043,,,,,,,,,,,,,,,,,,,,,,,,,,,,,,,,,,,,,,,,,,,,,,,,,,,,,,,,,,,,,,,,,,,,,,
1720085304,115,0,4299.743652,4442.436035,4260.769043,4373.717773,4331.538574,4276.794922,4310,4356.410156,4397.179688,4252.307617,4565,4544.358887,4505.897461,4500.769043,,,,,,,,,,,,,,,,,,,,,,,,,,,,,,,,,,,,,,,,,,,,,,,,,,,,,,,,,,,,,,,,,,,,,,
1720085304,116,0,4297.563965,4443.205078,4263.333496,4363.846191,4334.102539,4271.282227,4331.538574,4366.025879,4388.205078,4240.897461,4565.897461,4554.102539,4503.717773,4503.717773,,,,,,,,,,,,,,,,,,,,,,,,,,,,,,,,,,,,,,,,,,,,,,,,,,,,,,,,,,,,,,,,,,,,,,
1720085304,117,0,4299.871582,4440.128418,4265.512695,4382.05127,4328.461426,4266.410156,4346.282227,4374.487305,4377.179688,4239.358887,4566.538574,4558.205078,4493.077148,4501.025879,,,,,,,,,,,,,,,,,,,,,,,,,,,,,,,,,,,,,,,,,,,,,,,,,,,,,,,,,,,,,,,,,,,,,,
1720085304,118,0,4305.128418,4450.641113,4272.179688,4399.743652,4326.666504,4264.871582,4354.487305,4387.692383,4378.846191,4246.410156,4578.846191,4563.846191,4487.692383,4502.436035,,,,,,,,,,,,,,,,,,,,,,,,,,,,,,,,,,,,,,,,,,,,,,,,,,,,,,,,,,,,,,,,,,,,,,
1720085304,119,0,4318.974121,4462.563965,4277.563965,4398.077148,4330.512695,4252.563965,4361.666504,4395.641113,4380.512695,4205.769043,4596.538574,4569.871582,4492.692383,4508.077148,,,,,,,,,,,,,,,,,,,,,,,,,,,,,,,,,,,,,,,,,,,,,,,,,,,,,,,,,,,,,,,,,,,,,,
1720085304,120,0,4327.563965,4463.974121,4280.256348,4398.205078,4337.307617,4249.230957,4361.282227,4393.333496,4367.563965,4141.282227,4588.333496,4566.410156,4490.384766,4511.282227,,,,,,,,,,,,,,,,,,,,,,,,,,,,,,,,,,,,,,,,,,,,,,,,,,,,,,,,,,,,,,,,,,,,,,
1720085304,121,0,4331.794922,4476.538574,4295.128418,4416.153809,4348.974121,4259.358887,4357.307617,4389.615234,4360.641113,4133.974121,4584.871582,4570.641113,4488.333496,4524.743652,,,,,,,,,,,,,,,,,,,,,,,,,,,,,,,,,,,,,,,,,,,,,,,,,,,,,,,,,,,,,,,,,,,,,,
1720085304,122,0,4341.794922,4493.205078,4310.512695,4429.102539,4349.230957,4254.615234,4349.102539,4382.563965,4364.615234,4161.794922,4609.230957,4578.333496,4496.794922,4542.05127,5.611065,3.680218,2.682573,1.063135,0.728862,4.101592,3.337628,2.269907,0.723911,0.796209,5.725883,4.159957,1.859606,1.213868,0.913195,4.516698,1.465095,0.776108,1.565308,0.955853,2.49681,2.554395,1.301011,0.510019,0.30385,1.669851,19.396502,2.767555,0.619851,0.185802,1.993348,51.642593,1.23567,0.952785,0.344911,2.19455,38.966328,1.700116,0.57181,0.435644,2.127583,5.894795,1.340747,0.46809,0.506499,3.516895,3.806931,1.533786,1.334253,0.529653,3.054409,11.167584,3.869897,8.471155,3.172208,4.902328,29.270828,4.834161,2.058088,1.2463,5.895308,5.118704,2.18363,1.002605,0.737677,3.087853,12.9512,3.672499,1.461856,1.24108
1720085304,123,0,4344.358887,4492.94873,4312.05127,4428.974121,4333.717773,4245,4333.333496,4366.153809,4357.94873,4170,4609.102539,4571.666504,4506.538574,4551.922852,,,,,,,,,,,,,,,,,,,,,,,,,,,,,,,,,,,,,,,,,,,,,,,,,,,,,,,,,,,,,,,,,,,,,,
1720085304,124,0,4340,4491.153809,4310.897461,4433.589844,4325.256348,4250.641113,4314.230957,4347.820313,4341.538574,4175.769043,4580.128418,4557.563965,4508.077148,4555.897461,,,,,,,,,,,,,,,,,,,,,,,,,,,,,,,,,,,,,,,,,,,,,,,,,,,,,,,,,,,,,,,,,,,,,,
1720085304,125,0,4337.05127,4493.461426,4306.025879,4433.846191,4327.94873,4246.922852,4294.871582,4327.307617,4324.230957,4189.487305,4574.230957,4542.692383,4502.820313,4546.410156,,,,,,,,,,,,,,,,,,,,,,,,,,,,,,,,,,,,,,,,,,,,,,,,,,,,,,,,,,,,,,,,,,,,,,
1720085304,126,0,4334.358887,4495.641113,4296.025879,4430.641113,4328.717773,4231.025879,4275.512695,4309.871582,4317.179688,4207.820313,4586.153809,4531.922852,4500.512695,4535.256348,,,,,,,,,,,,,,,,,,,,,,,,,,,,,,,,,,,,,,,,,,,,,,,,,,,,,,,,,,,,,,,,,,,,,,
1720085304,127,0,4336.410156,4511.025879,4292.307617,4439.615234,4333.461426,4230.256348,4262.563965,4305.256348,4327.436035,4279.743652,4581.538574,4533.589844,4501.153809,4541.666504,,,,,,,,,,,,,,,,,,,,,,,,,,,,,,,,,,,,,,,,,,,,,,,,,,,,,,,,,,,,,,,,,,,,,,
1720085304,0,0,4338.333496,4525.769043,4291.410156,4452.692383,4343.846191,4243.589844,4266.538574,4310.769043,4341.025879,4382.436035,4565.256348,4535.512695,4493.205078,4542.436035,,,,,,,,,,,,,,,,,,,,,,,,,,,,,,,,,,,,,,,,,,,,,,,,,,,,,,,,,,,,,,,,,,,,,,
1720085304,1,0,4320.897461,4509.743652,4274.743652,4444.871582,4343.461426,4251.922852,4280.897461,4320.256348,4340.641113,4401.410156,4554.358887,4522.436035,4474.743652,4519.102539,,,,,,,,,,,,,,,,,,,,,,,,,,,,,,,,,,,,,,,,,,,,,,,,,,,,,,,,,,,,,,,,,,,,,,
1720085304,2,0,4301.410156,4487.05127,4257.179688,4422.94873,4336.666504,4252.05127,4304.615234,4342.307617,4338.717773,4352.692383,4547.307617,4518.461426,4461.410156,4509.102539,,,,,,,,,,,,,,,,,,,,,,,,,,,,,,,,,,,,,,,,,,,,,,,,,,,,,,,,,,,,,,,,,,,,,,
1720085304,3,0,4312.05127,4495.256348,4270.256348,4429.487305,4336.025879,4250.384766,4342.94873,4378.589844,4350.256348,4346.538574,4555.256348,4545.512695,4470.384766,4532.692383,,,,,,,,,,,,,,,,,,,,,,,,,,,,,,,,,,,,,,,,,,,,,,,,,,,,,,,,,,,,,,,,,,,,,,
1720085304,4,0,4328.974121,4512.05127,4293.205078,4457.179688,4333.589844,4245.641113,4370.128418,4403.974121,4352.436035,4360.384766,4573.846191,4572.94873,4484.615234,4547.307617,,,,,,,,,,,,,,,,,,,,,,,,,,,,,,,,,,,,,,,,,,,,,,,,,,,,,,,,,,,,,,,,,,,,,,
1720085304,5,0,4325.256348,4509.871582,4294.230957,4466.538574,4328.717773,4245.512695,4371.666504,4405,4331.666504,4342.820313,4570.897461,4572.179688,4486.025879,4539.871582,,,,,,,,,,,,,,,,,,,,,,,,,,,,,,,,,,,,,,,,,,,,,,,,,,,,,,,,,,,,,,,,,,,,,,
1720085304,6,0,4323.589844,4506.794922,4294.743652,4468.846191,4326.666504,4246.410156,4368.077148,4401.153809,4311.538574,4323.589844,4571.794922,4569.102539,4488.717773,4551.410156,,,,,,,,,,,,,,,,,,,,,,,,,,,,,,,,,,,,,,,,,,,,,,,,,,,,,,,,,,,,,,,,,,,,,,
1720085304,7,0,4338.205078,4510.256348,4315.641113,4480.897461,4325.384766,4235.769043,4366.025879,4400.384766,4305.897461,4291.282227,4593.205078,4578.333496,4507.05127,4577.05127,,,,,,,,,,,,,,,,,,,,,,,,,,,,,,,,,,,,,,,,,,,,,,,,,,,,,,,,,,,,,,,,,,,,,,
1720085304,8,0,4348.974121,4510.641113,4331.794922,4479.615234,4326.538574,4229.358887,4356.538574,4394.102539,4303.717773,4244.487305,4602.820313,4576.282227,4518.589844,4581.153809,,,,,,,,,,,,,,,,,,,,,,,,,,,,,,,,,,,,,,,,,,,,,,,,,,,,,,,,,,,,,,,,,,,,,,
1720085304,9,0,4351.794922,4515.256348,4332.179688,4474.871582,4336.794922,4239.230957,4345.256348,4381.282227,4294.487305,4236.922852,4607.436035,4562.820313,4514.487305,4565.512695,,,,,,,,,,,,,,,,,,,,,,,,,,,,,,,,,,,,,,,,,,,,,,,,,,,,,,,,,,,,,,,,,,,,,,
1720085304,10,0,4342.820313,4515.897461,4312.820313,4472.563965,4342.692383,4246.410156,4327.94873,4357.436035,4276.410156,4242.179688,4599.743652,4534.615234,4504.615234,4541.538574,4.7614,3.780197,2.785621,0.998762,0.743267,4.212972,3.427171,2.363774,0.669129,0.791377,4.610782,4.509864,1.870923,1.467065,0.935335,4.999808,2.135331,0.741714,1.579399,1.06303,3.137891,2.295122,1.108514,0.462175,0.286869,1.880437,19.563307,2.505432,0.657619,0.180002,2.549503,50.765495,1.210818,1.005261,0.33223,2.273851,39.542107,1.425823,0.664778,0.438319,1.89477,5.018211,1.534068,0.449949,0.503984,4.242098,4.070211,1.434752,1.313823,0.560089,2.650896,10.72769,3.699172,7.466371,3.013697,4.504322,28.268375,4.190916,1.961648,1.181403,5.884293,4.818217,2.072671,0.938301,0.727275,2.314885,12.092397,3.353649,1.499805,1.22886
1720085304,11,0,4325.384766,4503.461426,4284.615234,4452.94873,4344.102539,4251.922852,4309.615234,4336.538574,4271.922852,4246.410156,4564.615234,4507.05127,4496.538574,4532.563965,,,,,,,,,,,,,,,,,,,,,,,,,,,,,,,,,,,,,,,,,,,,,,,,,,,,,,,,,,,,,,,,,,,,,,
1720085304,12,0,4325.641113,4503.589844,4281.538574,4443.717773,4348.717773,4263.589844,4306.025879,4339.487305,4287.563965,4297.563965,4550.128418,4508.589844,4488.077148,4533.077148,,,,,,,,,,,,,,,,,,,,,,,,,,,,,,,,,,,,,,,,,,,,,,,,,,,,,,,,,,,,,,,,,,,,,,
1720085304,13,0,4338.846191,4518.205078,4297.179688,4459.615234,4346.025879,4265,4307.307617,4348.205078,4290.512695,4344.615234,4569.743652,4520.128418,4484.102539,4517.179688,,,,,,,,,,,,,,,,,,,,,,,,,,,,,,,,,,,,,,,,,,,,,,,,,,,,,,,,,,,,,,,,,,,,,,
1720085304,14,0,4344.487305,4522.94873,4305.128418,4464.230957,4344.358887,4262.563965,4313.974121,4356.282227,4286.153809,4337.820313,4592.05127,4526.922852,4491.538574,4519.487305,,,,,,,,,,,,,,,,,,,,,,,,,,,,,,,,,,,,,,,,,,,,,,,,,,,,,,,,,,,,,,,,,,,,,,
1720085304,15,0,4348.077148,4516.922852,4308.077148,4460.641113,4355.897461,4275.769043,4332.436035,4379.743652,4296.153809,4336.282227,4613.461426,4543.846191,4503.974121,4551.153809,,,,,,,,,,,,,,,,,,,,,,,,,,,,,,,,,,,,,,,,,,,,,,,,,,,,,,,,,,,,,,,,,,,,,,
1720085304,16,0,4353.717773,4522.05127,4316.666504,4473.205078,4363.333496,4281.410156,4346.410156,4398.205078,4299.230957,4350.256348,4629.230957,4561.922852,4517.692383,4566.025879,,,,,,,,,,,,,,,,,,,,,,,,,,,,,,,,,,,,,,,,,,,,,,,,,,,,,,,,,,,,,,,,,,,,,,
1720085304,17,0,4353.077148,4532.179688,4311.794922,4480.384766,4356.153809,4265.256348,4341.922852,4389.871582,4283.589844,4345.384766,4618.077148,4552.820313,4526.794922,4552.179688,,,,,,,,,,,,,,,,,,,,,,,,,,,,,,,,,,,,,,,,,,,,,,,,,,,,,,,,,,,,,,,,,,,,,,
1720085304,18,0,4352.692383,4533.974121,4295.384766,4476.153809,4348.717773,4258.077148,4329.871582,4380.897461,4273.205078,4342.05127,4601.666504,4532.692383,4519.615234,4534.743652,,,,,,,,,,,,,,,,,,,,,,,,,,,,,,,,,,,,,,,,,,,,,,,,,,,,,,,,,,,,,,,,,,,,,,
1720085304,19,0,4362.820313,4546.794922,4298.205078,4497.307617,4352.307617,4267.307617,4329.743652,4392.05127,4282.436035,4364.743652,4611.410156,4539.743652,4518.589844,4535.256348,,,,,,,,,,,,,,,,,,,,,,,,,,,,,,,,,,,,,,,,,,,,,,,,,,,,,,,,,,,,,,,,,,,,,,
1720085304,20,0,4358.974121,4556.922852,4301.922852,4516.538574,4356.025879,4268.589844,4328.974121,4393.461426,4287.436035,4374.871582,4631.025879,4547.563965,4527.05127,4547.436035,,,,,,,,,,,,,,,,,,,,,,,,,,,,,,,,,,,,,,,,,,,,,,,,,,,,,,,,,,,,,,,,,,,,,,
1720085304,21,0,4319.871582,4530.384766,4269.871582,4481.153809,4350.512695,4261.922852,4305.641113,4365.769043,4262.05127,4340.384766,4630.641113,4512.692383,4516.282227,4535,,,,,,,,,,,,,,,,,,,,,,,,,,,,,,,,,,,,,,,,,,,,,,,,,,,,,,,,,,,,,,,,,,,,,,
1720085304,22,0,4295.128418,4511.025879,4250.897461,4453.205078,4352.436035,4265.384766,4289.487305,4351.025879,4240.256348,4319.871582,4613.077148,4479.615234,4505.769043,4507.179688,,,,,,,,,,,,,,,,,,,,,,,,,,,,,,,,,,,,,,,,,,,,,,,,,,,,,,,,,,,,,,,,,,,,,,
1720085304,23,0,4323.846191,4538.589844,4287.820313,4483.205078,4366.922852,4276.922852,4302.307617,4368.333496,4258.717773,4352.436035,4608.717773,4499.230957,4522.94873,4514.615234,,,,,,,,,,,,,,,,,,,,,,,,,,,,,,,,,,,,,,,,,,,,,,,,,,,,,,,,,,,,,,,,,,,,,,
1720085304,24,0,4337.307617,4555.384766,4306.153809,4493.205078,4366.025879,4281.794922,4303.461426,4368.974121,4266.153809,4368.974121,4607.307617,4513.077148,4527.820313,4527.179688,,,,,,,,,,,,,,,,,,,,,,,,,,,,,,,,,,,,,,,,,,,,,,,,,,,,,,,,,,,,,,,,,,,,,,
1720085305,25,0,4310.512695,4543.205078,4287.436035,4467.563965,4354.230957,4277.436035,4289.358887,4351.666504,4245.128418,4351.025879,4601.025879,4501.538574,4515.128418,4517.05127,,,,,,,,,,,,,,,,,,,,,,,,,,,,,,,,,,,,,,,,,,,,,,,,,,,,,,,,,,,,,,,,,,,,,,
1720085305,26,0,4311.538574,4552.820313,4292.820313,4479.615234,4355,4272.179688,4291.794922,4355.384766,4243.717773,4353.077148,4609.358887,4518.717773,4520.512695,4522.692383,3.901117,3.917807,2.868986,0.900431,0.747838,4.323886,3.531434,2.60364,0.607649,0.752965,3.619423,5.063115,1.797824,1.663622,0.935695,5.606934,3.315388,0.719464,1.562265,1.169015,3.79061,2.006281,0.983957,0.413005,0.267759,2.021217,18.01465,2.23493,0.663011,0.17701,3.003376,45.623051,1.157319,1.004197,0.316271,2.358969,37.228142,1.254728,0.747315,0.44019,1.647898,4.416302,1.876597,0.456139,0.489136,4.92991,5.541492,1.444415,1.373496,0.62458,2.23507,9.391042,3.509805,6.217511,2.783179,3.893126,25.4324,3.467175,1.906423,1.056337,5.287707,4.083401,2.000735,0.901997,0.688757,1.619064,10.328952,2.965677,1.634126,1.14133
1720085305,27,0,4340.897461,4578.077148,4316.025879,4520,4357.94873,4272.94873,4297.307617,4364.871582,4248.717773,4358.974121,4620.641113,4544.102539,4535.128418,4539.743652,,,,,,,,,,,,,,,,,,,,,,,,,,,,,,,,,,,,,,,,,,,,,,,,,,,,,,,,,,,,,,,,,,,,,,
1720085305,28,0,4350.384766,4593.461426,4328.205078,4529.358887,4360.128418,4274.743652,4295.512695,4363.717773,4236.666504,4351.025879,4632.436035,4543.077148,4541.410156,4540.128418,,,,,,,,,,,,,,,,,,,,,,,,,,,,,,,,,,,,,,,,,,,,,,,,,,,,,,,,,,,,,,,,,,,,,,
1720085305,29,0,4341.538574,4596.153809,4328.205078,4513.589844,4367.563965,4274.487305,4297.692383,4365.769043,4232.436035,4362.692383,4634.871582,4537.563965,4538.974121,4529.487305,,,,,,,,,,,,,,,,,,,,,,,,,,,,,,,,,,,,,,,,,,,,,,,,,,,,,,,,,,,,,,,,,,,,,,
1720085305,30,0,4330.512695,4582.94873,4313.461426,4505.897461,4365.128418,4275.256348,4297.94873,4364.871582,4235.256348,4369.230957,4614.487305,4531.153809,4525.769043,4517.692383,,,,,,,,,,,,,,,,,,,,,,,,,,,,,,,,,,,,,,,,,,,,,,,,,,,,,,,,,,,,,,,,,,,,,,
1720085305,31,0,4323.205078,4572.563965,4300,4503.717773,4356.794922,4277.94873,4293.205078,4356.794922,4232.05127,4355.897461,4597.692383,4517.692383,4517.563965,4508.205078,,,,,,,,,,,,,,,,,,,,,,,,,,,,,,,,,,,,,,,,,,,,,,,,,,,,,,,,,,,,,,,,,,,,,,
1720085305,32,0,4326.922852,4571.922852,4306.153809,4496.025879,4360.512695,4278.974121,4290.256348,4357.05127,4229.871582,4361.538574,4603.077148,4510.256348,4520,4510.512695,,,,,,,,,,,,,,,,,,,,,,,,,,,,,,,,,,,,,,,,,,,,,,,,,,,,,,,,,,,,,,,,,,,,,,
1720085305,33,0,4330.256348,4562.94873,4312.820313,4492.94873,4370.384766,4279.743652,4290.897461,4357.692383,4222.307617,4366.025879,4609.743652,4509.230957,4518.077148,4507.692383,,,,,,,,,,,,,,,,,,,,,,,,,,,,,,,,,,,,,,,,,,,,,,,,,,,,,,,,,,,,,,,,,,,,,,
1720085305,34,0,4326.282227,4551.153809,4310.512695,4489.230957,4369.358887,4282.179688,4289.743652,4347.563965,4207.307617,4345.769043,4600.256348,4504.230957,4508.846191,4493.974121,,,,,,,,,,,,,,,,,,,,,,,,,,,,,,,,,,,,,,,,,,,,,,,,,,,,,,,,,,,,,,,,,,,,,,
1720085305,35,0,4323.077148,4549.358887,4312.05127,4477.820313,4359.615234,4278.589844,4284.230957,4341.538574,4200.769043,4340.128418,4585.384766,4496.538574,4503.717773,4489.615234,,,,,,,,,,,,,,,,,,,,,,,,,,,,,,,,,,,,,,,,,,,,,,,,,,,,,,,,,,,,,,,,,,,,,,
1720085305,36,0,4328.205078,4550.256348,4321.794922,4489.230957,4356.153809,4268.717773,4277.307617,4340.256348,4198.717773,4354.871582,4584.615234,4493.717773,4507.563965,4496.666504,,,,,,,,,,,,,,,,,,,,,,,,,,,,,,,,,,,,,,,,,,,,,,,,,,,,,,,,,,,,,,,,,,,,,,
1720085305,37,0,4341.922852,4553.974121,4335.384766,4512.820313,4360,4264.487305,4273.205078,4338.717773,4196.282227,4358.589844,4603.974121,4506.794922,4520.256348,4510,,,,,,,,,,,,,,,,,,,,,,,,,,,,,,,,,,,,,,,,,,,,,,,,,,,,,,,,,,,,,,,,,,,,,,
1720085305,38,0,4343.974121,4552.94873,4339.743652,4500,4360.384766,4266.153809,4270.897461,4336.794922,4195,4350.897461,4610.128418,4516.922852,4523.461426,4513.461426,,,,,,,,,,,,,,,,,,,,,,,,,,,,,,,,,,,,,,,,,,,,,,,,,,,,,,,,,,,,,,,,,,,,,,
1720085305,39,0,4334.871582,4543.461426,4336.794922,4478.717773,4355.769043,4266.282227,4272.563965,4335.769043,4193.333496,4345.769043,4597.820313,4516.153809,4511.538574,4505.512695,,,,,,,,,,,,,,,,,,,,,,,,,,,,,,,,,,,,,,,,,,,,,,,,,,,,,,,,,,,,,,,,,,,,,,
1720085305,40,0,4339.487305,4549.102539,4343.205078,4488.589844,4359.102539,4271.410156,4285.769043,4350.512695,4202.179688,4360.384766,4603.846191,4532.179688,4512.179688,4505.769043,,,,,,,,,,,,,,,,,,,,,,,,,,,,,,,,,,,,,,,,,,,,,,,,,,,,,,,,,,,,,,,,,,,,,,
1720085305,41,0,4347.307617,4561.666504,4347.563965,4496.922852,4361.282227,4269.743652,4291.410156,4365.128418,4209.102539,4381.922852,4604.871582,4542.692383,4523.589844,4507.05127,,,,,,,,,,,,,,,,,,,,,,,,,,,,,,,,,,,,,,,,,,,,,,,,,,,,,,,,,,,,,,,,,,,,,,
1720085305,42,0,4340,4554.230957,4340.256348,4490.384766,4349.358887,4253.717773,4283.333496,4360,4195.384766,4380.897461,4587.436035,4522.94873,4521.410156,4494.230957,3.311812,4.09398,3.032444,0.801046,0.737207,4.324324,3.603878,2.971103,0.57028,0.698546,2.950219,5.864463,1.709565,1.754897,0.916415,6.099952,4.782916,0.744931,1.533377,1.248966,4.185875,1.722731,0.932098,0.380659,0.248307,2.048504,15.206057,1.977782,0.627991,0.178511,3.538177,38.588326,1.144695,0.961125,0.29875,2.538013,32.770863,1.256511,0.812931,0.439827,1.392675,4.059729,2.376273,0.496382,0.465186,6.663129,10.189925,1.716388,1.694595,0.742148,1.848052,7.653306,3.542262,5.017764,2.532612,3.275403,21.764647,2.990611,1.875423,0.904135,3.976084,3.230921,2.137176,0.904854,0.635861,1.166786,8.251689,2.767802,1.806912,0.994635
1720085305,43,0,4339.743652,4553.205078,4343.461426,4492.563965,4344.615234,4251.922852,4287.692383,4361.025879,4191.410156,4377.436035,4593.589844,4513.333496,4524.487305,4485.641113,,,,,,,,,,,,,,,,,,,,,,,,,,,,,,,,,,,,,,,,,,,,,,,,,,,,,,,,,,,,,,,,,,,,,,
1720085305,44,0,4346.922852,4558.846191,4348.461426,4488.717773,4349.743652,4263.333496,4295.128418,4368.205078,4202.436035,4386.410156,4608.461426,4515.769043,4535.128418,4491.538574,,,,,,,,,,,,,,,,,,,,,,,,,,,,,,,,,,,,,,,,,,,,,,,,,,,,,,,,,,,,,,,,,,,,,,
1720085305,45,0,4333.589844,4542.436035,4332.179688,4470.256348,4352.179688,4259.230957,4276.025879,4341.794922,4186.666504,4379.615234,4590,4490.128418,4527.563965,4482.179688,,,,,,,,,,,,,,,,,,,,,,,,,,,,,,,,,,,,,,,,,,,,,,,,,,,,,,,,,,,,,,,,,,,,,,
1720085305,46,0,4319.102539,4531.538574,4325.128418,4471.922852,4358.717773,4258.333496,4260.641113,4309.358887,4163.846191,4364.743652,4571.282227,4467.05127,4517.820313,4469.230957,,,,,,,,,,,,,,,,,,,,,,,,,,,,,,,,,,,,,,,,,,,,,,,,,,,,,,,,,,,,,,,,,,,,,,
1720085305,47,0,4322.436035,4536.025879,4336.794922,4490.384766,4367.94873,4275.512695,4271.282227,4307.563965,4168.974121,4378.333496,4566.025879,4472.692383,4518.205078,4472.692383,,,,,,,,,,,,,,,,,,,,,,,,,,,,,,,,,,,,,,,,,,,,,,,,,,,,,,,,,,,,,,,,,,,,,,
1720085305,48,0,4326.282227,4529.743652,4338.205078,4493.333496,4369.487305,4281.922852,4272.179688,4307.563965,4168.077148,4377.692383,4557.05127,4465.641113,4511.666504,4470.384766,,,,,,,,,,,,,,,,,,,,,,,,,,,,,,,,,,,,,,,,,,,,,,,,,,,,,,,,,,,,,,,,,,,,,,
1720085305,49,0,4323.461426,4525.512695,4334.871582,4485.128418,4369.230957,4272.94873,4268.205078,4307.94873,4154.230957,4313.846191,4568.717773,4454.102539,4508.589844,4463.974121,,,,,,,,,,,,,,,,,,,,,,,,,,,,,,,,,,,,,,,,,,,,,,,,,,,,,,,,,,,,,,,,,,,,,,
1720085305,50,0,4325.128418,4535,4341.025879,4478.974121,4368.077148,4268.461426,4284.358887,4326.025879,4157.05127,4252.820313,4591.282227,4464.102539,4516.282227,4469.102539,,,,,,,,,,,,,,,,,,,,,,,,,,,,,,,,,,,,,,,,,,,,,,,,,,,,,,,,,,,,,,,,,,,,,,
1720085305,51,0,4332.820313,4540.769043,4344.487305,4473.077148,4358.589844,4266.025879,4298.077148,4341.922852,4160.641113,4249.615234,4586.410156,4476.666504,4520,4477.94873,,,,,,,,,,,,,,,,,,,,,,,,,,,,,,,,,,,,,,,,,,,,,,,,,,,,,,,,,,,,,,,,,,,,,,
1720085305,52,0,4343.077148,4544.743652,4348.974121,4482.179688,4354.615234,4261.153809,4302.436035,4351.538574,4154.871582,4262.94873,4577.820313,4495.256348,4523.461426,4493.077148,,,,,,,,,,,,,,,,,,,,,,,,,,,,,,,,,,,,,,,,,,,,,,,,,,,,,,,,,,,,,,,,,,,,,,
1720085305,53,0,4356.282227,4558.205078,4371.153809,4507.05127,4360.128418,4262.05127,4313.205078,4368.333496,4164.358887,4269.102539,4602.179688,4537.94873,4543.589844,4515.128418,,,,,,,,,,,,,,,,,,,,,,,,,,,,,,,,,,,,,,,,,,,,,,,,,,,,,,,,,,,,,,,,,,,,,,
1720085305,54,0,4359.230957,4557.563965,4381.538574,4506.153809,4355.512695,4257.307617,4313.974121,4374.102539,4174.871582,4284.230957,4621.410156,4559.230957,4553.589844,4513.846191,,,,,,,,,,,,,,,,,,,,,,,,,,,,,,,,,,,,,,,,,,,,,,,,,,,,,,,,,,,,,,,,,,,,,,
1720085305,55,0,4350.128418,4539.743652,4372.436035,4476.794922,4346.538574,4249.871582,4295.384766,4364.358887,4170.897461,4295,4599.615234,4537.05127,4542.179688,4494.230957,,,,,,,,,,,,,,,,,,,,,,,,,,,,,,,,,,,,,,,,,,,,,,,,,,,,,,,,,,,,,,,,,,,,,,
1720085305,56,0,4352.820313,4539.230957,4376.794922,4466.153809,4352.307617,4255.641113,4283.205078,4356.410156,4170.256348,4297.563965,4592.307617,4525.897461,4544.230957,4497.307617,,,,,,,,,,,,,,,,,,,,,,,,,,,,,,,,,,,,,,,,,,,,,,,,,,,,,,,,,,,,,,,,,,,,,,
1720085305,57,0,4374.743652,4564.487305,4391.025879,4481.410156,4364.358887,4261.153809,4276.538574,4336.025879,4163.077148,4297.436035,4606.538574,4522.307617,4550.384766,4505.256348,,,,,,,,,,,,,,,,,,,,,,,,,,,,,,,,,,,,,,,,,,,,,,,,,,,,,,,,,,,,,,,,,,,,,,
1720085305,58,0,4387.94873,4577.563965,4388.974121,4499.743652,4372.179688,4266.794922,4273.077148,4305.641113,4139.487305,4286.666504,4578.077148,4491.922852,4524.743652,4484.871582,3.155704,4.329313,3.311658,0.721799,0.718272,4.718485,3.597495,3.35661,0.56883,0.65196,2.714734,6.933287,1.748451,1.721016,0.888877,6.75849,6.210156,0.847869,1.484402,1.285054,4.266705,1.463095,0.919797,0.379932,0.232485,1.989718,11.848549,1.761541,0.564762,0.18572,4.417277,32.540543,1.22895,0.897304,0.281494,2.904325,28.13805,1.417814,0.855412,0.437893,1.16271,3.981795,2.927364,0.562886,0.444911,10.926743,19.743845,2.254946,2.411765,0.935874,1.516059,6.204424,3.891253,4.090902,2.291895,2.687302,18.679565,2.976994,1.834857,0.766574,2.721222,2.654921,2.558726,0.931529,0.582299,0.872847,6.588023,2.948463,1.938818,0.829576
1720085305,59,0,4376.282227,4571.922852,4374.871582,4513.077148,4378.077148,4283.589844,4280.641113,4294.871582,4120.769043,4276.666504,4534.230957,4462.820313,4498.461426,4457.179688,,,,,,,,,,,,,,,,,,,,,,,,,,,,,,,,,,,,,,,,,,,,,,,,,,,,,,,,,,,,,,,,,,,,,,
1720085305,60,0,4368.846191,4580,4366.794922,4519.230957,4380.641113,4287.179688,4279.102539,4289.615234,4108.077148,4265.769043,4534.743652,4448.205078,4502.94873,4447.94873,,,,,,,,,,,,,,,,,,,,,,,,,,,,,,,,,,,,,,,,,,,,,,,,,,,,,,,,,,,,,,,,,,,,,,
1720085305,61,0,4375.641113,4557.820313,4363.077148,4508.589844,4379.358887,4269.615234,4264.102539,4276.282227,4096.410156,4255.128418,4543.589844,4437.436035,4506.025879,4449.871582,,,,,,,,,,,,,,,,,,,,,,,,,,,,,,,,,,,,,,,,,,,,,,,,,,,,,,,,,,,,,,,,,,,,,,
1720085305,62,0,4370.641113,4487.307617,4361.025879,4492.436035,4377.820313,4261.538574,4260.769043,4275.512695,4097.307617,4269.871582,4541.025879,4441.922852,4506.410156,4453.846191,,,,,,,,,,,,,,,,,,,,,,,,,,,,,,,,,,,,,,,,,,,,,,,,,,,,,,,,,,,,,,,,,,,,,,
1720085305,63,0,4367.820313,4458.077148,4364.615234,4498.461426,4373.589844,4264.230957,4267.05127,4287.692383,4110.512695,4304.230957,4559.102539,4461.153809,4532.179688,4470.128418,,,,,,,,,,,,,,,,,,,,,,,,,,,,,,,,,,,,,,,,,,,,,,,,,,,,,,,,,,,,,,,,,,,,,,
1720085305,64,0,4385.256348,4480.256348,4369.230957,4510.769043,4363.974121,4262.692383,4264.871582,4297.179688,4123.205078,4325.641113,4580.769043,4471.153809,4548.333496,4486.410156,,,,,,,,,,,,,,,,,,,,,,,,,,,,,,,,,,,,,,,,,,,,,,,,,,,,,,,,,,,,,,,,,,,,,,
1720085305,65,0,4395,4479.871582,4374.230957,4505.897461,4355,4261.794922,4266.666504,4311.282227,4135.897461,4325.128418,4597.563965,4480,4539.615234,4481.538574,,,,,,,,,,,,,,,,,,,,,,,,,,,,,,,,,,,,,,,,,,,,,,,,,,,,,,,,,,,,,,,,,,,,,,
1720085305,66,0,4395.512695,4469.487305,4388.846191,4507.307617,4351.282227,4261.922852,4282.307617,4340.128418,4151.666504,4324.230957,4618.717773,4505.897461,4548.077148,4486.282227,,,,,,,,,,,,,,,,,,,,,,,,,,,,,,,,,,,,,,,,,,,,,,,,,,,,,,,,,,,,,,,,,,,,,,
1720085305,67,0,4415.641113,4485.897461,4411.794922,4521.794922,4353.974121,4264.743652,4298.077148,4370.769043,4165.384766,4337.94873,4621.282227,4536.282227,4573.461426,4506.410156,,,,,,,,,,,,,,,,,,,,,,,,,,,,,,,,,,,,,,,,,,,,,,,,,,,,,,,,,,,,,,,,,,,,,,
1720085305,68,0,4434.871582,4497.94873,4418.333496,4516.025879,4358.717773,4263.717773,4301.794922,4378.461426,4167.820313,4348.974121,4610.769043,4542.436035,4571.666504,4484.871582,,,,,,,,,,,,,,,,,,,,,,,,,,,,,,,,,,,,,,,,,,,,,,,,,,,,,,,,,,,,,,,,,,,,,,
1720085305,69,0,4422.94873,4491.282227,4393.461426,4487.94873,4354.358887,4246.153809,4283.205078,4353.333496,4146.794922,4338.205078,4584.230957,4508.846191,4536.282227,4436.666504,,,,,,,,,,,,,,,,,,,,,,,,,,,,,,,,,,,,,,,,,,,,,,,,,,,,,,,,,,,,,,,,,,,,,,
1720085305,70,0,4409.615234,4491.410156,4372.179688,4487.820313,4345.128418,4229.871582,4264.487305,4329.230957,4122.436035,4323.974121,4556.410156,4475.128418,4508.846191,4444.871582,,,,,,,,,,,,,,,,,,,,,,,,,,,,,,,,,,,,,,,,,,,,,,,,,,,,,,,,,,,,,,,,,,,,,,
1720085305,71,0,4414.743652,4501.153809,4380,4512.692383,4341.410156,4233.589844,4266.538574,4319.743652,4110.128418,4315.128418,4557.820313,4464.230957,4500.128418,4474.743652,,,,,,,,,,,,,,,,,,,,,,,,,,,,,,,,,,,,,,,,,,,,,,,,,,,,,,,,,,,,,,,,,,,,,,
1720085305,72,0,4417.179688,4508.974121,4395.128418,4523.717773,4353.205078,4249.102539,4277.94873,4306.153809,4098.077148,4306.922852,4552.692383,4456.410156,4497.563965,4459.230957,,,,,,,,,,,,,,,,,,,,,,,,,,,,,,,,,,,,,,,,,,,,,,,,,,,,,,,,,,,,,,,,,,,,,,
1720085305,73,0,4407.820313,4510,4399.230957,4524.102539,4371.794922,4268.974121,4288.717773,4298.846191,4092.179443,4310.769043,4531.025879,4448.205078,4506.282227,4442.05127,,,,,,,,,,,,,,,,,,,,,,,,,,,,,,,,,,,,,,,,,,,,,,,,,,,,,,,,,,,,,,,,,,,,,,
1720085305,74,0,4396.025879,4504.358887,4395.897461,4526.410156,4377.179688,4283.205078,4296.922852,4305.256348,4099.615234,4326.282227,4534.102539,4445.641113,4522.820313,4452.820313,3.351426,4.60715,3.629502,0.662724,0.709239,5.368066,3.530364,3.619012,0.592095,0.632596,2.749389,8.133603,2.019377,1.570318,0.868949,7.038635,7.27834,1.053983,1.394618,1.279634,3.964703,1.229962,0.901196,0.411298,0.223311,1.834568,8.644458,1.58028,0.495038,0.199219,5.598548,29.322399,1.411732,0.837702,0.267686,3.536072,25.243328,1.680001,0.87221,0.43669,0.989297,4.167266,3.337647,0.627565,0.442244,18.109419,33.988937,2.905132,3.496733,1.204496,1.489624,5.524422,4.406879,3.503873,2.061093,2.242878,17.1577,3.391889,1.757011,0.678554,1.564807,2.581453,3.153407,0.946142,0.535772,0.729872,5.825046,3.484648,1.961047,0.693337
1720085305,75,0,4390.128418,4495.384766,4393.077148,4517.307617,4366.794922,4280.512695,4299.230957,4307.307617,4107.307617,4331.153809,4556.153809,4448.461426,4530,4453.205078,,,,,,,,,,,,,,,,,,,,,,,,,,,,,,,,,,,,,,,,,,,,,,,,,,,,,,,,,,,,,,,,,,,,,,
1720085305,76,0,4381.922852,4485.512695,4389.102539,4492.436035,4353.333496,4267.692383,4293.717773,4306.025879,4098.077148,4320.384766,4561.538574,4451.922852,4523.717773,4443.077148,,,,,,,,,,,,,,,,,,,,,,,,,,,,,,,,,,,,,,,,,,,,,,,,,,,,,,,,,,,,,,,,,,,,,,
1720085305,77,0,4371.025879,4475.769043,4381.153809,4479.871582,4339.871582,4255.512695,4287.05127,4308.205078,4091.281982,4314.487305,4552.820313,4449.358887,4514.615234,4447.820313,,,,,,,,,,,,,,,,,,,,,,,,,,,,,,,,,,,,,,,,,,,,,,,,,,,,,,,,,,,,,,,,,,,,,,
1720085305,78,0,4356.538574,4460.512695,4366.282227,4469.230957,4323.846191,4248.589844,4278.077148,4300.256348,4089.230713,4309.102539,4531.922852,4430.641113,4498.205078,4441.666504,,,,,,,,,,,,,,,,,,,,,,,,,,,,,,,,,,,,,,,,,,,,,,,,,,,,,,,,,,,,,,,,,,,,,,
1720085305,79,0,4349.615234,4454.102539,4356.666504,4451.153809,4320.641113,4254.615234,4280.641113,4298.333496,4080.641113,4305,4515.512695,4428.333496,4492.436035,4428.333496,,,,,,,,,,,,,,,,,,,,,,,,,,,,,,,,,,,,,,,,,,,,,,,,,,,,,,,,,,,,,,,,,,,,,,
1720085305,80,0,4361.794922,4477.05127,4361.794922,4464.230957,4338.205078,4269.102539,4302.436035,4324.102539,4096.153809,4320,4529.230957,4458.974121,4512.179688,4443.077148,,,,,,,,,,,,,,,,,,,,,,,,,,,,,,,,,,,,,,,,,,,,,,,,,,,,,,,,,,,,,,,,,,,,,,
1720085305,81,0,4373.461426,4502.179688,4368.077148,4496.922852,4353.974121,4273.846191,4313.077148,4341.538574,4123.461426,4334.230957,4541.282227,4473.717773,4519.358887,4447.436035,,,,,,,,,,,,,,,,,,,,,,,,,,,,,,,,,,,,,,,,,,,,,,,,,,,,,,,,,,,,,,,,,,,,,,
1720085305,82,0,4369.615234,4502.436035,4364.871582,4497.820313,4355.641113,4270.256348,4302.692383,4330.897461,4124.871582,4325.256348,4537.94873,4459.871582,4499.102539,4423.461426,,,,,,,,,,,,,,,,,,,,,,,,,,,,,,,,,,,,,,,,,,,,,,,,,,,,,,,,,,,,,,,,,,,,,,
1720085305,83,0,4354.743652,4489.230957,4348.846191,4474.743652,4346.282227,4265.128418,4287.05127,4309.358887,4107.692383,4309.743652,4524.743652,4438.717773,4476.666504,4411.025879,,,,,,,,,,,,,,,,,,,,,,,,,,,,,,,,,,,,,,,,,,,,,,,,,,,,,,,,,,,,,,,,,,,,,,
1720085305,84,0,4349.230957,4486.538574,4342.307617,4474.743652,4340.128418,4259.487305,4284.102539,4294.487305,4098.589844,4299.230957,4521.025879,4432.179688,4472.179688,4426.282227,,,,,,,,,,,,,,,,,,,,,,,,,,,,,,,,,,,,,,,,,,,,,,,,,,,,,,,,,,,,,,,,,,,,,,
1720085305,85,0,4367.820313,4502.05127,4373.589844,4490.384766,4351.025879,4265.384766,4303.974121,4303.077148,4103.333496,4297.307617,4543.077148,4457.692383,4486.410156,4458.589844,,,,,,,,,,,,,,,,,,,,,,,,,,,,,,,,,,,,,,,,,,,,,,,,,,,,,,,,,,,,,,,,,,,,,,
1720085305,86,0,4385,4518.589844,4411.794922,4502.307617,4357.179688,4282.820313,4336.922852,4326.922852,4109.743652,4321.282227,4544.487305,4490.769043,4507.692383,4481.666504,,,,,,,,,,,,,,,,,,,,,,,,,,,,,,,,,,,,,,,,,,,,,,,,,,,,,,,,,,,,,,,,,,,,,,
1720085305,87,0,4375.384766,4510.256348,4415,4507.436035,4340.384766,4291.794922,4352.179688,4327.94873,4098.077148,4331.410156,4516.922852,4481.538574,4509.487305,4465.769043,,,,,,,,,,,,,,,,,,,,,,,,,,,,,,,,,,,,,,,,,,,,,,,,,,,,,,,,,,,,,,,,,,,,,,
1720085305,88,0,4373.717773,4501.666504,4417.05127,4504.487305,4339.487305,4300.512695,4356.538574,4321.922852,4080.512939,4307.05127,4521.922852,4465.384766,4503.974121,4447.563965,,,,,,,,,,,,,,,,,,,,,,,,,,,,,,,,,,,,,,,,,,,,,,,,,,,,,,,,,,,,,,,,,,,,,,
1720085305,89,0,4385.897461,4512.05127,4435.384766,4503.974121,4363.846191,4318.974121,4367.307617,4338.717773,4090.641113,4310.128418,4545.512695,4477.307617,4515.897461,4452.692383,,,,,,,,,,,,,,,,,,,,,,,,,,,,,,,,,,,,,,,,,,,,,,,,,,,,,,,,,,,,,,,,,,,,,,
1720085305,90,0,4375.512695,4517.307617,4428.846191,4505.897461,4370.128418,4324.871582,4359.358887,4347.692383,4099.358887,4337.179688,4544.487305,4471.666504,4524.230957,4440,3.782343,4.876404,3.836265,0.609756,0.72498,6.752789,3.552768,3.68666,0.636663,0.646776,2.947018,9.235602,2.508811,1.331292,0.863808,7.490198,7.772744,1.353596,1.268608,1.251128,3.38606,1.041121,0.848976,0.457577,0.219928,1.650508,6.060535,1.418159,0.438319,0.218052,6.997437,28.933062,1.640197,0.793532,0.260344,4.386822,25.078043,1.978471,0.86093,0.437199,0.892437,4.602491,3.470327,0.659261,0.461551,27.412851,50.170261,3.540298,4.726675,1.506017,1.330124,5.763769,4.81662,3.175816,1.821351,1.960043,17.62739,3.988343,1.611246,0.650628,0.804548,3.00229,3.694861,0.912267,0.498347,0.679291,6.041036,4.144251,1.830567,0.615216
1720085305,91,0,4353.589844,4509.102539,4395.512695,4494.615234,4356.666504,4311.410156,4327.05127,4325.384766,4073.846191,4326.410156,4537.820313,4437.179688,4513.717773,4414.871582,,,,,,,,,,,,,,,,,,,,,,,,,,,,,,,,,,,,,,,,,,,,,,,,,,,,,,,,,,,,,,,,,,,,,,
1720085305,92,0,4341.410156,4498.333496,4375.384766,4474.871582,4352.692383,4301.666504,4306.666504,4305.512695,4057.05127,4303.974121,4528.077148,4419.358887,4502.692383,4411.538574,,,,,,,,,,,,,,,,,,,,,,,,,,,,,,,,,,,,,,,,,,,,,,,,,,,,,,,,,,,,,,,,,,,,,,
1720085305,93,0,4342.307617,4499.487305,4381.922852,4477.307617,4354.871582,4296.794922,4307.307617,4314.743652,4075,4316.794922,4524.487305,4438.205078,4510,4429.230957,,,,,,,,,,,,,,,,,,,,,,,,,,,,,,,,,,,,,,,,,,,,,,,,,,,,,,,,,,,,,,,,,,,,,,
1720085305,94,0,4356.922852,4516.922852,4395.384766,4495.769043,4353.461426,4287.307617,4309.358887,4323.974121,4092.94873,4337.692383,4543.333496,4464.743652,4523.461426,4446.025879,,,,,,,,,,,,,,,,,,,,,,,,,,,,,,,,,,,,,,,,,,,,,,,,,,,,,,,,,,,,,,,,,,,,,,
1720085305,95,0,4365,4529.615234,4402.820313,4497.307617,4354.230957,4281.410156,4304.871582,4318.461426,4094.358887,4341.153809,4556.922852,4473.589844,4523.589844,4448.974121,,,,,,,,,,,,,,,,,,,,,,,,,,,,,,,,,,,,,,,,,,,,,,,,,,,,,,,,,,,,,,,,,,,,,,
1720085305,96,0,4351.282227,4512.94873,4394.102539,4480.384766,4351.794922,4279.615234,4295.769043,4308.333496,4090.897461,4331.025879,4554.743652,4463.077148,4510.769043,4441.282227,,,,,,,,,,,,,,,,,,,,,,,,,,,,,,,,,,,,,,,,,,,,,,,,,,,,,,,,,,,,,,,,,,,,,,
1720085305,97,0,4340,4492.692383,4379.871582,4471.025879,4344.102539,4280,4296.666504,4296.922852,4088.589844,4325.384766,4545.512695,4450.769043,4503.333496,4430.512695,,,,,,,,,,,,,,,,,,,,,,,,,,,,,,,,,,,,,,,,,,,,,,,,,,,,,,,,,,,,,,,,,,,,,,
1720085305,98,0,4346.922852,4502.307617,4384.358887,4486.666504,4346.282227,4289.102539,4322.820313,4299.487305,4099.230957,4342.436035,4545.384766,4458.974121,4515,4432.692383,,,,,,,,,,,,,,,,,,,,,,,,,,,,,,,,,,,,,,,,,,,,,,,,,,,,,,,,,,,,,,,,,,,,,,
1720085305,99,0,4342.820313,4509.102539,4392.94873,4499.358887,4353.974121,4304.102539,4347.179688,4305,4109.230957,4347.563965,4553.974121,4459.615234,4518.846191,4435.256348,,,,,,,,,,,,,,,,,,,,,,,,,,,,,,,,,,,,,,,,,,,,,,,,,,,,,,,,,,,,,,,,,,,,,,
1720085305,100,0,4316.666504,4486.025879,4374.743652,4477.436035,4348.333496,4310.128418,4342.820313,4287.692383,4093.333252,4321.922852,4541.922852,4429.102539,4493.461426,4416.794922,,,,,,,,,,,,,,,,,,,,,,,,,,,,,,,,,,,,,,,,,,,,,,,,,,,,,,,,,,,,,,,,,,,,,,
1720085305,101,0,4303.333496,4474.102539,4352.820313,4458.333496,4341.794922,4302.692383,4335.641113,4276.282227,4086.153809,4312.179688,4521.538574,4409.743652,4471.538574,4397.820313,,,,,,,,,,,,,,,,,,,,,,,,,,,,,,,,,,,,,,,,,,,,,,,,,,,,,,,,,,,,,,,,,,,,,,
1720085305,102,0,4312.05127,4488.974121,4360.128418,4477.563965,4347.563965,4293.589844,4344.102539,4299.871582,4107.179688,4322.692383,4541.282227,4428.974121,4474.358887,4403.846191,,,,,,,,,,,,,,,,,,,,,,,,,,,,,,,,,,,,,,,,,,,,,,,,,,,,,,,,,,,,,,,,,,,,,,
1720085305,103,0,4311.794922,4487.436035,4365.897461,4484.615234,4353.589844,4290,4344.743652,4318.974121,4114.358887,4320.512695,4563.717773,4447.692383,4473.717773,4412.820313,,,,,,,,,,,,,,,,,,,,,,,,,,,,,,,,,,,,,,,,,,,,,,,,,,,,,,,,,,,,,,,,,,,,,,
1720085305,104,0,4309.871582,4484.487305,4363.717773,4472.436035,4356.922852,4292.436035,4343.589844,4328.974121,4120.641113,4330.256348,4554.230957,4456.025879,4474.871582,4411.282227,,,,,,,,,,,,,,,,,,,,,,,,,,,,,,,,,,,,,,,,,,,,,,,,,,,,,,,,,,,,,,,,,,,,,,
1720085305,105,0,4323.205078,4507.307617,4380.897461,4488.589844,4359.615234,4288.846191,4350.897461,4350.128418,4141.538574,4350.256348,4557.179688,4471.666504,4492.307617,4418.461426,,,,,,,,,,,,,,,,,,,,,,,,,,,,,,,,,,,,,,,,,,,,,,,,,,,,,,,,,,,,,,,,,,,,,,
1720085305,106,0,4330.512695,4516.666504,4398.717773,4513.077148,4359.487305,4280.512695,4348.461426,4350.384766,4127.436035,4330.512695,4570.641113,4478.077148,4494.743652,4427.94873,4.139617,5.095203,3.79395,0.552063,0.767795,8.240249,3.988511,3.577182,0.733531,0.689051,3.299841,9.98082,3.076446,1.05974,0.872798,7.279177,7.656301,1.670392,1.167676,1.222007,2.662055,0.968889,0.771241,0.502629,0.218633,1.446754,4.296073,1.274543,0.416392,0.238412,8.308348,29.796974,1.816202,0.774735,0.26124,5.447675,27.342548,2.207596,0.832238,0.440152,0.987704,5.386818,3.331232,0.64568,0.494573,36.680351,63.872017,4.16257,5.768707,1.766719,1.461112,6.860862,4.866767,2.966532,1.563947,2.013466,20.057409,4.421661,1.410154,0.675476,0.548369,3.793286,3.962306,0.8326,0.470988,0.730712,6.921941,4.598242,1.571964,0.608479
1720085305,107,0,4326.922852,4507.94873,4395.641113,4522.307617,4355.128418,4273.077148,4335.512695,4329.743652,4096.025879,4293.974121,4579.871582,4468.846191,4480.256348,4427.820313,,,,,,,,,,,,,,,,,,,,,,,,,,,,,,,,,,,,,,,,,,,,,,,,,,,,,,,,,,,,,,,,,,,,,,
1720085305,108,0,4326.922852,4508.333496,4385.128418,4525.897461,4346.153809,4265.384766,4325.512695,4312.820313,4098.333496,4294.871582,4581.538574,4458.589844,4481.666504,4421.922852,,,,,,,,,,,,,,,,,,,,,,,,,,,,,,,,,,,,,,,,,,,,,,,,,,,,,,,,,,,,,,,,,,,,,,
1720085305,109,0,4327.563965,4509.487305,4382.563965,4516.410156,4343.461426,4269.102539,4322.820313,4301.666504,4107.692383,4310.256348,4570.256348,4452.692383,4495.256348,4417.94873,,,,,,,,,,,,,,,,,,,,,,,,,,,,,,,,,,,,,,,,,,,,,,,,,,,,,,,,,,,,,,,,,,,,,,
1720085305,110,0,4321.922852,4499.487305,4382.307617,4502.563965,4346.794922,4285,4322.436035,4291.666504,4112.05127,4309.871582,4547.692383,4443.461426,4488.974121,4417.436035,,,,,,,,,,,,,,,,,,,,,,,,,,,,,,,,,,,,,,,,,,,,,,,,,,,,,,,,,,,,,,,,,,,,,,
1720085305,111,0,4310.128418,4485.128418,4375.512695,4503.077148,4341.794922,4293.205078,4316.538574,4278.974121,4129.102539,4310.512695,4531.922852,4427.179688,4464.358887,4411.666504,,,,,,,,,,,,,,,,,,,,,,,,,,,,,,,,,,,,,,,,,,,,,,,,,,,,,,,,,,,,,,,,,,,,,,
1720085305,112,0,4293.846191,4467.179688,4361.538574,4497.820313,4335,4292.179688,4308.077148,4264.743652,4134.615234,4308.846191,4534.230957,4412.436035,4445.769043,4397.94873,,,,,,,,,,,,,,,,,,,,,,,,,,,,,,,,,,,,,,,,,,,,,,,,,,,,,,,,,,,,,,,,,,,,,,
1720085305,113,0,4285.897461,4455.897461,4348.974121,4478.589844,4340.384766,4294.358887,4308.461426,4261.025879,4120.512695,4295.128418,4523.205078,4403.717773,4437.94873,4393.717773,,,,,,,,,,,,,,,,,,,,,,,,,,,,,,,,,,,,,,,,,,,,,,,,,,,,,,,,,,,,,,,,,,,,,,
1720085305,114,0,4293.717773,4454.615234,4349.615234,4471.538574,4344.230957,4289.102539,4313.461426,4271.025879,4115.769043,4289.743652,4498.205078,4405.128418,4434.615234,4406.153809,,,,,,,,,,,,,,,,,,,,,,,,,,,,,,,,,,,,,,,,,,,,,,,,,,,,,,,,,,,,,,,,,,,,,,
1720085305,115,0,4306.025879,4456.922852,4364.487305,4484.743652,4341.538574,4279.102539,4315.256348,4283.461426,4121.794922,4301.282227,4498.846191,4419.102539,4437.563965,4417.692383,,,,,,,,,,,,,,,,,,,,,,,,,,,,,,,,,,,,,,,,,,,,,,,,,,,,,,,,,,,,,,,,,,,,,,
1720085305,116,0,4315.384766,4466.666504,4384.743652,4500.128418,4341.410156,4278.717773,4319.230957,4297.563965,4125,4309.871582,4518.589844,4437.307617,4449.743652,4427.692383,,,,,,,,,,,,,,,,,,,,,,,,,,,,,,,,,,,,,,,,,,,,,,,,,,,,,,,,,,,,,,,,,,,,,,
1720085305,117,0,4330.128418,4479.615234,4400.384766,4506.282227,4340,4275,4324.358887,4306.666504,4123.717773,4309.358887,4526.410156,4452.94873,4460,4444.871582,,,,,,,,,,,,,,,,,,,,,,,,,,,,,,,,,,,,,,,,,,,,,,,,,,,,,,,,,,,,,,,,,,,,,,
1720085305,118,0,4341.282227,4481.922852,4409.358887,4508.717773,4334.743652,4263.846191,4320.128418,4308.461426,4120.641113,4312.307617,4547.692383,4468.333496,4462.05127,4457.692383,,,,,,,,,,,,,,,,,,,,,,,,,,,,,,,,,,,,,,,,,,,,,,,,,,,,,,,,,,,,,,,,,,,,,,
1720085305,119,0,4334.615234,4474.102539,4407.94873,4510.512695,4332.94873,4257.307617,4309.487305,4309.615234,4116.538574,4322.436035,4563.333496,4474.743652,4458.589844,4452.307617,,,,,,,,,,,,,,,,,,,,,,,,,,,,,,,,,,,,,,,,,,,,,,,,,,,,,,,,,,,,,,,,,,,,,,
1720085305,120,0,4327.307617,4474.743652,4398.333496,4505.256348,4342.820313,4264.102539,4310.641113,4303.589844,4112.820313,4330.384766,4526.666504,4461.025879,4455,4441.794922,,,,,,,,,,,,,,,,,,,,,,,,,,,,,,,,,,,,,,,,,,,,,,,,,,,,,,,,,,,,,,,,,,,,,,
1720085305,121,0,4323.205078,4479.743652,4392.307617,4503.333496,4357.820313,4283.589844,4323.461426,4296.025879,4109.615234,4327.563965,4500.641113,4444.358887,4454.102539,4435.256348,,,,,,,,,,,,,,,,,,,,,,,,,,,,,,,,,,,,,,,,,,,,,,,,,,,,,,,,,,,,,,,,,,,,,,
1720085305,122,0,4307.179688,4465.769043,4381.538574,4505.128418,4357.820313,4301.794922,4325.641113,4291.794922,4103.589844,4319.102539,4505.384766,4430.897461,4439.230957,4419.871582,4.688148,5.228868,3.458196,0.498482,0.827656,10.185251,5.12213,3.375247,0.921436,0.749895,3.903613,10.196322,3.562142,0.835441,0.89231,7.120842,7.115244,1.913917,1.182152,1.209044,1.963611,1.101677,0.713849,0.547731,0.218524,1.236992,3.354581,1.206362,0.461744,0.255053,9.1917,29.922241,1.894341,0.814955,0.272906,6.675507,30.633904,2.309558,0.81936,0.44998,1.309698,6.561188,3.032945,0.608407,0.529026,43.667686,70.809662,4.862238,6.318193,1.912027,1.485209,8.58038,4.561771,2.747435,1.31656,2.637959,23.947042,4.5458,1.217599,0.741579,0.412022,4.81955,3.92327,0.758572,0.460859,0.973532,8.012521,4.67782,1.266713,0.672619
1720085305,123,0,4306.794922,4456.025879,4372.94873,4503.846191,4357.05127,4310.256348,4329.102539,4292.563965,4109.230957,4323.589844,4505.256348,4424.102539,4429.230957,4412.05127,,,,,,,,,,,,,,,,,,,,,,,,,,,,,,,,,,,,,,,,,,,,,,,,,,,,,,,,,,,,,,,,,,,,,,
1720085305,124,0,4308.974121,4478.974121,4392.05127,4507.307617,4372.05127,4317.05127,4347.94873,4301.025879,4126.282227,4344.615234,4516.794922,4439.102539,4448.717773,4429.358887,,,,,,,,,,,,,,,,,,,,,,,,,,,,,,,,,,,,,,,,,,,,,,,,,,,,,,,,,,,,,,,,,,,,,,
1720085305,125,0,4265.769043,4494.615234,4413.205078,4510,4371.025879,4325.384766,4354.871582,4301.666504,4119.102539,4348.846191,4535.897461,4451.794922,4463.589844,4441.282227,,,,,,,,,,,,,,,,,,,,,,,,,,,,,,,,,,,,,,,,,,,,,,,,,,,,,,,,,,,,,,,,,,,,,,
1720085305,126,0,4231.410156,4479.358887,4417.307617,4507.307617,4351.410156,4325.512695,4354.743652,4296.410156,4101.153809,4332.05127,4546.153809,4452.436035,4461.922852,4443.205078,,,,,,,,,,,,,,,,,,,,,,,,,,,,,,,,,,,,,,,,,,,,,,,,,,,,,,,,,,,,,,,,,,,,,,
1720085305,127,0,4256.282227,4474.102539,4420.769043,4505,4347.436035,4321.282227,4364.230957,4301.794922,4111.153809,4334.230957,4556.666504,4463.077148,4471.794922,4462.05127,,,,,,,,,,,,,,,,,,,,,,,,,,,,,,,,,,,,,,,,,,,,,,,,,,,,,,,,,,,,,,,,,,,,,,
1720085305,0,0,4271.153809,4480.769043,4418.205078,4507.05127,4350,4322.307617,4364.358887,4308.461426,4101.153809,4347.820313,4548.461426,4471.666504,4481.282227,4473.974121,,,,,,,,,,,,,,,,,,,,,,,,,,,,,,,,,,,,,,,,,,,,,,,,,,,,,,,,,,,,,,,,,,,,,,
1720085305,1,0,4257.179688,4477.692383,4410.384766,4510.897461,4343.333496,4326.538574,4361.538574,4310.128418,4045.641113,4347.820313,4526.153809,4467.820313,4474.230957,4457.179688,,,,,,,,,,,,,,,,,,,,,,,,,,,,,,,,,,,,,,,,,,,,,,,,,,,,,,,,,,,,,,,,,,,,,,
1720085305,2,0,4265,4474.102539,4409.230957,4500.512695,4340,4327.05127,4362.692383,4313.846191,4009.487061,4341.282227,4534.230957,4460.641113,4474.358887,4448.077148,,,,,,,,,,,,,,,,,,,,,,,,,,,,,,,,,,,,,,,,,,,,,,,,,,,,,,,,,,,,,,,,,,,,,,
1720085305,3,0,4283.846191,4472.307617,4408.461426,4478.461426,4338.589844,4322.692383,4351.666504,4311.922852,4011.794922,4334.102539,4547.436035,4452.05127,4475.128418,4459.487305,,,,,,,,,,,,,,,,,,,,,,,,,,,,,,,,,,,,,,,,,,,,,,,,,,,,,,,,,,,,,,,,,,,,,,
1720085305,4,0,4294.743652,4477.436035,4406.794922,4471.794922,4339.871582,4325.641113,4345.641113,4306.282227,4015.641113,4328.717773,4532.179688,4448.846191,4464.615234,4457.563965,,,,,,,,,,,,,,,,,,,,,,,,,,,,,,,,,,,,,,,,,,,,,,,,,,,,,,,,,,,,,,,,,,,,,,
1720085305,5,0,4302.692383,4491.153809,4414.615234,4480.256348,4349.230957,4334.615234,4360.897461,4311.410156,4017.692383,4331.794922,4530.769043,4463.846191,4468.717773,4449.743652,,,,,,,,,,,,,,,,,,,,,,,,,,,,,,,,,,,,,,,,,,,,,,,,,,,,,,,,,,,,,,,,,,,,,,
1720085305,6,0,4298.077148,4487.05127,4419.871582,4474.615234,4347.563965,4328.077148,4367.179688,4314.102539,4021.794922,4338.461426,4541.153809,4469.102539,4481.153809,4457.94873,,,,,,,,,,,,,,,,,,,,,,,,,,,,,,,,,,,,,,,,,,,,,,,,,,,,,,,,,,,,,,,,,,,,,,
1720085305,7,0,4297.179688,4472.307617,4422.436035,4468.846191,4340.769043,4318.077148,4368.077148,4310.769043,4016.794922,4340.897461,4538.333496,4458.589844,4478.846191,4468.717773,,,,,,,,,,,,,,,,,,,,,,,,,,,,,,,,,,,,,,,,,,,,,,,,,,,,,,,,,,,,,,,,,,,,,,
1720085305,8,0,4314.102539,4474.487305,4433.974121,4473.974121,4352.05127,4330.897461,4388.589844,4313.205078,4014.358887,4340.769043,4540.128418,4466.538574,4472.563965,4475.128418,,,,,,,,,,,,,,,,,,,,,,,,,,,,,,,,,,,,,,,,,,,,,,,,,,,,,,,,,,,,,,,,,,,,,,
1720085305,9,0,4318.205078,4469.230957,4432.05127,4466.666504,4360.641113,4345.384766,4401.538574,4313.461426,4020.256348,4336.025879,4535,4473.717773,4470.769043,4477.307617,,,,,,,,,,,,,,,,,,,,,,,,,,,,,,,,,,,,,,,,,,,,,,,,,,,,,,,,,,,,,,,,,,,,,,
1720085305,10,0,4307.820313,4447.820313,4422.692383,4455.769043,4350.769043,4342.820313,4398.205078,4311.025879,4022.05127,4332.820313,4523.589844,4462.05127,4475.641113,4475.897461,5.395446,5.267643,2.927735,0.471542,0.884332,11.661891,6.925267,3.147893,1.210268,0.820566,4.871915,9.852712,3.902987,0.729633,0.916929,6.42097,6.426497,2.005457,1.360275,1.214684,1.390696,1.466853,0.726864,0.603513,0.221865,1.095052,3.085565,1.267777,0.594176,0.262909,9.461691,27.994373,1.905199,0.948603,0.296668,7.944954,33.235531,2.32441,0.865226,0.472235,1.939424,8.045172,2.753793,0.596088,0.558479,46.440151,68.707031,5.669633,6.232776,1.904946,1.742319,10.580527,4.141562,2.464597,1.13453,3.94207,28.386724,4.528999,1.11936,0.839363,0.610098,5.940384,3.724423,0.756603,0.477067,1.338045,8.93795,4.494495,1.017397,0.792148
1720085305,11,0,4314.230957,4446.153809,4424.358887,4460.128418,4342.05127,4342.307617,4397.05127,4310.897461,4019.102539,4336.410156,4522.563965,4456.794922,4478.717773,4477.563965,,,,,,,,,,,,,,,,,,,,,,,,,,,,,,,,,,,,,,,,,,,,,,,,,,,,,,,,,,,,,,,,,,,,,,
1720085305,12,0,4324.871582,4457.436035,4429.102539,4472.179688,4340.384766,4344.102539,4393.974121,4304.487305,4018.974365,4334.743652,4518.333496,4461.794922,4461.025879,4470.641113,,,,,,,,,,,,,,,,,,,,,,,,,,,,,,,,,,,,,,,,,,,,,,,,,,,,,,,,,,,,,,,,,,,,,,
1720085305,13,0,4327.820313,4453.717773,4433.974121,4473.589844,4344.615234,4333.077148,4381.282227,4296.282227,4023.718018,4332.94873,4504.230957,4461.410156,4439.102539,4460,,,,,,,,,,,,,,,,,,,,,,,,,,,,,,,,,,,,,,,,,,,,,,,,,,,,,,,,,,,,,,,,,,,,,,
1720085305,14,0,4327.820313,4444.743652,4437.820313,4460.256348,4355.256348,4318.333496,4366.538574,4293.846191,4034.743652,4349.102539,4493.461426,4457.692383,4440.641113,4466.153809,,,,,,,,,,,,,,,,,,,,,,,,,,,,,,,,,,,,,,,,,,,,,,,,,,,,,,,,,,,,,,,,,,,,,,
1720085305,15,0,4316.794922,4442.179688,4428.717773,4443.974121,4352.563965,4309.102539,4347.820313,4288.077148,4046.153809,4368.589844,4491.794922,4446.025879,4448.205078,4465.769043,,,,,,,,,,,,,,,,,,,,,,,,,,,,,,,,,,,,,,,,,,,,,,,,,,,,,,,,,,,,,,,,,,,,,,
1720085305,16,0,4312.05127,4444.230957,4416.282227,4434.358887,4341.025879,4302.692383,4327.563965,4276.538574,4051.410156,4364.487305,4489.871582,4427.94873,4441.922852,4451.025879,,,,,,,,,,,,,,,,,,,,,,,,,,,,,,,,,,,,,,,,,,,,,,,,,,,,,,,,,,,,,,,,,,,,,,
1720085305,17,0,4333.333496,4446.922852,4421.666504,4435.256348,4342.179688,4305.256348,4326.922852,4275.384766,4052.564209,4352.05127,4480.512695,4430.384766,4439.615234,4450.128418,,,,,,,,,,,,,,,,,,,,,,,,,,,,,,,,,,,,,,,,,,,,,,,,,,,,,,,,,,,,,,,,,,,,,,
1720085305,18,0,4352.692383,4448.589844,4432.94873,4449.743652,4345,4314.102539,4337.05127,4282.820313,4046.153809,4351.025879,4472.179688,4441.153809,4443.077148,4456.538574,,,,,,,,,,,,,,,,,,,,,,,,,,,,,,,,,,,,,,,,,,,,,,,,,,,,,,,,,,,,,,,,,,,,,,
1720085305,19,0,4366.282227,4455.897461,4442.94873,4458.077148,4341.410156,4321.282227,4351.282227,4289.743652,4038.205078,4348.205078,4491.282227,4448.333496,4446.025879,4467.436035,,,,,,,,,,,,,,,,,,,,,,,,,,,,,,,,,,,,,,,,,,,,,,,,,,,,,,,,,,,,,,,,,,,,,,
1720085305,20,0,4379.743652,4464.871582,4450.641113,4439.871582,4341.153809,4325,4371.282227,4294.743652,4031.794922,4336.153809,4511.282227,4452.820313,4444.358887,4474.871582,,,,,,,,,,,,,,,,,,,,,,,,,,,,,,,,,,,,,,,,,,,,,,,,,,,,,,,,,,,,,,,,,,,,,,
1720085305,21,0,4371.025879,4459.487305,4443.846191,4428.717773,4340,4322.94873,4389.615234,4297.94873,4024.230713,4327.94873,4491.922852,4447.307617,4432.820313,4460.769043,,,,,,,,,,,,,,,,,,,,,,,,,,,,,,,,,,,,,,,,,,,,,,,,,,,,,,,,,,,,,,,,,,,,,,
1720085305,22,0,4362.94873,4456.153809,4448.333496,4441.666504,4346.282227,4321.153809,4413.077148,4310.769043,4032.179443,4338.589844,4470.384766,4452.820313,4434.230957,4459.615234,,,,,,,,,,,,,,,,,,,,,,,,,,,,,,,,,,,,,,,,,,,,,,,,,,,,,,,,,,,,,,,,,,,,,,
1720085305,23,0,4375.384766,4471.538574,4462.05127,4451.153809,4359.230957,4331.282227,4429.102539,4320.512695,4041.410156,4345.512695,4473.333496,4465.384766,4445.641113,4479.102539,,,,,,,,,,,,,,,,,,,,,,,,,,,,,,,,,,,,,,,,,,,,,,,,,,,,,,,,,,,,,,,,,,,,,,
1720085305,24,0,4373.461426,4478.077148,4456.666504,4453.333496,4363.974121,4349.615234,4424.358887,4310,4033.076904,4329.358887,4482.307617,4456.410156,4439.358887,4474.615234,,,,,,,,,,,,,,,,,,,,,,,,,,,,,,,,,,,,,,,,,,,,,,,,,,,,,,,,,,,,,,,,,,,,,,
1720085306,25,0,4355.128418,4464.487305,4441.666504,4442.436035,4366.025879,4355.384766,4415.641113,4299.615234,4033.589844,4323.589844,4485.384766,4445.384766,4429.871582,4459.102539,,,,,,,,,,,,,,,,,,,,,,,,,,,,,,,,,,,,,,,,,,,,,,,,,,,,,,,,,,,,,,,,,,,,,,
1720085306,26,0,4351.922852,4452.179688,4430.384766,4414.230957,4368.846191,4346.666504,4409.871582,4301.538574,4048.076904,4337.94873,4494.615234,4452.94873,4439.102539,4464.230957,6.47459,5.308028,2.383659,0.488943,0.916801,12.88695,9.022966,2.940197,1.547406,0.889703,6.278923,9.073413,4.196342,0.77593,0.935049,5.953426,5.81746,1.970007,1.658555,1.22127,1.085283,1.981645,0.838265,0.672859,0.231673,1.044357,3.32081,1.454837,0.802758,0.258708,9.093921,23.96871,1.876392,1.176102,0.330263,9.112875,33.920006,2.325755,0.987951,0.507195,2.739329,9.461452,2.592165,0.666017,0.584524,44.729168,58.373692,6.461577,5.593257,1.764028,2.220305,12.421249,3.953606,2.142371,1.05012,5.67461,32.048229,4.70441,1.16847,0.952829,1.009818,6.982572,3.614859,0.864205,0.519973,1.87314,9.421308,4.355703,0.892548,0.934634
1720085306,27,0,4364.358887,4458.077148,4424.615234,4414.615234,4366.410156,4337.820313,4393.205078,4295.897461,4050.256348,4345.769043,4500.128418,4457.563965,4451.410156,4474.358887,,,,,,,,,,,,,,,,,,,,,,,,,,,,,,,,,,,,,,,,,,,,,,,,,,,,,,,,,,,,,,,,,,,,,,
1720085306,28,0,4378.846191,4474.358887,4431.282227,4445.641113,4361.922852,4323.846191,4372.436035,4284.615234,4052.05127,4352.436035,4500,4461.410156,4461.282227,4481.410156,,,,,,,,,,,,,,,,,,,,,,,,,,,,,,,,,,,,,,,,,,,,,,,,,,,,,,,,,,,,,,,,,,,,,,
1720085306,29,0,4384.358887,4479.743652,4432.692383,4436.282227,4350.384766,4295.512695,4347.436035,4274.743652,4057.692383,4364.102539,4495.256348,4457.563965,4460.897461,4476.153809,,,,,,,,,,,,,,,,,,,,,,,,,,,,,,,,,,,,,,,,,,,,,,,,,,,,,,,,,,,,,,,,,,,,,,
1720085306,30,0,4383.333496,4475.256348,4425.256348,4405.512695,4337.179688,4274.743652,4317.820313,4259.230957,4060.512939,4381.794922,4475.512695,4445,4447.692383,4462.05127,,,,,,,,,,,,,,,,,,,,,,,,,,,,,,,,,,,,,,,,,,,,,,,,,,,,,,,,,,,,,,,,,,,,,,
1720085306,31,0,4393.205078,4476.025879,4438.846191,4411.282227,4342.05127,4273.846191,4303.589844,4247.179688,4072.564209,4404.230957,4480.512695,4453.974121,4452.94873,4467.179688,,,,,,,,,,,,,,,,,,,,,,,,,,,,,,,,,,,,,,,,,,,,,,,,,,,,,,,,,,,,,,,,,,,,,,
1720085306,32,0,4401.153809,4477.820313,4451.538574,4414.743652,4349.102539,4279.871582,4301.922852,4244.743652,4081.923096,4408.974121,4510,4462.820313,4465.897461,4470.769043,,,,,,,,,,,,,,,,,,,,,,,,,,,,,,,,,,,,,,,,,,,,,,,,,,,,,,,,,,,,,,,,,,,,,,
1720085306,33,0,4398.717773,4475,4441.410156,4397.94873,4342.563965,4286.538574,4313.717773,4252.179688,4077.307617,4398.461426,4506.025879,4453.846191,4451.794922,4460,,,,,,,,,,,,,,,,,,,,,,,,,,,,,,,,,,,,,,,,,,,,,,,,,,,,,,,,,,,,,,,,,,,,,,
1720085306,34,0,4400.128418,4470.641113,4445.128418,4398.589844,4335.384766,4291.794922,4343.717773,4270.641113,4078.076904,4395.641113,4470,4455.384766,4430.897461,4461.538574,,,,,,,,,,,,,,,,,,,,,,,,,,,,,,,,,,,,,,,,,,,,,,,,,,,,,,,,,,,,,,,,,,,,,,
1720085306,35,0,4402.307617,4461.282227,4460.512695,4397.563965,4332.94873,4297.179688,4372.05127,4292.692383,4087.435791,4395,4460.769043,4469.230957,4431.410156,4466.666504,,,,,,,,,,,,,,,,,,,,,,,,,,,,,,,,,,,,,,,,,,,,,,,,,,,,,,,,,,,,,,,,,,,,,,
1720085306,36,0,4407.563965,4457.436035,4466.666504,4379.871582,4337.05127,4307.692383,4397.307617,4317.820313,4100.641113,4404.358887,4488.717773,4488.717773,4448.846191,4470.512695,,,,,,,,,,,,,,,,,,,,,,,,,,,,,,,,,,,,,,,,,,,,,,,,,,,,,,,,,,,,,,,,,,,,,,
1720085306,37,0,4417.179688,4468.717773,4472.94873,4391.666504,4340.769043,4318.077148,4424.230957,4340.641113,4111.282227,4416.282227,4514.615234,4511.922852,4466.025879,4491.922852,,,,,,,,,,,,,,,,,,,,,,,,,,,,,,,,,,,,,,,,,,,,,,,,,,,,,,,,,,,,,,,,,,,,,,
1720085306,38,0,4417.307617,4475.641113,4480.256348,4415.641113,4342.692383,4321.153809,4433.205078,4340.512695,4099.487305,4396.410156,4516.922852,4510.769043,4467.307617,4505.384766,,,,,,,,,,,,,,,,,,,,,,,,,,,,,,,,,,,,,,,,,,,,,,,,,,,,,,,,,,,,,,,,,,,,,,
1720085306,39,0,4410,4474.871582,4475.641113,4400.256348,4345.769043,4319.743652,4419.743652,4317.692383,4071.281982,4369.230957,4503.205078,4484.230957,4454.871582,4490.641113,,,,,,,,,,,,,,,,,,,,,,,,,,,,,,,,,,,,,,,,,,,,,,,,,,,,,,,,,,,,,,,,,,,,,,
1720085306,40,0,4412.179688,4478.461426,4467.05127,4381.410156,4347.563965,4315.641113,4401.922852,4301.282227,4060.641113,4369.871582,4498.974121,4470.128418,4453.333496,4479.487305,,,,,,,,,,,,,,,,,,,,,,,,,,,,,,,,,,,,,,,,,,,,,,,,,,,,,,,,,,,,,,,,,,,,,,
1720085306,41,0,4416.794922,4476.410156,4464.487305,4387.179688,4344.487305,4310.128418,4380.641113,4290.641113,4067.435791,4370,4493.333496,4465,4459.615234,4477.179688,,,,,,,,,,,,,,,,,,,,,,,,,,,,,,,,,,,,,,,,,,,,,,,,,,,,,,,,,,,,,,,,,,,,,,
1720085306,42,0,4412.94873,4465.384766,4459.743652,4388.717773,4342.563965,4310.512695,4356.666504,4273.205078,4074.487061,4366.410156,4486.282227,4459.615234,4462.307617,4478.589844,7.767757,5.541626,1.987182,0.549693,0.916685,12.997693,10.82116,2.756297,1.837203,0.943568,7.778828,8.071328,4.603861,0.948938,0.930599,5.551252,5.369453,1.877922,1.957635,1.202122,1.020424,2.493547,1.031598,0.746589,0.249398,1.149244,3.969248,1.715875,1.048085,0.24301,8.787971,19.091467,1.842045,1.447671,0.365853,10.156,32.475998,2.397494,1.16298,0.545975,3.54741,10.411188,2.574954,0.851905,0.61141,39.294117,43.283485,6.980802,4.654295,1.549002,2.987567,13.622799,4.253646,1.83969,1.050218,7.473898,33.737797,5.37949,1.350043,1.054913,1.569677,7.738437,3.794269,1.058339,0.578602,2.343008,9.397728,4.576052,0.890532,1.057223
1720085306,43,0,4403.333496,4459.487305,4446.922852,4375,4342.307617,4314.102539,4338.846191,4263.205078,4084.487061,4378.589844,4489.230957,4456.922852,4463.846191,4478.717773,,,,,,,,,,,,,,,,,,,,,,,,,,,,,,,,,,,,,,,,,,,,,,,,,,,,,,,,,,,,,,,,,,,,,,
1720085306,44,0,4397.436035,4462.94873,4436.025879,4363.589844,4339.102539,4307.563965,4324.358887,4262.179688,4093.205078,4388.333496,4477.563965,4451.282227,4457.307617,4465.512695,,,,,,,,,,,,,,,,,,,,,,,,,,,,,,,,,,,,,,,,,,,,,,,,,,,,,,,,,,,,,,,,,,,,,,
1720085306,45,0,4400.128418,4464.487305,4436.538574,4357.436035,4345.256348,4296.922852,4314.487305,4259.230957,4093.076904,4381.666504,4470.641113,4442.94873,4444.615234,4449.615234,,,,,,,,,,,,,,,,,,,,,,,,,,,,,,,,,,,,,,,,,,,,,,,,,,,,,,,,,,,,,,,,,,,,,,
1720085306,46,0,4401.025879,4463.333496,4443.461426,4356.794922,4359.487305,4296.794922,4316.538574,4258.846191,4089.358887,4375.641113,4480.384766,4434.358887,4439.487305,4443.333496,,,,,,,,,,,,,,,,,,,,,,,,,,,,,,,,,,,,,,,,,,,,,,,,,,,,,,,,,,,,,,,,,,,,,,
1720085306,47,0,4402.179688,4471.538574,4453.589844,4365.641113,4368.205078,4302.05127,4323.974121,4261.282227,4079.871826,4369.102539,4461.410156,4432.692383,4442.820313,4443.333496,,,,,,,,,,,,,,,,,,,,,,,,,,,,,,,,,,,,,,,,,,,,,,,,,,,,,,,,,,,,,,,,,,,,,,
1720085306,48,0,4396.282227,4466.410156,4446.410156,4346.666504,4359.487305,4293.461426,4322.820313,4251.410156,4050.897461,4341.666504,4419.102539,4428.589844,4429.230957,4429.102539,,,,,,,,,,,,,,,,,,,,,,,,,,,,,,,,,,,,,,,,,,,,,,,,,,,,,,,,,,,,,,,,,,,,,,
1720085306,49,0,4371.025879,4430.512695,4422.307617,4296.410156,4337.692383,4276.153809,4320.512695,4240.512695,4032.05127,4316.922852,4406.025879,4418.974121,4401.410156,4407.692383,,,,,,,,,,,,,,,,,,,,,,,,,,,,,,,,,,,,,,,,,,,,,,,,,,,,,,,,,,,,,,,,,,,,,,
1720085306,50,0,4367.307617,4415.256348,4431.538574,4273.205078,4331.922852,4276.794922,4332.179688,4255.128418,4051.410156,4325.897461,4429.230957,4432.179688,4405.256348,4417.692383,,,,,,,,,,,,,,,,,,,,,,,,,,,,,,,,,,,,,,,,,,,,,,,,,,,,,,,,,,,,,,,,,,,,,,
1720085306,51,0,4403.974121,4446.538574,4470.641113,4286.282227,4348.205078,4302.307617,4355.897461,4277.436035,4074.487061,4346.153809,4466.153809,4467.05127,4437.436035,4454.615234,,,,,,,,,,,,,,,,,,,,,,,,,,,,,,,,,,,,,,,,,,,,,,,,,,,,,,,,,,,,,,,,,,,,,,
1720085306,52,0,4425.256348,4467.94873,4486.794922,4294.743652,4362.94873,4331.794922,4372.692383,4284.743652,4086.025635,4366.922852,4486.282227,4483.846191,4451.410156,4467.436035,,,,,,,,,,,,,,,,,,,,,,,,,,,,,,,,,,,,,,,,,,,,,,,,,,,,,,,,,,,,,,,,,,,,,,
1720085306,53,0,4415.256348,4458.205078,4473.717773,4294.358887,4364.358887,4342.05127,4369.487305,4278.205078,4092.435791,4383.333496,4464.743652,4465.769043,4446.410156,4446.153809,,,,,,,,,,,,,,,,,,,,,,,,,,,,,,,,,,,,,,,,,,,,,,,,,,,,,,,,,,,,,,,,,,,,,,
1720085306,54,0,4416.282227,4455,4462.692383,4291.922852,4364.871582,4340.256348,4357.820313,4269.871582,4087.94873,4373.461426,4445.384766,4438.461426,4447.820313,4435.384766,,,,,,,,,,,,,,,,,,,,,,,,,,,,,,,,,,,,,,,,,,,,,,,,,,,,,,,,,,,,,,,,,,,,,,
1720085306,55,0,4420.512695,4459.487305,4458.333496,4271.410156,4364.743652,4341.282227,4350.512695,4262.307617,4079.102539,4360.769043,4461.025879,4423.717773,4442.179688,4436.666504,,,,,,,,,,,,,,,,,,,,,,,,,,,,,,,,,,,,,,,,,,,,,,,,,,,,,,,,,,,,,,,,,,,,,,
1720085306,56,0,4418.974121,4459.230957,4459.358887,4258.205078,4360.384766,4334.743652,4341.666504,4251.153809,4082.179443,4372.05127,4467.692383,4430.128418,4429.743652,4432.692383,,,,,,,,,,,,,,,,,,,,,,,,,,,,,,,,,,,,,,,,,,,,,,,,,,,,,,,,,,,,,,,,,,,,,,
1720085306,57,0,4423.846191,4459.102539,4464.871582,4268.717773,4357.94873,4317.307617,4325.384766,4242.563965,4087.820557,4381.025879,4454.871582,4448.589844,4438.205078,4435.384766,,,,,,,,,,,,,,,,,,,,,,,,,,,,,,,,,,,,,,,,,,,,,,,,,,,,,,,,,,,,,,,,,,,,,,
1720085306,58,0,4422.05127,4459.230957,4454.230957,4270.128418,4356.025879,4305.384766,4310.256348,4240.256348,4084.487061,4374.743652,4457.820313,4460.512695,4456.922852,4444.871582,9.245522,6.144818,1.835657,0.63143,0.891288,12.552052,11.747669,2.57589,1.97423,0.968535,9.085595,7.122956,5.229218,1.174225,0.890655,5.495097,5.069765,1.837234,2.130784,1.144604,1.24827,2.860864,1.255611,0.802631,0.272992,1.468777,4.960016,2.00871,1.270059,0.220407,9.073042,15.390359,1.864185,1.673135,0.392389,11.04227,29.58461,2.553071,1.325161,0.572566,4.728649,10.599728,2.670837,1.131068,0.640078,32.107857,27.886066,6.938691,3.705147,1.330738,4.211906,13.788615,5.027567,1.613965,1.086429,8.850313,32.830509,6.548108,1.587607,1.115528,2.422182,7.991145,4.268895,1.262033,0.635913,2.76362,8.940227,5.266607,0.953058,1.122528
1720085306,59,0,4411.538574,4456.410156,4427.820313,4266.538574,4357.436035,4309.743652,4307.307617,4244.871582,4095.897461,4381.666504,4465.128418,4462.563965,4459.358887,4445.256348,,,,,,,,,,,,,,,,,,,,,,,,,,,,,,,,,,,,,,,,,,,,,,,,,,,,,,,,,,,,,,,,,,,,,,
1720085306,60,0,4408.333496,4450,4409.615234,4266.666504,4360.897461,4309.871582,4307.563965,4248.077148,4110.384766,4388.589844,4446.794922,4444.743652,4442.94873,4426.410156,,,,,,,,,,,,,,,,,,,,,,,,,,,,,,,,,,,,,,,,,,,,,,,,,,,,,,,,,,,,,,,,,,,,,,
1720085306,61,0,4411.410156,4439.487305,4407.563965,4251.538574,4356.794922,4296.538574,4304.230957,4241.922852,4099.230957,4369.487305,4424.102539,4414.487305,4425.256348,4399.487305,,,,,,,,,,,,,,,,,,,,,,,,,,,,,,,,,,,,,,,,,,,,,,,,,,,,,,,,,,,,,,,,,,,,,,
1720085306,62,0,4411.666504,4429.871582,4411.794922,4244.358887,4350.512695,4295.641113,4317.179688,4248.205078,4093.205078,4355.384766,4430.769043,4412.820313,4417.563965,4388.333496,,,,,,,,,,,,,,,,,,,,,,,,,,,,,,,,,,,,,,,,,,,,,,,,,,,,,,,,,,,,,,,,,,,,,,
1720085306,63,0,4411.153809,4428.846191,4417.692383,4254.487305,4356.538574,4314.358887,4353.077148,4275.641113,4118.589844,4371.025879,4450.512695,4445.384766,4425.897461,4402.436035,,,,,,,,,,,,,,,,,,,,,,,,,,,,,,,,,,,,,,,,,,,,,,,,,,,,,,,,,,,,,,,,,,,,,,
1720085306,64,0,4405.769043,4429.871582,4416.153809,4225.897461,4357.436035,4322.820313,4370.512695,4289.871582,4130.769043,4385.641113,4446.410156,4460.769043,4439.743652,4417.820313,,,,,,,,,,,,,,,,,,,,,,,,,,,,,,,,,,,,,,,,,,,,,,,,,,,,,,,,,,,,,,,,,,,,,,
1720085306,65,0,4394.487305,4426.410156,4411.666504,4179.230957,4343.846191,4317.05127,4362.692383,4280,4118.589844,4381.282227,4435.769043,4434.358887,4439.102539,4413.205078,,,,,,,,,,,,,,,,,,,,,,,,,,,,,,,,,,,,,,,,,,,,,,,,,,,,,,,,,,,,,,,,,,,,,,
1720085306,66,0,4399.871582,4427.820313,4429.743652,4193.974121,4340.512695,4321.538574,4357.94873,4275,4121.282227,4380.897461,4450,4428.461426,4437.05127,4407.563965,,,,,,,,,,,,,,,,,,,,,,,,,,,,,,,,,,,,,,,,,,,,,,,,,,,,,,,,,,,,,,,,,,,,,,
1720085306,67,0,4412.563965,4435.897461,4448.205078,4229.871582,4352.436035,4325.641113,4349.615234,4267.436035,4118.589844,4379.615234,4467.436035,4437.179688,4439.871582,4413.846191,,,,,,,,,,,,,,,,,,,,,,,,,,,,,,,,,,,,,,,,,,,,,,,,,,,,,,,,,,,,,,,,,,,,,,
1720085306,68,0,4397.563965,4430.641113,4424.743652,4217.563965,4357.820313,4315.384766,4325.128418,4238.974121,4093.333252,4367.179688,4444.230957,4343.846191,4423.461426,4403.077148,,,,,,,,,,,,,,,,,,,,,,,,,,,,,,,,,,,,,,,,,,,,,,,,,,,,,,,,,,,,,,,,,,,,,,
1720085306,69,0,4371.794922,4418.846191,4397.820313,4203.589844,4357.692383,4313.717773,4307.307617,4219.743652,4090.384521,4367.436035,4411.282227,4211.025879,4411.282227,4388.205078,,,,,,,,,,,,,,,,,,,,,,,,,,,,,,,,,,,,,,,,,,,,,,,,,,,,,,,,,,,,,,,,,,,,,,
1720085306,70,0,4373.077148,4424.358887,4409.487305,4221.794922,4361.538574,4320.512695,4309.487305,4226.666504,4113.333496,4381.666504,4430.769043,4204.743652,4426.153809,4406.410156,,,,,,,,,,,,,,,,,,,,,,,,,,,,,,,,,,,,,,,,,,,,,,,,,,,,,,,,,,,,,,,,,,,,,,
1720085306,71,0,4387.179688,4429.743652,4427.563965,4244.487305,4360.641113,4321.410156,4315.256348,4238.974121,4128.717773,4388.717773,4461.666504,4262.563965,4422.05127,4418.589844,,,,,,,,,,,,,,,,,,,,,,,,,,,,,,,,,,,,,,,,,,,,,,,,,,,,,,,,,,,,,,,,,,,,,,
1720085306,72,0,4395,4425.128418,4435.128418,4270,4358.205078,4322.179688,4324.743652,4252.436035,4140.128418,4391.410156,4461.538574,4272.307617,4399.743652,4410.256348,,,,,,,,,,,,,,,,,,,,,,,,,,,,,,,,,,,,,,,,,,,,,,,,,,,,,,,,,,,,,,,,,,,,,,
1720085306,73,0,4393.846191,4419.615234,4437.436035,4287.436035,4356.282227,4320.384766,4337.692383,4271.282227,4154.871582,4393.846191,4461.666504,4277.05127,4402.563965,4425.128418,,,,,,,,,,,,,,,,,,,,,,,,,,,,,,,,,,,,,,,,,,,,,,,,,,,,,,,,,,,,,,,,,,,,,,
1720085306,74,0,4379.743652,4421.025879,4431.410156,4287.179688,4352.94873,4312.436035,4345.897461,4288.974121,4157.436035,4385,4477.05127,4303.589844,4414.615234,4450.769043,10.556147,7.144979,1.930802,0.703491,0.856978,11.239444,11.5005,2.361031,1.900447,0.955688,9.600972,6.463185,5.986376,1.365278,0.814973,5.650838,4.846476,1.890425,2.109721,1.066674,1.605832,2.994057,1.432192,0.813545,0.296876,1.921958,6.231522,2.258989,1.397649,0.198264,10.12772,14.852927,1.921732,1.75717,0.40041,11.499557,26.162863,2.721885,1.398574,0.571642,5.891798,9.881232,2.832383,1.442196,0.665262,25.083395,15.703454,6.204399,2.947684,1.157416,5.816864,12.798312,5.974413,1.513188,1.113915,9.575527,29.369978,7.833186,1.787766,1.115584,3.364835,7.617787,4.847441,1.385926,0.678977,2.99311,8.1731,6.207606,1.001078,1.114298
1720085306,75,0,4371.153809,4426.794922,4425.641113,4288.461426,4355.384766,4308.461426,4346.410156,4292.436035,4140.512695,4361.282227,4484.487305,4310.769043,4410.512695,4447.820313,,,,,,,,,,,,,,,,,,,,,,,,,,,,,,,,,,,,,,,,,,,,,,,,,,,,,,,,,,,,,,,,,,,,,,
1720085306,76,0,4378.205078,4426.666504,4430,4296.666504,4358.205078,4308.077148,4342.436035,4281.794922,4122.692383,4339.487305,4478.333496,4297.436035,4397.94873,4428.589844,,,,,,,,,,,,,,,,,,,,,,,,,,,,,,,,,,,,,,,,,,,,,,,,,,,,,,,,,,,,,,,,,,,,,,
1720085306,77,0,4384.615234,4415.897461,4435,4299.487305,4355.769043,4306.666504,4337.436035,4272.179688,4120.384766,4336.153809,4457.05127,4274.487305,4382.436035,4413.077148,,,,,,,,,,,,,,,,,,,,,,,,,,,,,,,,,,,,,,,,,,,,,,,,,,,,,,,,,,,,,,,,,,,,,,
1720085306,78,0,4379.358887,4402.692383,4429.102539,4291.410156,4356.538574,4307.563965,4331.025879,4264.230957,4121.282227,4334.615234,4430.897461,4257.820313,4369.358887,4408.846191,,,,,,,,,,,,,,,,,,,,,,,,,,,,,,,,,,,,,,,,,,,,,,,,,,,,,,,,,,,,,,,,,,,,,,
1720085306,79,0,4368.717773,4400.897461,4417.563965,4283.974121,4362.307617,4311.410156,4326.794922,4251.410156,4123.333496,4328.846191,4436.538574,4263.846191,4373.717773,4412.94873,,,,,,,,,,,,,,,,,,,,,,,,,,,,,,,,,,,,,,,,,,,,,,,,,,,,,,,,,,,,,,,,,,,,,,
1720085306,80,0,4355.512695,4395,4396.153809,4279.102539,4359.871582,4316.666504,4314.743652,4230.384766,4121.153809,4321.666504,4429.615234,4249.230957,4371.282227,4399.102539,,,,,,,,,,,,,,,,,,,,,,,,,,,,,,,,,,,,,,,,,,,,,,,,,,,,,,,,,,,,,,,,,,,,,,
1720085306,81,0,4351.153809,4386.666504,4378.846191,4280.897461,4356.794922,4317.563965,4302.820313,4214.615234,4110.769043,4309.358887,4402.692383,4215.769043,4358.461426,4384.358887,,,,,,,,,,,,,,,,,,,,,,,,,,,,,,,,,,,,,,,,,,,,,,,,,,,,,,,,,,,,,,,,,,,,,,
1720085306,82,0,4363.974121,4391.794922,4386.666504,4286.025879,4356.922852,4316.153809,4303.589844,4211.922852,4109.102539,4304.358887,4416.538574,4218.461426,4365.769043,4394.230957,,,,,,,,,,,,,,,,,,,,,,,,,,,,,,,,,,,,,,,,,,,,,,,,,,,,,,,,,,,,,,,,,,,,,,
1720085306,83,0,4378.974121,4396.410156,4406.538574,4294.230957,4349.230957,4309.871582,4302.692383,4213.589844,4120.256348,4312.179688,4446.025879,4251.794922,4381.410156,4409.487305,,,,,,,,,,,,,,,,,,,,,,,,,,,,,,,,,,,,,,,,,,,,,,,,,,,,,,,,,,,,,,,,,,,,,,
1720085306,84,0,4378.205078,4392.563965,4414.358887,4295.384766,4339.615234,4296.282227,4294.743652,4219.358887,4131.794922,4324.358887,4445,4280.641113,4383.077148,4415.769043,,,,,,,,,,,,,,,,,,,,,,,,,,,,,,,,,,,,,,,,,,,,,,,,,,,,,,,,,,,,,,,,,,,,,,
1720085306,85,0,4361.153809,4387.05127,4410.769043,4277.307617,4339.358887,4295.256348,4300.769043,4235.641113,4138.333496,4326.282227,4436.025879,4300.769043,4379.871582,4418.333496,,,,,,,,,,,,,,,,,,,,,,,,,,,,,,,,,,,,,,,,,,,,,,,,,,,,,,,,,,,,,,,,,,,,,,
1720085306,86,0,4354.230957,4385.512695,4412.05127,4280.512695,4347.307617,4315.256348,4331.153809,4259.615234,4138.077148,4318.205078,4444.102539,4320.769043,4381.282227,4422.94873,,,,,,,,,,,,,,,,,,,,,,,,,,,,,,,,,,,,,,,,,,,,,,,,,,,,,,,,,,,,,,,,,,,,,,
1720085306,87,0,4368.333496,4387.436035,4415.897461,4304.230957,4355.256348,4332.179688,4362.179688,4283.846191,4137.563965,4316.025879,4455.384766,4336.282227,4380.769043,4428.589844,,,,,,,,,,,,,,,,,,,,,,,,,,,,,,,,,,,,,,,,,,,,,,,,,,,,,,,,,,,,,,,,,,,,,,
1720085306,88,0,4376.282227,4387.436035,4419.102539,4302.307617,4353.974121,4336.922852,4376.666504,4298.333496,4146.922852,4327.94873,4462.820313,4346.666504,4381.153809,4429.871582,,,,,,,,,,,,,,,,,,,,,,,,,,,,,,,,,,,,,,,,,,,,,,,,,,,,,,,,,,,,,,,,,,,,,,
1720085306,89,0,4364.487305,4381.922852,4428.846191,4292.563965,4351.410156,4342.820313,4378.077148,4300.128418,4155.384766,4331.666504,4455.641113,4350.769043,4379.230957,4423.589844,,,,,,,,,,,,,,,,,,,,,,,,,,,,,,,,,,,,,,,,,,,,,,,,,,,,,,,,,,,,,,,,,,,,,,
1720085306,90,0,4354.487305,4382.179688,4432.436035,4308.461426,4357.307617,4347.692383,4373.461426,4296.794922,4152.179688,4313.974121,4451.794922,4347.692383,4371.922852,4422.05127,11.394698,8.323746,2.180418,0.748378,0.829344,9.688315,10.199942,2.131752,1.657094,0.906952,9.379554,6.217698,6.599992,1.467998,0.720801,5.749882,4.683361,2.024651,1.925403,1.004302,2.091991,2.899775,1.50964,0.774141,0.314034,2.630911,7.712421,2.440407,1.397276,0.184374,11.811846,18.619619,2.000164,1.653667,0.386851,11.386517,23.096069,2.860116,1.349665,0.537227,7.248011,8.408562,3.06813,1.724756,0.677549,19.60523,8.108604,4.907737,2.459584,1.036074,7.543794,10.924499,6.667842,1.584697,1.121976,9.503914,24.172382,8.752095,1.941341,1.062968,4.4168,6.695899,5.223523,1.397464,0.70178,3.042321,7.249856,6.950094,1.008945,1.041576
1720085306,91,0,4357.05127,4391.666504,4417.94873,4323.589844,4360.384766,4342.179688,4361.666504,4286.538574,4149.871582,4310.128418,4463.205078,4341.794922,4371.666504,4427.692383,,,,,,,,,,,,,,,,,,,,,,,,,,,,,,,,,,,,,,,,,,,,,,,,,,,,,,,,,,,,,,,,,,,,,,
1720085306,92,0,4368.589844,4400.897461,4409.615234,4327.179688,4355.128418,4329.102539,4340.512695,4268.717773,4157.05127,4328.589844,4453.205078,4335.256348,4379.615234,4428.974121,,,,,,,,,,,,,,,,,,,,,,,,,,,,,,,,,,,,,,,,,,,,,,,,,,,,,,,,,,,,,,,,,,,,,,
1720085306,93,0,4390,4412.94873,4425.897461,4347.563965,4356.153809,4321.153809,4328.974121,4263.717773,4168.333496,4339.615234,4449.358887,4339.871582,4394.487305,4432.05127,,,,,,,,,,,,,,,,,,,,,,,,,,,,,,,,,,,,,,,,,,,,,,,,,,,,,,,,,,,,,,,,,,,,,,
1720085306,94,0,4398.589844,4416.666504,4435.128418,4354.487305,4356.538574,4325,4324.871582,4258.974121,4165.512695,4336.538574,4461.794922,4339.230957,4401.153809,4431.025879,,,,,,,,,,,,,,,,,,,,,,,,,,,,,,,,,,,,,,,,,,,,,,,,,,,,,,,,,,,,,,,,,,,,,,
1720085306,95,0,4379.871582,4403.461426,4416.153809,4333.205078,4348.077148,4325,4309.871582,4233.717773,4146.410156,4327.94873,4446.410156,4310,4388.846191,4413.974121,,,,,,,,,,,,,,,,,,,,,,,,,,,,,,,,,,,,,,,,,,,,,,,,,,,,,,,,,,,,,,,,,,,,,,
1720085306,96,0,4367.820313,4401.794922,4401.922852,4328.077148,4351.282227,4325,4297.820313,4217.436035,4139.487305,4323.846191,4441.025879,4293.846191,4384.871582,4401.666504,,,,,,,,,,,,,,,,,,,,,,,,,,,,,,,,,,,,,,,,,,,,,,,,,,,,,,,,,,,,,,,,,,,,,,
1720085306,97,0,4382.820313,4413.717773,4411.666504,4344.230957,4367.436035,4337.307617,4310.256348,4226.538574,4157.94873,4332.179688,4478.461426,4318.846191,4400.256348,4415.641113,,,,,,,,,,,,,,,,,,,,,,,,,,,,,,,,,,,,,,,,,,,,,,,,,,,,,,,,,,,,,,,,,,,,,,
1720085306,98,0,4389.871582,4404.743652,4418.974121,4346.153809,4370.897461,4342.436035,4322.820313,4229.358887,4169.487305,4338.461426,4476.153809,4337.307617,4395.769043,4423.461426,,,,,,,,,,,,,,,,,,,,,,,,,,,,,,,,,,,,,,,,,,,,,,,,,,,,,,,,,,,,,,,,,,,,,,
1720085306,99,0,4374.230957,4385.641113,4411.538574,4333.461426,4359.615234,4335.128418,4323.077148,4231.025879,4165.256348,4333.205078,4428.589844,4333.205078,4377.563965,4411.025879,,,,,,,,,,,,,,,,,,,,,,,,,,,,,,,,,,,,,,,,,,,,,,,,,,,,,,,,,,,,,,,,,,,,,,
1720085306,100,0,4364.358887,4390.641113,4409.743652,4341.282227,4352.307617,4335.512695,4334.871582,4256.025879,4174.102539,4340.512695,4428.205078,4345,4387.692383,4413.717773,,,,,,,,,,,,,,,,,,,,,,,,,,,,,,,,,,,,,,,,,,,,,,,,,,,,,,,,,,,,,,,,,,,,,,
1720085306,101,0,4362.563965,4398.589844,4415,4362.05127,4351.922852,4337.563965,4351.794922,4279.871582,4190.769043,4360,4453.974121,4367.563965,4402.94873,4424.102539,,,,,,,,,,,,,,,,,,,,,,,,,,,,,,,,,,,,,,,,,,,,,,,,,,,,,,,,,,,,,,,,,,,,,,
1720085306,102,0,4356.538574,4386.538574,4408.333496,4358.205078,4351.794922,4331.282227,4358.589844,4289.230957,4191.538574,4362.563965,4460,4370.128418,4394.743652,4414.358887,,,,,,,,,,,,,,,,,,,,,,,,,,,,,,,,,,,,,,,,,,,,,,,,,,,,,,,,,,,,,,,,,,,,,,
1720085306,103,0,4358.461426,4377.820313,4402.179688,4342.05127,4349.487305,4324.743652,4359.487305,4297.94873,4186.025879,4350.128418,4469.615234,4364.230957,4391.666504,4406.794922,,,,,,,,,,,,,,,,,,,,,,,,,,,,,,,,,,,,,,,,,,,,,,,,,,,,,,,,,,,,,,,,,,,,,,
1720085306,104,0,4365.512695,4381.025879,4408.205078,4341.282227,4341.538574,4317.307617,4352.05127,4297.94873,4180.641113,4335.897461,4479.615234,4365.128418,4397.692383,4411.153809,,,,,,,,,,,,,,,,,,,,,,,,,,,,,,,,,,,,,,,,,,,,,,,,,,,,,,,,,,,,,,,,,,,,,,
1720085306,105,0,4361.922852,4382.820313,4413.846191,4353.717773,4340.128418,4313.974121,4338.077148,4282.692383,4170,4325,4467.692383,4365.128418,4394.615234,4407.94873,,,,,,,,,,,,,,,,,,,,,,,,,,,,,,,,,,,,,,,,,,,,,,,,,,,,,,,,,,,,,,,,,,,,,,
1720085306,106,0,4353.589844,4383.461426,4409.615234,4355.641113,4353.974121,4326.538574,4325.769043,4268.077148,4165.641113,4325.128418,4433.077148,4359.230957,4388.333496,4405.128418,11.553638,9.222254,2.450849,0.771376,0.814232,8.070098,8.25448,1.924035,1.349552,0.832062,8.528559,6.334481,6.776283,1.48267,0.635135,5.826486,4.576663,2.157099,1.681957,0.994438,2.495864,2.661038,1.474353,0.708308,0.318586,3.45477,9.277114,2.587026,1.290627,0.18365,13.965703,26.422895,2.146358,1.38984,0.356305,10.986568,21.108755,2.993245,1.204903,0.4759,8.436066,6.571822,3.415641,1.938938,0.668564,16.180351,4.425758,3.454694,2.20192,0.942819,9.210214,8.802421,6.829443,1.845872,1.133047,10.043234,19.181875,9.147742,2.187795,1.01178,5.494964,5.50302,5.183589,1.339979,0.705316,3.156127,6.361555,7.109694,1.010916,0.933925
1720085306,107,0,4344.615234,4377.436035,4397.05127,4344.743652,4361.666504,4339.358887,4315,4256.282227,4167.94873,4322.05127,4406.410156,4346.025879,4375.512695,4400.384766,,,,,,,,,,,,,,,,,,,,,,,,,,,,,,,,,,,,,,,,,,,,,,,,,,,,,,,,,,,,,,,,,,,,,,
1720085306,108,0,4332.307617,4365.128418,4384.871582,4337.05127,4354.102539,4340.897461,4301.538574,4242.436035,4164.615234,4311.794922,4417.820313,4333.974121,4355.769043,4380,,,,,,,,,,,,,,,,,,,,,,,,,,,,,,,,,,,,,,,,,,,,,,,,,,,,,,,,,,,,,,,,,,,,,,
1720085306,109,0,4327.94873,4362.307617,4383.205078,4343.974121,4353.333496,4341.538574,4297.307617,4240.128418,4167.94873,4317.307617,4432.436035,4330.128418,4350.769043,4367.820313,,,,,,,,,,,,,,,,,,,,,,,,,,,,,,,,,,,,,,,,,,,,,,,,,,,,,,,,,,,,,,,,,,,,,,
1720085306,110,0,4338.717773,4373.717773,4396.153809,4357.307617,4362.179688,4344.871582,4308.717773,4251.666504,4186.025879,4336.794922,4416.025879,4335.384766,4364.102539,4380.256348,,,,,,,,,,,,,,,,,,,,,,,,,,,,,,,,,,,,,,,,,,,,,,,,,,,,,,,,,,,,,,,,,,,,,,
1720085306,111,0,4352.307617,4382.05127,4408.589844,4363.589844,4358.717773,4341.538574,4324.743652,4264.615234,4200.256348,4346.922852,4410.512695,4348.461426,4372.307617,4395.641113,,,,,,,,,,,,,,,,,,,,,,,,,,,,,,,,,,,,,,,,,,,,,,,,,,,,,,,,,,,,,,,,,,,,,,
1720085306,112,0,4355.256348,4375.256348,4410.512695,4368.205078,4343.717773,4330.512695,4333.846191,4272.563965,4197.05127,4338.205078,4425.641113,4359.487305,4360.641113,4392.820313,,,,,,,,,,,,,,,,,,,,,,,,,,,,,,,,,,,,,,,,,,,,,,,,,,,,,,,,,,,,,,,,,,,,,,
1720085306,113,0,4359.871582,4371.410156,4423.717773,4385.128418,4339.358887,4326.410156,4347.820313,4287.05127,4200.256348,4335.128418,4431.282227,4383.077148,4358.461426,4394.102539,,,,,,,,,,,,,,,,,,,,,,,,,,,,,,,,,,,,,,,,,,,,,,,,,,,,,,,,,,,,,,,,,,,,,,
1720085306,114,0,4378.589844,4385.512695,4450,4410.641113,4346.410156,4338.333496,4372.563965,4311.538574,4218.077148,4354.871582,4452.307617,4428.717773,4389.487305,4420.897461,,,,,,,,,,,,,,,,,,,,,,,,,,,,,,,,,,,,,,,,,,,,,,,,,,,,,,,,,,,,,,,,,,,,,,
1720085306,115,0,4379.102539,4375.769043,4443.077148,4397.820313,4342.436035,4343.077148,4371.922852,4313.846191,4216.025879,4356.538574,4474.871582,4434.358887,4400.384766,4428.846191,,,,,,,,,,,,,,,,,,,,,,,,,,,,,,,,,,,,,,,,,,,,,,,,,,,,,,,,,,,,,,,,,,,,,,
1720085306,116,0,4356.025879,4324.871582,4405.897461,4358.974121,4333.589844,4341.153809,4350,4295.769043,4195.512695,4327.692383,4451.025879,4393.205078,4373.333496,4400,,,,,,,,,,,,,,,,,,,,,,,,,,,,,,,,,,,,,,,,,,,,,,,,,,,,,,,,,,,,,,,,,,,,,,
1720085306,117,0,4356.538574,4291.666504,4396.025879,4366.153809,4344.743652,4353.717773,4349.230957,4294.487305,4196.410156,4323.974121,4435.256348,4385.384766,4372.692383,4386.282227,,,,,,,,,,,,,,,,,,,,,,,,,,,,,,,,,,,,,,,,,,,,,,,,,,,,,,,,,,,,,,,,,,,,,,
1720085306,118,0,4370.769043,4283.333496,4406.410156,4389.230957,4359.743652,4356.922852,4348.461426,4294.743652,4208.205078,4346.153809,4448.974121,4400.512695,4388.205078,4395.512695,,,,,,,,,,,,,,,,,,,,,,,,,,,,,,,,,,,,,,,,,,,,,,,,,,,,,,,,,,,,,,,,,,,,,,
1720085306,119,0,4361.282227,4260,4402.820313,4377.94873,4355.897461,4341.282227,4322.563965,4273.846191,4198.974121,4346.025879,4424.102539,4381.922852,4369.743652,4389.871582,,,,,,,,,,,,,,,,,,,,,,,,,,,,,,,,,,,,,,,,,,,,,,,,,,,,,,,,,,,,,,,,,,,,,,
1720085306,120,0,4353.205078,4235.641113,4401.025879,4371.794922,4350,4339.487305,4303.205078,4255.128418,4186.153809,4333.717773,4384.358887,4359.487305,4350.256348,4373.974121,,,,,,,,,,,,,,,,,,,,,,,,,,,,,,,,,,,,,,,,,,,,,,,,,,,,,,,,,,,,,,,,,,,,,,
1720085306,121,0,4364.487305,4231.794922,4403.974121,4389.358887,4349.871582,4345.897461,4299.615234,4250.769043,4185.897461,4330,4388.333496,4354.615234,4357.692383,4369.102539,,,,,,,,,,,,,,,,,,,,,,,,,,,,,,,,,,,,,,,,,,,,,,,,,,,,,,,,,,,,,,,,,,,,,,
1720085306,122,0,4366.538574,4234.615234,4404.230957,4397.820313,4343.077148,4336.410156,4291.025879,4244.743652,4185.769043,4327.563965,4396.538574,4344.871582,4363.974121,4370.641113,10.932578,9.358932,2.621814,0.801956,0.806187,6.59635,6.154417,1.758328,1.088777,0.745197,7.647743,6.558901,6.340978,1.457505,0.579899,6.109589,4.548204,2.186226,1.488181,1.05586,2.764562,2.348093,1.352266,0.647655,0.309216,4.361296,10.69127,2.74123,1.128314,0.196204,16.299921,36.458405,2.375338,1.055304,0.318906,10.722984,20.622007,3.12061,1.030918,0.403409,9.142696,4.852587,3.888599,2.072601,0.63722,14.649938,3.113661,2.342185,2.089236,0.849883,10.381616,7.087718,6.397327,2.234707,1.178878,12.15003,16.439285,9.217502,2.714085,1.039797,6.294682,4.385453,4.698852,1.287679,0.695846,3.452542,5.670516,6.550306,1.058249,0.82823
1720085306,123,0,4361.794922,4228.077148,4410.128418,4395.897461,4334.871582,4323.589844,4289.487305,4242.436035,4181.794922,4325.256348,4401.153809,4343.717773,4368.077148,4374.230957,,,,,,,,,,,,,,,,,,,,,,,,,,,,,,,,,,,,,,,,,,,,,,,,,,,,,,,,,,,,,,,,,,,,,,
1720085306,124,0,4363.589844,4216.538574,4409.743652,4383.333496,4333.077148,4325,4303.974121,4253.461426,4185.641113,4321.410156,4435.384766,4366.025879,4377.563965,4384.230957,,,,,,,,,,,,,,,,,,,,,,,,,,,,,,,,,,,,,,,,,,,,,,,,,,,,,,,,,,,,,,,,,,,,,,
1720085306,125,0,4357.179688,4213.461426,4401.666504,4371.666504,4332.820313,4335.897461,4321.282227,4273.461426,4204.615234,4326.410156,4448.077148,4391.410156,4381.794922,4392.692383,,,,,,,,,,,,,,,,,,,,,,,,,,,,,,,,,,,,,,,,,,,,,,,,,,,,,,,,,,,,,,,,,,,,,,
1720085306,126,0,4354.743652,4218.333496,4407.307617,4389.615234,4337.05127,4343.846191,4339.615234,4291.922852,4221.538574,4348.589844,4415.384766,4403.077148,4384.743652,4394.615234,,,,,,,,,,,,,,,,,,,,,,,,,,,,,,,,,,,,,,,,,,,,,,,,,,,,,,,,,,,,,,,,,,,,,,
1720085306,127,0,4357.436035,4208.461426,4410,4401.922852,4337.692383,4341.025879,4351.153809,4294.102539,4218.589844,4357.436035,4406.025879,4398.461426,4383.205078,4380.384766,,,,,,,,,,,,,,,,,,,,,,,,,,,,,,,,,,,,,,,,,,,,,,,,,,,,,,,,,,,,,,,,,,,,,,
1720085306,0,0,4347.563965,4193.717773,4398.717773,4391.922852,4332.307617,4340.256348,4352.05127,4291.153809,4212.436035,4348.333496,4433.333496,4398.846191,4377.563965,4362.563965,,,,,,,,,,,,,,,,,,,,,,,,,,,,,,,,,,,,,,,,,,,,,,,,,,,,,,,,,,,,,,,,,,,,,,
1720085306,1,0,4344.487305,4198.846191,4398.077148,4387.692383,4334.102539,4346.794922,4348.589844,4294.871582,4215.512695,4346.538574,4434.615234,4408.846191,4374.358887,4366.538574,,,,,,,,,,,,,,,,,,,,,,,,,,,,,,,,,,,,,,,,,,,,,,,,,,,,,,,,,,,,,,,,,,,,,,
1720085306,2,0,4356.794922,4200,4402.563965,4385,4334.487305,4340.897461,4333.077148,4285.384766,4205.128418,4342.692383,4402.94873,4400.512695,4368.205078,4376.538574,,,,,,,,,,,,,,,,,,,,,,,,,,,,,,,,,,,,,,,,,,,,,,,,,,,,,,,,,,,,,,,,,,,,,,
1720085306,3,0,4356.794922,4187.05127,4397.692383,4379.871582,4323.333496,4331.538574,4315.897461,4266.538574,4182.179688,4322.179688,4387.692383,4381.410156,4365.512695,4368.461426,,,,,,,,,,,,,,,,,,,,,,,,,,,,,,,,,,,,,,,,,,,,,,,,,,,,,,,,,,,,,,,,,,,,,,
1720085306,4,0,4345.641113,4185.769043,4396.666504,4382.307617,4317.179688,4333.846191,4307.05127,4263.589844,4177.307617,4306.666504,4404.358887,4374.871582,4365.512695,4355.256348,,,,,,,,,,,,,,,,,,,,,,,,,,,,,,,,,,,,,,,,,,,,,,,,,,,,,,,,,,,,,,,,,,,,,,
1720085306,5,0,4343.974121,4193.717773,4396.794922,4380.128418,4321.666504,4339.230957,4297.436035,4262.05127,4187.94873,4310.512695,4399.615234,4366.922852,4349.358887,4347.05127,,,,,,,,,,,,,,,,,,,,,,,,,,,,,,,,,,,,,,,,,,,,,,,,,,,,,,,,,,,,,,,,,,,,,,
1720085306,6,0,4350.641113,4200,4396.410156,4381.025879,4328.461426,4341.025879,4291.153809,4248.846191,4181.666504,4316.922852,4363.589844,4364.743652,4333.461426,4345.512695,,,,,,,,,,,,,,,,,,,,,,,,,,,,,,,,,,,,,,,,,,,,,,,,,,,,,,,,,,,,,,,,,,,,,,
1720085306,7,0,4363.205078,4209.743652,4400.512695,4397.820313,4332.94873,4335.897461,4292.563965,4241.666504,4175.256348,4311.794922,4347.307617,4376.153809,4342.179688,4360.641113,,,,,,,,,,,,,,,,,,,,,,,,,,,,,,,,,,,,,,,,,,,,,,,,,,,,,,,,,,,,,,,,,,,,,,
1720085306,8,0,4377.05127,4220.897461,4402.05127,4399.102539,4330.512695,4327.563965,4294.358887,4245.256348,4216.794922,4307.563965,4359.230957,4383.589844,4356.410156,4380,,,,,,,,,,,,,,,,,,,,,,,,,,,,,,,,,,,,,,,,,,,,,,,,,,,,,,,,,,,,,,,,,,,,,,
1720085306,9,0,4381.282227,4225.128418,4404.230957,4383.205078,4323.461426,4327.563965,4301.794922,4251.538574,4278.077148,4313.461426,4399.871582,4393.589844,4363.717773,4384.871582,,,,,,,,,,,,,,,,,,,,,,,,,,,,,,,,,,,,,,,,,,,,,,,,,,,,,,,,,,,,,,,,,,,,,,
1720085306,10,0,4380.769043,4223.974121,4412.820313,4381.794922,4324.230957,4327.05127,4317.307617,4264.230957,4302.563965,4326.153809,4436.282227,4413.974121,4366.153809,4387.436035,9.745202,8.526467,2.609455,0.874198,0.793618,5.485189,4.249051,1.616239,0.939601,0.661244,7.083505,6.605509,5.327188,1.452322,0.562569,6.919349,4.561139,2.061671,1.399571,1.177031,2.799274,2.010827,1.206928,0.613263,0.289914,5.035432,11.625205,2.937567,0.956912,0.217434,18.092012,46.037498,2.605916,0.761234,0.28559,10.762436,21.792738,3.196194,0.897507,0.337291,9.284901,3.625109,4.418733,2.126153,0.591003,14.315923,2.944768,1.850599,2.066493,0.753554,11.058109,6.200984,5.574193,2.644241,1.275897,16.746187,17.034599,9.309711,3.601919,1.199924,6.929237,3.604624,3.91738,1.293306,0.681673,4.101861,5.269901,5.424453,1.176153,0.753693
1720085306,11,0,4383.461426,4219.871582,4420.256348,4384.743652,4321.794922,4314.230957,4324.230957,4280.769043,4310.384766,4340.769043,4414.230957,4425.769043,4362.307617,4398.717773,,,,,,,,,,,,,,,,,,,,,,,,,,,,,,,,,,,,,,,,,,,,,,,,,,,,,,,,,,,,,,,,,,,,,,
1720085306,12,0,4391.794922,4211.666504,4426.922852,4379.615234,4313.974121,4308.077148,4324.743652,4291.153809,4331.282227,4351.282227,4377.307617,4430.256348,4362.436035,4409.358887,,,,,,,,,,,,,,,,,,,,,,,,,,,,,,,,,,,,,,,,,,,,,,,,,,,,,,,,,,,,,,,,,,,,,,
1720085306,13,0,4405,4203.717773,4435.769043,4384.615234,4317.05127,4311.794922,4325.897461,4292.05127,4336.666504,4354.102539,4387.436035,4436.666504,4367.692383,4405.128418,,,,,,,,,,,,,,,,,,,,,,,,,,,,,,,,,,,,,,,,,,,,,,,,,,,,,,,,,,,,,,,,,,,,,,
1720085306,14,0,4415,4203.077148,4435.256348,4396.410156,4320,4309.358887,4318.077148,4281.410156,4321.666504,4347.820313,4405.384766,4433.846191,4367.692383,4396.922852,,,,,,,,,,,,,,,,,,,,,,,,,,,,,,,,,,,,,,,,,,,,,,,,,,,,,,,,,,,,,,,,,,,,,,
1720085306,15,0,4414.358887,4206.410156,4425.641113,4390.769043,4318.717773,4315.384766,4313.974121,4270.512695,4311.794922,4335.384766,4396.794922,4424.743652,4361.666504,4395,,,,,,,,,,,,,,,,,,,,,,,,,,,,,,,,,,,,,,,,,,,,,,,,,,,,,,,,,,,,,,,,,,,,,,
1720085306,16,0,4401.410156,4196.153809,4414.358887,4364.230957,4321.282227,4323.205078,4309.743652,4261.666504,4300.897461,4320.384766,4379.487305,4410.641113,4348.461426,4385.897461,,,,,,,,,,,,,,,,,,,,,,,,,,,,,,,,,,,,,,,,,,,,,,,,,,,,,,,,,,,,,,,,,,,,,,
1720085306,17,0,4393.717773,4186.794922,4407.94873,4349.743652,4319.230957,4316.666504,4297.692383,4251.025879,4292.94873,4314.102539,4358.589844,4399.102539,4344.230957,4378.461426,,,,,,,,,,,,,,,,,,,,,,,,,,,,,,,,,,,,,,,,,,,,,,,,,,,,,,,,,,,,,,,,,,,,,,
1720085306,18,0,4399.102539,4197.05127,4413.077148,4371.794922,4312.436035,4308.205078,4290.384766,4249.230957,4295.769043,4324.230957,4360.128418,4405,4357.307617,4387.436035,,,,,,,,,,,,,,,,,,,,,,,,,,,,,,,,,,,,,,,,,,,,,,,,,,,,,,,,,,,,,,,,,,,,,,
1720085306,19,0,4397.820313,4198.333496,4413.205078,4387.563965,4310.512695,4304.102539,4284.358887,4246.538574,4288.589844,4328.077148,4381.538574,4407.820313,4360.769043,4385.641113,,,,,,,,,,,,,,,,,,,,,,,,,,,,,,,,,,,,,,,,,,,,,,,,,,,,,,,,,,,,,,,,,,,,,,
1720085306,20,0,4378.717773,4179.358887,4396.025879,4362.307617,4310.641113,4306.666504,4275.641113,4236.922852,4270.512695,4315.897461,4368.077148,4391.282227,4341.153809,4363.846191,,,,,,,,,,,,,,,,,,,,,,,,,,,,,,,,,,,,,,,,,,,,,,,,,,,,,,,,,,,,,,,,,,,,,,
1720085306,21,0,4359.743652,4170.512695,4383.974121,4342.179688,4312.820313,4318.974121,4279.871582,4237.94873,4260.897461,4308.846191,4342.307617,4378.846191,4327.94873,4357.692383,,,,,,,,,,,,,,,,,,,,,,,,,,,,,,,,,,,,,,,,,,,,,,,,,,,,,,,,,,,,,,,,,,,,,,
1720085306,22,0,4368.974121,4183.333496,4400,4364.871582,4323.717773,4329.102539,4302.179688,4256.025879,4263.205078,4317.179688,4361.666504,4395.897461,4345.769043,4383.077148,,,,,,,,,,,,,,,,,,,,,,,,,,,,,,,,,,,,,,,,,,,,,,,,,,,,,,,,,,,,,,,,,,,,,,
1720085306,23,0,4389.487305,4191.282227,4417.179688,4386.410156,4328.077148,4332.563965,4325.897461,4273.205078,4270.769043,4324.743652,4393.717773,4427.05127,4372.179688,4408.333496,,,,,,,,,,,,,,,,,,,,,,,,,,,,,,,,,,,,,,,,,,,,,,,,,,,,,,,,,,,,,,,,,,,,,,
1720085306,24,0,4375.384766,4173.205078,4401.922852,4371.153809,4319.743652,4337.307617,4334.230957,4277.436035,4271.794922,4318.077148,4377.179688,4435.897461,4365.769043,4398.846191,,,,,,,,,,,,,,,,,,,,,,,,,,,,,,,,,,,,,,,,,,,,,,,,,,,,,,,,,,,,,,,,,,,,,,
1720085307,25,0,4341.794922,4141.153809,4371.538574,4343.974121,4307.436035,4328.205078,4320,4262.692383,4252.436035,4295.256348,4339.358887,4412.820313,4324.358887,4363.461426,,,,,,,,,,,,,,,,,,,,,,,,,,,,,,,,,,,,,,,,,,,,,,,,,,,,,,,,,,,,,,,,,,,,,,
1720085307,26,0,4341.025879,4137.05127,4367.563965,4337.820313,4298.974121,4310.769043,4307.307617,4246.410156,4240.256348,4283.077148,4330.384766,4397.179688,4302.436035,4353.077148,8.373064,6.898507,2.442394,1.000891,0.767031,4.63927,2.858644,1.489094,0.891416,0.593993,7.047147,6.371628,4.058004,1.505709,0.577133,8.275573,4.611676,1.850721,1.401119,1.322667,2.61227,1.685201,1.118128,0.606705,0.268102,5.394424,11.759488,3.190778,0.808302,0.240407,18.521122,52.642109,2.795427,0.585177,0.264915,10.817881,24.468897,3.260545,0.837279,0.291608,8.596675,3.133426,4.877794,2.098492,0.544954,14.427456,3.290889,1.881705,2.085009,0.668546,10.917779,6.242619,4.797974,2.974858,1.423514,22.682081,20.9464,9.890557,4.726882,1.48267,7.069252,3.268774,3.134414,1.352336,0.67211,4.775188,5.183247,4.166288,1.347139,0.722781
1720085307,27,0,4372.820313,4167.05127,4393.205078,4357.179688,4304.615234,4319.102539,4317.307617,4256.282227,4266.410156,4308.717773,4352.179688,4420.769043,4327.307617,4390.384766,,,,,,,,,,,,,,,,,,,,,,,,,,,,,,,,,,,,,,,,,,,,,,,,,,,,,,,,,,,,,,,,,,,,,,
1720085307,28,0,4397.436035,4188.589844,4419.230957,4382.05127,4318.205078,4337.307617,4324.358887,4273.333496,4295.897461,4338.205078,4385,4448.077148,4361.666504,4419.230957,,,,,,,,,,,,,,,,,,,,,,,,,,,,,,,,,,,,,,,,,,,,,,,,,,,,,,,,,,,,,,,,,,,,,,
1720085307,29,0,4406.538574,4190.769043,4430.641113,4400.897461,4319.743652,4334.230957,4315.384766,4271.922852,4296.794922,4339.743652,4398.333496,4447.179688,4371.025879,4410,,,,,,,,,,,,,,,,,,,,,,,,,,,,,,,,,,,,,,,,,,,,,,,,,,,,,,,,,,,,,,,,,,,,,,
1720085307,30,0,4401.538574,4191.538574,4423.717773,4397.179688,4312.179688,4323.077148,4297.820313,4260.769043,4287.179688,4335.897461,4367.436035,4428.077148,4352.692383,4390.128418,,,,,,,,,,,,,,,,,,,,,,,,,,,,,,,,,,,,,,,,,,,,,,,,,,,,,,,,,,,,,,,,,,,,,,
1720085307,31,0,4384.487305,4184.615234,4399.358887,4366.538574,4313.974121,4323.205078,4280.512695,4245.897461,4278.846191,4338.077148,4334.743652,4408.205078,4337.94873,4374.358887,,,,,,,,,,,,,,,,,,,,,,,,,,,,,,,,,,,,,,,,,,,,,,,,,,,,,,,,,,,,,,,,,,,,,,
1720085307,32,0,4362.820313,4167.820313,4373.589844,4343.974121,4317.692383,4325.128418,4272.563965,4232.436035,4266.666504,4330.512695,4342.436035,4393.077148,4344.871582,4363.205078,,,,,,,,,,,,,,,,,,,,,,,,,,,,,,,,,,,,,,,,,,,,,,,,,,,,,,,,,,,,,,,,,,,,,,
1720085307,33,0,4347.820313,4160.897461,4365.769043,4349.487305,4311.410156,4321.025879,4272.692383,4233.846191,4259.487305,4325.512695,4360.641113,4385.641113,4356.666504,4364.871582,,,,,,,,,,,,,,,,,,,,,,,,,,,,,,,,,,,,,,,,,,,,,,,,,,,,,,,,,,,,,,,,,,,,,,
1720085307,34,0,4358.461426,4167.94873,4383.333496,4367.307617,4303.077148,4317.05127,4276.922852,4250,4270.769043,4341.794922,4372.307617,4401.410156,4362.179688,4374.487305,,,,,,,,,,,,,,,,,,,,,,,,,,,,,,,,,,,,,,,,,,,,,,,,,,,,,,,,,,,,,,,,,,,,,,
1720085307,35,0,4386.666504,4180.128418,4415.897461,4388.589844,4304.102539,4321.282227,4294.615234,4273.589844,4280.641113,4347.05127,4398.205078,4443.846191,4375.384766,4378.717773,,,,,,,,,,,,,,,,,,,,,,,,,,,,,,,,,,,,,,,,,,,,,,,,,,,,,,,,,,,,,,,,,,,,,,
1720085307,36,0,4404.487305,4197.563965,4441.922852,4403.589844,4311.538574,4334.487305,4325.641113,4300.256348,4278.077148,4328.461426,4429.358887,4482.820313,4389.487305,4391.282227,,,,,,,,,,,,,,,,,,,,,,,,,,,,,,,,,,,,,,,,,,,,,,,,,,,,,,,,,,,,,,,,,,,,,,
1720085307,37,0,4415.128418,4211.666504,4456.538574,4403.205078,4319.358887,4345.769043,4356.666504,4327.820313,4288.077148,4331.410156,4437.05127,4503.717773,4387.436035,4417.563965,,,,,,,,,,,,,,,,,,,,,,,,,,,,,,,,,,,,,,,,,,,,,,,,,,,,,,,,,,,,,,,,,,,,,,
1720085307,38,0,4416.922852,4210.128418,4463.461426,4400.384766,4320.769043,4352.94873,4381.538574,4349.615234,4305,4348.974121,4415.384766,4511.538574,4386.538574,4427.563965,,,,,,,,,,,,,,,,,,,,,,,,,,,,,,,,,,,,,,,,,,,,,,,,,,,,,,,,,,,,,,,,,,,,,,
1720085307,39,0,4401.410156,4201.538574,4454.743652,4403.461426,4309.487305,4360.384766,4389.487305,4350,4300.128418,4333.333496,4398.077148,4503.717773,4390,4413.974121,,,,,,,,,,,,,,,,,,,,,,,,,,,,,,,,,,,,,,,,,,,,,,,,,,,,,,,,,,,,,,,,,,,,,,
1720085307,40,0,4388.846191,4198.077148,4437.05127,4397.436035,4305,4362.820313,4374.871582,4332.820313,4290.128418,4313.333496,4418.974121,4487.436035,4383.717773,4405.256348,,,,,,,,,,,,,,,,,,,,,,,,,,,,,,,,,,,,,,,,,,,,,,,,,,,,,,,,,,,,,,,,,,,,,,
1720085307,41,0,4390.897461,4202.94873,4431.282227,4384.743652,4314.871582,4357.692383,4350.897461,4313.461426,4294.230957,4326.410156,4440.512695,4478.846191,4382.436035,4409.871582,,,,,,,,,,,,,,,,,,,,,,,,,,,,,,,,,,,,,,,,,,,,,,,,,,,,,,,,,,,,,,,,,,,,,,
1720085307,42,0,4394.358887,4210,4427.179688,4380.384766,4317.307617,4349.230957,4323.205078,4289.615234,4289.358887,4339.358887,4404.871582,4466.666504,4391.538574,4406.922852,7.180336,4.915411,2.222302,1.161771,0.725186,4.894746,2.140227,1.413009,0.88197,0.551879,7.331138,5.881042,2.954562,1.609122,0.607328,9.854609,4.657347,1.680494,1.432596,1.449085,2.260025,1.376729,1.127075,0.609294,0.250601,5.297146,10.954792,3.463167,0.692844,0.258376,17.37694,55.050999,2.898316,0.54045,0.259728,10.690314,28.152493,3.293224,0.837634,0.271926,7.527162,3.551716,5.122613,1.984033,0.516118,14.362458,3.83266,2.184083,2.079715,0.612045,10.207411,7.058537,4.382172,3.162904,1.605753,28.626793,26.962276,10.985456,5.762602,1.806103,6.980699,3.287391,2.576118,1.409369,0.674092,5.384489,5.327655,3.170294,1.5203,0.727193
1720085307,43,0,4392.436035,4207.94873,4413.461426,4381.153809,4313.077148,4345.512695,4295.128418,4258.461426,4271.025879,4327.436035,4365.128418,4446.282227,4388.205078,4400.897461,,,,,,,,,,,,,,,,,,,,,,,,,,,,,,,,,,,,,,,,,,,,,,,,,,,,,,,,,,,,,,,,,,,,,,
1720085307,44,0,4389.358887,4205.256348,4412.94873,4387.436035,4318.205078,4343.974121,4272.94873,4240,4261.282227,4315.256348,4374.230957,4437.820313,4373.974121,4404.615234,,,,,,,,,,,,,,,,,,,,,,,,,,,,,,,,,,,,,,,,,,,,,,,,,,,,,,,,,,,,,,,,,,,,,,
1720085307,45,0,4388.077148,4210,4422.307617,4395.512695,4318.461426,4333.461426,4256.025879,4237.692383,4262.94873,4311.410156,4386.153809,4439.871582,4367.563965,4402.563965,,,,,,,,,,,,,,,,,,,,,,,,,,,,,,,,,,,,,,,,,,,,,,,,,,,,,,,,,,,,,,,,,,,,,,
1720085307,46,0,4396.153809,4217.307617,4423.717773,4398.461426,4313.461426,4322.05127,4253.846191,4248.205078,4275.769043,4313.461426,4388.205078,4446.794922,4362.563965,4395.897461,,,,,,,,,,,,,,,,,,,,,,,,,,,,,,,,,,,,,,,,,,,,,,,,,,,,,,,,,,,,,,,,,,,,,,
1720085307,47,0,4403.333496,4217.436035,4419.743652,4393.717773,4320.128418,4329.230957,4271.922852,4269.358887,4290.769043,4319.871582,4404.102539,4458.205078,4350.256348,4402.563965,,,,,,,,,,,,,,,,,,,,,,,,,,,,,,,,,,,,,,,,,,,,,,,,,,,,,,,,,,,,,,,,,,,,,,
1720085307,48,0,4395.256348,4214.871582,4414.487305,4376.538574,4323.846191,4344.871582,4292.436035,4283.589844,4287.307617,4316.538574,4396.794922,4460,4336.922852,4410.256348,,,,,,,,,,,,,,,,,,,,,,,,,,,,,,,,,,,,,,,,,,,,,,,,,,,,,,,,,,,,,,,,,,,,,,
1720085307,49,0,4393.205078,4218.461426,4412.820313,4365.897461,4318.717773,4353.974121,4313.589844,4294.487305,4277.436035,4301.282227,4371.666504,4456.538574,4329.743652,4406.025879,,,,,,,,,,,,,,,,,,,,,,,,,,,,,,,,,,,,,,,,,,,,,,,,,,,,,,,,,,,,,,,,,,,,,,
1720085307,50,0,4397.179688,4217.820313,4412.820313,4368.077148,4318.205078,4357.94873,4341.794922,4314.743652,4278.333496,4280.384766,4384.102539,4467.692383,4326.538574,4405.128418,,,,,,,,,,,,,,,,,,,,,,,,,,,,,,,,,,,,,,,,,,,,,,,,,,,,,,,,,,,,,,,,,,,,,,
1720085307,51,0,4395.128418,4215.641113,4408.205078,4380.641113,4313.717773,4355.128418,4359.743652,4327.94873,4277.563965,4272.436035,4408.589844,4480.641113,4324.615234,4411.922852,,,,,,,,,,,,,,,,,,,,,,,,,,,,,,,,,,,,,,,,,,,,,,,,,,,,,,,,,,,,,,,,,,,,,,
1720085307,52,0,4398.846191,4226.282227,4406.538574,4402.820313,4304.102539,4339.743652,4355.128418,4326.794922,4282.692383,4296.794922,4411.410156,4479.615234,4336.153809,4417.05127,,,,,,,,,,,,,,,,,,,,,,,,,,,,,,,,,,,,,,,,,,,,,,,,,,,,,,,,,,,,,,,,,,,,,,
1720085307,53,0,4401.794922,4234.871582,4406.666504,4406.922852,4305,4323.974121,4337.563965,4320,4294.230957,4323.846191,4406.794922,4476.153809,4353.077148,4416.794922,,,,,,,,,,,,,,,,,,,,,,,,,,,,,,,,,,,,,,,,,,,,,,,,,,,,,,,,,,,,,,,,,,,,,,
1720085307,54,0,4390.128418,4225.512695,4397.436035,4392.563965,4314.102539,4325.769043,4315.128418,4302.436035,4293.461426,4319.487305,4406.538574,4466.538574,4350.384766,4415.128418,,,,,,,,,,,,,,,,,,,,,,,,,,,,,,,,,,,,,,,,,,,,,,,,,,,,,,,,,,,,,,,,,,,,,,
1720085307,55,0,4378.974121,4217.307617,4387.307617,4385.512695,4317.692383,4337.692383,4290.128418,4271.282227,4278.205078,4300.897461,4393.461426,4445.256348,4323.205078,4409.743652,,,,,,,,,,,,,,,,,,,,,,,,,,,,,,,,,,,,,,,,,,,,,,,,,,,,,,,,,,,,,,,,,,,,,,
1720085307,56,0,4377.436035,4222.179688,4377.94873,4389.487305,4315.128418,4339.871582,4267.692383,4244.230957,4266.153809,4291.410156,4366.025879,4425.384766,4297.563965,4393.717773,,,,,,,,,,,,,,,,,,,,,,,,,,,,,,,,,,,,,,,,,,,,,,,,,,,,,,,,,,,,,,,,,,,,,,
1720085307,57,0,4368.589844,4221.922852,4363.205078,4394.230957,4312.94873,4335.641113,4250.256348,4232.307617,4269.615234,4288.846191,4342.179688,4409.358887,4292.05127,4376.666504,,,,,,,,,,,,,,,,,,,,,,,,,,,,,,,,,,,,,,,,,,,,,,,,,,,,,,,,,,,,,,,,,,,,,,
1720085307,58,0,4353.077148,4201.025879,4350.512695,4390,4311.666504,4329.615234,4235.128418,4222.436035,4275.897461,4287.94873,4328.846191,4392.05127,4293.717773,4372.94873,6.530914,3.097419,2.048671,1.327416,0.676379,6.229559,2.061359,1.455145,0.854065,0.535853,7.631607,5.250682,2.28566,1.722235,0.632454,11.089889,4.565222,1.645561,1.446661,1.521141,1.807006,1.086738,1.21523,0.598794,0.240259,4.845052,9.316005,3.660702,0.604835,0.267377,15.10176,53.522297,2.810746,0.586509,0.265536,10.257502,31.998863,3.187159,0.860936,0.272101,7.066873,4.984993,5.101878,1.787314,0.516276,13.505876,4.379928,2.489217,2.001103,0.591819,9.076154,8.332899,4.353003,3.20946,1.815523,32.143314,33.082981,11.993158,6.334359,2.050371,6.481976,3.47976,2.294967,1.410447,0.694401,5.737654,5.619832,2.59079,1.644133,0.74841
1720085307,59,0,4340.769043,4166.153809,4340,4369.230957,4308.461426,4317.307617,4223.589844,4212.436035,4269.871582,4285.769043,4327.692383,4386.153809,4288.974121,4375.769043,,,,,,,,,,,,,,,,,,,,,,,,,,,,,,,,,,,,,,,,,,,,,,,,,,,,,,,,,,,,,,,,,,,,,,
