Timestamp,EEG.Counter,EEG.Interpolated,EEG.AF3,EEG.F7,EEG.F3,EEG.FC5,EEG.T7,EEG.P7,EEG.O1,EEG.O2,EEG.P8,EEG.T8,EEG.FC6,EEG.F4,EEG.F8,EEG.AF4,POW.AF3.Theta,POW.AF3.Alpha,POW.AF3.BetaL,POW.AF3.BetaH,POW.AF3.Gamma,POW.F7.Theta,POW.F7.Alpha,POW.F7.BetaL,POW.F7.BetaH,POW.F7.Gamma,POW.F3.Theta,POW.F3.Alpha,POW.F3.BetaL,POW.F3.BetaH,POW.F3.Gamma,POW.FC5.Theta,POW.FC5.Alpha,POW.FC5.BetaL,POW.FC5.BetaH,POW.FC5.Gamma,POW.T7.Theta,POW.T7.Alpha,POW.T7.BetaL,POW.T7.BetaH,POW.T7.Gamma,POW.P7.Theta,POW.P7.Alpha,POW.P7.BetaL,POW.P7.BetaH,POW.P7.Gamma,POW.O1.Theta,POW.O1.Alpha,POW.O1.BetaL,POW.O1.BetaH,POW.O1.Gamma,POW.O2.Theta,POW.O2.Alpha,POW.O2.BetaL,POW.O2.BetaH,POW.O2.Gamma,POW.P8.Theta,POW.P8.Alpha,POW.P8.BetaL,POW.P8.BetaH,POW.P8.Gamma,POW.T8.Theta,POW.T8.Alpha,POW.T8.BetaL,POW.T8.BetaH,POW.T8.Gamma,POW.FC6.Theta,POW.FC6.Alpha,POW.FC6.BetaL,POW.FC6.BetaH,POW.FC6.Gamma,POW.F4.Theta,POW.F4.Alpha,POW.F4.BetaL,POW.F4.BetaH,POW.F4.Gamma,POW.F8.Theta,POW.F8.Alpha,POW.F8.BetaL,POW.F8.BetaH,POW.F8.Gamma,POW.AF4.Theta,POW.AF4.Alpha,POW.AF4.BetaL,POW.AF4.BetaH,POW.AF4.Gamma
1720078964,83,0,4779.102539,4505.128418,4393.717773,4422.692383,4439.102539,4453.717773,4442.05127,4376.153809,4411.153809,4340.384766,4344.743652,4594.743652,4355.512695,4353.846191,,,,,,,,,,,,,,,,,,,,,,,,,,,,,,,,,,,,,,,,,,,,,,,,,,,,,,,,,,,,,,,,,,,,,,
1720078964,84,0,4789.871582,4514.743652,4392.94873,4431.922852,4444.358887,4461.666504,4445.897461,4385.384766,4415.384766,4342.436035,4349.487305,4616.794922,4355.512695,4355.769043,,,,,,,,,,,,,,,,,,,,,,,,,,,,,,,,,,,,,,,,,,,,,,,,,,,,,,,,,,,,,,,,,,,,,,
1720078964,85,0,4795,4518.333496,4387.94873,4429.487305,4433.077148,4445.769043,4445.384766,4388.333496,4410.641113,4345.512695,4345.256348,4624.230957,4350.897461,4353.846191,,,,,,,,,,,,,,,,,,,,,,,,,,,,,,,,,,,,,,,,,,,,,,,,,,,,,,,,,,,,,,,,,,,,,,
1720078964,86,0,4795.897461,4513.846191,4381.282227,4414.871582,4421.922852,4438.333496,4437.307617,4377.820313,4399.230957,4332.563965,4328.717773,4603.077148,4341.538574,4345.256348,,,,,,,,,,,,,,,,,,,,,,,,,,,,,,,,,,,,,,,,,,,,,,,,,,,,,,,,,,,,,,,,,,,,,,
1720078964,87,0,4797.307617,4519.871582,4384.230957,4426.282227,4425.897461,4444.358887,4437.436035,4380.641113,4402.692383,4321.153809,4317.692383,4603.589844,4334.871582,4344.871582,,,,,,,,,,,,,,,,,,,,,,,,,,,,,,,,,,,,,,,,,,,,,,,,,,,,,,,,,,,,,,,,,,,,,,
1720078964,88,0,4805.641113,4533.974121,4391.922852,4447.05127,4438.846191,4445.128418,4444.871582,4383.333496,4413.974121,4328.589844,4322.436035,4616.538574,4336.794922,4353.589844,12.927473,7.893965,1.52628,0.625818,0.401497,0.811788,0.927071,1.200385,0.539437,0.514459,1.847575,1.221041,0.715597,0.451474,0.350668,0.750516,1.475141,1.057437,3.043362,2.183934,0.440396,0.227619,0.617217,0.559625,0.916568,0.415955,0.199602,0.246546,0.186652,0.286653,0.542274,1.071081,0.36634,0.145477,0.118595,1.224677,0.650316,0.384124,0.182722,0.248048,0.465711,0.829441,0.875651,0.366938,0.333635,0.978498,0.689886,0.689715,0.400103,0.423487,4.817852,3.217824,2.621314,0.832613,0.477324,0.17645,0.04469,0.074781,0.139489,1.096583,0.859581,1.023476,0.947808,0.338884,0.263777,1.119312,1.074221,1.069962,0.281548,0.259858
1720078964,89,0,4821.666504,4539.230957,4396.666504,4443.205078,4438.461426,4443.974121,4446.025879,4378.846191,4411.922852,4336.538574,4333.205078,4607.179688,4340.128418,4360.512695,,,,,,,,,,,,,,,,,,,,,,,,,,,,,,,,,,,,,,,,,,,,,,,,,,,,,,,,,,,,,,,,,,,,,,
1720078964,90,0,4832.05127,4539.358887,4398.974121,4440.769043,4435.128418,4444.487305,4441.922852,4381.538574,4398.077148,4325.641113,4329.487305,4606.025879,4335.769043,4361.282227,,,,,,,,,,,,,,,,,,,,,,,,,,,,,,,,,,,,,,,,,,,,,,,,,,,,,,,,,,,,,,,,,,,,,,
1720078964,91,0,4829.871582,4544.871582,4401.025879,4451.666504,4441.666504,4442.94873,4440.512695,4380.897461,4386.153809,4311.794922,4313.461426,4610.769043,4327.436035,4358.461426,,,,,,,,,,,,,,,,,,,,,,,,,,,,,,,,,,,,,,,,,,,,,,,,,,,,,,,,,,,,,,,,,,,,,,
1720078964,92,0,4826.538574,4554.743652,4408.333496,4450.128418,4448.717773,4444.615234,4443.077148,4382.179688,4394.871582,4310.641113,4314.743652,4611.025879,4331.922852,4361.666504,,,,,,,,,,,,,,,,,,,,,,,,,,,,,,,,,,,,,,,,,,,,,,,,,,,,,,,,,,,,,,,,,,,,,,
1720078964,93,0,4834.743652,4562.05127,4416.922852,4447.05127,4450,4446.666504,4443.205078,4386.410156,4410.384766,4320.128418,4325,4613.333496,4341.410156,4367.179688,,,,,,,,,,,,,,,,,,,,,,,,,,,,,,,,,,,,,,,,,,,,,,,,,,,,,,,,,,,,,,,,,,,,,,
1720078964,94,0,4856.538574,4570.256348,4424.615234,4468.077148,4453.333496,4444.871582,4444.102539,4383.717773,4403.846191,4331.922852,4324.615234,4612.179688,4342.692383,4368.205078,,,,,,,,,,,,,,,,,,,,,,,,,,,,,,,,,,,,,,,,,,,,,,,,,,,,,,,,,,,,,,,,,,,,,,
1720078964,95,0,4879.487305,4576.282227,4433.461426,4496.922852,4451.282227,4443.333496,4443.974121,4380.641113,4396.153809,4327.307617,4327.307617,4611.794922,4343.974121,4371.794922,,,,,,,,,,,,,,,,,,,,,,,,,,,,,,,,,,,,,,,,,,,,,,,,,,,,,,,,,,,,,,,,,,,,,,
1720078964,96,0,4885.897461,4567.179688,4430.512695,4478.333496,4441.538574,4447.692383,4435.384766,4378.717773,4403.077148,4309.871582,4325.512695,4611.922852,4339.871582,4372.820313,,,,,,,,,,,,,,,,,,,,,,,,,,,,,,,,,,,,,,,,,,,,,,,,,,,,,,,,,,,,,,,,,,,,,,
1720078964,97,0,4878.717773,4560,4419.102539,4435.897461,4446.666504,4448.846191,4423.974121,4372.94873,4400.128418,4305.256348,4309.615234,4607.94873,4333.205078,4366.922852,,,,,,,,,,,,,,,,,,,,,,,,,,,,,,,,,,,,,,,,,,,,,,,,,,,,,,,,,,,,,,,,,,,,,,
1720078964,98,0,4874.871582,4567.820313,4425.641113,4444.615234,4460.256348,4441.025879,4428.205078,4373.846191,4396.538574,4320.128418,4315.128418,4610.641113,4343.333496,4373.846191,,,,,,,,,,,,,,,,,,,,,,,,,,,,,,,,,,,,,,,,,,,,,,,,,,,,,,,,,,,,,,,,,,,,,,
1720078964,99,0,4879.615234,4582.05127,4443.077148,4483.589844,4464.615234,4439.230957,4442.692383,4383.846191,4411.922852,4329.358887,4340.256348,4615.769043,4360.128418,4390,,,,,,,,,,,,,,,,,,,,,,,,,,,,,,,,,,,,,,,,,,,,,,,,,,,,,,,,,,,,,,,,,,,,,,
1720078964,100,0,4875.256348,4588.077148,4442.94873,4488.205078,4453.333496,4443.974121,4443.717773,4385.384766,4417.94873,4319.871582,4339.487305,4616.922852,4356.153809,4385.769043,,,,,,,,,,,,,,,,,,,,,,,,,,,,,,,,,,,,,,,,,,,,,,,,,,,,,,,,,,,,,,,,,,,,,,
1720078964,101,0,4851.153809,4569.743652,4428.205078,4460.897461,4442.05127,4440.897461,4431.153809,4379.102539,4400.384766,4308.333496,4316.922852,4618.846191,4338.589844,4369.615234,,,,,,,,,,,,,,,,,,,,,,,,,,,,,,,,,,,,,,,,,,,,,,,,,,,,,,,,,,,,,,,,,,,,,,
1720078964,102,0,4836.153809,4552.820313,4422.179688,4445.641113,4455,4438.205078,4426.666504,4376.025879,4393.461426,4305.128418,4314.743652,4613.461426,4338.974121,4368.205078,,,,,,,,,,,,,,,,,,,,,,,,,,,,,,,,,,,,,,,,,,,,,,,,,,,,,,,,,,,,,,,,,,,,,,
1720078964,103,0,4851.025879,4562.692383,4428.333496,4453.461426,4466.922852,4444.487305,4437.820313,4381.153809,4402.179688,4307.94873,4328.974121,4621.153809,4355.897461,4378.333496,,,,,,,,,,,,,,,,,,,,,,,,,,,,,,,,,,,,,,,,,,,,,,,,,,,,,,,,,,,,,,,,,,,,,,
1720078964,104,0,4863.077148,4567.436035,4426.410156,4460.641113,4459.871582,4446.153809,4444.358887,4382.94873,4403.974121,4307.05127,4328.333496,4622.307617,4358.589844,4373.589844,17.226099,12.542366,3.173611,1.136262,0.441869,0.730501,0.939741,0.915161,0.440585,0.519753,1.683473,1.252609,0.631817,0.446587,0.362478,0.665789,1.630457,1.009016,3.122146,2.298682,0.433011,0.274421,0.584334,0.566644,0.871496,0.437136,0.246845,0.199828,0.200255,0.315806,0.591747,1.117303,0.407891,0.138796,0.108565,1.824957,0.834757,0.487233,0.216657,0.256541,0.460298,0.842384,0.878175,0.342998,0.322009,1.006238,0.628899,0.617856,0.402509,0.451446,4.973102,3.609222,2.578718,0.867298,0.436043,0.170935,0.051095,0.078994,0.154016,1.14265,1.148746,1.072411,0.817294,0.341771,0.272919,1.311678,1.073469,1.0852,0.274184,0.258349
1720078964,105,0,4858.205078,4551.666504,4418.717773,4451.794922,4457.563965,4444.230957,4441.410156,4380.128418,4402.05127,4310.512695,4327.820313,4607.692383,4351.666504,4364.615234,,,,,,,,,,,,,,,,,,,,,,,,,,,,,,,,,,,,,,,,,,,,,,,,,,,,,,,,,,,,,,,,,,,,,,
1720078964,106,0,4866.538574,4549.358887,4423.717773,4453.974121,4465.128418,4442.94873,4444.615234,4394.358887,4410.128418,4315.769043,4340.897461,4632.563965,4361.794922,4378.333496,,,,,,,,,,,,,,,,,,,,,,,,,,,,,,,,,,,,,,,,,,,,,,,,,,,,,,,,,,,,,,,,,,,,,,
1720078964,107,0,4880.384766,4561.794922,4433.846191,4483.205078,4463.717773,4433.461426,4449.487305,4395.512695,4417.436035,4316.410156,4340.128418,4629.615234,4367.94873,4381.794922,,,,,,,,,,,,,,,,,,,,,,,,,,,,,,,,,,,,,,,,,,,,,,,,,,,,,,,,,,,,,,,,,,,,,,
1720078964,108,0,4868.589844,4558.077148,4426.282227,4481.025879,4450.512695,4422.05127,4443.333496,4380,4411.922852,4310.641113,4324.102539,4601.282227,4351.794922,4363.333496,,,,,,,,,,,,,,,,,,,,,,,,,,,,,,,,,,,,,,,,,,,,,,,,,,,,,,,,,,,,,,,,,,,,,,
1720078964,109,0,4843.589844,4540.897461,4402.563965,4439.743652,4441.922852,4427.692383,4430.128418,4384.102539,4401.282227,4298.333496,4315.384766,4627.05127,4340.769043,4353.974121,,,,,,,,,,,,,,,,,,,,,,,,,,,,,,,,,,,,,,,,,,,,,,,,,,,,,,,,,,,,,,,,,,,,,,
1720078964,110,0,4840.128418,4533.589844,4389.871582,4420.641113,4442.179688,4439.615234,4424.615234,4388.846191,4401.025879,4292.94873,4309.743652,4631.666504,4340.769043,4351.538574,,,,,,,,,,,,,,,,,,,,,,,,,,,,,,,,,,,,,,,,,,,,,,,,,,,,,,,,,,,,,,,,,,,,,,
1720078964,111,0,4852.692383,4539.230957,4400.256348,4438.589844,4443.461426,4431.666504,4432.05127,4383.717773,4406.410156,4295.512695,4313.717773,4598.717773,4342.307617,4353.717773,,,,,,,,,,,,,,,,,,,,,,,,,,,,,,,,,,,,,,,,,,,,,,,,,,,,,,,,,,,,,,,,,,,,,,
1720078964,112,0,4856.922852,4545.128418,4412.179688,4459.743652,4451.922852,4426.025879,4443.077148,4394.230957,4408.205078,4300.512695,4332.563965,4610.384766,4359.102539,4367.94873,,,,,,,,,,,,,,,,,,,,,,,,,,,,,,,,,,,,,,,,,,,,,,,,,,,,,,,,,,,,,,,,,,,,,,
1720078964,113,0,4848.077148,4540.128418,4405.256348,4452.307617,4458.846191,4435.256348,4444.743652,4403.717773,4404.230957,4296.794922,4329.615234,4628.205078,4365.641113,4373.205078,,,,,,,,,,,,,,,,,,,,,,,,,,,,,,,,,,,,,,,,,,,,,,,,,,,,,,,,,,,,,,,,,,,,,,
1720078964,114,0,4835.384766,4533.717773,4393.846191,4441.282227,4451.922852,4435.256348,4440.128418,4388.846191,4399.358887,4282.436035,4306.282227,4606.282227,4342.436035,4359.230957,,,,,,,,,,,,,,,,,,,,,,,,,,,,,,,,,,,,,,,,,,,,,,,,,,,,,,,,,,,,,,,,,,,,,,
1720078964,115,0,4826.153809,4534.102539,4393.077148,4450.641113,4449.487305,4429.743652,4440.512695,4383.205078,4396.538574,4278.974121,4303.077148,4611.794922,4337.307617,4354.487305,,,,,,,,,,,,,,,,,,,,,,,,,,,,,,,,,,,,,,,,,,,,,,,,,,,,,,,,,,,,,,,,,,,,,,
1720078964,116,0,4827.692383,4539.358887,4398.333496,4460.512695,4461.410156,4437.179688,4442.307617,4388.717773,4400.897461,4289.743652,4314.871582,4623.717773,4358.077148,4360.641113,,,,,,,,,,,,,,,,,,,,,,,,,,,,,,,,,,,,,,,,,,,,,,,,,,,,,,,,,,,,,,,,,,,,,,
1720078964,117,0,4838.846191,4541.922852,4401.922852,4453.333496,4463.333496,4447.05127,4443.333496,4386.025879,4409.871582,4297.563965,4319.102539,4610.512695,4361.153809,4360.897461,,,,,,,,,,,,,,,,,,,,,,,,,,,,,,,,,,,,,,,,,,,,,,,,,,,,,,,,,,,,,,,,,,,,,,
1720078964,118,0,4845.256348,4535.256348,4399.487305,4445.384766,4455.769043,4441.538574,4444.102539,4382.692383,4416.282227,4302.436035,4321.282227,4615.897461,4351.025879,4361.153809,,,,,,,,,,,,,,,,,,,,,,,,,,,,,,,,,,,,,,,,,,,,,,,,,,,,,,,,,,,,,,,,,,,,,,
1720078964,119,0,4843.461426,4526.538574,4389.871582,4443.717773,4458.077148,4437.307617,4438.461426,4378.589844,4418.205078,4308.846191,4318.333496,4618.205078,4347.179688,4356.794922,,,,,,,,,,,,,,,,,,,,,,,,,,,,,,,,,,,,,,,,,,,,,,,,,,,,,,,,,,,,,,,,,,,,,,
1720078964,120,0,4842.179688,4523.461426,4380.897461,4432.94873,4462.436035,4436.153809,4435.512695,4383.717773,4417.05127,4301.025879,4309.487305,4618.077148,4343.974121,4349.743652,21.360352,18.74321,5.680079,1.96043,0.482426,0.695296,0.969926,0.652237,0.403635,0.521697,1.764967,1.321559,0.563004,0.471057,0.371433,0.701582,1.747721,0.94159,3.309939,2.404697,0.417775,0.322035,0.537371,0.578131,0.796078,0.491507,0.292321,0.168648,0.224091,0.356161,0.644415,1.099339,0.485055,0.133595,0.102252,2.29752,0.976424,0.592347,0.244254,0.267046,0.53279,0.8041,0.890487,0.313601,0.308286,1.269049,0.591697,0.603492,0.413117,0.479586,4.768595,3.611565,2.493806,0.854473,0.401393,0.160473,0.055024,0.073923,0.166209,1.143412,1.921373,1.11943,0.791766,0.361676,0.284528,1.947737,1.179531,1.155209,0.283394,0.250053
1720078964,121,0,4849.230957,4530.641113,4385.256348,4440.897461,4455.769043,4436.538574,4442.307617,4390.128418,4414.871582,4290,4311.666504,4621.410156,4342.05127,4349.743652,,,,,,,,,,,,,,,,,,,,,,,,,,,,,,,,,,,,,,,,,,,,,,,,,,,,,,,,,,,,,,,,,,,,,,
1720078964,122,0,4860,4539.358887,4395.897461,4465.769043,4447.692383,4440,4443.077148,4385.256348,4407.563965,4291.666504,4314.230957,4617.05127,4340.512695,4351.282227,,,,,,,,,,,,,,,,,,,,,,,,,,,,,,,,,,,,,,,,,,,,,,,,,,,,,,,,,,,,,,,,,,,,,,
1720078964,123,0,4863.205078,4540.128418,4399.487305,4463.205078,4450.769043,4438.846191,4431.666504,4380.769043,4402.94873,4295.641113,4311.153809,4615.128418,4343.461426,4354.743652,,,,,,,,,,,,,,,,,,,,,,,,,,,,,,,,,,,,,,,,,,,,,,,,,,,,,,,,,,,,,,,,,,,,,,
1720078964,124,0,4862.307617,4536.794922,4397.692383,4454.358887,4461.410156,4434.615234,4426.282227,4383.461426,4407.179688,4300.384766,4318.846191,4618.974121,4355.769043,4361.153809,,,,,,,,,,,,,,,,,,,,,,,,,,,,,,,,,,,,,,,,,,,,,,,,,,,,,,,,,,,,,,,,,,,,,,
1720078964,125,0,4858.205078,4531.410156,4390.256348,4451.410156,4462.94873,4429.358887,4433.974121,4387.307617,4411.538574,4309.615234,4329.102539,4621.153809,4355.256348,4360.384766,,,,,,,,,,,,,,,,,,,,,,,,,,,,,,,,,,,,,,,,,,,,,,,,,,,,,,,,,,,,,,,,,,,,,,
1720078964,126,0,4842.05127,4515.641113,4377.05127,4427.94873,4458.205078,4436.025879,4441.538574,4389.615234,4413.461426,4307.692383,4323.077148,4617.820313,4346.153809,4356.922852,,,,,,,,,,,,,,,,,,,,,,,,,,,,,,,,,,,,,,,,,,,,,,,,,,,,,,,,,,,,,,,,,,,,,,
1720078964,127,0,4825,4505.641113,4374.743652,4420,4460.384766,4447.436035,4443.974121,4393.589844,4417.820313,4298.974121,4319.871582,4615.641113,4354.871582,4364.230957,,,,,,,,,,,,,,,,,,,,,,,,,,,,,,,,,,,,,,,,,,,,,,,,,,,,,,,,,,,,,,,,,,,,,,
1720078964,0,0,4827.436035,4511.153809,4384.358887,4447.692383,4457.05127,4447.692383,4443.717773,4396.410156,4419.102539,4298.333496,4329.743652,4615.256348,4364.487305,4369.102539,,,,,,,,,,,,,,,,,,,,,,,,,,,,,,,,,,,,,,,,,,,,,,,,,,,,,,,,,,,,,,,,,,,,,,
1720078964,1,0,4832.05127,4511.025879,4386.538574,4440.641113,4444.615234,4441.922852,4443.589844,4394.871582,4409.487305,4300.128418,4327.820313,4617.563965,4357.692383,4361.538574,,,,,,,,,,,,,,,,,,,,,,,,,,,,,,,,,,,,,,,,,,,,,,,,,,,,,,,,,,,,,,,,,,,,,,
1720078964,2,0,4821.025879,4508.205078,4385.384766,4418.077148,4440.897461,4440,4442.563965,4391.025879,4405.256348,4291.410156,4318.846191,4618.077148,4356.025879,4356.153809,,,,,,,,,,,,,,,,,,,,,,,,,,,,,,,,,,,,,,,,,,,,,,,,,,,,,,,,,,,,,,,,,,,,,,
1720078964,3,0,4817.692383,4519.487305,4393.205078,4441.538574,4452.692383,4438.846191,4442.307617,4388.205078,4417.436035,4279.871582,4326.538574,4623.077148,4370.256348,4363.846191,,,,,,,,,,,,,,,,,,,,,,,,,,,,,,,,,,,,,,,,,,,,,,,,,,,,,,,,,,,,,,,,,,,,,,
1720078964,4,0,4829.230957,4527.692383,4398.846191,4455.512695,4459.230957,4425.256348,4442.94873,4388.846191,4424.358887,4282.563965,4341.666504,4622.05127,4382.307617,4372.05127,,,,,,,,,,,,,,,,,,,,,,,,,,,,,,,,,,,,,,,,,,,,,,,,,,,,,,,,,,,,,,,,,,,,,,
1720078964,5,0,4837.179688,4526.922852,4400.128418,4445.256348,4455.641113,4426.282227,4441.922852,4393.077148,4418.461426,4293.717773,4349.871582,4611.282227,4382.563965,4372.94873,,,,,,,,,,,,,,,,,,,,,,,,,,,,,,,,,,,,,,,,,,,,,,,,,,,,,,,,,,,,,,,,,,,,,,
1720078964,6,0,4832.307617,4531.922852,4404.230957,4456.538574,4464.743652,4451.794922,4445.256348,4402.563965,4424.871582,4297.563965,4355.897461,4629.358887,4385.512695,4381.666504,,,,,,,,,,,,,,,,,,,,,,,,,,,,,,,,,,,,,,,,,,,,,,,,,,,,,,,,,,,,,,,,,,,,,,
1720078964,7,0,4812.05127,4531.794922,4400.512695,4465.256348,4470.769043,4452.94873,4448.461426,4399.487305,4432.94873,4291.922852,4353.461426,4629.615234,4388.589844,4383.461426,,,,,,,,,,,,,,,,,,,,,,,,,,,,,,,,,,,,,,,,,,,,,,,,,,,,,,,,,,,,,,,,,,,,,,
1720078964,8,0,4785.769043,4527.307617,4389.358887,4461.666504,4466.794922,4424.102539,4441.922852,4388.077148,4412.563965,4290.384766,4343.461426,4607.05127,4380.384766,4368.205078,24.662811,25.074856,8.570452,2.949659,0.51792,0.75211,1.023467,0.463989,0.421455,0.52113,2.180182,1.431455,0.532655,0.527494,0.377527,0.92399,1.843893,0.885672,3.569926,2.506958,0.418074,0.362754,0.485071,0.595131,0.713453,0.560964,0.322628,0.157969,0.258192,0.394721,0.678563,1.021834,0.565915,0.135604,0.102388,2.503788,1.029008,0.662997,0.263416,0.277029,0.692884,0.71871,0.917383,0.287339,0.299865,1.659492,0.593116,0.63814,0.425234,0.499985,4.519799,3.226764,2.377677,0.814403,0.387272,0.150323,0.057085,0.061323,0.174413,1.106016,3.266258,1.153712,0.854642,0.397594,0.299037,3.203652,1.361815,1.251275,0.309516,0.238746
1720078964,9,0,4765.384766,4524.743652,4383.461426,4461.153809,4459.487305,4427.436035,4436.153809,4392.692383,4402.05127,4290.384766,4338.461426,4620,4371.025879,4364.358887,,,,,,,,,,,,,,,,,,,,,,,,,,,,,,,,,,,,,,,,,,,,,,,,,,,,,,,,,,,,,,,,,,,,,,
1720078964,10,0,4748.974121,4512.307617,4380.384766,4445.128418,4450.769043,4451.025879,4440,4396.025879,4417.179688,4278.589844,4328.846191,4624.871582,4367.820313,4365.256348,,,,,,,,,,,,,,,,,,,,,,,,,,,,,,,,,,,,,,,,,,,,,,,,,,,,,,,,,,,,,,,,,,,,,,
1720078964,11,0,4733.846191,4507.820313,4381.922852,4427.820313,4458.974121,4441.538574,4442.692383,4388.589844,4418.717773,4274.871582,4323.461426,4606.922852,4365.769043,4357.179688,,,,,,,,,,,,,,,,,,,,,,,,,,,,,,,,,,,,,,,,,,,,,,,,,,,,,,,,,,,,,,,,,,,,,,
1720078964,12,0,4731.666504,4521.153809,4392.94873,4438.846191,4473.717773,4433.205078,4443.205078,4394.487305,4413.846191,4293.077148,4340.256348,4615.384766,4374.743652,4363.077148,,,,,,,,,,,,,,,,,,,,,,,,,,,,,,,,,,,,,,,,,,,,,,,,,,,,,,,,,,,,,,,,,,,,,,
1720078964,13,0,4732.179688,4529.743652,4401.410156,4452.179688,4465.384766,4447.179688,4446.410156,4405.512695,4419.102539,4302.94873,4359.358887,4628.589844,4390.128418,4376.794922,,,,,,,,,,,,,,,,,,,,,,,,,,,,,,,,,,,,,,,,,,,,,,,,,,,,,,,,,,,,,,,,,,,,,,
1720078964,14,0,4715.512695,4523.333496,4394.615234,4446.794922,4450.384766,4442.563965,4442.436035,4398.461426,4410,4285.128418,4356.410156,4615.384766,4387.563965,4370.256348,,,,,,,,,,,,,,,,,,,,,,,,,,,,,,,,,,,,,,,,,,,,,,,,,,,,,,,,,,,,,,,,,,,,,,
1720078964,15,0,4693.717773,4518.717773,4386.538574,4446.922852,4458.333496,4424.871582,4429.358887,4388.846191,4396.282227,4278.205078,4344.615234,4613.974121,4377.179688,4363.589844,,,,,,,,,,,,,,,,,,,,,,,,,,,,,,,,,,,,,,,,,,,,,,,,,,,,,,,,,,,,,,,,,,,,,,
1720078964,16,0,4684.615234,4524.102539,4395.128418,4472.05127,4465.128418,4426.025879,4431.410156,4392.179688,4405.128418,4297.94873,4345.256348,4620.897461,4383.333496,4373.846191,,,,,,,,,,,,,,,,,,,,,,,,,,,,,,,,,,,,,,,,,,,,,,,,,,,,,,,,,,,,,,,,,,,,,,
1720078964,17,0,4673.589844,4520.512695,4398.846191,4473.717773,4455.256348,4430.769043,4440.256348,4393.333496,4409.230957,4301.153809,4345.128418,4612.307617,4388.461426,4374.743652,,,,,,,,,,,,,,,,,,,,,,,,,,,,,,,,,,,,,,,,,,,,,,,,,,,,,,,,,,,,,,,,,,,,,,
1720078964,18,0,4653.205078,4510.641113,4382.692383,4434.615234,4454.615234,4423.974121,4433.333496,4389.487305,4398.333496,4286.794922,4331.922852,4611.794922,4377.05127,4362.563965,,,,,,,,,,,,,,,,,,,,,,,,,,,,,,,,,,,,,,,,,,,,,,,,,,,,,,,,,,,,,,,,,,,,,,
1720078964,19,0,4637.436035,4515,4374.358887,4431.025879,4462.05127,4428.205078,4426.282227,4387.94873,4400.128418,4302.436035,4329.743652,4616.410156,4371.282227,4356.153809,,,,,,,,,,,,,,,,,,,,,,,,,,,,,,,,,,,,,,,,,,,,,,,,,,,,,,,,,,,,,,,,,,,,,,
1720078964,20,0,4627.563965,4519.743652,4382.307617,4459.487305,4463.077148,4446.282227,4431.410156,4392.436035,4413.589844,4324.871582,4341.025879,4617.436035,4380.512695,4358.717773,,,,,,,,,,,,,,,,,,,,,,,,,,,,,,,,,,,,,,,,,,,,,,,,,,,,,,,,,,,,,,,,,,,,,,
1720078964,21,0,4617.820313,4509.230957,4378.461426,4452.436035,4458.846191,4447.563965,4433.205078,4394.615234,4421.282227,4316.282227,4338.333496,4616.922852,4379.871582,4358.974121,,,,,,,,,,,,,,,,,,,,,,,,,,,,,,,,,,,,,,,,,,,,,,,,,,,,,,,,,,,,,,,,,,,,,,
1720078964,22,0,4604.102539,4502.307617,4362.05127,4432.820313,4455.512695,4433.589844,4427.179688,4389.615234,4416.153809,4303.205078,4328.077148,4615,4362.94873,4349.871582,,,,,,,,,,,,,,,,,,,,,,,,,,,,,,,,,,,,,,,,,,,,,,,,,,,,,,,,,,,,,,,,,,,,,,
1720078964,23,0,4588.461426,4505.128418,4357.436035,4440.256348,4460,4431.282227,4428.846191,4388.333496,4410,4309.102539,4330.769043,4613.589844,4360.512695,4346.538574,,,,,,,,,,,,,,,,,,,,,,,,,,,,,,,,,,,,,,,,,,,,,,,,,,,,,,,,,,,,,,,,,,,,,,
1720078964,24,0,4586.025879,4507.05127,4374.102539,4458.589844,4465.256348,4438.589844,4439.743652,4392.94873,4418.461426,4324.358887,4347.820313,4616.922852,4385,4362.692383,25.179836,29.521978,10.973613,3.833155,0.544264,0.925743,1.088953,0.381059,0.468191,0.52183,2.889806,1.538187,0.54795,0.608114,0.383427,1.299212,1.923239,0.882205,3.839627,2.599144,0.465299,0.398457,0.433099,0.611236,0.644634,0.62288,0.334167,0.16846,0.300335,0.419475,0.661341,0.905969,0.613306,0.151476,0.110519,2.370573,0.968768,0.670971,0.273922,0.283793,0.907668,0.599885,0.947852,0.272964,0.300901,2.358789,0.612852,0.684186,0.43614,0.507604,4.489686,2.571745,2.219037,0.779844,0.400968,0.146508,0.059065,0.045307,0.176239,1.047164,5.014044,1.149721,0.946918,0.44395,0.318781,4.937023,1.544789,1.317576,0.348957,0.231421
1720078964,25,0,4588.077148,4512.94873,4397.436035,4467.820313,4462.820313,4441.666504,4451.922852,4399.615234,4429.487305,4330.256348,4365,4619.615234,4399.358887,4379.102539,,,,,,,,,,,,,,,,,,,,,,,,,,,,,,,,,,,,,,,,,,,,,,,,,,,,,,,,,,,,,,,,,,,,,,
1720078964,26,0,4568.205078,4508.461426,4397.94873,4450.641113,4460.512695,4438.846191,4451.025879,4398.333496,4420,4320.769043,4358.717773,4618.333496,4387.05127,4372.179688,,,,,,,,,,,,,,,,,,,,,,,,,,,,,,,,,,,,,,,,,,,,,,,,,,,,,,,,,,,,,,,,,,,,,,
1720078964,27,0,4542.94873,4490.256348,4382.179688,4425.128418,4455.256348,4429.615234,4434.615234,4394.358887,4405.769043,4311.025879,4341.922852,4620.769043,4378.461426,4360.641113,,,,,,,,,,,,,,,,,,,,,,,,,,,,,,,,,,,,,,,,,,,,,,,,,,,,,,,,,,,,,,,,,,,,,,
1720078964,28,0,4529.487305,4487.307617,4380.128418,4436.666504,4448.461426,4426.153809,4432.436035,4398.461426,4403.974121,4312.05127,4338.974121,4619.871582,4377.820313,4359.743652,,,,,,,,,,,,,,,,,,,,,,,,,,,,,,,,,,,,,,,,,,,,,,,,,,,,,,,,,,,,,,,,,,,,,,
1720078964,29,0,4506.666504,4494.487305,4379.487305,4451.922852,4454.102539,4438.205078,4439.615234,4398.717773,4400,4311.922852,4335.897461,4616.794922,4364.743652,4350.641113,,,,,,,,,,,,,,,,,,,,,,,,,,,,,,,,,,,,,,,,,,,,,,,,,,,,,,,,,,,,,,,,,,,,,,
1720078964,30,0,4477.307617,4487.94873,4363.974121,4442.436035,4455.641113,4443.461426,4439.615234,4394.871582,4400.384766,4312.436035,4326.410156,4616.282227,4354.102539,4337.94873,,,,,,,,,,,,,,,,,,,,,,,,,,,,,,,,,,,,,,,,,,,,,,,,,,,,,,,,,,,,,,,,,,,,,,
1720078964,31,0,4463.077148,4476.282227,4353.333496,4439.230957,4444.230957,4437.179688,4437.179688,4396.922852,4410.384766,4315,4326.538574,4622.436035,4353.589844,4333.333496,,,,,,,,,,,,,,,,,,,,,,,,,,,,,,,,,,,,,,,,,,,,,,,,,,,,,,,,,,,,,,,,,,,,,,
1720078964,32,0,4456.538574,4480.897461,4358.077148,4444.358887,4448.589844,4438.461426,4440.384766,4397.94873,4418.333496,4311.153809,4324.743652,4627.692383,4349.487305,4330.256348,,,,,,,,,,,,,,,,,,,,,,,,,,,,,,,,,,,,,,,,,,,,,,,,,,,,,,,,,,,,,,,,,,,,,,
1720078964,33,0,4447.307617,4494.102539,4363.461426,4449.102539,4459.102539,4447.05127,4443.333496,4389.102539,4419.871582,4313.974121,4314.102539,4608.333496,4347.307617,4326.410156,,,,,,,,,,,,,,,,,,,,,,,,,,,,,,,,,,,,,,,,,,,,,,,,,,,,,,,,,,,,,,,,,,,,,,
1720078964,34,0,4445.128418,4492.179688,4359.615234,4451.282227,4453.205078,4441.922852,4437.307617,4392.436035,4415,4322.179688,4314.615234,4615.384766,4349.743652,4333.589844,,,,,,,,,,,,,,,,,,,,,,,,,,,,,,,,,,,,,,,,,,,,,,,,,,,,,,,,,,,,,,,,,,,,,,
1720078964,35,0,4441.922852,4478.077148,4349.615234,4437.820313,4454.358887,4425.384766,4427.692383,4400.512695,4410.384766,4318.205078,4324.102539,4636.025879,4347.05127,4340.256348,,,,,,,,,,,,,,,,,,,,,,,,,,,,,,,,,,,,,,,,,,,,,,,,,,,,,,,,,,,,,,,,,,,,,,
1720078964,36,0,4432.436035,4480.897461,4349.230957,4427.820313,4464.871582,4419.743652,4424.871582,4389.615234,4411.538574,4312.307617,4331.794922,4610.769043,4350.769043,4339.615234,,,,,,,,,,,,,,,,,,,,,,,,,,,,,,,,,,,,,,,,,,,,,,,,,,,,,,,,,,,,,,,,,,,,,,
1720078964,37,0,4432.307617,4492.307617,4361.538574,4443.717773,4457.307617,4428.205078,4430.256348,4393.205078,4406.153809,4310.256348,4335.256348,4606.282227,4362.563965,4353.205078,,,,,,,,,,,,,,,,,,,,,,,,,,,,,,,,,,,,,,,,,,,,,,,,,,,,,,,,,,,,,,,,,,,,,,
1720078964,38,0,4442.436035,4488.461426,4370.128418,4448.846191,4450.256348,4438.846191,4437.820313,4411.282227,4398.333496,4311.410156,4336.153809,4633.846191,4367.179688,4368.077148,,,,,,,,,,,,,,,,,,,,,,,,,,,,,,,,,,,,,,,,,,,,,,,,,,,,,,,,,,,,,,,,,,,,,,
1720078964,39,0,4447.94873,4485,4370.512695,4431.153809,4455,4443.333496,4443.333496,4409.743652,4407.820313,4319.230957,4337.307617,4622.820313,4368.974121,4366.410156,,,,,,,,,,,,,,,,,,,,,,,,,,,,,,,,,,,,,,,,,,,,,,,,,,,,,,,,,,,,,,,,,,,,,,
1720078964,40,0,4440.256348,4486.282227,4369.615234,4435.769043,4451.282227,4442.05127,4442.563965,4401.794922,4412.436035,4321.922852,4337.307617,4608.846191,4366.666504,4358.461426,23.529137,30.503933,12.111846,4.338665,0.557634,1.174863,1.149261,0.400581,0.518136,0.52593,3.740547,1.585636,0.599533,0.699546,0.391051,1.739275,1.969949,0.946373,4.047928,2.659023,0.568903,0.435362,0.388134,0.618476,0.598739,0.658094,0.336513,0.195899,0.348694,0.426904,0.593879,0.781847,0.602049,0.184894,0.1259,1.977236,0.811934,0.611362,0.27965,0.284761,1.10788,0.476388,0.962019,0.280244,0.309935,2.93198,0.630589,0.711212,0.452624,0.501577,4.787576,1.845964,1.998624,0.777763,0.43803,0.15483,0.063349,0.030847,0.169606,0.982171,6.815304,1.091479,1.006089,0.495113,0.345859,6.825976,1.644127,1.306045,0.39563,0.233213
1720078964,41,0,4425.384766,4478.205078,4365.384766,4446.153809,4444.615234,4432.692383,4435.384766,4407.05127,4399.743652,4317.692383,4327.94873,4627.563965,4353.717773,4350.256348,,,,,,,,,,,,,,,,,,,,,,,,,,,,,,,,,,,,,,,,,,,,,,,,,,,,,,,,,,,,,,,,,,,,,,
1720078964,42,0,4408.461426,4468.974121,4357.563965,4430.256348,4446.922852,4425.128418,4431.538574,4402.307617,4398.461426,4317.307617,4315.128418,4621.538574,4344.102539,4337.563965,,,,,,,,,,,,,,,,,,,,,,,,,,,,,,,,,,,,,,,,,,,,,,,,,,,,,,,,,,,,,,,,,,,,,,
1720078964,43,0,4398.846191,4471.538574,4352.307617,4427.436035,4449.230957,4427.94873,4430.897461,4397.436035,4411.538574,4323.461426,4317.05127,4610.769043,4348.589844,4330.769043,,,,,,,,,,,,,,,,,,,,,,,,,,,,,,,,,,,,,,,,,,,,,,,,,,,,,,,,,,,,,,,,,,,,,,
1720078964,44,0,4391.922852,4471.922852,4348.589844,4438.077148,4446.666504,4431.282227,4430.641113,4410.256348,4418.461426,4328.333496,4321.410156,4622.820313,4350.512695,4330.641113,,,,,,,,,,,,,,,,,,,,,,,,,,,,,,,,,,,,,,,,,,,,,,,,,,,,,,,,,,,,,,,,,,,,,,
1720078964,45,0,4372.94873,4457.692383,4338.846191,4414.487305,4442.820313,4431.153809,4428.077148,4411.794922,4415.641113,4326.666504,4308.589844,4620,4336.666504,4321.922852,,,,,,,,,,,,,,,,,,,,,,,,,,,,,,,,,,,,,,,,,,,,,,,,,,,,,,,,,,,,,,,,,,,,,,
1720078964,46,0,4359.487305,4448.846191,4333.333496,4395.128418,4437.820313,4429.102539,4424.358887,4405.256348,4407.179688,4325.384766,4303.461426,4618.205078,4330.128418,4316.922852,,,,,,,,,,,,,,,,,,,,,,,,,,,,,,,,,,,,,,,,,,,,,,,,,,,,,,,,,,,,,,,,,,,,,,
1720078964,47,0,4365.384766,4458.333496,4343.846191,4423.333496,4440.641113,4427.692383,4427.563965,4407.436035,4400.256348,4329.102539,4321.794922,4618.974121,4340.641113,4326.666504,,,,,,,,,,,,,,,,,,,,,,,,,,,,,,,,,,,,,,,,,,,,,,,,,,,,,,,,,,,,,,,,,,,,,,
1720078964,48,0,4366.922852,4462.179688,4352.563965,4434.230957,4446.025879,4426.025879,4431.153809,4413.717773,4399.615234,4317.563965,4326.794922,4618.205078,4338.589844,4336.153809,,,,,,,,,,,,,,,,,,,,,,,,,,,,,,,,,,,,,,,,,,,,,,,,,,,,,,,,,,,,,,,,,,,,,,
1720078964,49,0,4352.563965,4445.897461,4349.615234,4410.512695,4436.538574,4421.153809,4426.538574,4412.436035,4393.974121,4297.820313,4308.077148,4618.077148,4322.307617,4335.512695,,,,,,,,,,,,,,,,,,,,,,,,,,,,,,,,,,,,,,,,,,,,,,,,,,,,,,,,,,,,,,,,,,,,,,
1720078964,50,0,4354.743652,4446.666504,4363.846191,4421.282227,4438.846191,4420.512695,4429.230957,4410.769043,4394.230957,4314.230957,4309.358887,4618.077148,4333.333496,4343.846191,,,,,,,,,,,,,,,,,,,,,,,,,,,,,,,,,,,,,,,,,,,,,,,,,,,,,,,,,,,,,,,,,,,,,,
1720078964,51,0,4370.384766,4468.333496,4384.871582,4455.256348,4454.743652,4422.563965,4436.538574,4416.282227,4410.256348,4342.94873,4330.641113,4621.282227,4360,4361.538574,,,,,,,,,,,,,,,,,,,,,,,,,,,,,,,,,,,,,,,,,,,,,,,,,,,,,,,,,,,,,,,,,,,,,,
1720078964,52,0,4360,4457.94873,4370.512695,4434.871582,4448.077148,4427.563965,4430.384766,4410.384766,4413.717773,4334.102539,4332.820313,4618.333496,4357.820313,4361.025879,,,,,,,,,,,,,,,,,,,,,,,,,,,,,,,,,,,,,,,,,,,,,,,,,,,,,,,,,,,,,,,,,,,,,,
1720078964,53,0,4338.589844,4433.974121,4348.461426,4398.333496,4436.410156,4437.307617,4425.512695,4404.487305,4401.666504,4314.743652,4320.769043,4616.794922,4344.615234,4350,,,,,,,,,,,,,,,,,,,,,,,,,,,,,,,,,,,,,,,,,,,,,,,,,,,,,,,,,,,,,,,,,,,,,,
1720078964,54,0,4331.410156,4439.358887,4355.384766,4418.205078,4441.922852,4437.692383,4439.230957,4412.692383,4406.282227,4321.538574,4316.025879,4616.666504,4344.743652,4345.769043,,,,,,,,,,,,,,,,,,,,,,,,,,,,,,,,,,,,,,,,,,,,,,,,,,,,,,,,,,,,,,,,,,,,,,
1720078964,55,0,4314.743652,4443.974121,4355.384766,4430.897461,4443.205078,4436.025879,4446.666504,4416.410156,4422.436035,4327.307617,4306.922852,4615.512695,4339.230957,4337.05127,,,,,,,,,,,,,,,,,,,,,,,,,,,,,,,,,,,,,,,,,,,,,,,,,,,,,,,,,,,,,,,,,,,,,,
1720078964,56,0,4287.307617,4436.025879,4341.538574,4426.922852,4448.077148,4439.871582,4436.538574,4412.94873,4417.563965,4326.666504,4306.794922,4616.794922,4335.128418,4332.692383,19.527058,27.611328,11.60307,4.316606,0.554182,1.454985,1.177922,0.503486,0.556034,0.529503,4.437979,1.550425,0.676898,0.787916,0.399816,2.097287,1.955681,1.074292,4.118776,2.652793,0.705153,0.476711,0.35849,0.612714,0.571047,0.662646,0.34539,0.237573,0.399846,0.424886,0.496389,0.675233,0.528504,0.234798,0.145747,1.477043,0.605116,0.498105,0.284913,0.278353,1.246517,0.387386,0.941315,0.313652,0.322078,3.388515,0.632137,0.704848,0.486033,0.487603,5.204585,1.231554,1.723917,0.819307,0.483894,0.173789,0.07074,0.02194,0.153724,0.919666,8.101494,0.991623,1.007115,0.546397,0.380289,8.248118,1.618292,1.218284,0.442207,0.245256
1720078964,57,0,4280.256348,4438.333496,4342.436035,4442.179688,4457.692383,4435.641113,4429.743652,4411.922852,4405.897461,4335.512695,4316.025879,4617.820313,4339.102539,4336.153809,,,,,,,,,,,,,,,,,,,,,,,,,,,,,,,,,,,,,,,,,,,,,,,,,,,,,,,,,,,,,,,,,,,,,,
1720078964,58,0,4276.922852,4436.922852,4336.794922,4417.179688,4448.333496,4429.615234,4428.974121,4406.794922,4409.487305,4329.487305,4309.358887,4612.05127,4337.307617,4330.641113,,,,,,,,,,,,,,,,,,,,,,,,,,,,,,,,,,,,,,,,,,,,,,,,,,,,,,,,,,,,,,,,,,,,,,
1720078964,59,0,4263.077148,4428.846191,4322.94873,4372.820313,4435,4434.102539,4426.794922,4403.589844,4414.743652,4311.666504,4305.384766,4612.94873,4339.230957,4331.025879,,,,,,,,,,,,,,,,,,,,,,,,,,,,,,,,,,,,,,,,,,,,,,,,,,,,,,,,,,,,,,,,,,,,,,
1720078964,60,0,4264.871582,4437.307617,4333.846191,4396.282227,4442.179688,4435,4428.333496,4418.333496,4411.922852,4315.897461,4323.461426,4628.717773,4350.897461,4351.025879,,,,,,,,,,,,,,,,,,,,,,,,,,,,,,,,,,,,,,,,,,,,,,,,,,,,,,,,,,,,,,,,,,,,,,
1720078964,61,0,4279.871582,4447.820313,4352.307617,4439.615234,4448.077148,4425.769043,4437.307617,4419.230957,4407.820313,4325.897461,4330.128418,4607.563965,4358.333496,4356.922852,,,,,,,,,,,,,,,,,,,,,,,,,,,,,,,,,,,,,,,,,,,,,,,,,,,,,,,,,,,,,,,,,,,,,,
1720078964,62,0,4280.769043,4444.102539,4353.717773,4434.358887,4442.692383,4427.05127,4440.128418,4409.102539,4402.307617,4314.871582,4319.358887,4597.307617,4357.179688,4347.94873,,,,,,,,,,,,,,,,,,,,,,,,,,,,,,,,,,,,,,,,,,,,,,,,,,,,,,,,,,,,,,,,,,,,,,
1720078964,63,0,4270.769043,4443.333496,4358.846191,4422.563965,4449.102539,4436.410156,4435.897461,4417.692383,4395.384766,4307.563965,4328.589844,4632.692383,4355.641113,4353.974121,,,,,,,,,,,,,,,,,,,,,,,,,,,,,,,,,,,,,,,,,,,,,,,,,,,,,,,,,,,,,,,,,,,,,,
1720078964,64,0,4266.922852,4447.94873,4369.487305,4424.230957,4460,4435.769043,4435.769043,4418.333496,4397.436035,4313.461426,4341.025879,4621.282227,4356.538574,4353.846191,,,,,,,,,,,,,,,,,,,,,,,,,,,,,,,,,,,,,,,,,,,,,,,,,,,,,,,,,,,,,,,,,,,,,,
1720078964,65,0,4262.820313,4448.205078,4366.666504,4425.641113,4461.410156,4436.410156,4442.820313,4412.94873,4407.692383,4319.487305,4328.461426,4598.333496,4357.179688,4341.410156,,,,,,,,,,,,,,,,,,,,,,,,,,,,,,,,,,,,,,,,,,,,,,,,,,,,,,,,,,,,,,,,,,,,,,
1720078964,66,0,4254.615234,4442.179688,4360.641113,4437.563965,4462.05127,4446.025879,4448.461426,4430.384766,4421.538574,4334.102539,4323.717773,4630.256348,4355.641113,4341.538574,,,,,,,,,,,,,,,,,,,,,,,,,,,,,,,,,,,,,,,,,,,,,,,,,,,,,,,,,,,,,,,,,,,,,,
1720078964,67,0,4243.205078,4431.922852,4352.820313,4426.922852,4456.922852,4450.512695,4446.922852,4435.384766,4427.307617,4336.794922,4330.512695,4632.820313,4348.461426,4335.769043,,,,,,,,,,,,,,,,,,,,,,,,,,,,,,,,,,,,,,,,,,,,,,,,,,,,,,,,,,,,,,,,,,,,,,
1720078964,68,0,4232.05127,4423.205078,4338.333496,4393.589844,4443.333496,4444.743652,4444.230957,4418.589844,4418.077148,4316.666504,4320.256348,4601.666504,4341.794922,4317.563965,,,,,,,,,,,,,,,,,,,,,,,,,,,,,,,,,,,,,,,,,,,,,,,,,,,,,,,,,,,,,,,,,,,,,,
1720078964,69,0,4228.333496,4421.282227,4334.615234,4391.794922,4443.333496,4441.922852,4442.563965,4422.307617,4410.769043,4308.205078,4307.05127,4617.820313,4333.846191,4314.102539,,,,,,,,,,,,,,,,,,,,,,,,,,,,,,,,,,,,,,,,,,,,,,,,,,,,,,,,,,,,,,,,,,,,,,
1720078964,70,0,4228.205078,4424.615234,4339.615234,4409.615234,4449.230957,4447.692383,4441.922852,4431.666504,4416.025879,4319.230957,4315.897461,4627.05127,4331.794922,4319.102539,,,,,,,,,,,,,,,,,,,,,,,,,,,,,,,,,,,,,,,,,,,,,,,,,,,,,,,,,,,,,,,,,,,,,,
1720078965,71,0,4229.615234,4427.820313,4340.769043,4408.717773,4446.922852,4444.615234,4442.179688,4425.897461,4418.333496,4322.05127,4326.922852,4616.282227,4342.307617,4321.282227,,,,,,,,,,,,,,,,,,,,,,,,,,,,,,,,,,,,,,,,,,,,,,,,,,,,,,,,,,,,,,,,,,,,,,
1720078965,72,0,4238.461426,4428.589844,4349.102539,4408.589844,4458.333496,4432.307617,4442.436035,4426.922852,4411.153809,4318.846191,4325,4626.025879,4351.282227,4332.05127,14.555371,21.984772,9.728989,3.799089,0.531666,1.685448,1.163385,0.657038,0.572241,0.525161,4.727036,1.488503,0.767135,0.859573,0.407331,2.249286,1.859629,1.261147,3.985839,2.559045,0.832949,0.521458,0.34913,0.59026,0.548864,0.645681,0.375436,0.294649,0.449188,0.425648,0.413305,0.604108,0.414553,0.295586,0.166657,1.026525,0.4096,0.362751,0.291816,0.265428,1.294776,0.368655,0.887543,0.370673,0.333163,3.537205,0.619008,0.670807,0.540653,0.475314,5.457863,0.864617,1.446254,0.892388,0.519932,0.199549,0.079785,0.019739,0.130399,0.862255,8.548962,0.913723,0.969819,0.593354,0.418502,8.779719,1.537962,1.096713,0.47878,0.26413
1720078965,73,0,4244.230957,4428.717773,4358.974121,4419.102539,4462.179688,4428.461426,4439.102539,4428.333496,4410.384766,4319.487305,4320.384766,4618.333496,4350,4337.179688,,,,,,,,,,,,,,,,,,,,,,,,,,,,,,,,,,,,,,,,,,,,,,,,,,,,,,,,,,,,,,,,,,,,,,
1720078965,74,0,4235.897461,4428.717773,4354.615234,4409.230957,4439.615234,4441.025879,4433.846191,4426.025879,4410.641113,4312.692383,4321.922852,4614.743652,4346.410156,4328.077148,,,,,,,,,,,,,,,,,,,,,,,,,,,,,,,,,,,,,,,,,,,,,,,,,,,,,,,,,,,,,,,,,,,,,,
1720078965,75,0,4227.820313,4428.589844,4354.230957,4395.256348,4431.025879,4446.282227,4432.05127,4425.641113,4405.384766,4305.384766,4328.974121,4622.94873,4344.230957,4325.769043,,,,,,,,,,,,,,,,,,,,,,,,,,,,,,,,,,,,,,,,,,,,,,,,,,,,,,,,,,,,,,,,,,,,,,
1720078965,76,0,4231.153809,4432.692383,4366.922852,4415.897461,4445.384766,4433.717773,4434.743652,4428.077148,4400.897461,4309.358887,4333.589844,4622.563965,4342.820313,4338.205078,,,,,,,,,,,,,,,,,,,,,,,,,,,,,,,,,,,,,,,,,,,,,,,,,,,,,,,,,,,,,,,,,,,,,,
1720078965,77,0,4233.589844,4433.205078,4371.410156,4444.358887,4445.512695,4434.615234,4438.333496,4427.94873,4403.077148,4315.128418,4330.641113,4619.871582,4343.205078,4339.358887,,,,,,,,,,,,,,,,,,,,,,,,,,,,,,,,,,,,,,,,,,,,,,,,,,,,,,,,,,,,,,,,,,,,,,
1720078965,78,0,4228.717773,4427.563965,4363.846191,4440.128418,4437.179688,4444.487305,4443.974121,4428.974121,4408.589844,4321.410156,4326.153809,4615.769043,4343.717773,4327.563965,,,,,,,,,,,,,,,,,,,,,,,,,,,,,,,,,,,,,,,,,,,,,,,,,,,,,,,,,,,,,,,,,,,,,,
1720078965,79,0,4224.102539,4432.563965,4363.205078,4419.743652,4452.692383,4446.410156,4452.436035,4439.230957,4414.102539,4332.563965,4327.307617,4616.410156,4343.461426,4328.589844,,,,,,,,,,,,,,,,,,,,,,,,,,,,,,,,,,,,,,,,,,,,,,,,,,,,,,,,,,,,,,,,,,,,,,
1720078965,80,0,4214.487305,4434.743652,4359.615234,4409.358887,4463.974121,4449.102539,4452.820313,4441.666504,4419.615234,4334.102539,4330.256348,4621.410156,4339.487305,4332.94873,,,,,,,,,,,,,,,,,,,,,,,,,,,,,,,,,,,,,,,,,,,,,,,,,,,,,,,,,,,,,,,,,,,,,,
1720078965,81,0,4194.230957,4413.974121,4339.358887,4391.153809,4445,4443.589844,4443.846191,4436.025879,4414.743652,4317.436035,4324.358887,4620.256348,4326.794922,4319.743652,,,,,,,,,,,,,,,,,,,,,,,,,,,,,,,,,,,,,,,,,,,,,,,,,,,,,,,,,,,,,,,,,,,,,,
1720078965,82,0,4181.153809,4401.410156,4328.205078,4390.897461,4441.025879,4428.974121,4440.897461,4439.230957,4406.153809,4310.512695,4317.436035,4614.743652,4319.487305,4307.563965,,,,,,,,,,,,,,,,,,,,,,,,,,,,,,,,,,,,,,,,,,,,,,,,,,,,,,,,,,,,,,,,,,,,,,
1720078965,83,0,4184.871582,4416.666504,4341.922852,4423.205078,4462.436035,4429.871582,4442.05127,4446.025879,4405.897461,4323.077148,4321.025879,4616.666504,4327.94873,4317.94873,,,,,,,,,,,,,,,,,,,,,,,,,,,,,,,,,,,,,,,,,,,,,,,,,,,,,,,,,,,,,,,,,,,,,,
1720078965,84,0,4187.436035,4413.589844,4343.205078,4415.512695,4451.538574,4443.717773,4431.410156,4441.794922,4406.282227,4320.641113,4318.461426,4617.436035,4328.974121,4321.922852,,,,,,,,,,,,,,,,,,,,,,,,,,,,,,,,,,,,,,,,,,,,,,,,,,,,,,,,,,,,,,,,,,,,,,
1720078965,85,0,4188.846191,4396.282227,4327.820313,4383.461426,4426.794922,4445.641113,4424.743652,4435.897461,4408.846191,4305.641113,4306.282227,4619.230957,4319.358887,4308.974121,,,,,,,,,,,,,,,,,,,,,,,,,,,,,,,,,,,,,,,,,,,,,,,,,,,,,,,,,,,,,,,,,,,,,,
1720078965,86,0,4200.256348,4407.94873,4333.205078,4391.153809,4440.897461,4441.666504,4438.846191,4438.333496,4413.974121,4308.974121,4307.179688,4616.153809,4323.589844,4311.025879,,,,,,,,,,,,,,,,,,,,,,,,,,,,,,,,,,,,,,,,,,,,,,,,,,,,,,,,,,,,,,,,,,,,,,
1720078965,87,0,4205.641113,4415.256348,4342.94873,4387.820313,4454.487305,4442.05127,4443.205078,4436.794922,4404.871582,4314.358887,4312.820313,4606.538574,4327.179688,4320.256348,,,,,,,,,,,,,,,,,,,,,,,,,,,,,,,,,,,,,,,,,,,,,,,,,,,,,,,,,,,,,,,,,,,,,,
1720078965,88,0,4208.205078,4403.205078,4341.282227,4377.94873,4438.589844,4441.666504,4431.410156,4438.461426,4386.922852,4305.897461,4312.307617,4626.538574,4320.512695,4322.692383,9.984778,15.719969,7.218524,2.975788,0.492946,1.811358,1.116183,0.815653,0.559331,0.509294,4.486799,1.559196,0.842891,0.900944,0.412045,2.161271,1.713706,1.476647,3.632498,2.396693,0.908555,0.562407,0.360472,0.549481,0.520805,0.61255,0.43376,0.360313,0.491725,0.436113,0.37089,0.5749,0.296342,0.358577,0.185249,0.709981,0.273495,0.241259,0.299598,0.249245,1.249519,0.440691,0.818613,0.437933,0.342616,3.413856,0.600474,0.624011,0.609972,0.473309,5.212928,0.822741,1.233357,0.969779,0.534562,0.220591,0.087264,0.02244,0.104521,0.808751,7.959707,0.955269,0.928366,0.629497,0.454669,8.172582,1.624894,0.991806,0.495059,0.284009
1720078965,89,0,4220.512695,4416.025879,4351.794922,4420.897461,4441.025879,4435.256348,4432.94873,4437.94873,4387.692383,4310.512695,4319.102539,4622.436035,4326.153809,4323.077148,,,,,,,,,,,,,,,,,,,,,,,,,,,,,,,,,,,,,,,,,,,,,,,,,,,,,,,,,,,,,,,,,,,,,,
1720078965,90,0,4220.769043,4431.922852,4357.563965,4434.102539,4464.487305,4426.282227,4443.589844,4434.102539,4393.077148,4320.897461,4322.820313,4595.128418,4332.692383,4321.410156,,,,,,,,,,,,,,,,,,,,,,,,,,,,,,,,,,,,,,,,,,,,,,,,,,,,,,,,,,,,,,,,,,,,,,
1720078965,91,0,4200,4410.512695,4336.794922,4387.436035,4451.794922,4427.820313,4441.922852,4439.487305,4385.769043,4309.871582,4310.512695,4617.820313,4317.179688,4312.94873,,,,,,,,,,,,,,,,,,,,,,,,,,,,,,,,,,,,,,,,,,,,,,,,,,,,,,,,,,,,,,,,,,,,,,
1720078965,92,0,4186.153809,4392.820313,4324.871582,4385.641113,4422.820313,4440.256348,4441.666504,4449.358887,4394.871582,4302.692383,4304.102539,4629.358887,4303.846191,4306.538574,,,,,,,,,,,,,,,,,,,,,,,,,,,,,,,,,,,,,,,,,,,,,,,,,,,,,,,,,,,,,,,,,,,,,,
1720078965,93,0,4187.692383,4400.769043,4331.282227,4407.05127,4431.666504,4452.05127,4447.563965,4450.512695,4410.769043,4317.563965,4307.563965,4605.128418,4308.333496,4308.205078,,,,,,,,,,,,,,,,,,,,,,,,,,,,,,,,,,,,,,,,,,,,,,,,,,,,,,,,,,,,,,,,,,,,,,
1720078965,94,0,4181.794922,4394.487305,4319.615234,4379.102539,4445.769043,4454.615234,4444.102539,4444.871582,4403.333496,4321.282227,4299.230957,4614.358887,4308.589844,4301.794922,,,,,,,,,,,,,,,,,,,,,,,,,,,,,,,,,,,,,,,,,,,,,,,,,,,,,,,,,,,,,,,,,,,,,,
1720078965,95,0,4176.410156,4387.820313,4304.230957,4363.846191,4434.871582,4448.717773,4439.743652,4442.94873,4391.666504,4312.05127,4287.820313,4626.538574,4303.333496,4290.769043,,,,,,,,,,,,,,,,,,,,,,,,,,,,,,,,,,,,,,,,,,,,,,,,,,,,,,,,,,,,,,,,,,,,,,
1720078965,96,0,4190.384766,4405.384766,4322.820313,4398.846191,4433.077148,4442.05127,4443.333496,4445.384766,4396.922852,4316.153809,4296.794922,4607.307617,4308.717773,4296.794922,,,,,,,,,,,,,,,,,,,,,,,,,,,,,,,,,,,,,,,,,,,,,,,,,,,,,,,,,,,,,,,,,,,,,,
1720078965,97,0,4200,4413.205078,4344.743652,4408.205078,4445,4444.102539,4443.717773,4454.615234,4400.384766,4320.897461,4308.974121,4614.487305,4313.589844,4309.230957,,,,,,,,,,,,,,,,,,,,,,,,,,,,,,,,,,,,,,,,,,,,,,,,,,,,,,,,,,,,,,,,,,,,,,
1720078965,98,0,4182.05127,4400.512695,4333.974121,4385.384766,4446.153809,4442.436035,4441.282227,4451.153809,4394.871582,4311.410156,4298.846191,4625.256348,4302.307617,4301.922852,,,,,,,,,,,,,,,,,,,,,,,,,,,,,,,,,,,,,,,,,,,,,,,,,,,,,,,,,,,,,,,,,,,,,,
1720078965,99,0,4163.205078,4393.717773,4320.769043,4385.512695,4441.025879,4431.794922,4441.922852,4442.436035,4393.974121,4305.128418,4287.94873,4613.205078,4292.307617,4292.307617,,,,,,,,,,,,,,,,,,,,,,,,,,,,,,,,,,,,,,,,,,,,,,,,,,,,,,,,,,,,,,,,,,,,,,
1720078965,100,0,4174.871582,4408.589844,4337.307617,4408.589844,4444.358887,4435.769043,4444.871582,4450.641113,4395.128418,4319.230957,4303.077148,4616.794922,4309.358887,4305.128418,,,,,,,,,,,,,,,,,,,,,,,,,,,,,,,,,,,,,,,,,,,,,,,,,,,,,,,,,,,,,,,,,,,,,,
1720078965,101,0,4192.179688,4422.05127,4350.384766,4415.769043,4451.410156,4448.974121,4447.94873,4455,4396.922852,4333.205078,4318.717773,4620.256348,4326.922852,4315.512695,,,,,,,,,,,,,,,,,,,,,,,,,,,,,,,,,,,,,,,,,,,,,,,,,,,,,,,,,,,,,,,,,,,,,,
1720078965,102,0,4181.025879,4411.410156,4334.102539,4395.256348,4448.461426,4448.205078,4445,4453.717773,4399.871582,4323.974121,4309.615234,4621.666504,4317.563965,4309.487305,,,,,,,,,,,,,,,,,,,,,,,,,,,,,,,,,,,,,,,,,,,,,,,,,,,,,,,,,,,,,,,,,,,,,,
1720078965,103,0,4161.153809,4397.436035,4322.179688,4381.410156,4441.025879,4439.871582,4437.94873,4453.974121,4401.153809,4312.820313,4299.743652,4621.794922,4311.025879,4304.615234,,,,,,,,,,,,,,,,,,,,,,,,,,,,,,,,,,,,,,,,,,,,,,,,,,,,,,,,,,,,,,,,,,,,,,
1720078965,104,0,4152.307617,4393.333496,4322.563965,4377.179688,4441.666504,4442.820313,4433.333496,4450.641113,4396.922852,4314.743652,4300.512695,4618.589844,4311.794922,4300.641113,6.533382,10.773022,4.866451,2.105592,0.445915,1.793857,1.07326,0.934447,0.516481,0.48587,3.807599,1.945266,0.878775,0.907066,0.414522,1.870132,1.598874,1.685553,3.137375,2.218677,0.904436,0.590334,0.389514,0.496024,0.483217,0.567823,0.519611,0.423347,0.524462,0.453357,0.373433,0.581672,0.20607,0.414996,0.198436,0.55563,0.212584,0.156548,0.304302,0.23464,1.125744,0.604935,0.757778,0.500071,0.350992,3.047891,0.585804,0.572759,0.684351,0.485516,4.483326,1.082122,1.1277,1.016174,0.527926,0.231185,0.089541,0.026853,0.082002,0.764654,6.621744,1.175675,0.903678,0.64751,0.481011,6.689487,2.073431,0.933028,0.485515,0.299377
1720078965,105,0,4144.743652,4385.897461,4316.153809,4362.563965,4445.897461,4447.436035,4430.897461,4444.487305,4390.769043,4313.974121,4296.666504,4620.256348,4298.589844,4292.179688,,,,,,,,,,,,,,,,,,,,,,,,,,,,,,,,,,,,,,,,,,,,,,,,,,,,,,,,,,,,,,,,,,,,,,
1720078965,106,0,4140.128418,4380.128418,4313.077148,4358.205078,4440.897461,4443.846191,4428.077148,4446.410156,4395.128418,4308.974121,4291.025879,4622.692383,4293.461426,4292.820313,,,,,,,,,,,,,,,,,,,,,,,,,,,,,,,,,,,,,,,,,,,,,,,,,,,,,,,,,,,,,,,,,,,,,,
1720078965,107,0,4140,4384.743652,4316.794922,4364.871582,4431.025879,4444.487305,4428.461426,4452.820313,4399.871582,4310.256348,4291.794922,4623.461426,4306.282227,4298.974121,,,,,,,,,,,,,,,,,,,,,,,,,,,,,,,,,,,,,,,,,,,,,,,,,,,,,,,,,,,,,,,,,,,,,,
1720078965,108,0,4136.922852,4387.692383,4321.025879,4368.717773,4432.179688,4439.871582,4430.256348,4451.282227,4390.641113,4309.743652,4295.256348,4621.538574,4311.282227,4295.512695,,,,,,,,,,,,,,,,,,,,,,,,,,,,,,,,,,,,,,,,,,,,,,,,,,,,,,,,,,,,,,,,,,,,,,
1720078965,109,0,4144.102539,4395,4334.743652,4386.922852,4441.922852,4429.487305,4431.410156,4452.307617,4386.538574,4313.974121,4307.179688,4621.538574,4310,4296.410156,,,,,,,,,,,,,,,,,,,,,,,,,,,,,,,,,,,,,,,,,,,,,,,,,,,,,,,,,,,,,,,,,,,,,,
1720078965,110,0,4152.05127,4405.384766,4342.692383,4396.922852,4445.256348,4433.589844,4437.436035,4457.94873,4396.538574,4320.128418,4320.897461,4622.05127,4314.230957,4303.077148,,,,,,,,,,,,,,,,,,,,,,,,,,,,,,,,,,,,,,,,,,,,,,,,,,,,,,,,,,,,,,,,,,,,,,
1720078965,111,0,4145.128418,4402.179688,4333.077148,4377.820313,4444.358887,4445.256348,4442.436035,4460.384766,4397.307617,4317.692383,4315.384766,4621.538574,4315.256348,4302.436035,,,,,,,,,,,,,,,,,,,,,,,,,,,,,,,,,,,,,,,,,,,,,,,,,,,,,,,,,,,,,,,,,,,,,,
1720078965,112,0,4133.077148,4392.307617,4325,4367.692383,4440.128418,4446.025879,4439.871582,4456.025879,4388.333496,4308.205078,4295.769043,4617.05127,4303.846191,4293.461426,,,,,,,,,,,,,,,,,,,,,,,,,,,,,,,,,,,,,,,,,,,,,,,,,,,,,,,,,,,,,,,,,,,,,,
1720078965,113,0,4120.897461,4382.94873,4316.538574,4370.384766,4433.461426,4442.563965,4437.179688,4450.897461,4385,4299.102539,4280.897461,4621.025879,4284.487305,4280.641113,,,,,,,,,,,,,,,,,,,,,,,,,,,,,,,,,,,,,,,,,,,,,,,,,,,,,,,,,,,,,,,,,,,,,,
1720078965,114,0,4116.025879,4380.128418,4312.05127,4378.077148,4438.461426,4442.820313,4443.077148,4453.205078,4392.820313,4301.794922,4282.820313,4623.974121,4281.922852,4275.256348,,,,,,,,,,,,,,,,,,,,,,,,,,,,,,,,,,,,,,,,,,,,,,,,,,,,,,,,,,,,,,,,,,,,,,
1720078965,115,0,4116.025879,4383.846191,4315.256348,4383.077148,4445.512695,4441.538574,4443.461426,4456.025879,4405.512695,4306.153809,4286.666504,4605.384766,4293.077148,4276.538574,,,,,,,,,,,,,,,,,,,,,,,,,,,,,,,,,,,,,,,,,,,,,,,,,,,,,,,,,,,,,,,,,,,,,,
1720078965,116,0,4113.589844,4381.666504,4311.794922,4358.333496,4438.717773,4441.025879,4430.128418,4462.820313,4409.487305,4304.487305,4287.692383,4615.769043,4293.205078,4278.974121,,,,,,,,,,,,,,,,,,,,,,,,,,,,,,,,,,,,,,,,,,,,,,,,,,,,,,,,,,,,,,,,,,,,,,
1720078965,117,0,4114.230957,4378.717773,4308.974121,4336.922852,4431.282227,4444.102539,4428.589844,4462.307617,4405.512695,4305.897461,4295.897461,4631.666504,4290.897461,4282.820313,,,,,,,,,,,,,,,,,,,,,,,,,,,,,,,,,,,,,,,,,,,,,,,,,,,,,,,,,,,,,,,,,,,,,,
1720078965,118,0,4120.641113,4386.794922,4315.769043,4355.769043,4428.333496,4442.05127,4439.743652,4451.153809,4405.641113,4310.512695,4298.461426,4604.230957,4292.436035,4282.307617,,,,,,,,,,,,,,,,,,,,,,,,,,,,,,,,,,,,,,,,,,,,,,,,,,,,,,,,,,,,,,,,,,,,,,
1720078965,119,0,4121.025879,4398.205078,4324.230957,4379.102539,4431.666504,4435.384766,4445.897461,4451.538574,4407.179688,4314.358887,4293.974121,4601.666504,4292.436035,4280.897461,,,,,,,,,,,,,,,,,,,,,,,,,,,,,,,,,,,,,,,,,,,,,,,,,,,,,,,,,,,,,,,,,,,,,,
1720078965,120,0,4114.487305,4398.077148,4323.589844,4381.153809,4440.256348,4429.743652,4442.563965,4457.563965,4396.794922,4310.256348,4295,4631.410156,4291.794922,4281.282227,4.680366,8.142001,3.171806,1.400568,0.399981,1.65574,1.083616,0.982223,0.453683,0.465394,2.874761,2.732947,0.861775,0.882526,0.418844,1.463948,1.599374,1.829349,2.665544,2.083951,0.821593,0.597413,0.424511,0.444956,0.445766,0.510363,0.622672,0.480746,0.546261,0.466975,0.401456,0.614911,0.157328,0.457443,0.204318,0.486433,0.210582,0.113531,0.30188,0.225621,0.957577,0.841784,0.722249,0.547307,0.356865,2.563568,0.593842,0.515398,0.755812,0.509421,3.461818,1.542213,1.108039,1.003347,0.509741,0.225258,0.085037,0.030531,0.066498,0.739707,4.987025,1.567595,0.890105,0.645991,0.490839,4.820891,2.935385,0.91511,0.452332,0.308562
1720078965,121,0,4111.538574,4395.384766,4320.512695,4373.333496,4441.282227,4429.102539,4436.538574,4451.410156,4391.153809,4302.179688,4293.205078,4623.205078,4290.128418,4276.794922,,,,,,,,,,,,,,,,,,,,,,,,,,,,,,,,,,,,,,,,,,,,,,,,,,,,,,,,,,,,,,,,,,,,,,
1720078965,122,0,4106.666504,4394.615234,4315.769043,4363.205078,4438.846191,4432.436035,4429.871582,4442.179688,4392.436035,4301.282227,4284.358887,4604.102539,4285.769043,4270.641113,,,,,,,,,,,,,,,,,,,,,,,,,,,,,,,,,,,,,,,,,,,,,,,,,,,,,,,,,,,,,,,,,,,,,,
1720078965,123,0,4101.538574,4395.512695,4315.769043,4372.692383,4441.282227,4427.436035,4425.641113,4445.769043,4388.205078,4308.846191,4288.846191,4614.743652,4294.615234,4275.769043,,,,,,,,,,,,,,,,,,,,,,,,,,,,,,,,,,,,,,,,,,,,,,,,,,,,,,,,,,,,,,,,,,,,,,
1720078965,124,0,4105.256348,4406.410156,4324.743652,4397.179688,4447.563965,4416.538574,4430.128418,4447.820313,4392.94873,4313.717773,4301.538574,4618.333496,4306.282227,4283.461426,,,,,,,,,,,,,,,,,,,,,,,,,,,,,,,,,,,,,,,,,,,,,,,,,,,,,,,,,,,,,,,,,,,,,,
1720078965,125,0,4102.563965,4403.461426,4313.846191,4378.974121,4443.205078,4422.820313,4429.487305,4443.974121,4395.384766,4312.307617,4293.205078,4615.897461,4295.512695,4274.871582,,,,,,,,,,,,,,,,,,,,,,,,,,,,,,,,,,,,,,,,,,,,,,,,,,,,,,,,,,,,,,,,,,,,,,
1720078965,126,0,4082.05127,4375.769043,4283.717773,4330.641113,4430.641113,4434.102539,4416.794922,4440.256348,4383.589844,4306.025879,4279.615234,4615.769043,4283.333496,4264.487305,,,,,,,,,,,,,,,,,,,,,,,,,,,,,,,,,,,,,,,,,,,,,,,,,,,,,,,,,,,,,,,,,,,,,,
1720078965,127,0,4074.743652,4366.025879,4277.563965,4337.307617,4429.358887,4428.461426,4413.589844,4439.230957,4382.436035,4301.282227,4283.077148,4610.769043,4290,4270.897461,,,,,,,,,,,,,,,,,,,,,,,,,,,,,,,,,,,,,,,,,,,,,,,,,,,,,,,,,,,,,,,,,,,,,,
1720078965,0,0,4091.410156,4386.538574,4299.743652,4379.102539,4438.846191,4432.563965,4426.282227,4446.025879,4402.692383,4308.974121,4291.410156,4615.256348,4298.461426,4281.153809,,,,,,,,,,,,,,,,,,,,,,,,,,,,,,,,,,,,,,,,,,,,,,,,,,,,,,,,,,,,,,,,,,,,,,
1720078965,1,0,4094.871826,4395.769043,4308.717773,4372.436035,4440,4447.820313,4430.641113,4449.871582,4413.974121,4321.666504,4291.410156,4616.025879,4299.102539,4277.692383,,,,,,,,,,,,,,,,,,,,,,,,,,,,,,,,,,,,,,,,,,,,,,,,,,,,,,,,,,,,,,,,,,,,,,
1720078965,2,0,4087.692383,4393.589844,4311.666504,4365.641113,4438.589844,4430.256348,4431.153809,4454.102539,4411.282227,4331.153809,4301.153809,4614.871582,4310.256348,4283.333496,,,,,,,,,,,,,,,,,,,,,,,,,,,,,,,,,,,,,,,,,,,,,,,,,,,,,,,,,,,,,,,,,,,,,,
1720078965,3,0,4093.461426,4397.436035,4327.820313,4389.487305,4443.846191,4410.641113,4437.692383,4460.512695,4410.256348,4337.307617,4322.692383,4616.538574,4324.871582,4302.820313,,,,,,,,,,,,,,,,,,,,,,,,,,,,,,,,,,,,,,,,,,,,,,,,,,,,,,,,,,,,,,,,,,,,,,
1720078965,4,0,4093.589844,4395.256348,4329.615234,4373.461426,4444.358887,4425.641113,4433.461426,4461.410156,4405.512695,4334.615234,4326.025879,4618.205078,4323.461426,4305.384766,,,,,,,,,,,,,,,,,,,,,,,,,,,,,,,,,,,,,,,,,,,,,,,,,,,,,,,,,,,,,,,,,,,,,,
1720078965,5,0,4086.538574,4400.384766,4325.769043,4363.461426,4442.05127,4425.512695,4425.256348,4458.205078,4400.384766,4335.641113,4318.717773,4622.563965,4324.615234,4303.077148,,,,,,,,,,,,,,,,,,,,,,,,,,,,,,,,,,,,,,,,,,,,,,,,,,,,,,,,,,,,,,,,,,,,,,
1720078965,6,0,4089.230713,4411.153809,4333.589844,4400.128418,4442.307617,4410.128418,4423.333496,4452.05127,4400.769043,4343.205078,4322.179688,4620.128418,4333.461426,4312.436035,,,,,,,,,,,,,,,,,,,,,,,,,,,,,,,,,,,,,,,,,,,,,,,,,,,,,,,,,,,,,,,,,,,,,,
1720078965,7,0,4085.769287,4403.974121,4332.94873,4393.461426,4443.846191,4417.307617,4421.153809,4452.05127,4398.589844,4341.410156,4325,4615.512695,4330.512695,4312.307617,,,,,,,,,,,,,,,,,,,,,,,,,,,,,,,,,,,,,,,,,,,,,,,,,,,,,,,,,,,,,,,,,,,,,,
1720078965,8,0,4061.153809,4388.589844,4316.153809,4353.717773,4446.922852,4423.205078,4422.94873,4453.205078,4392.307617,4332.05127,4311.153809,4616.025879,4317.05127,4295.897461,3.649243,7.596364,2.212495,0.953173,0.363885,1.486266,1.184376,0.950221,0.389878,0.45883,1.93722,3.862605,0.795034,0.835179,0.430562,1.073218,1.788126,1.856692,2.373496,2.021295,0.699052,0.587638,0.460053,0.414133,0.427719,0.439879,0.724592,0.535827,0.556393,0.465998,0.434856,0.666986,0.148072,0.480559,0.202486,0.458151,0.234977,0.101307,0.289867,0.223489,0.788613,1.112337,0.706901,0.575907,0.357714,2.082724,0.639679,0.44758,0.816621,0.537631,2.400695,2.072854,1.114145,0.924905,0.4921,0.209173,0.074183,0.031828,0.058664,0.73984,3.453272,2.052492,0.864327,0.632107,0.481608,3.112062,4.066974,0.90496,0.404033,0.313904
1720078965,9,0,4032.94873,4380.512695,4299.487305,4360.512695,4447.179688,4424.102539,4428.461426,4449.743652,4392.05127,4333.589844,4296.794922,4615.769043,4308.205078,4282.94873,,,,,,,,,,,,,,,,,,,,,,,,,,,,,,,,,,,,,,,,,,,,,,,,,,,,,,,,,,,,,,,,,,,,,,
1720078965,10,0,4014.102539,4367.820313,4285,4363.077148,4437.94873,4434.615234,4427.692383,4450.384766,4393.846191,4336.153809,4293.205078,4614.230957,4301.666504,4273.077148,,,,,,,,,,,,,,,,,,,,,,,,,,,,,,,,,,,,,,,,,,,,,,,,,,,,,,,,,,,,,,,,,,,,,,
1720078965,11,0,4008.461426,4358.077148,4277.94873,4339.487305,4424.615234,4430.641113,4428.077148,4454.102539,4391.794922,4326.666504,4290.641113,4614.871582,4291.282227,4263.846191,,,,,,,,,,,,,,,,,,,,,,,,,,,,,,,,,,,,,,,,,,,,,,,,,,,,,,,,,,,,,,,,,,,,,,
1720078965,12,0,4015.512939,4368.461426,4286.666504,4341.025879,4431.282227,4419.743652,4429.615234,4453.077148,4389.102539,4325.256348,4294.871582,4612.05127,4291.538574,4270.641113,,,,,,,,,,,,,,,,,,,,,,,,,,,,,,,,,,,,,,,,,,,,,,,,,,,,,,,,,,,,,,,,,,,,,,
1720078965,13,0,4023.974365,4382.820313,4295.641113,4354.871582,4448.333496,4429.487305,4427.436035,4456.153809,4391.666504,4339.102539,4308.077148,4617.94873,4307.563965,4287.563965,,,,,,,,,,,,,,,,,,,,,,,,,,,,,,,,,,,,,,,,,,,,,,,,,,,,,,,,,,,,,,,,,,,,,,
1720078965,14,0,4028.333252,4387.179688,4301.794922,4362.179688,4445.384766,4430.512695,4428.333496,4461.410156,4397.94873,4345.256348,4320,4631.410156,4321.410156,4297.307617,,,,,,,,,,,,,,,,,,,,,,,,,,,,,,,,,,,,,,,,,,,,,,,,,,,,,,,,,,,,,,,,,,,,,,
1720078965,15,0,4026.025635,4379.871582,4307.563965,4363.717773,4429.615234,4411.922852,4421.538574,4451.666504,4395.897461,4338.461426,4320.512695,4611.282227,4316.666504,4292.05127,,,,,,,,,,,,,,,,,,,,,,,,,,,,,,,,,,,,,,,,,,,,,,,,,,,,,,,,,,,,,,,,,,,,,,
1720078965,16,0,4021.410156,4376.922852,4312.05127,4365.256348,4431.282227,4405,4409.743652,4450.256348,4386.794922,4344.230957,4313.205078,4609.102539,4309.871582,4290,,,,,,,,,,,,,,,,,,,,,,,,,,,,,,,,,,,,,,,,,,,,,,,,,,,,,,,,,,,,,,,,,,,,,,
1720078965,17,0,4030.641113,4395.384766,4329.358887,4393.717773,4443.717773,4402.436035,4414.358887,4466.153809,4390.256348,4363.077148,4315.641113,4638.846191,4318.974121,4301.794922,,,,,,,,,,,,,,,,,,,,,,,,,,,,,,,,,,,,,,,,,,,,,,,,,,,,,,,,,,,,,,,,,,,,,,
1720078965,18,0,4033.718018,4402.179688,4336.794922,4405,4437.179688,4395.897461,4421.282227,4461.153809,4397.436035,4357.692383,4315.897461,4621.666504,4323.333496,4301.282227,,,,,,,,,,,,,,,,,,,,,,,,,,,,,,,,,,,,,,,,,,,,,,,,,,,,,,,,,,,,,,,,,,,,,,
1720078965,19,0,4013.846191,4379.615234,4308.717773,4355.384766,4419.487305,4400.897461,4409.615234,4443.589844,4387.692383,4329.102539,4301.666504,4597.94873,4309.487305,4287.692383,,,,,,,,,,,,,,,,,,,,,,,,,,,,,,,,,,,,,,,,,,,,,,,,,,,,,,,,,,,,,,,,,,,,,,
1720078965,20,0,4003.205078,4366.025879,4287.94873,4332.179688,4419.743652,4412.179688,4395.512695,4446.410156,4377.692383,4324.230957,4288.589844,4616.538574,4300.769043,4283.205078,,,,,,,,,,,,,,,,,,,,,,,,,,,,,,,,,,,,,,,,,,,,,,,,,,,,,,,,,,,,,,,,,,,,,,
1720078965,21,0,4010.512939,4370.512695,4296.794922,4366.025879,4427.94873,4412.94873,4397.692383,4455.512695,4378.846191,4336.666504,4287.94873,4621.025879,4299.102539,4280.256348,,,,,,,,,,,,,,,,,,,,,,,,,,,,,,,,,,,,,,,,,,,,,,,,,,,,,,,,,,,,,,,,,,,,,,
1720078965,22,0,4005.128174,4365.897461,4296.922852,4367.692383,4428.461426,4410,4409.487305,4455.384766,4388.205078,4335.641113,4291.794922,4611.538574,4295.641113,4271.666504,,,,,,,,,,,,,,,,,,,,,,,,,,,,,,,,,,,,,,,,,,,,,,,,,,,,,,,,,,,,,,,,,,,,,,
1720078965,23,0,3995.128174,4353.589844,4281.025879,4335.384766,4428.205078,4417.179688,4416.410156,4457.05127,4398.333496,4331.538574,4288.846191,4620.897461,4291.282227,4267.692383,,,,,,,,,,,,,,,,,,,,,,,,,,,,,,,,,,,,,,,,,,,,,,,,,,,,,,,,,,,,,,,,,,,,,,
1720078965,24,0,3995.769287,4344.615234,4274.871582,4332.563965,4424.871582,4422.692383,4416.282227,4458.717773,4395,4329.102539,4278.846191,4615.384766,4286.153809,4267.436035,3.652089,8.091161,1.757701,0.733017,0.342822,1.313549,1.392327,0.871039,0.344906,0.471073,1.212727,5.125501,0.715575,0.773223,0.452768,0.798698,2.192979,1.776644,2.328854,2.026929,0.579833,0.571424,0.498036,0.411184,0.442585,0.356106,0.809921,0.602455,0.554261,0.445084,0.467126,0.727754,0.175694,0.479894,0.19464,0.412625,0.258906,0.104798,0.268004,0.226457,0.645787,1.373209,0.691469,0.587399,0.351657,1.650782,0.716752,0.37172,0.859361,0.559253,1.539538,2.530083,1.103143,0.799327,0.482833,0.188423,0.05919,0.03038,0.055777,0.76478,2.318194,2.496012,0.806424,0.619661,0.455745,1.918953,5.149951,0.872162,0.351984,0.318263
1720078965,25,0,4000.256348,4349.358887,4284.230957,4357.94873,4423.846191,4418.205078,4418.205078,4463.974121,4388.974121,4326.153809,4278.461426,4608.846191,4284.743652,4270.128418,,,,,,,,,,,,,,,,,,,,,,,,,,,,,,,,,,,,,,,,,,,,,,,,,,,,,,,,,,,,,,,,,,,,,,
1720078965,26,0,4009.871826,4363.717773,4295.128418,4373.589844,4428.974121,4411.922852,4418.974121,4473.589844,4386.794922,4335.128418,4291.666504,4617.820313,4293.717773,4278.846191,,,,,,,,,,,,,,,,,,,,,,,,,,,,,,,,,,,,,,,,,,,,,,,,,,,,,,,,,,,,,,,,,,,,,,
1720078965,27,0,4022.564209,4368.846191,4298.846191,4365.769043,4424.871582,4407.692383,4414.358887,4471.410156,4382.05127,4344.230957,4304.743652,4613.077148,4306.025879,4291.666504,,,,,,,,,,,,,,,,,,,,,,,,,,,,,,,,,,,,,,,,,,,,,,,,,,,,,,,,,,,,,,,,,,,,,,
1720078965,28,0,4030.641113,4367.436035,4303.589844,4355.769043,4413.846191,4408.461426,4412.563965,4468.205078,4382.94873,4341.282227,4310.512695,4613.717773,4312.436035,4305,,,,,,,,,,,,,,,,,,,,,,,,,,,,,,,,,,,,,,,,,,,,,,,,,,,,,,,,,,,,,,,,,,,,,,
1720078965,29,0,4038.461426,4370.512695,4314.358887,4369.102539,4415,4413.974121,4416.153809,4476.410156,4385.128418,4340.641113,4311.282227,4619.615234,4310.641113,4307.05127,,,,,,,,,,,,,,,,,,,,,,,,,,,,,,,,,,,,,,,,,,,,,,,,,,,,,,,,,,,,,,,,,,,,,,
1720078965,30,0,4053.333252,4376.282227,4325.769043,4381.025879,4425.384766,4405.897461,4420.384766,4481.538574,4379.743652,4344.230957,4313.333496,4617.820313,4310.128418,4304.743652,,,,,,,,,,,,,,,,,,,,,,,,,,,,,,,,,,,,,,,,,,,,,,,,,,,,,,,,,,,,,,,,,,,,,,
1720078965,31,0,4065.769287,4380.384766,4332.179688,4381.410156,4429.871582,4389.743652,4415.897461,4475.769043,4379.487305,4344.743652,4316.538574,4613.846191,4314.358887,4311.025879,,,,,,,,,,,,,,,,,,,,,,,,,,,,,,,,,,,,,,,,,,,,,,,,,,,,,,,,,,,,,,,,,,,,,,
1720078965,32,0,4057.307617,4373.589844,4324.743652,4387.692383,4422.94873,4389.102539,4400.641113,4465.641113,4378.717773,4341.922852,4303.333496,4616.153809,4305.128418,4305.512695,,,,,,,,,,,,,,,,,,,,,,,,,,,,,,,,,,,,,,,,,,,,,,,,,,,,,,,,,,,,,,,,,,,,,,
1720078965,33,0,4037.307617,4349.743652,4305.897461,4372.307617,4414.230957,4398.461426,4389.102539,4464.871582,4370.769043,4340.384766,4286.666504,4621.282227,4287.692383,4283.846191,,,,,,,,,,,,,,,,,,,,,,,,,,,,,,,,,,,,,,,,,,,,,,,,,,,,,,,,,,,,,,,,,,,,,,
1720078965,34,0,4032.94873,4339.102539,4294.615234,4340,4418.205078,4405.769043,4393.846191,4472.436035,4382.179688,4341.410156,4286.538574,4618.974121,4285.897461,4277.94873,,,,,,,,,,,,,,,,,,,,,,,,,,,,,,,,,,,,,,,,,,,,,,,,,,,,,,,,,,,,,,,,,,,,,,
1720078965,35,0,4043.333252,4350.256348,4294.230957,4336.282227,4428.333496,4409.487305,4406.922852,4481.538574,4408.077148,4341.666504,4289.102539,4618.461426,4289.230957,4287.820313,,,,,,,,,,,,,,,,,,,,,,,,,,,,,,,,,,,,,,,,,,,,,,,,,,,,,,,,,,,,,,,,,,,,,,
1720078965,36,0,4040.384521,4350.128418,4292.563965,4355.641113,4430.128418,4414.358887,4411.922852,4484.743652,4411.794922,4343.717773,4290.512695,4620.128418,4288.589844,4286.025879,,,,,,,,,,,,,,,,,,,,,,,,,,,,,,,,,,,,,,,,,,,,,,,,,,,,,,,,,,,,,,,,,,,,,,
1720078965,37,0,4028.974365,4342.563965,4292.94873,4368.974121,4425.256348,4418.077148,4409.615234,4481.794922,4398.589844,4341.666504,4289.871582,4618.589844,4288.205078,4275,,,,,,,,,,,,,,,,,,,,,,,,,,,,,,,,,,,,,,,,,,,,,,,,,,,,,,,,,,,,,,,,,,,,,,
1720078965,38,0,4034.102539,4345.897461,4304.358887,4369.743652,4425.384766,4418.717773,4416.794922,4488.974121,4393.461426,4333.846191,4291.025879,4617.179688,4288.589844,4277.436035,,,,,,,,,,,,,,,,,,,,,,,,,,,,,,,,,,,,,,,,,,,,,,,,,,,,,,,,,,,,,,,,,,,,,,
1720078965,39,0,4051.538574,4356.794922,4313.589844,4371.922852,4432.563965,4422.820313,4431.282227,4501.025879,4400.128418,4333.846191,4302.692383,4624.230957,4296.282227,4293.461426,,,,,,,,,,,,,,,,,,,,,,,,,,,,,,,,,,,,,,,,,,,,,,,,,,,,,,,,,,,,,,,,,,,,,,
1720078965,40,0,4058.974365,4358.589844,4310.769043,4372.692383,4432.436035,4421.410156,4426.538574,4493.589844,4398.589844,4342.436035,4308.333496,4620.641113,4303.846191,4301.794922,3.665638,8.584434,1.509346,0.65335,0.336744,1.167702,1.717276,0.798793,0.334667,0.498257,0.77862,6.304025,0.673622,0.707051,0.483211,0.681878,2.808452,1.649623,2.486458,2.077305,0.4937,0.55602,0.545658,0.429449,0.487364,0.282163,0.879616,0.684072,0.539246,0.408743,0.508461,0.783928,0.24469,0.454501,0.184232,0.403671,0.282141,0.115659,0.239394,0.230053,0.550046,1.59092,0.649797,0.585753,0.338476,1.300259,0.812882,0.301056,0.876665,0.56361,1.014468,2.824942,1.081382,0.664771,0.480997,0.173211,0.04393,0.027195,0.054305,0.802076,1.643292,2.788909,0.724249,0.621403,0.420014,1.316881,5.864442,0.817944,0.308129,0.322431
1720078965,41,0,4060.897461,4358.589844,4313.717773,4373.589844,4426.153809,4413.461426,4417.179688,4482.307617,4384.230957,4341.282227,4305.256348,4613.974121,4297.820313,4300.256348,,,,,,,,,,,,,,,,,,,,,,,,,,,,,,,,,,,,,,,,,,,,,,,,,,,,,,,,,,,,,,,,,,,,,,
1720078965,42,0,4072.692383,4362.94873,4327.05127,4372.436035,4427.436035,4412.436035,4421.410156,4493.077148,4379.230957,4339.358887,4311.666504,4633.077148,4300.128418,4308.205078,,,,,,,,,,,,,,,,,,,,,,,,,,,,,,,,,,,,,,,,,,,,,,,,,,,,,,,,,,,,,,,,,,,,,,
1720078965,43,0,4088.974365,4369.871582,4334.358887,4379.871582,4431.025879,4415.897461,4421.922852,4495.128418,4387.307617,4349.743652,4323.333496,4618.205078,4320.384766,4318.077148,,,,,,,,,,,,,,,,,,,,,,,,,,,,,,,,,,,,,,,,,,,,,,,,,,,,,,,,,,,,,,,,,,,,,,
1720078965,44,0,4099.487305,4385.128418,4342.563965,4410,4426.794922,4405,4420.384766,4486.282227,4395.769043,4356.282227,4332.820313,4604.358887,4333.589844,4326.666504,,,,,,,,,,,,,,,,,,,,,,,,,,,,,,,,,,,,,,,,,,,,,,,,,,,,,,,,,,,,,,,,,,,,,,
1720078965,45,0,4099.487305,4391.538574,4346.153809,4424.358887,4427.94873,4399.487305,4426.538574,4497.563965,4401.410156,4356.794922,4339.358887,4638.333496,4332.94873,4331.410156,,,,,,,,,,,,,,,,,,,,,,,,,,,,,,,,,,,,,,,,,,,,,,,,,,,,,,,,,,,,,,,,,,,,,,
1720078965,46,0,4089.871826,4374.230957,4333.205078,4397.436035,4440.128418,4421.025879,4430.256348,4504.230957,4409.102539,4360.128418,4330.512695,4631.922852,4328.077148,4318.717773,,,,,,,,,,,,,,,,,,,,,,,,,,,,,,,,,,,,,,,,,,,,,,,,,,,,,,,,,,,,,,,,,,,,,,
1720078965,47,0,4079.102539,4356.025879,4321.282227,4371.282227,4443.717773,4430,4425.897461,4495.641113,4409.102539,4364.102539,4316.794922,4606.282227,4319.743652,4305.512695,,,,,,,,,,,,,,,,,,,,,,,,,,,,,,,,,,,,,,,,,,,,,,,,,,,,,,,,,,,,,,,,,,,,,,
1720078965,48,0,4071.538574,4352.820313,4314.487305,4367.820313,4433.589844,4420.256348,4419.615234,4492.436035,4395.128418,4356.794922,4311.410156,4625,4307.179688,4300.769043,,,,,,,,,,,,,,,,,,,,,,,,,,,,,,,,,,,,,,,,,,,,,,,,,,,,,,,,,,,,,,,,,,,,,,
1720078965,49,0,4065.384521,4349.358887,4297.436035,4355.769043,4428.333496,4422.563965,4412.436035,4493.846191,4383.333496,4346.153809,4304.102539,4628.717773,4297.05127,4288.846191,,,,,,,,,,,,,,,,,,,,,,,,,,,,,,,,,,,,,,,,,,,,,,,,,,,,,,,,,,,,,,,,,,,,,,
1720078965,50,0,4058.589844,4341.794922,4281.410156,4338.717773,4429.487305,4423.717773,4411.666504,4491.282227,4378.717773,4344.230957,4291.666504,4605.256348,4292.307617,4276.410156,,,,,,,,,,,,,,,,,,,,,,,,,,,,,,,,,,,,,,,,,,,,,,,,,,,,,,,,,,,,,,,,,,,,,,
1720078965,51,0,4065.641113,4350.512695,4293.589844,4362.692383,4426.410156,4418.461426,4420.641113,4494.615234,4378.974121,4344.102539,4289.871582,4614.358887,4292.05127,4278.461426,,,,,,,,,,,,,,,,,,,,,,,,,,,,,,,,,,,,,,,,,,,,,,,,,,,,,,,,,,,,,,,,,,,,,,
1720078965,52,0,4093.076904,4372.436035,4322.307617,4405,4432.692383,4425.897461,4428.461426,4498.589844,4389.487305,4346.666504,4303.974121,4624.102539,4298.205078,4289.102539,,,,,,,,,,,,,,,,,,,,,,,,,,,,,,,,,,,,,,,,,,,,,,,,,,,,,,,,,,,,,,,,,,,,,,
1720078965,53,0,4104.358887,4376.282227,4329.487305,4395.128418,4440.769043,4427.94873,4427.179688,4493.846191,4393.205078,4347.563965,4310.256348,4613.077148,4298.077148,4292.436035,,,,,,,,,,,,,,,,,,,,,,,,,,,,,,,,,,,,,,,,,,,,,,,,,,,,,,,,,,,,,,,,,,,,,,
1720078965,54,0,4092.05127,4367.307617,4320.256348,4367.307617,4432.94873,4415,4422.563965,4490.897461,4381.538574,4348.077148,4306.153809,4617.94873,4294.358887,4295.128418,,,,,,,,,,,,,,,,,,,,,,,,,,,,,,,,,,,,,,,,,,,,,,,,,,,,,,,,,,,,,,,,,,,,,,
1720078965,55,0,4098.589844,4377.820313,4332.820313,4399.615234,4429.358887,4414.743652,4427.436035,4496.025879,4383.846191,4355.769043,4314.615234,4621.538574,4308.333496,4309.743652,,,,,,,,,,,,,,,,,,,,,,,,,,,,,,,,,,,,,,,,,,,,,,,,,,,,,,,,,,,,,,,,,,,,,,
1720078965,56,0,4113.333496,4384.743652,4349.743652,4421.153809,4431.410156,4413.461426,4427.692383,4503.205078,4398.333496,4361.922852,4326.282227,4621.025879,4319.743652,4317.307617,3.734285,8.680753,1.303067,0.653401,0.342797,1.036063,2.181296,0.761238,0.366248,0.530829,0.646977,7.294853,0.686026,0.64903,0.516914,0.692888,3.612577,1.534284,2.720712,2.15574,0.447566,0.54464,0.602075,0.453787,0.545031,0.228424,0.958227,0.759301,0.511666,0.369862,0.566381,0.825865,0.352254,0.412198,0.17506,0.403575,0.313325,0.131086,0.209915,0.230583,0.521879,1.748771,0.574382,0.576721,0.319888,1.014061,0.9274,0.260141,0.862794,0.546072,0.818952,2.981127,1.08511,0.565356,0.479077,0.168846,0.033474,0.025333,0.052523,0.83492,1.372674,2.915166,0.648417,0.643435,0.383412,1.156314,6.064874,0.760902,0.285031,0.325341
1720078965,57,0,4103.205078,4365.641113,4331.666504,4370.256348,4429.358887,4404.615234,4419.743652,4499.358887,4399.615234,4357.179688,4314.615234,4620.641113,4304.615234,4300.128418,,,,,,,,,,,,,,,,,,,,,,,,,,,,,,,,,,,,,,,,,,,,,,,,,,,,,,,,,,,,,,,,,,,,,,
1720078965,58,0,4085.641113,4351.922852,4308.589844,4343.846191,4431.922852,4415.512695,4421.410156,4492.563965,4399.615234,4356.282227,4293.974121,4618.461426,4289.615234,4283.589844,,,,,,,,,,,,,,,,,,,,,,,,,,,,,,,,,,,,,,,,,,,,,,,,,,,,,,,,,,,,,,,,,,,,,,
1720078965,59,0,4076.025635,4353.974121,4309.487305,4373.077148,4433.717773,4428.717773,4427.179688,4493.589844,4403.205078,4356.794922,4292.05127,4617.692383,4293.717773,4282.05127,,,,,,,,,,,,,,,,,,,,,,,,,,,,,,,,,,,,,,,,,,,,,,,,,,,,,,,,,,,,,,,,,,,,,,
1720078965,60,0,4068.461426,4348.974121,4310,4372.563965,4426.922852,4428.846191,4426.922852,4492.692383,4397.179688,4343.846191,4298.461426,4618.717773,4292.563965,4279.743652,,,,,,,,,,,,,,,,,,,,,,,,,,,,,,,,,,,,,,,,,,,,,,,,,,,,,,,,,,,,,,,,,,,,,,
1720078965,61,0,4064.230713,4343.717773,4298.717773,4364.487305,4426.153809,4429.230957,4429.487305,4491.282227,4396.922852,4345.128418,4297.05127,4615.256348,4284.230957,4274.871582,,,,,,,,,,,,,,,,,,,,,,,,,,,,,,,,,,,,,,,,,,,,,,,,,,,,,,,,,,,,,,,,,,,,,,
1720078965,62,0,4053.076904,4342.820313,4284.743652,4371.794922,4428.077148,4428.846191,4426.153809,4488.461426,4399.230957,4353.205078,4283.077148,4610.769043,4279.358887,4260.384766,,,,,,,,,,,,,,,,,,,,,,,,,,,,,,,,,,,,,,,,,,,,,,,,,,,,,,,,,,,,,,,,,,,,,,
1720078965,63,0,4042.05127,4337.179688,4271.282227,4348.717773,4425.128418,4427.05127,4413.589844,4482.179688,4388.846191,4342.307617,4273.461426,4616.025879,4274.743652,4241.794922,,,,,,,,,,,,,,,,,,,,,,,,,,,,,,,,,,,,,,,,,,,,,,,,,,,,,,,,,,,,,,,,,,,,,,
1720078965,64,0,4057.692383,4337.179688,4277.436035,4336.153809,4427.94873,4429.871582,4417.692383,4484.871582,4383.077148,4335.128418,4278.205078,4617.94873,4275.897461,4246.025879,,,,,,,,,,,,,,,,,,,,,,,,,,,,,,,,,,,,,,,,,,,,,,,,,,,,,,,,,,,,,,,,,,,,,,
1720078965,65,0,4084.358887,4344.487305,4299.743652,4357.307617,4428.589844,4430.897461,4430.256348,4492.820313,4388.846191,4341.410156,4287.692383,4616.153809,4281.410156,4268.077148,,,,,,,,,,,,,,,,,,,,,,,,,,,,,,,,,,,,,,,,,,,,,,,,,,,,,,,,,,,,,,,,,,,,,,
1720078965,66,0,4095,4354.615234,4311.666504,4371.410156,4424.871582,4425.384766,4429.102539,4493.846191,4385.641113,4343.974121,4305.512695,4618.717773,4286.794922,4281.794922,,,,,,,,,,,,,,,,,,,,,,,,,,,,,,,,,,,,,,,,,,,,,,,,,,,,,,,,,,,,,,,,,,,,,,
1720078965,67,0,4101.794922,4370.512695,4319.487305,4385.512695,4432.563965,4416.410156,4431.794922,4497.94873,4383.846191,4349.358887,4324.871582,4619.487305,4301.153809,4288.205078,,,,,,,,,,,,,,,,,,,,,,,,,,,,,,,,,,,,,,,,,,,,,,,,,,,,,,,,,,,,,,,,,,,,,,
1720078965,68,0,4103.846191,4375.256348,4324.743652,4387.307617,4432.307617,4407.820313,4433.974121,4500.128418,4399.871582,4360.641113,4317.94873,4616.153809,4310.512695,4289.743652,,,,,,,,,,,,,,,,,,,,,,,,,,,,,,,,,,,,,,,,,,,,,,,,,,,,,,,,,,,,,,,,,,,,,,
1720078965,69,0,4091.281982,4363.974121,4316.794922,4365.769043,4420.256348,4407.436035,4419.102539,4491.153809,4411.153809,4358.077148,4295.128418,4620.128418,4300.769043,4281.538574,,,,,,,,,,,,,,,,,,,,,,,,,,,,,,,,,,,,,,,,,,,,,,,,,,,,,,,,,,,,,,,,,,,,,,
1720078965,70,0,4081.666748,4354.615234,4311.153809,4362.307617,4423.333496,4414.615234,4413.846191,4490.128418,4409.615234,4354.358887,4294.487305,4628.461426,4296.153809,4281.666504,,,,,,,,,,,,,,,,,,,,,,,,,,,,,,,,,,,,,,,,,,,,,,,,,,,,,,,,,,,,,,,,,,,,,,
1720078966,71,0,4074.871826,4348.205078,4311.666504,4366.794922,4431.025879,4423.717773,4424.615234,4496.282227,4404.871582,4358.461426,4302.692383,4615.128418,4303.205078,4285.128418,,,,,,,,,,,,,,,,,,,,,,,,,,,,,,,,,,,,,,,,,,,,,,,,,,,,,,,,,,,,,,,,,,,,,,
1720078966,72,0,4059.487061,4341.410156,4300.384766,4345.384766,4428.974121,4435.384766,4427.820313,4489.743652,4401.538574,4351.410156,4302.179688,4603.333496,4301.922852,4273.333496,3.409906,8.547031,1.159817,0.712103,0.356577,0.876559,2.832935,0.76359,0.43309,0.559449,0.652894,8.185024,0.746395,0.610664,0.54861,0.747523,4.572845,1.469297,2.891097,2.255847,0.419125,0.533305,0.652348,0.465551,0.592482,0.207703,1.090589,0.800896,0.473262,0.341996,0.651642,0.857078,0.479774,0.369286,0.170046,0.471706,0.361789,0.151565,0.184253,0.228032,0.558841,1.843556,0.483851,0.5654,0.29965,0.806551,1.069717,0.26978,0.814459,0.509935,0.832592,3.155221,1.146543,0.524386,0.468837,0.180435,0.031629,0.028576,0.050615,0.850697,1.3333,2.997247,0.615224,0.678351,0.353574,1.200017,5.909087,0.718724,0.287674,0.325675
1720078966,73,0,4050.512939,4344.230957,4290,4345,4427.179688,4445.128418,4426.025879,4483.333496,4401.922852,4337.820313,4295.384766,4619.358887,4292.436035,4262.692383,,,,,,,,,,,,,,,,,,,,,,,,,,,,,,,,,,,,,,,,,,,,,,,,,,,,,,,,,,,,,,,,,,,,,,
1720078966,74,0,4052.307617,4347.179688,4293.589844,4375.128418,4424.230957,4441.666504,4427.179688,4488.717773,4397.436035,4333.077148,4282.692383,4628.333496,4282.436035,4259.615234,,,,,,,,,,,,,,,,,,,,,,,,,,,,,,,,,,,,,,,,,,,,,,,,,,,,,,,,,,,,,,,,,,,,,,
1720078966,75,0,4047.307617,4339.358887,4294.102539,4377.563965,4419.487305,4428.589844,4425.256348,4486.794922,4387.563965,4334.743652,4281.922852,4616.538574,4276.794922,4254.230957,,,,,,,,,,,,,,,,,,,,,,,,,,,,,,,,,,,,,,,,,,,,,,,,,,,,,,,,,,,,,,,,,,,,,,
1720078966,76,0,4044.230713,4340.641113,4293.333496,4355,4425,4425.256348,4425.384766,4481.666504,4387.179688,4339.615234,4292.94873,4613.333496,4288.205078,4257.692383,,,,,,,,,,,,,,,,,,,,,,,,,,,,,,,,,,,,,,,,,,,,,,,,,,,,,,,,,,,,,,,,,,,,,,
1720078966,77,0,4046.281982,4343.846191,4295.128418,4336.666504,4427.307617,4429.358887,4427.05127,4483.461426,4393.205078,4343.717773,4287.436035,4614.743652,4297.563965,4266.794922,,,,,,,,,,,,,,,,,,,,,,,,,,,,,,,,,,,,,,,,,,,,,,,,,,,,,,,,,,,,,,,,,,,,,,
1720078966,78,0,4045.512939,4340.512695,4300.897461,4342.307617,4422.563965,4430.256348,4424.358887,4481.282227,4385.512695,4340.256348,4277.820313,4612.820313,4289.487305,4267.179688,,,,,,,,,,,,,,,,,,,,,,,,,,,,,,,,,,,,,,,,,,,,,,,,,,,,,,,,,,,,,,,,,,,,,,
1720078966,79,0,4059.743652,4356.922852,4319.487305,4369.615234,4433.717773,4425.256348,4429.358887,4482.563965,4386.025879,4341.153809,4296.922852,4618.589844,4294.102539,4277.563965,,,,,,,,,,,,,,,,,,,,,,,,,,,,,,,,,,,,,,,,,,,,,,,,,,,,,,,,,,,,,,,,,,,,,,
1720078966,80,0,4077.564209,4371.153809,4331.153809,4385.256348,4437.179688,4413.717773,4428.974121,4486.153809,4396.666504,4352.94873,4315,4619.102539,4307.179688,4292.179688,,,,,,,,,,,,,,,,,,,,,,,,,,,,,,,,,,,,,,,,,,,,,,,,,,,,,,,,,,,,,,,,,,,,,,
1720078966,81,0,4075.897461,4360.512695,4323.333496,4389.102539,4418.717773,4412.692383,4414.871582,4484.871582,4395.641113,4356.153809,4314.358887,4619.230957,4308.077148,4294.102539,,,,,,,,,,,,,,,,,,,,,,,,,,,,,,,,,,,,,,,,,,,,,,,,,,,,,,,,,,,,,,,,,,,,,,
1720078966,82,0,4074.615479,4353.205078,4318.077148,4381.410156,4409.615234,4425.256348,4414.743652,4484.615234,4402.179688,4351.282227,4309.743652,4624.102539,4308.974121,4292.692383,,,,,,,,,,,,,,,,,,,,,,,,,,,,,,,,,,,,,,,,,,,,,,,,,,,,,,,,,,,,,,,,,,,,,,
1720078966,83,0,4082.94873,4359.487305,4322.05127,4363.333496,4421.794922,4432.820313,4428.589844,4485.641113,4417.94873,4353.205078,4302.05127,4619.230957,4311.794922,4289.358887,,,,,,,,,,,,,,,,,,,,,,,,,,,,,,,,,,,,,,,,,,,,,,,,,,,,,,,,,,,,,,,,,,,,,,
1720078966,84,0,4082.564209,4358.461426,4319.358887,4355.641113,4431.538574,4439.358887,4430.897461,4485.641113,4419.487305,4357.820313,4302.563965,4616.282227,4309.871582,4285.897461,,,,,,,,,,,,,,,,,,,,,,,,,,,,,,,,,,,,,,,,,,,,,,,,,,,,,,,,,,,,,,,,,,,,,,
1720078966,85,0,4075.256348,4355,4312.563965,4361.025879,4428.974121,4447.94873,4427.436035,4483.717773,4410.897461,4361.666504,4307.179688,4617.94873,4312.307617,4286.410156,,,,,,,,,,,,,,,,,,,,,,,,,,,,,,,,,,,,,,,,,,,,,,,,,,,,,,,,,,,,,,,,,,,,,,
1720078966,86,0,4073.846191,4354.487305,4311.025879,4371.922852,4427.820313,4438.974121,4429.230957,4483.205078,4402.179688,4359.358887,4299.230957,4615.897461,4311.153809,4284.871582,,,,,,,,,,,,,,,,,,,,,,,,,,,,,,,,,,,,,,,,,,,,,,,,,,,,,,,,,,,,,,,,,,,,,,
1720078966,87,0,4073.718018,4344.102539,4306.666504,4371.025879,4423.461426,4425.641113,4425.769043,4480.384766,4387.563965,4344.487305,4288.205078,4612.436035,4296.282227,4277.05127,,,,,,,,,,,,,,,,,,,,,,,,,,,,,,,,,,,,,,,,,,,,,,,,,,,,,,,,,,,,,,,,,,,,,,
1720078966,88,0,4078.846191,4344.358887,4305.384766,4358.333496,4421.282227,4431.794922,4424.230957,4478.974121,4384.871582,4341.794922,4293.589844,4613.589844,4296.025879,4277.179688,3.060147,8.505514,1.086238,0.790458,0.374279,0.727842,3.709621,0.805696,0.516487,0.578787,0.709659,9.198245,0.861122,0.601269,0.574974,0.771119,5.657656,1.485343,2.921947,2.371652,0.390609,0.510593,0.677336,0.454029,0.610193,0.223734,1.321189,0.792585,0.42958,0.332539,0.762327,0.894991,0.595252,0.343922,0.170249,0.540422,0.433119,0.180144,0.164722,0.225547,0.659317,1.899665,0.414898,0.555782,0.281742,0.705458,1.255716,0.33572,0.73269,0.464366,1.004916,3.549228,1.270263,0.536617,0.447119,0.196452,0.039319,0.039428,0.049625,0.84617,1.451341,3.22327,0.65288,0.708666,0.333752,1.296613,5.800244,0.716551,0.312358,0.323555
1720078966,89,0,4086.025635,4355.897461,4312.436035,4355,4425,4426.666504,4427.436035,4484.871582,4398.077148,4357.692383,4304.871582,4617.436035,4309.871582,4283.846191,,,,,,,,,,,,,,,,,,,,,,,,,,,,,,,,,,,,,,,,,,,,,,,,,,,,,,,,,,,,,,,,,,,,,,
1720078966,90,0,4083.589844,4354.743652,4317.692383,4368.717773,4422.94873,4412.563965,4419.615234,4485.384766,4391.282227,4363.974121,4308.974121,4614.743652,4307.563965,4284.615234,,,,,,,,,,,,,,,,,,,,,,,,,,,,,,,,,,,,,,,,,,,,,,,,,,,,,,,,,,,,,,,,,,,,,,
1720078966,91,0,4073.974365,4339.230957,4311.538574,4361.666504,4411.410156,4419.358887,4408.077148,4476.153809,4375.128418,4352.692383,4306.153809,4612.307617,4295.897461,4282.692383,,,,,,,,,,,,,,,,,,,,,,,,,,,,,,,,,,,,,,,,,,,,,,,,,,,,,,,,,,,,,,,,,,,,,,
1720078966,92,0,4076.153809,4338.461426,4312.307617,4351.922852,4416.922852,4426.922852,4414.358887,4477.94873,4388.589844,4352.692383,4308.077148,4616.538574,4302.05127,4287.436035,,,,,,,,,,,,,,,,,,,,,,,,,,,,,,,,,,,,,,,,,,,,,,,,,,,,,,,,,,,,,,,,,,,,,,
1720078966,93,0,4089.743652,4359.358887,4330.384766,4377.436035,4433.589844,4421.922852,4427.05127,4487.820313,4415.256348,4372.179688,4323.846191,4617.05127,4318.077148,4300,,,,,,,,,,,,,,,,,,,,,,,,,,,,,,,,,,,,,,,,,,,,,,,,,,,,,,,,,,,,,,,,,,,,,,
1720078966,94,0,4094.230713,4363.974121,4331.410156,4379.615234,4423.846191,4417.563965,4420.641113,4483.589844,4415.512695,4377.563965,4324.102539,4615.897461,4312.05127,4301.666504,,,,,,,,,,,,,,,,,,,,,,,,,,,,,,,,,,,,,,,,,,,,,,,,,,,,,,,,,,,,,,,,,,,,,,
1720078966,95,0,4090.384521,4346.666504,4313.461426,4348.077148,4412.307617,4420.256348,4409.743652,4477.820313,4406.922852,4366.922852,4309.487305,4621.794922,4298.589844,4293.717773,,,,,,,,,,,,,,,,,,,,,,,,,,,,,,,,,,,,,,,,,,,,,,,,,,,,,,,,,,,,,,,,,,,,,,
1720078966,96,0,4092.435791,4339.358887,4310.128418,4348.461426,4424.487305,4425,4413.974121,4481.282227,4416.538574,4367.307617,4311.153809,4618.974121,4305.769043,4293.333496,,,,,,,,,,,,,,,,,,,,,,,,,,,,,,,,,,,,,,,,,,,,,,,,,,,,,,,,,,,,,,,,,,,,,,
1720078966,97,0,4087.820557,4343.461426,4307.692383,4360.512695,4431.282227,4430.256348,4412.563965,4476.410156,4413.205078,4366.922852,4312.436035,4603.974121,4304.358887,4283.461426,,,,,,,,,,,,,,,,,,,,,,,,,,,,,,,,,,,,,,,,,,,,,,,,,,,,,,,,,,,,,,,,,,,,,,
1720078966,98,0,4071.281982,4335.128418,4291.538574,4344.743652,4418.205078,4433.717773,4403.333496,4468.461426,4388.846191,4349.358887,4293.077148,4612.436035,4280.897461,4261.666504,,,,,,,,,,,,,,,,,,,,,,,,,,,,,,,,,,,,,,,,,,,,,,,,,,,,,,,,,,,,,,,,,,,,,,
1720078966,99,0,4068.205078,4330.384766,4293.974121,4341.794922,4414.358887,4433.461426,4412.94873,4473.333496,4385,4345.641113,4284.743652,4621.153809,4278.077148,4258.461426,,,,,,,,,,,,,,,,,,,,,,,,,,,,,,,,,,,,,,,,,,,,,,,,,,,,,,,,,,,,,,,,,,,,,,
1720078966,100,0,4081.410156,4342.179688,4309.871582,4361.666504,4420.384766,4437.692383,4430.128418,4484.487305,4400.128418,4361.538574,4297.05127,4613.077148,4297.179688,4272.179688,,,,,,,,,,,,,,,,,,,,,,,,,,,,,,,,,,,,,,,,,,,,,,,,,,,,,,,,,,,,,,,,,,,,,,
1720078966,101,0,4084.871826,4342.05127,4305.769043,4351.922852,4415.769043,4442.179688,4429.358887,4484.358887,4395.128418,4365.256348,4296.666504,4621.025879,4297.563965,4275.256348,,,,,,,,,,,,,,,,,,,,,,,,,,,,,,,,,,,,,,,,,,,,,,,,,,,,,,,,,,,,,,,,,,,,,,
1720078966,102,0,4085.769287,4340.256348,4307.179688,4350.384766,4416.794922,4433.205078,4422.05127,4472.436035,4381.538574,4358.846191,4293.461426,4618.077148,4291.666504,4275,,,,,,,,,,,,,,,,,,,,,,,,,,,,,,,,,,,,,,,,,,,,,,,,,,,,,,,,,,,,,,,,,,,,,,
1720078966,103,0,4100,4355.512695,4325.641113,4383.205078,4429.102539,4411.282227,4418.205078,4465,4386.666504,4354.743652,4297.692383,4598.717773,4297.563965,4279.358887,,,,,,,,,,,,,,,,,,,,,,,,,,,,,,,,,,,,,,,,,,,,,,,,,,,,,,,,,,,,,,,,,,,,,,
1720078966,104,0,4110,4361.153809,4330.641113,4382.307617,4426.153809,4403.077148,4412.179688,4473.205078,4394.487305,4358.846191,4299.102539,4611.666504,4298.333496,4283.461426,2.767411,8.930785,1.072682,0.845135,0.393565,0.556857,4.796014,0.868525,0.599208,0.586348,0.692332,10.532386,1.005127,0.621032,0.593417,0.732516,6.807855,1.566681,2.838014,2.484641,0.352095,0.467713,0.659043,0.421646,0.589495,0.264165,1.675457,0.737623,0.390105,0.338216,0.874956,0.953667,0.667188,0.350737,0.17451,0.620324,0.522241,0.216119,0.151482,0.22581,0.794408,1.973642,0.396377,0.553522,0.268995,0.690761,1.495167,0.437271,0.626629,0.419518,1.217517,4.288459,1.418982,0.581868,0.417516,0.209752,0.055053,0.056718,0.051036,0.823839,1.614355,3.726355,0.758357,0.716613,0.322114,1.384434,6.162187,0.768379,0.351427,0.320005
1720078966,105,0,4104.743652,4347.820313,4325,4352.307617,4410.641113,4410.512695,4414.230957,4485.128418,4398.974121,4365.897461,4307.563965,4630,4296.410156,4287.05127,,,,,,,,,,,,,,,,,,,,,,,,,,,,,,,,,,,,,,,,,,,,,,,,,,,,,,,,,,,,,,,,,,,,,,
1720078966,106,0,4098.974121,4343.717773,4322.820313,4362.436035,4415.128418,4416.666504,4424.615234,4485.256348,4409.615234,4362.692383,4310.512695,4611.153809,4296.025879,4280.769043,,,,,,,,,,,,,,,,,,,,,,,,,,,,,,,,,,,,,,,,,,,,,,,,,,,,,,,,,,,,,,,,,,,,,,
1720078966,107,0,4093.076904,4341.922852,4317.179688,4369.358887,4424.487305,4429.230957,4427.436035,4483.333496,4412.94873,4355.897461,4297.05127,4605.512695,4292.307617,4271.538574,,,,,,,,,,,,,,,,,,,,,,,,,,,,,,,,,,,,,,,,,,,,,,,,,,,,,,,,,,,,,,,,,,,,,,
1720078966,108,0,4086.794922,4332.94873,4309.871582,4339.871582,4417.179688,4440.256348,4427.179688,4483.461426,4405.256348,4359.102539,4294.871582,4618.333496,4293.077148,4273.589844,,,,,,,,,,,,,,,,,,,,,,,,,,,,,,,,,,,,,,,,,,,,,,,,,,,,,,,,,,,,,,,,,,,,,,
1720078966,109,0,4088.718018,4334.230957,4310.256348,4351.666504,4415.256348,4432.436035,4426.282227,4479.358887,4402.436035,4361.922852,4307.05127,4617.436035,4299.230957,4280.128418,,,,,,,,,,,,,,,,,,,,,,,,,,,,,,,,,,,,,,,,,,,,,,,,,,,,,,,,,,,,,,,,,,,,,,
1720078966,110,0,4092.692383,4336.794922,4310.128418,4380.128418,4418.333496,4426.794922,4421.538574,4473.846191,4397.692383,4352.436035,4295.897461,4618.589844,4292.436035,4273.974121,,,,,,,,,,,,,,,,,,,,,,,,,,,,,,,,,,,,,,,,,,,,,,,,,,,,,,,,,,,,,,,,,,,,,,
1720078966,111,0,4091.153809,4340.128418,4309.358887,4360.128418,4421.025879,4435.128418,4421.025879,4467.179688,4385.641113,4352.05127,4279.230957,4612.563965,4284.743652,4263.589844,,,,,,,,,,,,,,,,,,,,,,,,,,,,,,,,,,,,,,,,,,,,,,,,,,,,,,,,,,,,,,,,,,,,,,
1720078966,112,0,4090.256348,4343.077148,4309.102539,4346.666504,4423.589844,4429.102539,4422.692383,4466.794922,4378.589844,4355.897461,4288.846191,4611.666504,4292.94873,4266.538574,,,,,,,,,,,,,,,,,,,,,,,,,,,,,,,,,,,,,,,,,,,,,,,,,,,,,,,,,,,,,,,,,,,,,,
1720078966,113,0,4084.615479,4323.333496,4297.307617,4351.153809,4411.538574,4421.538574,4414.871582,4469.743652,4380,4344.487305,4297.179688,4615.641113,4298.205078,4271.538574,,,,,,,,,,,,,,,,,,,,,,,,,,,,,,,,,,,,,,,,,,,,,,,,,,,,,,,,,,,,,,,,,,,,,,
1720078966,114,0,4085.512939,4312.179688,4296.666504,4337.307617,4403.717773,4423.077148,4415.641113,4469.230957,4387.307617,4343.717773,4297.692383,4609.487305,4300.384766,4276.025879,,,,,,,,,,,,,,,,,,,,,,,,,,,,,,,,,,,,,,,,,,,,,,,,,,,,,,,,,,,,,,,,,,,,,,
1720078966,115,0,4105.256348,4335.897461,4321.153809,4348.333496,4419.615234,4411.922852,4428.205078,4476.153809,4399.871582,4367.94873,4305,4610.256348,4308.589844,4284.615234,,,,,,,,,,,,,,,,,,,,,,,,,,,,,,,,,,,,,,,,,,,,,,,,,,,,,,,,,,,,,,,,,,,,,,
1720078966,116,0,4118.589844,4352.436035,4334.871582,4388.205078,4427.436035,4401.538574,4431.025879,4486.794922,4411.410156,4379.230957,4313.717773,4617.05127,4314.871582,4289.102539,,,,,,,,,,,,,,,,,,,,,,,,,,,,,,,,,,,,,,,,,,,,,,,,,,,,,,,,,,,,,,,,,,,,,,
1720078966,117,0,4110.512695,4341.282227,4325.384766,4386.410156,4411.410156,4409.358887,4427.05127,4486.282227,4413.333496,4372.436035,4316.794922,4617.179688,4313.717773,4288.717773,,,,,,,,,,,,,,,,,,,,,,,,,,,,,,,,,,,,,,,,,,,,,,,,,,,,,,,,,,,,,,,,,,,,,,
1720078966,118,0,4101.922852,4331.153809,4315.769043,4359.487305,4410.128418,4419.871582,4427.820313,4480.512695,4404.358887,4375,4307.179688,4611.922852,4304.743652,4284.615234,,,,,,,,,,,,,,,,,,,,,,,,,,,,,,,,,,,,,,,,,,,,,,,,,,,,,,,,,,,,,,,,,,,,,,
1720078966,119,0,4103.333496,4330.512695,4316.666504,4357.692383,4428.974121,4424.230957,4429.871582,4478.974121,4401.538574,4370.512695,4294.102539,4610,4295.641113,4273.205078,,,,,,,,,,,,,,,,,,,,,,,,,,,,,,,,,,,,,,,,,,,,,,,,,,,,,,,,,,,,,,,,,,,,,,
1720078966,120,0,4098.589844,4326.794922,4311.922852,4356.153809,4428.974121,4430,4430.512695,4480.769043,4408.589844,4352.179688,4291.153809,4611.282227,4293.461426,4261.153809,2.578604,9.983259,1.081418,0.852435,0.412708,0.468311,5.965011,0.911646,0.668223,0.581694,0.662325,12.162857,1.119132,0.659292,0.602562,0.63512,7.87746,1.653932,2.741584,2.571481,0.304694,0.400627,0.59487,0.380753,0.535744,0.316348,2.141897,0.65476,0.365839,0.347388,0.95751,1.033622,0.679298,0.393837,0.181139,0.635638,0.613563,0.255023,0.143681,0.228965,0.907494,2.126435,0.435526,0.563206,0.263336,0.688472,1.777631,0.535026,0.512807,0.381972,1.419952,5.322448,1.518324,0.638236,0.390785,0.207764,0.076352,0.076543,0.056653,0.789088,1.782565,4.492968,0.890373,0.693549,0.316096,1.443125,7.177883,0.844897,0.398161,0.31673
1720078966,121,0,4091.666748,4319.358887,4301.025879,4336.153809,4412.05127,4428.333496,4428.077148,4478.846191,4403.333496,4342.05127,4287.692383,4612.563965,4286.282227,4257.307617,,,,,,,,,,,,,,,,,,,,,,,,,,,,,,,,,,,,,,,,,,,,,,,,,,,,,,,,,,,,,,,,,,,,,,
1720078966,122,0,4098.846191,4322.436035,4304.487305,4345,4414.358887,4426.666504,4423.974121,4471.282227,4390.641113,4345,4276.666504,4604.358887,4275.641113,4254.743652,,,,,,,,,,,,,,,,,,,,,,,,,,,,,,,,,,,,,,,,,,,,,,,,,,,,,,,,,,,,,,,,,,,,,,
1720078966,123,0,4114.871582,4337.820313,4322.436035,4375,4429.230957,4433.717773,4427.05127,4471.153809,4392.820313,4353.205078,4278.717773,4607.05127,4286.282227,4261.666504,,,,,,,,,,,,,,,,,,,,,,,,,,,,,,,,,,,,,,,,,,,,,,,,,,,,,,,,,,,,,,,,,,,,,,
1720078966,124,0,4121.794922,4342.563965,4329.615234,4371.538574,4426.025879,4427.436035,4427.563965,4481.025879,4393.589844,4352.05127,4293.205078,4628.205078,4300.384766,4273.077148,,,,,,,,,,,,,,,,,,,,,,,,,,,,,,,,,,,,,,,,,,,,,,,,,,,,,,,,,,,,,,,,,,,,,,
1720078966,125,0,4117.563965,4334.487305,4318.461426,4350.641113,4413.846191,4414.743652,4415.769043,4470.897461,4380.384766,4338.846191,4293.589844,4601.025879,4294.102539,4261.410156,,,,,,,,,,,,,,,,,,,,,,,,,,,,,,,,,,,,,,,,,,,,,,,,,,,,,,,,,,,,,,,,,,,,,,
1720078966,126,0,4119.743652,4337.179688,4319.358887,4357.692383,4416.153809,4408.589844,4415.769043,4466.025879,4380.128418,4340.512695,4291.282227,4592.436035,4292.179688,4254.615234,,,,,,,,,,,,,,,,,,,,,,,,,,,,,,,,,,,,,,,,,,,,,,,,,,,,,,,,,,,,,,,,,,,,,,
1720078966,127,0,4125.256348,4345.384766,4332.05127,4385.641113,4417.94873,4408.077148,4427.563965,4485.512695,4395.384766,4358.461426,4296.666504,4628.461426,4300.128418,4272.94873,,,,,,,,,,,,,,,,,,,,,,,,,,,,,,,,,,,,,,,,,,,,,,,,,,,,,,,,,,,,,,,,,,,,,,
1720078966,0,0,4124.615234,4344.615234,4328.077148,4384.102539,4412.692383,4409.743652,4426.025879,4485,4402.820313,4361.153809,4302.94873,4612.563965,4299.102539,4275.128418,,,,,,,,,,,,,,,,,,,,,,,,,,,,,,,,,,,,,,,,,,,,,,,,,,,,,,,,,,,,,,,,,,,,,,
1720078966,1,0,4128.077148,4347.94873,4325.769043,4363.974121,4418.205078,4411.538574,4422.94873,4478.205078,4412.692383,4360.897461,4312.05127,4602.307617,4301.794922,4268.717773,,,,,,,,,,,,,,,,,,,,,,,,,,,,,,,,,,,,,,,,,,,,,,,,,,,,,,,,,,,,,,,,,,,,,,
1720078966,2,0,4136.410156,4350.512695,4332.94873,4367.307617,4427.820313,4412.05127,4428.717773,4482.307617,4416.153809,4365.641113,4310.897461,4621.666504,4307.94873,4275.897461,,,,,,,,,,,,,,,,,,,,,,,,,,,,,,,,,,,,,,,,,,,,,,,,,,,,,,,,,,,,,,,,,,,,,,
1720078966,3,0,4129.743652,4333.589844,4322.307617,4367.436035,4417.307617,4412.692383,4422.179688,4472.563965,4389.743652,4361.410156,4297.563965,4607.820313,4299.871582,4271.410156,,,,,,,,,,,,,,,,,,,,,,,,,,,,,,,,,,,,,,,,,,,,,,,,,,,,,,,,,,,,,,,,,,,,,,
1720078966,4,0,4115.128418,4322.820313,4302.820313,4352.563965,4404.230957,4415.897461,4410.384766,4460.256348,4373.589844,4358.461426,4285.512695,4599.743652,4286.794922,4256.282227,,,,,,,,,,,,,,,,,,,,,,,,,,,,,,,,,,,,,,,,,,,,,,,,,,,,,,,,,,,,,,,,,,,,,,
1720078966,5,0,4119.487305,4340.641113,4307.94873,4355.256348,4420.641113,4415.641113,4418.589844,4467.307617,4392.307617,4358.846191,4282.94873,4624.615234,4281.282227,4255.897461,,,,,,,,,,,,,,,,,,,,,,,,,,,,,,,,,,,,,,,,,,,,,,,,,,,,,,,,,,,,,,,,,,,,,,
1720078966,6,0,4127.179688,4350.256348,4316.538574,4364.871582,4432.692383,4417.94873,4426.666504,4468.461426,4401.538574,4352.436035,4282.307617,4611.666504,4282.179688,4254.871582,,,,,,,,,,,,,,,,,,,,,,,,,,,,,,,,,,,,,,,,,,,,,,,,,,,,,,,,,,,,,,,,,,,,,,
1720078966,7,0,4122.307617,4335.128418,4310.128418,4358.846191,4416.922852,4420.384766,4419.487305,4459.102539,4385.512695,4347.820313,4276.922852,4600.641113,4284.358887,4251.153809,,,,,,,,,,,,,,,,,,,,,,,,,,,,,,,,,,,,,,,,,,,,,,,,,,,,,,,,,,,,,,,,,,,,,,
1720078966,8,0,4118.461426,4326.410156,4309.102539,4348.717773,4407.563965,4414.102539,4413.077148,4459.487305,4378.461426,4353.333496,4276.794922,4623.333496,4283.974121,4257.179688,2.706076,11.460137,1.070918,0.813912,0.428435,0.390753,6.994116,0.914343,0.717639,0.566131,0.567647,13.782415,1.153419,0.700707,0.601675,0.500136,8.65904,1.692039,2.734449,2.599404,0.244633,0.316497,0.505828,0.347188,0.467044,0.355025,2.670502,0.563876,0.367866,0.347252,0.974423,1.112515,0.638153,0.464569,0.188664,0.611218,0.680385,0.286912,0.14182,0.232566,0.95134,2.424686,0.514568,0.585265,0.266132,0.652911,2.069689,0.588664,0.411032,0.354213,1.525421,6.41403,1.503037,0.688123,0.378899,0.188673,0.100276,0.094074,0.067819,0.747764,1.836954,5.331056,0.993711,0.642451,0.315673,1.383267,8.650798,0.897091,0.446223,0.314459
1720078966,9,0,4123.077148,4330.512695,4309.102539,4337.692383,4410.641113,4407.179688,4411.666504,4459.615234,4388.846191,4361.282227,4285.512695,4612.820313,4284.358887,4259.615234,,,,,,,,,,,,,,,,,,,,,,,,,,,,,,,,,,,,,,,,,,,,,,,,,,,,,,,,,,,,,,,,,,,,,,
1720078966,10,0,4136.153809,4340.384766,4313.461426,4352.563965,4414.230957,4409.358887,4416.794922,4463.205078,4400.769043,4377.820313,4297.307617,4612.05127,4293.589844,4264.743652,,,,,,,,,,,,,,,,,,,,,,,,,,,,,,,,,,,,,,,,,,,,,,,,,,,,,,,,,,,,,,,,,,,,,,
1720078966,11,0,4141.922852,4346.922852,4319.487305,4386.410156,4414.871582,4411.922852,4423.717773,4467.563965,4408.333496,4386.922852,4300,4618.846191,4299.358887,4268.461426,,,,,,,,,,,,,,,,,,,,,,,,,,,,,,,,,,,,,,,,,,,,,,,,,,,,,,,,,,,,,,,,,,,,,,
1720078966,12,0,4135.128418,4340.641113,4312.692383,4378.974121,4411.794922,4403.077148,4420.512695,4462.94873,4407.692383,4375.641113,4294.743652,4611.153809,4294.102539,4263.846191,,,,,,,,,,,,,,,,,,,,,,,,,,,,,,,,,,,,,,,,,,,,,,,,,,,,,,,,,,,,,,,,,,,,,,
1720078966,13,0,4135.512695,4338.077148,4307.692383,4363.717773,4409.230957,4401.153809,4417.179688,4458.846191,4405.897461,4370.128418,4288.974121,4611.922852,4290.512695,4262.94873,,,,,,,,,,,,,,,,,,,,,,,,,,,,,,,,,,,,,,,,,,,,,,,,,,,,,,,,,,,,,,,,,,,,,,
1720078966,14,0,4144.615234,4342.94873,4315.128418,4379.102539,4415.897461,4415.897461,4426.666504,4458.077148,4404.230957,4381.794922,4287.94873,4610.897461,4293.461426,4262.179688,,,,,,,,,,,,,,,,,,,,,,,,,,,,,,,,,,,,,,,,,,,,,,,,,,,,,,,,,,,,,,,,,,,,,,
1720078966,15,0,4142.436035,4335.256348,4312.692383,4366.922852,4418.461426,4422.692383,4431.538574,4456.538574,4397.692383,4383.717773,4289.743652,4610.897461,4292.563965,4255.897461,,,,,,,,,,,,,,,,,,,,,,,,,,,,,,,,,,,,,,,,,,,,,,,,,,,,,,,,,,,,,,,,,,,,,,
1720078966,16,0,4135.512695,4325.384766,4295.897461,4336.282227,4410.384766,4412.563965,4421.410156,4452.563965,4392.820313,4365.128418,4281.794922,4609.230957,4281.282227,4250.641113,,,,,,,,,,,,,,,,,,,,,,,,,,,,,,,,,,,,,,,,,,,,,,,,,,,,,,,,,,,,,,,,,,,,,,
1720078966,17,0,4143.717773,4331.666504,4293.589844,4350.128418,4410.128418,4413.589844,4418.077148,4451.282227,4395.384766,4353.717773,4275.769043,4610.256348,4279.871582,4254.230957,,,,,,,,,,,,,,,,,,,,,,,,,,,,,,,,,,,,,,,,,,,,,,,,,,,,,,,,,,,,,,,,,,,,,,
1720078966,18,0,4155.256348,4341.922852,4307.436035,4378.589844,4415.384766,4421.666504,4421.666504,4450.769043,4396.282227,4359.230957,4280.897461,4613.974121,4294.871582,4261.025879,,,,,,,,,,,,,,,,,,,,,,,,,,,,,,,,,,,,,,,,,,,,,,,,,,,,,,,,,,,,,,,,,,,,,,
1720078966,19,0,4154.871582,4337.94873,4310.256348,4364.230957,4415.897461,4408.461426,4418.205078,4446.794922,4382.94873,4358.461426,4280.256348,4610.897461,4296.666504,4258.846191,,,,,,,,,,,,,,,,,,,,,,,,,,,,,,,,,,,,,,,,,,,,,,,,,,,,,,,,,,,,,,,,,,,,,,
1720078966,20,0,4160.897461,4332.563965,4305.128418,4344.358887,4413.589844,4401.922852,4417.05127,4442.436035,4377.94873,4353.846191,4281.025879,4603.974121,4292.563965,4261.025879,,,,,,,,,,,,,,,,,,,,,,,,,,,,,,,,,,,,,,,,,,,,,,,,,,,,,,,,,,,,,,,,,,,,,,
1720078966,21,0,4180.128418,4342.05127,4314.230957,4369.487305,4415.641113,4414.358887,4425.641113,4447.436035,4395.128418,4362.05127,4295.641113,4613.717773,4304.358887,4278.974121,,,,,,,,,,,,,,,,,,,,,,,,,,,,,,,,,,,,,,,,,,,,,,,,,,,,,,,,,,,,,,,,,,,,,,
1720078966,22,0,4190.897461,4354.615234,4324.871582,4390,4420.384766,4415,4431.025879,4451.410156,4411.410156,4375.256348,4301.922852,4610.128418,4310.256348,4291.282227,,,,,,,,,,,,,,,,,,,,,,,,,,,,,,,,,,,,,,,,,,,,,,,,,,,,,,,,,,,,,,,,,,,,,,
1720078966,23,0,4186.282227,4345.128418,4310.897461,4364.615234,4413.461426,4405,4425.384766,4446.410156,4415.384766,4374.743652,4289.615234,4593.077148,4298.461426,4281.025879,,,,,,,,,,,,,,,,,,,,,,,,,,,,,,,,,,,,,,,,,,,,,,,,,,,,,,,,,,,,,,,,,,,,,,
1720078966,24,0,4189.487305,4329.358887,4299.871582,4350.256348,4405.897461,4401.538574,4423.461426,4453.717773,4412.820313,4367.563965,4288.717773,4626.153809,4293.589844,4276.666504,2.764396,12.818892,1.009723,0.751296,0.435498,0.431052,7.619948,0.863707,0.749464,0.542939,0.49965,14.88737,1.080645,0.72929,0.590345,0.42411,8.943474,1.633959,2.858012,2.545567,0.196383,0.229272,0.417614,0.330593,0.407601,0.370263,3.197384,0.489424,0.402091,0.33244,0.923535,1.148835,0.565781,0.543461,0.196065,0.519119,0.708315,0.306723,0.146852,0.232929,0.90466,2.906656,0.594585,0.612668,0.279129,0.558672,2.332819,0.579896,0.337993,0.336474,1.525958,7.254461,1.347632,0.714169,0.387609,0.159402,0.121959,0.10471,0.084202,0.701366,1.813437,5.960514,1.011481,0.571391,0.321353,1.266247,10.079802,0.88212,0.487013,0.312142
1720078966,25,0,4200.897461,4334.615234,4307.05127,4369.615234,4414.102539,4407.05127,4429.102539,4449.743652,4407.179688,4366.282227,4293.461426,4621.794922,4295.512695,4277.692383,,,,,,,,,,,,,,,,,,,,,,,,,,,,,,,,,,,,,,,,,,,,,,,,,,,,,,,,,,,,,,,,,,,,,,
1720078966,26,0,4203.846191,4339.871582,4301.666504,4368.333496,4414.871582,4413.333496,4427.692383,4437.94873,4398.589844,4364.230957,4281.922852,4588.333496,4291.025879,4270.384766,,,,,,,,,,,,,,,,,,,,,,,,,,,,,,,,,,,,,,,,,,,,,,,,,,,,,,,,,,,,,,,,,,,,,,
1720078966,27,0,4210.641113,4336.153809,4295.128418,4361.153809,4405.384766,4414.871582,4421.153809,4445.641113,4393.846191,4361.410156,4281.153809,4614.358887,4292.436035,4271.282227,,,,,,,,,,,,,,,,,,,,,,,,,,,,,,,,,,,,,,,,,,,,,,,,,,,,,,,,,,,,,,,,,,,,,,
1720078966,28,0,4222.307617,4337.307617,4303.846191,4368.077148,4411.410156,4412.563965,4417.307617,4437.692383,4391.282227,4363.333496,4293.205078,4613.461426,4300.512695,4271.922852,,,,,,,,,,,,,,,,,,,,,,,,,,,,,,,,,,,,,,,,,,,,,,,,,,,,,,,,,,,,,,,,,,,,,,
1720078966,29,0,4221.025879,4339.230957,4305.256348,4354.358887,4418.589844,4407.179688,4411.922852,4422.692383,4378.461426,4359.102539,4290,4592.692383,4298.461426,4266.282227,,,,,,,,,,,,,,,,,,,,,,,,,,,,,,,,,,,,,,,,,,,,,,,,,,,,,,,,,,,,,,,,,,,,,,
1720078966,30,0,4217.307617,4337.179688,4298.077148,4342.820313,4407.563965,4397.563965,4405.128418,4424.102539,4367.05127,4350.128418,4273.205078,4608.077148,4287.820313,4265,,,,,,,,,,,,,,,,,,,,,,,,,,,,,,,,,,,,,,,,,,,,,,,,,,,,,,,,,,,,,,,,,,,,,,
1720078966,31,0,4226.282227,4340.512695,4303.461426,4364.743652,4397.179688,4398.333496,4407.307617,4425.897461,4375.128418,4347.05127,4266.153809,4604.743652,4280.769043,4265.384766,,,,,,,,,,,,,,,,,,,,,,,,,,,,,,,,,,,,,,,,,,,,,,,,,,,,,,,,,,,,,,,,,,,,,,
1720078966,32,0,4235.897461,4344.230957,4308.077148,4370.512695,4398.589844,4411.538574,4412.436035,4424.871582,4381.538574,4351.025879,4266.410156,4591.922852,4280,4263.461426,,,,,,,,,,,,,,,,,,,,,,,,,,,,,,,,,,,,,,,,,,,,,,,,,,,,,,,,,,,,,,,,,,,,,,
1720078966,33,0,4244.230957,4347.820313,4308.077148,4371.666504,4406.538574,4409.743652,4414.615234,4430.128418,4379.871582,4359.487305,4265.512695,4620.641113,4289.487305,4267.179688,,,,,,,,,,,,,,,,,,,,,,,,,,,,,,,,,,,,,,,,,,,,,,,,,,,,,,,,,,,,,,,,,,,,,,
1720078966,34,0,4254.871582,4358.717773,4319.487305,4399.743652,4417.05127,4398.717773,4417.179688,4425.897461,4391.794922,4367.563965,4265.769043,4614.230957,4300,4270.384766,,,,,,,,,,,,,,,,,,,,,,,,,,,,,,,,,,,,,,,,,,,,,,,,,,,,,,,,,,,,,,,,,,,,,,
1720078966,35,0,4251.666504,4351.666504,4317.307617,4387.307617,4413.461426,4396.282227,4411.538574,4416.153809,4396.153809,4363.461426,4262.436035,4591.794922,4289.487305,4260.384766,,,,,,,,,,,,,,,,,,,,,,,,,,,,,,,,,,,,,,,,,,,,,,,,,,,,,,,,,,,,,,,,,,,,,,
1720078966,36,0,4250.128418,4340.384766,4303.589844,4346.410156,4410,4394.102539,4403.974121,4420.256348,4386.410156,4359.358887,4264.230957,4614.871582,4281.666504,4260.256348,,,,,,,,,,,,,,,,,,,,,,,,,,,,,,,,,,,,,,,,,,,,,,,,,,,,,,,,,,,,,,,,,,,,,,
1720078966,37,0,4263.077148,4355.769043,4305.512695,4356.410156,4423.974121,4399.102539,4408.974121,4419.358887,4391.025879,4368.461426,4266.666504,4608.846191,4295.256348,4269.102539,,,,,,,,,,,,,,,,,,,,,,,,,,,,,,,,,,,,,,,,,,,,,,,,,,,,,,,,,,,,,,,,,,,,,,
1720078966,38,0,4267.692383,4362.436035,4307.94873,4377.692383,4425.769043,4408.333496,4415,4414.358887,4395.769043,4371.153809,4263.589844,4602.179688,4294.230957,4269.743652,,,,,,,,,,,,,,,,,,,,,,,,,,,,,,,,,,,,,,,,,,,,,,,,,,,,,,,,,,,,,,,,,,,,,,
1720078966,39,0,4262.692383,4345.128418,4296.282227,4360.769043,4414.743652,4415.256348,4414.230957,4411.153809,4387.05127,4367.563965,4266.282227,4610.128418,4284.743652,4266.538574,,,,,,,,,,,,,,,,,,,,,,,,,,,,,,,,,,,,,,,,,,,,,,,,,,,,,,,,,,,,,,,,,,,,,,
1720078966,40,0,4262.563965,4341.538574,4288.717773,4346.410156,4414.615234,4426.282227,4413.205078,4407.94873,4385.641113,4368.589844,4264.230957,4603.077148,4289.743652,4264.615234,2.804451,13.456073,0.912073,0.692427,0.429706,0.481552,7.652376,0.774872,0.773307,0.518549,0.435717,15.029773,0.913563,0.735807,0.570275,0.390954,8.626522,1.482476,3.066065,2.411475,0.142629,0.155314,0.346187,0.327249,0.378281,0.348321,3.655686,0.452511,0.462159,0.305989,0.812868,1.107056,0.492763,0.606773,0.203253,0.414108,0.704719,0.315263,0.158681,0.227838,0.775721,3.562102,0.642149,0.63959,0.304419,0.494282,2.546818,0.518117,0.305803,0.329319,1.382597,7.627325,1.095572,0.708728,0.412837,0.126109,0.13631,0.106205,0.103939,0.654281,1.620894,6.162401,0.92559,0.497146,0.33264,1.041574,10.920177,0.790638,0.515529,0.307967
1720078966,41,0,4264.358887,4348.589844,4293.333496,4356.025879,4414.871582,4431.282227,4411.153809,4406.794922,4385.897461,4368.461426,4248.974121,4607.179688,4284.487305,4261.025879,,,,,,,,,,,,,,,,,,,,,,,,,,,,,,,,,,,,,,,,,,,,,,,,,,,,,,,,,,,,,,,,,,,,,,
1720078966,42,0,4275.256348,4346.025879,4305,4374.358887,4410.769043,4422.563965,4411.282227,4405,4381.153809,4372.563965,4251.282227,4608.846191,4272.179688,4262.820313,,,,,,,,,,,,,,,,,,,,,,,,,,,,,,,,,,,,,,,,,,,,,,,,,,,,,,,,,,,,,,,,,,,,,,
1720078966,43,0,4290.897461,4352.179688,4320.512695,4392.307617,4411.025879,4412.179688,4417.179688,4407.820313,4385.641113,4379.615234,4271.538574,4610.256348,4279.230957,4280.128418,,,,,,,,,,,,,,,,,,,,,,,,,,,,,,,,,,,,,,,,,,,,,,,,,,,,,,,,,,,,,,,,,,,,,,
1720078966,44,0,4288.333496,4358.333496,4318.974121,4379.102539,4410.641113,4408.717773,4414.487305,4405.769043,4388.846191,4375,4270,4610.641113,4282.563965,4282.05127,,,,,,,,,,,,,,,,,,,,,,,,,,,,,,,,,,,,,,,,,,,,,,,,,,,,,,,,,,,,,,,,,,,,,,
1720078966,45,0,4285.641113,4356.282227,4312.436035,4364.230957,4418.077148,4409.871582,4412.692383,4403.205078,4386.794922,4371.666504,4266.153809,4607.179688,4280.256348,4272.563965,,,,,,,,,,,,,,,,,,,,,,,,,,,,,,,,,,,,,,,,,,,,,,,,,,,,,,,,,,,,,,,,,,,,,,
1720078966,46,0,4297.307617,4362.436035,4325.256348,4381.410156,4428.589844,4414.230957,4425.512695,4410.512695,4399.230957,4393.205078,4286.410156,4610.769043,4296.922852,4282.563965,,,,,,,,,,,,,,,,,,,,,,,,,,,,,,,,,,,,,,,,,,,,,,,,,,,,,,,,,,,,,,,,,,,,,,
1720078966,47,0,4295.128418,4364.102539,4329.871582,4383.589844,4419.487305,4415,4428.974121,4412.692383,4414.615234,4407.436035,4288.077148,4610.769043,4301.538574,4282.692383,,,,,,,,,,,,,,,,,,,,,,,,,,,,,,,,,,,,,,,,,,,,,,,,,,,,,,,,,,,,,,,,,,,,,,
1720078966,48,0,4281.666504,4352.820313,4311.410156,4370.256348,4413.589844,4410.897461,4418.846191,4403.589844,4415.128418,4395,4259.358887,4604.230957,4277.179688,4263.974121,,,,,,,,,,,,,,,,,,,,,,,,,,,,,,,,,,,,,,,,,,,,,,,,,,,,,,,,,,,,,,,,,,,,,,
1720078966,49,0,4287.563965,4352.563965,4309.230957,4391.538574,4427.05127,4414.102539,4421.538574,4408.205078,4408.461426,4401.025879,4259.358887,4610.897461,4279.615234,4267.692383,,,,,,,,,,,,,,,,,,,,,,,,,,,,,,,,,,,,,,,,,,,,,,,,,,,,,,,,,,,,,,,,,,,,,,
1720078966,50,0,4301.025879,4361.794922,4321.794922,4409.230957,4434.358887,4424.102539,4432.563965,4416.794922,4412.94873,4419.358887,4287.436035,4610.384766,4310.512695,4284.487305,,,,,,,,,,,,,,,,,,,,,,,,,,,,,,,,,,,,,,,,,,,,,,,,,,,,,,,,,,,,,,,,,,,,,,
1720078966,51,0,4292.820313,4353.717773,4309.487305,4370.256348,4424.358887,4429.615234,4424.871582,4403.461426,4417.307617,4407.05127,4281.922852,4593.077148,4306.666504,4273.846191,,,,,,,,,,,,,,,,,,,,,,,,,,,,,,,,,,,,,,,,,,,,,,,,,,,,,,,,,,,,,,,,,,,,,,
1720078966,52,0,4279.487305,4336.538574,4293.205078,4333.589844,4416.410156,4426.666504,4414.871582,4398.333496,4401.282227,4387.692383,4262.307617,4616.410156,4282.179688,4263.461426,,,,,,,,,,,,,,,,,,,,,,,,,,,,,,,,,,,,,,,,,,,,,,,,,,,,,,,,,,,,,,,,,,,,,,
1720078966,53,0,4291.922852,4351.794922,4308.717773,4362.563965,4418.974121,4426.153809,4423.589844,4401.410156,4393.717773,4400.641113,4277.563965,4623.333496,4292.307617,4281.153809,,,,,,,,,,,,,,,,,,,,,,,,,,,,,,,,,,,,,,,,,,,,,,,,,,,,,,,,,,,,,,,,,,,,,,
1720078966,54,0,4315,4380.256348,4331.153809,4404.615234,4429.230957,4428.974121,4433.205078,4396.922852,4408.589844,4418.717773,4295.384766,4597.436035,4314.743652,4295.897461,,,,,,,,,,,,,,,,,,,,,,,,,,,,,,,,,,,,,,,,,,,,,,,,,,,,,,,,,,,,,,,,,,,,,,
1720078966,55,0,4311.794922,4369.358887,4326.153809,4394.230957,4435.128418,4428.846191,4430,4398.717773,4409.743652,4410.641113,4282.820313,4614.871582,4311.410156,4289.230957,,,,,,,,,,,,,,,,,,,,,,,,,,,,,,,,,,,,,,,,,,,,,,,,,,,,,,,,,,,,,,,,,,,,,,
1720078966,56,0,4301.282227,4352.820313,4318.589844,4373.974121,4429.358887,4428.846191,4427.05127,4398.461426,4398.589844,4406.666504,4280.256348,4613.461426,4306.794922,4285.128418,2.791749,12.994749,0.796487,0.656346,0.410756,0.574461,7.053414,0.668784,0.797819,0.500611,0.437035,14.04155,0.70102,0.720303,0.544991,0.435587,7.771988,1.273189,3.249022,2.225959,0.109939,0.107432,0.293127,0.32604,0.386688,0.311682,3.989293,0.456515,0.529507,0.275407,0.68702,0.984175,0.442124,0.635973,0.210307,0.307893,0.697737,0.318325,0.175196,0.217813,0.619805,4.331985,0.64585,0.664866,0.341358,0.482296,2.732909,0.439733,0.317673,0.33249,1.204803,7.504566,0.837089,0.671437,0.442492,0.099877,0.140446,0.099921,0.123633,0.617107,1.417889,5.890334,0.768404,0.435694,0.34671,0.867458,10.861079,0.644346,0.527701,0.299711
1720078966,57,0,4312.692383,4366.922852,4326.666504,4393.205078,4419.358887,4429.102539,4430.128418,4394.871582,4410.128418,4421.922852,4295.384766,4590.128418,4313.461426,4295.897461,,,,,,,,,,,,,,,,,,,,,,,,,,,,,,,,,,,,,,,,,,,,,,,,,,,,,,,,,,,,,,,,,,,,,,
1720078966,58,0,4312.05127,4370.384766,4329.230957,4400.128418,4411.025879,4420.512695,4427.820313,4400,4420.128418,4427.307617,4296.410156,4613.333496,4310.641113,4296.025879,,,,,,,,,,,,,,,,,,,,,,,,,,,,,,,,,,,,,,,,,,,,,,,,,,,,,,,,,,,,,,,,,,,,,,
1720078966,59,0,4295.512695,4361.666504,4325.769043,4382.05127,4420.256348,4412.94873,4427.820313,4405.641113,4405.769043,4426.282227,4301.538574,4622.179688,4307.692383,4289.230957,,,,,,,,,,,,,,,,,,,,,,,,,,,,,,,,,,,,,,,,,,,,,,,,,,,,,,,,,,,,,,,,,,,,,,
1720078966,60,0,4300.769043,4375,4329.743652,4393.077148,4432.05127,4422.307617,4433.974121,4399.230957,4407.692383,4431.538574,4312.563965,4586.538574,4315.641113,4292.563965,,,,,,,,,,,,,,,,,,,,,,,,,,,,,,,,,,,,,,,,,,,,,,,,,,,,,,,,,,,,,,,,,,,,,,
1720078966,61,0,4303.589844,4377.692383,4327.307617,4400.128418,4424.487305,4434.743652,4431.410156,4396.666504,4418.974121,4422.692383,4299.743652,4600.897461,4311.666504,4290.769043,,,,,,,,,,,,,,,,,,,,,,,,,,,,,,,,,,,,,,,,,,,,,,,,,,,,,,,,,,,,,,,,,,,,,,
1720078966,62,0,4285.384766,4361.538574,4319.615234,4390.256348,4428.846191,4429.871582,4429.615234,4400.897461,4417.307617,4413.205078,4285,4616.666504,4298.717773,4279.102539,,,,,,,,,,,,,,,,,,,,,,,,,,,,,,,,,,,,,,,,,,,,,,,,,,,,,,,,,,,,,,,,,,,,,,
1720078966,63,0,4285.128418,4371.922852,4325.256348,4405.256348,4446.538574,4425.128418,4436.666504,4403.077148,4421.666504,4423.717773,4298.205078,4593.333496,4304.615234,4282.179688,,,,,,,,,,,,,,,,,,,,,,,,,,,,,,,,,,,,,,,,,,,,,,,,,,,,,,,,,,,,,,,,,,,,,,
1720078966,64,0,4295.128418,4380.769043,4321.153809,4400.641113,4436.922852,4433.461426,4430.512695,4399.487305,4418.589844,4416.666504,4298.974121,4606.410156,4307.179688,4287.179688,,,,,,,,,,,,,,,,,,,,,,,,,,,,,,,,,,,,,,,,,,,,,,,,,,,,,,,,,,,,,,,,,,,,,,
1720078966,65,0,4290.769043,4364.743652,4304.615234,4365,4417.563965,4436.666504,4417.307617,4385.256348,4397.307617,4395.641113,4275.897461,4605.897461,4290.897461,4272.179688,,,,,,,,,,,,,,,,,,,,,,,,,,,,,,,,,,,,,,,,,,,,,,,,,,,,,,,,,,,,,,,,,,,,,,
1720078966,66,0,4292.94873,4365.897461,4312.692383,4370.897461,4424.487305,4437.307617,4423.461426,4387.94873,4394.358887,4402.692383,4279.743652,4597.05127,4293.333496,4274.743652,,,,,,,,,,,,,,,,,,,,,,,,,,,,,,,,,,,,,,,,,,,,,,,,,,,,,,,,,,,,,,,,,,,,,,
1720078966,67,0,4301.794922,4379.743652,4329.615234,4399.615234,4433.205078,4442.307617,4432.307617,4395.641113,4406.153809,4408.205078,4297.820313,4606.538574,4312.563965,4297.307617,,,,,,,,,,,,,,,,,,,,,,,,,,,,,,,,,,,,,,,,,,,,,,,,,,,,,,,,,,,,,,,,,,,,,,
1720078966,68,0,4302.307617,4377.436035,4326.410156,4401.282227,4426.922852,4426.922852,4426.794922,4384.487305,4395.256348,4399.487305,4293.974121,4603.205078,4312.436035,4301.282227,,,,,,,,,,,,,,,,,,,,,,,,,,,,,,,,,,,,,,,,,,,,,,,,,,,,,,,,,,,,,,,,,,,,,,
1720078966,69,0,4306.922852,4376.282227,4326.794922,4403.461426,4422.307617,4410.128418,4427.05127,4383.461426,4390.512695,4407.179688,4290.384766,4604.615234,4305.256348,4299.615234,,,,,,,,,,,,,,,,,,,,,,,,,,,,,,,,,,,,,,,,,,,,,,,,,,,,,,,,,,,,,,,,,,,,,,
1720078966,70,0,4311.922852,4381.025879,4336.025879,4409.871582,4422.05127,4422.692383,4438.077148,4394.358887,4414.743652,4416.153809,4302.563965,4606.666504,4314.615234,4309.487305,,,,,,,,,,,,,,,,,,,,,,,,,,,,,,,,,,,,,,,,,,,,,,,,,,,,,,,,,,,,,,,,,,,,,,
1720078967,71,0,4308.717773,4380.897461,4333.461426,4393.205078,4425.256348,4433.333496,4443.846191,4401.025879,4432.820313,4420,4318.461426,4607.05127,4326.025879,4320.384766,,,,,,,,,,,,,,,,,,,,,,,,,,,,,,,,,,,,,,,,,,,,,,,,,,,,,,,,,,,,,,,,,,,,,,
1720078967,72,0,4311.282227,4393.333496,4334.871582,4386.538574,4432.436035,4425.384766,4447.436035,4403.333496,4434.358887,4431.538574,4328.717773,4607.94873,4323.717773,4322.05127,2.65244,11.440154,0.693637,0.642839,0.382866,0.637439,5.964787,0.566109,0.82218,0.493894,0.471773,12.121926,0.512389,0.688075,0.518664,0.496841,6.604496,1.058944,3.303881,2.038553,0.088631,0.093716,0.255278,0.316357,0.424135,0.271167,4.152828,0.483514,0.583673,0.248971,0.579262,0.810602,0.419318,0.623352,0.216454,0.234734,0.713436,0.319889,0.193018,0.205609,0.48958,5.097781,0.605768,0.687711,0.384221,0.564461,2.922177,0.375453,0.36276,0.344392,1.030982,7.006205,0.654492,0.606489,0.463966,0.080453,0.134431,0.090354,0.138787,0.604215,1.205306,5.258942,0.603012,0.394183,0.359759,0.770279,9.92894,0.494266,0.522246,0.286816
1720078967,73,0,4312.307617,4398.589844,4341.538574,4406.922852,4433.205078,4429.230957,4447.436035,4400.512695,4433.461426,4424.871582,4317.307617,4607.820313,4313.974121,4312.563965,,,,,,,,,,,,,,,,,,,,,,,,,,,,,,,,,,,,,,,,,,,,,,,,,,,,,,,,,,,,,,,,,,,,,,
1720078967,74,0,4296.538574,4376.025879,4330.384766,4413.077148,4426.410156,4436.282227,4438.205078,4393.589844,4425.641113,4398.461426,4293.974121,4609.230957,4305.769043,4296.922852,,,,,,,,,,,,,,,,,,,,,,,,,,,,,,,,,,,,,,,,,,,,,,,,,,,,,,,,,,,,,,,,,,,,,,
1720078967,75,0,4288.205078,4368.077148,4323.461426,4402.179688,4429.102539,4426.153809,4434.358887,4392.307617,4406.922852,4391.410156,4295,4607.563965,4305.641113,4295.384766,,,,,,,,,,,,,,,,,,,,,,,,,,,,,,,,,,,,,,,,,,,,,,,,,,,,,,,,,,,,,,,,,,,,,,
1720078967,76,0,4301.922852,4385,4338.974121,4402.692383,4443.717773,4430,4443.589844,4400.384766,4405.769043,4402.94873,4317.820313,4605.256348,4315.128418,4313.077148,,,,,,,,,,,,,,,,,,,,,,,,,,,,,,,,,,,,,,,,,,,,,,,,,,,,,,,,,,,,,,,,,,,,,,
1720078967,77,0,4306.410156,4386.794922,4342.94873,4402.820313,4443.846191,4449.743652,4448.461426,4405.512695,4427.436035,4404.871582,4323.205078,4611.666504,4320,4321.410156,,,,,,,,,,,,,,,,,,,,,,,,,,,,,,,,,,,,,,,,,,,,,,,,,,,,,,,,,,,,,,,,,,,,,,
1720078967,78,0,4289.615234,4369.871582,4323.333496,4388.589844,4426.922852,4446.922852,4437.436035,4394.871582,4430.769043,4392.820313,4304.230957,4607.307617,4310.769043,4303.333496,,,,,,,,,,,,,,,,,,,,,,,,,,,,,,,,,,,,,,,,,,,,,,,,,,,,,,,,,,,,,,,,,,,,,,
1720078967,79,0,4285.769043,4365.384766,4315.256348,4381.538574,4423.974121,4437.179688,4428.077148,4380.897461,4411.282227,4379.743652,4297.436035,4592.563965,4306.666504,4290.256348,,,,,,,,,,,,,,,,,,,,,,,,,,,,,,,,,,,,,,,,,,,,,,,,,,,,,,,,,,,,,,,,,,,,,,
1720078967,80,0,4296.025879,4370.897461,4327.94873,4384.102539,4430.256348,4438.461426,4427.436035,4388.846191,4401.410156,4378.077148,4304.358887,4619.102539,4313.205078,4299.487305,,,,,,,,,,,,,,,,,,,,,,,,,,,,,,,,,,,,,,,,,,,,,,,,,,,,,,,,,,,,,,,,,,,,,,
1720078967,81,0,4300.897461,4376.410156,4339.743652,4390.256348,4427.692383,4435.128418,4428.717773,4395.769043,4405.897461,4385.897461,4301.282227,4623.333496,4312.307617,4300.897461,,,,,,,,,,,,,,,,,,,,,,,,,,,,,,,,,,,,,,,,,,,,,,,,,,,,,,,,,,,,,,,,,,,,,,
1720078967,82,0,4299.743652,4380.897461,4339.230957,4396.025879,4425.641113,4427.692383,4434.615234,4387.692383,4411.666504,4388.717773,4297.94873,4588.205078,4306.025879,4295,,,,,,,,,,,,,,,,,,,,,,,,,,,,,,,,,,,,,,,,,,,,,,,,,,,,,,,,,,,,,,,,,,,,,,
1720078967,83,0,4304.102539,4386.922852,4344.230957,4405,4425.384766,4427.436035,4442.820313,4395.641113,4427.94873,4391.922852,4314.743652,4613.589844,4316.025879,4310.512695,,,,,,,,,,,,,,,,,,,,,,,,,,,,,,,,,,,,,,,,,,,,,,,,,,,,,,,,,,,,,,,,,,,,,,
1720078967,84,0,4317.94873,4397.692383,4358.974121,4418.461426,4425.384766,4433.205078,4447.820313,4406.282227,4446.282227,4406.794922,4333.974121,4633.205078,4334.102539,4324.358887,,,,,,,,,,,,,,,,,,,,,,,,,,,,,,,,,,,,,,,,,,,,,,,,,,,,,,,,,,,,,,,,,,,,,,
1720078967,85,0,4324.358887,4396.666504,4360.384766,4414.743652,4432.692383,4441.025879,4444.615234,4395,4439.102539,4410.384766,4331.538574,4595,4331.410156,4313.461426,,,,,,,,,,,,,,,,,,,,,,,,,,,,,,,,,,,,,,,,,,,,,,,,,,,,,,,,,,,,,,,,,,,,,,
1720078967,86,0,4317.307617,4379.487305,4343.077148,4389.358887,4439.230957,4445.512695,4436.922852,4384.487305,4418.205078,4385,4312.436035,4597.563965,4313.974121,4301.282227,,,,,,,,,,,,,,,,,,,,,,,,,,,,,,,,,,,,,,,,,,,,,,,,,,,,,,,,,,,,,,,,,,,,,,
1720078967,87,0,4313.589844,4366.922852,4328.589844,4371.794922,4430.769043,4443.974121,4429.487305,4384.743652,4407.05127,4368.717773,4293.461426,4625.512695,4305.641113,4297.692383,,,,,,,,,,,,,,,,,,,,,,,,,,,,,,,,,,,,,,,,,,,,,,,,,,,,,,,,,,,,,,,,,,,,,,
1720078967,88,0,4322.179688,4372.563965,4329.615234,4381.153809,4420.769043,4445.512695,4428.077148,4379.230957,4405.769043,4382.692383,4291.538574,4597.179688,4308.077148,4291.538574,2.440101,9.147649,0.60534,0.634849,0.354302,0.658584,4.642535,0.476785,0.836122,0.499423,0.522528,9.734471,0.38934,0.645095,0.496325,0.539988,5.417996,0.874879,3.20922,1.901249,0.090191,0.116566,0.230248,0.297165,0.472393,0.248407,4.121567,0.505994,0.60941,0.232305,0.532506,0.640695,0.407173,0.573368,0.220752,0.209739,0.761765,0.316963,0.20666,0.194895,0.432616,5.715067,0.540389,0.708063,0.424101,0.669753,3.112162,0.337646,0.420636,0.363333,0.951726,6.279933,0.581742,0.524445,0.473381,0.073258,0.120767,0.083084,0.145685,0.628117,1.082653,4.441106,0.488793,0.37262,0.37143,0.833833,8.397117,0.388196,0.499441,0.273197
1720078967,89,0,4329.358887,4382.05127,4338.589844,4401.025879,4434.487305,4446.025879,4433.205078,4377.692383,4405.897461,4384.743652,4305.128418,4588.846191,4312.436035,4295.897461,,,,,,,,,,,,,,,,,,,,,,,,,,,,,,,,,,,,,,,,,,,,,,,,,,,,,,,,,,,,,,,,,,,,,,
1720078967,90,0,4331.538574,4385,4343.077148,4408.846191,4448.461426,4441.153809,4435,4378.077148,4403.974121,4368.589844,4312.307617,4612.05127,4314.487305,4306.922852,,,,,,,,,,,,,,,,,,,,,,,,,,,,,,,,,,,,,,,,,,,,,,,,,,,,,,,,,,,,,,,,,,,,,,
1720078967,91,0,4330.769043,4381.410156,4335.256348,4397.94873,4435.897461,4440.256348,4430,4369.102539,4398.461426,4367.05127,4307.94873,4599.358887,4316.666504,4305.897461,,,,,,,,,,,,,,,,,,,,,,,,,,,,,,,,,,,,,,,,,,,,,,,,,,,,,,,,,,,,,,,,,,,,,,
1720078967,92,0,4330,4378.846191,4331.922852,4391.153809,4423.461426,4442.436035,4425.769043,4367.94873,4394.230957,4364.615234,4306.282227,4600.641113,4316.666504,4303.461426,,,,,,,,,,,,,,,,,,,,,,,,,,,,,,,,,,,,,,,,,,,,,,,,,,,,,,,,,,,,,,,,,,,,,,
1720078967,93,0,4341.794922,4392.179688,4346.153809,4402.820313,4430,4443.077148,4430.384766,4371.153809,4403.974121,4363.461426,4309.230957,4608.205078,4317.179688,4308.589844,,,,,,,,,,,,,,,,,,,,,,,,,,,,,,,,,,,,,,,,,,,,,,,,,,,,,,,,,,,,,,,,,,,,,,
1720078967,94,0,4351.282227,4399.743652,4356.153809,4401.794922,4429.358887,4435.256348,4435,4377.05127,4418.846191,4381.666504,4313.461426,4604.102539,4322.692383,4310.512695,,,,,,,,,,,,,,,,,,,,,,,,,,,,,,,,,,,,,,,,,,,,,,,,,,,,,,,,,,,,,,,,,,,,,,
1720078967,95,0,4345.641113,4382.436035,4346.794922,4386.666504,4418.461426,4429.358887,4436.025879,4386.153809,4429.102539,4389.743652,4310.769043,4605.897461,4324.487305,4302.179688,,,,,,,,,,,,,,,,,,,,,,,,,,,,,,,,,,,,,,,,,,,,,,,,,,,,,,,,,,,,,,,,,,,,,,
1720078967,96,0,4335.128418,4364.615234,4328.461426,4380.256348,4418.974121,4439.358887,4441.153809,4386.410156,4433.974121,4374.743652,4300.256348,4603.846191,4312.05127,4289.102539,,,,,,,,,,,,,,,,,,,,,,,,,,,,,,,,,,,,,,,,,,,,,,,,,,,,,,,,,,,,,,,,,,,,,,
1720078967,97,0,4335.128418,4369.871582,4326.282227,4391.153809,4428.333496,4446.666504,4445.512695,4385.384766,4431.666504,4372.820313,4299.487305,4605.384766,4307.436035,4287.692383,,,,,,,,,,,,,,,,,,,,,,,,,,,,,,,,,,,,,,,,,,,,,,,,,,,,,,,,,,,,,,,,,,,,,,
1720078967,98,0,4338.717773,4374.102539,4330.512695,4399.230957,4430.897461,4442.179688,4438.717773,4382.436035,4422.820313,4379.615234,4307.179688,4609.871582,4315,4285.769043,,,,,,,,,,,,,,,,,,,,,,,,,,,,,,,,,,,,,,,,,,,,,,,,,,,,,,,,,,,,,,,,,,,,,,
1720078967,99,0,4326.922852,4354.487305,4313.846191,4370.897461,4422.307617,4442.436035,4424.102539,4369.615234,4405.256348,4364.743652,4292.436035,4606.410156,4301.410156,4268.717773,,,,,,,,,,,,,,,,,,,,,,,,,,,,,,,,,,,,,,,,,,,,,,,,,,,,,,,,,,,,,,,,,,,,,,
1720078967,100,0,4329.487305,4352.692383,4309.358887,4364.230957,4426.794922,4448.846191,4424.743652,4363.333496,4395.256348,4355.256348,4277.692383,4600.641113,4288.077148,4262.436035,,,,,,,,,,,,,,,,,,,,,,,,,,,,,,,,,,,,,,,,,,,,,,,,,,,,,,,,,,,,,,,,,,,,,,
1720078967,101,0,4353.333496,4379.487305,4337.563965,4419.230957,4440.512695,4453.205078,4435.897461,4368.717773,4399.487305,4368.077148,4288.333496,4602.820313,4297.179688,4274.102539,,,,,,,,,,,,,,,,,,,,,,,,,,,,,,,,,,,,,,,,,,,,,,,,,,,,,,,,,,,,,,,,,,,,,,
1720078967,102,0,4354.743652,4382.436035,4344.102539,4428.461426,4434.871582,4449.358887,4433.333496,4364.358887,4393.461426,4370.769043,4287.179688,4607.179688,4297.94873,4276.794922,,,,,,,,,,,,,,,,,,,,,,,,,,,,,,,,,,,,,,,,,,,,,,,,,,,,,,,,,,,,,,,,,,,,,,
1720078967,103,0,4341.025879,4361.794922,4323.205078,4367.563965,4430,4439.871582,4422.307617,4355.641113,4380.769043,4357.179688,4277.307617,4607.563965,4292.94873,4271.538574,,,,,,,,,,,,,,,,,,,,,,,,,,,,,,,,,,,,,,,,,,,,,,,,,,,,,,,,,,,,,,,,,,,,,,
1720078967,104,0,4358.077148,4365,4330.128418,4354.487305,4435.256348,4437.436035,4422.820313,4357.05127,4389.230957,4357.179688,4293.077148,4598.974121,4308.974121,4280,2.13952,6.690373,0.517855,0.613863,0.335234,0.634137,3.367682,0.406108,0.826532,0.517163,0.557561,7.401238,0.329022,0.596334,0.484067,0.532749,4.452209,0.727523,3.024184,1.845067,0.103731,0.174752,0.222157,0.274183,0.514145,0.245721,3.899933,0.501358,0.60604,0.227322,0.552866,0.522594,0.387504,0.500931,0.223145,0.223316,0.836344,0.305821,0.210901,0.188466,0.480486,6.078855,0.486106,0.729797,0.454106,0.790791,3.289186,0.319737,0.468948,0.388386,0.976807,5.467934,0.600738,0.446223,0.480302,0.074366,0.10415,0.081825,0.142664,0.689039,1.053287,3.603959,0.450309,0.368106,0.387217,1.013116,6.66345,0.340892,0.465752,0.267667
1720078967,105,0,4393.589844,4390.384766,4360.128418,4400.641113,4432.05127,4442.820313,4436.538574,4362.94873,4413.205078,4379.871582,4313.461426,4606.794922,4329.230957,4302.179688,,,,,,,,,,,,,,,,,,,,,,,,,,,,,,,,,,,,,,,,,,,,,,,,,,,,,,,,,,,,,,,,,,,,,,
1720078967,106,0,4407.307617,4403.461426,4374.358887,4423.333496,4427.436035,4444.102539,4442.307617,4368.333496,4426.153809,4394.102539,4319.871582,4623.461426,4336.025879,4316.153809,,,,,,,,,,,,,,,,,,,,,,,,,,,,,,,,,,,,,,,,,,,,,,,,,,,,,,,,,,,,,,,,,,,,,,
1720078967,107,0,4399.615234,4397.179688,4365,4414.487305,4425.641113,4438.589844,4433.717773,4360.512695,4426.922852,4388.333496,4317.307617,4588.589844,4333.205078,4302.563965,,,,,,,,,,,,,,,,,,,,,,,,,,,,,,,,,,,,,,,,,,,,,,,,,,,,,,,,,,,,,,,,,,,,,,
1720078967,108,0,4384.487305,4382.820313,4344.871582,4405.897461,4420.256348,4433.461426,4428.333496,4358.333496,4426.538574,4385.128418,4304.102539,4592.307617,4319.487305,4284.743652,,,,,,,,,,,,,,,,,,,,,,,,,,,,,,,,,,,,,,,,,,,,,,,,,,,,,,,,,,,,,,,,,,,,,,
1720078967,109,0,4377.05127,4376.282227,4335.769043,4404.358887,4425,4434.102539,4432.692383,4368.461426,4427.820313,4392.179688,4290,4631.666504,4306.410156,4281.538574,,,,,,,,,,,,,,,,,,,,,,,,,,,,,,,,,,,,,,,,,,,,,,,,,,,,,,,,,,,,,,,,,,,,,,
1720078967,110,0,4385,4385,4344.230957,4406.922852,4435.256348,4442.94873,4439.871582,4359.743652,4430,4395.384766,4295.128418,4602.05127,4314.743652,4280.897461,,,,,,,,,,,,,,,,,,,,,,,,,,,,,,,,,,,,,,,,,,,,,,,,,,,,,,,,,,,,,,,,,,,,,,
1720078967,111,0,4382.179688,4382.179688,4341.282227,4382.436035,4427.307617,4444.358887,4437.05127,4347.436035,4419.358887,4385.256348,4300.769043,4594.871582,4323.077148,4278.846191,,,,,,,,,,,,,,,,,,,,,,,,,,,,,,,,,,,,,,,,,,,,,,,,,,,,,,,,,,,,,,,,,,,,,,
1720078967,112,0,4370.769043,4370.897461,4329.358887,4365.384766,4423.461426,4438.846191,4431.153809,4347.307617,4398.974121,4371.666504,4291.282227,4620.256348,4311.538574,4273.846191,,,,,,,,,,,,,,,,,,,,,,,,,,,,,,,,,,,,,,,,,,,,,,,,,,,,,,,,,,,,,,,,,,,,,,
1720078967,113,0,4373.589844,4377.692383,4338.333496,4398.205078,4438.589844,4450.641113,4437.179688,4350,4399.487305,4369.615234,4289.487305,4599.871582,4309.358887,4269.871582,,,,,,,,,,,,,,,,,,,,,,,,,,,,,,,,,,,,,,,,,,,,,,,,,,,,,,,,,,,,,,,,,,,,,,
1720078967,114,0,4377.94873,4386.794922,4349.487305,4405.769043,4448.717773,4467.179688,4447.436035,4355.384766,4410,4378.333496,4300.512695,4595.897461,4323.205078,4276.282227,,,,,,,,,,,,,,,,,,,,,,,,,,,,,,,,,,,,,,,,,,,,,,,,,,,,,,,,,,,,,,,,,,,,,,
