Timestamp,EEG.Counter,EEG.Interpolated,EEG.AF3,EEG.F7,EEG.F3,EEG.FC5,EEG.T7,EEG.P7,EEG.O1,EEG.O2,EEG.P8,EEG.T8,EEG.FC6,EEG.F4,EEG.F8,EEG.AF4,POW.AF3.Theta,POW.AF3.Alpha,POW.AF3.BetaL,POW.AF3.BetaH,POW.AF3.Gamma,POW.F7.Theta,POW.F7.Alpha,POW.F7.BetaL,POW.F7.BetaH,POW.F7.Gamma,POW.F3.Theta,POW.F3.Alpha,POW.F3.BetaL,POW.F3.BetaH,POW.F3.Gamma,POW.FC5.Theta,POW.FC5.Alpha,POW.FC5.BetaL,POW.FC5.BetaH,POW.FC5.Gamma,POW.T7.Theta,POW.T7.Alpha,POW.T7.BetaL,POW.T7.BetaH,POW.T7.Gamma,POW.P7.Theta,POW.P7.Alpha,POW.P7.BetaL,POW.P7.BetaH,POW.P7.Gamma,POW.O1.Theta,POW.O1.Alpha,POW.O1.BetaL,POW.O1.BetaH,POW.O1.Gamma,POW.O2.Theta,POW.O2.Alpha,POW.O2.BetaL,POW.O2.BetaH,POW.O2.Gamma,POW.P8.Theta,POW.P8.Alpha,POW.P8.BetaL,POW.P8.BetaH,POW.P8.Gamma,POW.T8.Theta,POW.T8.Alpha,POW.T8.BetaL,POW.T8.BetaH,POW.T8.Gamma,POW.FC6.Theta,POW.FC6.Alpha,POW.FC6.BetaL,POW.FC6.BetaH,POW.FC6.Gamma,POW.F4.Theta,POW.F4.Alpha,POW.F4.BetaL,POW.F4.BetaH,POW.F4.Gamma,POW.F8.Theta,POW.F8.Alpha,POW.F8.BetaL,POW.F8.BetaH,POW.F8.Gamma,POW.AF4.Theta,POW.AF4.Alpha,POW.AF4.BetaL,POW.AF4.BetaH,POW.AF4.Gamma
1720525048,113,0,4266.666504,4276.282227,4309.871582,4314.102539,4279.358887,4267.05127,4278.205078,4292.563965,4255.256348,4251.666504,4531.410156,4495.128418,4365.128418,4390.897461,,,,,,,,,,,,,,,,,,,,,,,,,,,,,,,,,,,,,,,,,,,,,,,,,,,,,,,,,,,,,,,,,,,,,,
1720525048,114,0,4263.589844,4270.256348,4305.128418,4300.256348,4273.974121,4263.717773,4269.102539,4301.282227,4249.871582,4249.743652,4523.205078,4493.461426,4360.512695,4388.461426,,,,,,,,,,,,,,,,,,,,,,,,,,,,,,,,,,,,,,,,,,,,,,,,,,,,,,,,,,,,,,,,,,,,,,
1720525048,115,0,4259.871582,4270.897461,4297.179688,4299.358887,4272.94873,4262.820313,4265,4288.077148,4246.410156,4248.461426,4519.230957,4483.846191,4349.871582,4381.025879,,,,,,,,,,,,,,,,,,,,,,,,,,,,,,,,,,,,,,,,,,,,,,,,,,,,,,,,,,,,,,,,,,,,,,
1720525048,116,0,4263.461426,4277.94873,4301.538574,4310.512695,4271.922852,4264.102539,4269.102539,4291.282227,4248.589844,4250.641113,4523.846191,4485.384766,4354.102539,4387.307617,5.962317,3.118694,2.440205,0.537662,0.1582,2.74452,1.789374,1.973939,0.548285,0.400701,3.016588,1.934484,2.028444,0.436267,0.222918,3.166952,1.788236,1.585091,0.595533,0.502586,0.677299,0.61727,0.325034,0.245274,0.130012,0.640668,0.598012,1.277717,0.193661,0.150671,22.852753,11.67382,4.997313,1.644337,0.68641,0.773429,0.286087,0.338876,0.073375,0.191481,1.938555,1.153306,1.635937,0.606575,0.15286,4.249425,2.879594,2.062307,0.702285,0.244144,4.58551,4.378613,3.911489,1.080504,0.420775,4.809849,3.455636,2.408707,0.637746,0.278945,6.302244,3.919496,3.069084,0.935297,0.289329,6.125206,5.316318,3.447136,0.843673,0.291384
1720525048,117,0,4264.743652,4280.512695,4306.666504,4314.487305,4268.974121,4264.230957,4267.179688,4297.94873,4247.179688,4250.256348,4516.538574,4490.384766,4355.256348,4389.487305,,,,,,,,,,,,,,,,,,,,,,,,,,,,,,,,,,,,,,,,,,,,,,,,,,,,,,,,,,,,,,,,,,,,,,
1720525048,118,0,4257.94873,4272.307617,4300.897461,4308.333496,4274.743652,4266.410156,4268.461426,4290.512695,4243.461426,4250.256348,4505.256348,4485.641113,4346.538574,4378.717773,,,,,,,,,,,,,,,,,,,,,,,,,,,,,,,,,,,,,,,,,,,,,,,,,,,,,,,,,,,,,,,,,,,,,,
1720525048,119,0,4248.589844,4260.384766,4290,4297.692383,4278.333496,4272.563965,4271.794922,4294.871582,4243.333496,4249.487305,4497.05127,4476.666504,4339.230957,4369.102539,,,,,,,,,,,,,,,,,,,,,,,,,,,,,,,,,,,,,,,,,,,,,,,,,,,,,,,,,,,,,,,,,,,,,,
1720525048,120,0,4246.538574,4258.974121,4288.589844,4295.128418,4274.230957,4277.436035,4265.897461,4301.282227,4244.487305,4248.333496,4492.94873,4472.563965,4338.717773,4368.077148,,,,,,,,,,,,,,,,,,,,,,,,,,,,,,,,,,,,,,,,,,,,,,,,,,,,,,,,,,,,,,,,,,,,,,
1720525048,121,0,4249.871582,4263.333496,4292.179688,4300.769043,4272.94873,4272.05127,4264.230957,4291.794922,4245.897461,4250.641113,4491.025879,4469.230957,4337.94873,4363.974121,,,,,,,,,,,,,,,,,,,,,,,,,,,,,,,,,,,,,,,,,,,,,,,,,,,,,,,,,,,,,,,,,,,,,,
1720525048,122,0,4247.94873,4261.025879,4288.077148,4294.871582,4272.563965,4264.743652,4270.769043,4295.128418,4252.820313,4254.743652,4487.563965,4466.666504,4331.153809,4356.538574,,,,,,,,,,,,,,,,,,,,,,,,,,,,,,,,,,,,,,,,,,,,,,,,,,,,,,,,,,,,,,,,,,,,,,
1720525048,123,0,4244.102539,4265.256348,4286.666504,4292.820313,4272.94873,4265.512695,4274.102539,4302.94873,4259.487305,4258.589844,4494.487305,4475.128418,4337.94873,4359.615234,,,,,,,,,,,,,,,,,,,,,,,,,,,,,,,,,,,,,,,,,,,,,,,,,,,,,,,,,,,,,,,,,,,,,,
1720525048,124,0,4253.717773,4275.256348,4292.179688,4307.307617,4275.384766,4264.615234,4273.974121,4296.922852,4256.794922,4259.230957,4509.615234,4483.589844,4357.436035,4369.615234,,,,,,,,,,,,,,,,,,,,,,,,,,,,,,,,,,,,,,,,,,,,,,,,,,,,,,,,,,,,,,,,,,,,,,
1720525048,125,0,4261.282227,4269.358887,4292.05127,4306.025879,4275.897461,4262.692383,4273.974121,4297.692383,4249.615234,4252.05127,4503.589844,4478.333496,4353.333496,4366.025879,,,,,,,,,,,,,,,,,,,,,,,,,,,,,,,,,,,,,,,,,,,,,,,,,,,,,,,,,,,,,,,,,,,,,,
1720525048,126,0,4253.461426,4255.512695,4287.179688,4288.205078,4274.102539,4265.897461,4274.102539,4301.153809,4246.666504,4245.128418,4484.743652,4472.94873,4336.282227,4353.717773,,,,,,,,,,,,,,,,,,,,,,,,,,,,,,,,,,,,,,,,,,,,,,,,,,,,,,,,,,,,,,,,,,,,,,
1720525048,127,0,4251.922852,4259.358887,4289.230957,4288.974121,4270,4266.153809,4268.974121,4302.563965,4246.666504,4247.563965,4486.922852,4476.410156,4341.282227,4356.153809,,,,,,,,,,,,,,,,,,,,,,,,,,,,,,,,,,,,,,,,,,,,,,,,,,,,,,,,,,,,,,,,,,,,,,
1720525048,0,0,4264.615234,4274.743652,4296.025879,4307.05127,4271.153809,4269.743652,4268.461426,4301.153809,4247.179688,4251.153809,4493.205078,4477.692383,4349.230957,4359.743652,,,,,,,,,,,,,,,,,,,,,,,,,,,,,,,,,,,,,,,,,,,,,,,,,,,,,,,,,,,,,,,,,,,,,,
1720525048,1,0,4267.436035,4270.128418,4303.205078,4309.358887,4277.94873,4276.025879,4278.077148,4301.282227,4246.410156,4248.077148,4488.974121,4478.333496,4345,4356.153809,,,,,,,,,,,,,,,,,,,,,,,,,,,,,,,,,,,,,,,,,,,,,,,,,,,,,,,,,,,,,,,,,,,,,,
1720525048,2,0,4261.153809,4257.94873,4305.384766,4295.256348,4277.820313,4270.512695,4280.769043,4308.461426,4244.102539,4247.436035,4488.717773,4486.282227,4351.282227,4361.922852,,,,,,,,,,,,,,,,,,,,,,,,,,,,,,,,,,,,,,,,,,,,,,,,,,,,,,,,,,,,,,,,,,,,,,
1720525048,3,0,4262.94873,4265.256348,4298.717773,4297.563965,4275.384766,4265.384766,4277.820313,4308.589844,4246.025879,4249.102539,4491.794922,4487.563965,4357.307617,4363.846191,,,,,,,,,,,,,,,,,,,,,,,,,,,,,,,,,,,,,,,,,,,,,,,,,,,,,,,,,,,,,,,,,,,,,,
1720525048,4,0,4264.230957,4272.05127,4293.974121,4311.794922,4279.230957,4270.256348,4281.282227,4304.358887,4249.230957,4247.94873,4497.179688,4481.666504,4353.974121,4358.589844,8.158384,3.631612,2.486672,0.531546,0.160011,3.191793,1.93088,2.021189,0.499261,0.384168,4.286871,2.384698,2.174744,0.454373,0.211502,3.650733,1.903418,1.715613,0.671691,0.562798,0.822309,0.6499,0.371476,0.211645,0.144079,0.796457,0.616341,1.334603,0.165203,0.162071,19.01825,9.290277,3.845725,1.3004,0.543892,0.89564,0.336379,0.27705,0.069308,0.202447,2.359748,1.420835,1.432317,0.584615,0.162603,4.803632,3.170563,1.851671,0.804279,0.256139,5.475986,5.115826,4.201437,1.099126,0.402181,5.921452,4.111503,2.571902,0.693364,0.24657,7.83132,4.528538,3.311632,1.034197,0.264864,7.226069,6.289612,3.441161,0.927175,0.244155
1720525048,5,0,4261.410156,4263.333496,4296.025879,4304.487305,4276.282227,4268.974121,4281.922852,4304.871582,4247.94873,4252.94873,4501.282227,4482.307617,4362.307617,4364.230957,,,,,,,,,,,,,,,,,,,,,,,,,,,,,,,,,,,,,,,,,,,,,,,,,,,,,,,,,,,,,,,,,,,,,,
1720525048,6,0,4262.307617,4259.615234,4294.871582,4290,4269.743652,4261.922852,4276.025879,4304.487305,4243.461426,4256.410156,4495.384766,4483.717773,4371.538574,4373.974121,,,,,,,,,,,,,,,,,,,,,,,,,,,,,,,,,,,,,,,,,,,,,,,,,,,,,,,,,,,,,,,,,,,,,,
1720525048,7,0,4263.461426,4263.589844,4296.025879,4298.717773,4270.512695,4264.230957,4277.692383,4305.641113,4243.846191,4257.05127,4490.512695,4484.743652,4366.410156,4373.077148,,,,,,,,,,,,,,,,,,,,,,,,,,,,,,,,,,,,,,,,,,,,,,,,,,,,,,,,,,,,,,,,,,,,,,
1720525048,8,0,4265.641113,4270.512695,4306.666504,4310.512695,4273.589844,4267.820313,4283.333496,4306.922852,4248.717773,4269.230957,4498.461426,4490.512695,4369.102539,4374.358887,,,,,,,,,,,,,,,,,,,,,,,,,,,,,,,,,,,,,,,,,,,,,,,,,,,,,,,,,,,,,,,,,,,,,,
1720525048,9,0,4271.410156,4280,4316.153809,4315.256348,4278.205078,4265.769043,4282.820313,4303.077148,4248.846191,4278.717773,4510.256348,4497.820313,4382.563965,4383.461426,,,,,,,,,,,,,,,,,,,,,,,,,,,,,,,,,,,,,,,,,,,,,,,,,,,,,,,,,,,,,,,,,,,,,,
1720525048,10,0,4273.974121,4277.179688,4318.717773,4318.846191,4279.230957,4266.153809,4282.436035,4306.666504,4248.717773,4271.025879,4509.615234,4501.410156,4382.563965,4385.897461,,,,,,,,,,,,,,,,,,,,,,,,,,,,,,,,,,,,,,,,,,,,,,,,,,,,,,,,,,,,,,,,,,,,,,
1720525048,11,0,4266.410156,4264.871582,4311.922852,4313.589844,4270.897461,4265.128418,4280.512695,4312.692383,4247.05127,4262.436035,4493.205078,4491.410156,4363.461426,4376.666504,,,,,,,,,,,,,,,,,,,,,,,,,,,,,,,,,,,,,,,,,,,,,,,,,,,,,,,,,,,,,,,,,,,,,,
1720525048,12,0,4247.820313,4254.487305,4293.846191,4295.641113,4264.487305,4256.153809,4266.025879,4299.358887,4235.897461,4249.358887,4467.05127,4466.153809,4334.487305,4356.025879,,,,,,,,,,,,,,,,,,,,,,,,,,,,,,,,,,,,,,,,,,,,,,,,,,,,,,,,,,,,,,,,,,,,,,
1720525048,13,0,4224.743652,4244.871582,4273.205078,4281.410156,4261.025879,4246.282227,4248.846191,4296.282227,4217.436035,4219.743652,4443.077148,4443.974121,4305.897461,4331.922852,,,,,,,,,,,,,,,,,,,,,,,,,,,,,,,,,,,,,,,,,,,,,,,,,,,,,,,,,,,,,,,,,,,,,,
1720525048,14,0,4210.384766,4233.974121,4260.128418,4277.436035,4252.05127,4246.025879,4242.692383,4301.666504,4202.820313,4201.282227,4428.717773,4436.410156,4295.641113,4323.974121,,,,,,,,,,,,,,,,,,,,,,,,,,,,,,,,,,,,,,,,,,,,,,,,,,,,,,,,,,,,,,,,,,,,,,
1720525048,15,0,4208.846191,4228.333496,4257.563965,4271.282227,4247.94873,4254.358887,4246.794922,4287.307617,4206.153809,4210.512695,4430.897461,4435.512695,4305.897461,4333.589844,,,,,,,,,,,,,,,,,,,,,,,,,,,,,,,,,,,,,,,,,,,,,,,,,,,,,,,,,,,,,,,,,,,,,,
1720525048,16,0,4227.563965,4241.794922,4277.563965,4279.743652,4259.615234,4260.641113,4261.538574,4293.461426,4229.615234,4239.102539,4454.743652,4456.538574,4327.307617,4353.717773,,,,,,,,,,,,,,,,,,,,,,,,,,,,,,,,,,,,,,,,,,,,,,,,,,,,,,,,,,,,,,,,,,,,,,
1720525048,17,0,4257.307617,4265.641113,4308.333496,4309.743652,4273.589844,4266.410156,4281.153809,4313.717773,4255.641113,4269.487305,4484.487305,4489.743652,4350.897461,4376.410156,,,,,,,,,,,,,,,,,,,,,,,,,,,,,,,,,,,,,,,,,,,,,,,,,,,,,,,,,,,,,,,,,,,,,,
1720525048,18,0,4269.230957,4279.230957,4316.666504,4324.487305,4278.205078,4273.205078,4286.538574,4309.358887,4261.410156,4275.897461,4497.307617,4494.102539,4360.641113,4386.410156,,,,,,,,,,,,,,,,,,,,,,,,,,,,,,,,,,,,,,,,,,,,,,,,,,,,,,,,,,,,,,,,,,,,,,
1720525048,19,0,4260.512695,4279.358887,4310.641113,4314.487305,4278.717773,4278.333496,4283.717773,4304.743652,4253.077148,4261.025879,4492.179688,4482.820313,4352.692383,4382.307617,,,,,,,,,,,,,,,,,,,,,,,,,,,,,,,,,,,,,,,,,,,,,,,,,,,,,,,,,,,,,,,,,,,,,,
1720525048,20,0,4254.358887,4274.102539,4310.641113,4307.820313,4280.897461,4278.205078,4286.410156,4308.974121,4249.102539,4256.538574,4486.794922,4482.94873,4349.615234,4379.230957,9.955607,3.908132,2.351902,0.52934,0.165619,3.477173,1.929489,1.923234,0.455212,0.360682,5.436656,2.695225,2.186157,0.46915,0.202478,4.026657,1.898978,1.731891,0.729159,0.597547,0.913146,0.666749,0.423249,0.18935,0.160594,0.949226,0.666866,1.422418,0.159102,0.176746,13.779504,6.492118,2.732434,0.914829,0.390344,1.04416,0.395375,0.243123,0.069002,0.206672,2.693155,1.807255,1.405718,0.56417,0.177363,5.060906,3.368421,1.702224,0.891527,0.273959,6.744706,5.679409,4.432561,1.16569,0.414147,7.016204,4.569251,2.683911,0.736871,0.224687,9.203031,4.935872,3.527274,1.166592,0.258628,8.307382,6.909228,3.335951,1.013662,0.21709
1720525048,21,0,4251.538574,4265.128418,4302.179688,4308.974121,4276.794922,4273.333496,4283.461426,4299.358887,4246.538574,4258.717773,4486.538574,4478.077148,4352.179688,4377.307617,,,,,,,,,,,,,,,,,,,,,,,,,,,,,,,,,,,,,,,,,,,,,,,,,,,,,,,,,,,,,,,,,,,,,,
1720525049,22,0,4245,4256.153809,4292.692383,4304.743652,4267.820313,4274.743652,4279.871582,4298.589844,4242.94873,4252.179688,4482.820313,4471.410156,4347.94873,4373.974121,,,,,,,,,,,,,,,,,,,,,,,,,,,,,,,,,,,,,,,,,,,,,,,,,,,,,,,,,,,,,,,,,,,,,,
1720525049,23,0,4245.897461,4262.563965,4304.230957,4306.794922,4267.436035,4275.641113,4285.641113,4311.153809,4248.589844,4254.487305,4484.871582,4482.692383,4352.563965,4380.256348,,,,,,,,,,,,,,,,,,,,,,,,,,,,,,,,,,,,,,,,,,,,,,,,,,,,,,,,,,,,,,,,,,,,,,
1720525049,24,0,4253.589844,4274.487305,4313.205078,4312.820313,4270.384766,4268.077148,4286.282227,4308.974121,4261.410156,4265.256348,4490.384766,4491.025879,4364.871582,4389.743652,,,,,,,,,,,,,,,,,,,,,,,,,,,,,,,,,,,,,,,,,,,,,,,,,,,,,,,,,,,,,,,,,,,,,,
1720525049,25,0,4255.641113,4271.282227,4302.94873,4310.384766,4265.641113,4260.128418,4275.769043,4307.307617,4263.589844,4267.179688,4491.025879,4486.922852,4366.153809,4392.307617,,,,,,,,,,,,,,,,,,,,,,,,,,,,,,,,,,,,,,,,,,,,,,,,,,,,,,,,,,,,,,,,,,,,,,
1720525049,26,0,4251.282227,4262.692383,4295.384766,4307.94873,4264.743652,4262.820313,4276.794922,4308.077148,4261.410156,4265.769043,4492.94873,4488.717773,4366.282227,4394.487305,,,,,,,,,,,,,,,,,,,,,,,,,,,,,,,,,,,,,,,,,,,,,,,,,,,,,,,,,,,,,,,,,,,,,,
1720525049,27,0,4247.05127,4264.487305,4296.794922,4308.333496,4271.282227,4268.846191,4287.307617,4310,4268.077148,4267.05127,4495.384766,4493.333496,4368.461426,4396.922852,,,,,,,,,,,,,,,,,,,,,,,,,,,,,,,,,,,,,,,,,,,,,,,,,,,,,,,,,,,,,,,,,,,,,,
1720525049,28,0,4248.461426,4270.897461,4297.436035,4308.461426,4271.538574,4267.05127,4286.282227,4311.794922,4266.538574,4266.025879,4490,4489.102539,4362.820313,4393.205078,,,,,,,,,,,,,,,,,,,,,,,,,,,,,,,,,,,,,,,,,,,,,,,,,,,,,,,,,,,,,,,,,,,,,,
1720525049,29,0,4251.025879,4271.282227,4297.692383,4312.05127,4266.794922,4263.717773,4279.102539,4300.384766,4253.717773,4262.307617,4482.692383,4483.589844,4362.563965,4390.256348,,,,,,,,,,,,,,,,,,,,,,,,,,,,,,,,,,,,,,,,,,,,,,,,,,,,,,,,,,,,,,,,,,,,,,
1720525049,30,0,4245,4267.820313,4297.307617,4312.05127,4265.128418,4262.94873,4276.153809,4293.846191,4244.230957,4254.358887,4487.05127,4481.794922,4369.358887,4393.589844,,,,,,,,,,,,,,,,,,,,,,,,,,,,,,,,,,,,,,,,,,,,,,,,,,,,,,,,,,,,,,,,,,,,,,
1720525049,31,0,4233.461426,4257.563965,4294.102539,4299.615234,4265.256348,4264.487305,4276.794922,4300,4243.205078,4244.871582,4493.333496,4471.410156,4363.333496,4388.974121,,,,,,,,,,,,,,,,,,,,,,,,,,,,,,,,,,,,,,,,,,,,,,,,,,,,,,,,,,,,,,,,,,,,,,
1720525049,32,0,4230.384766,4249.871582,4291.410156,4291.282227,4263.717773,4263.461426,4273.205078,4302.436035,4246.794922,4251.666504,4488.589844,4464.102539,4356.794922,4382.692383,,,,,,,,,,,,,,,,,,,,,,,,,,,,,,,,,,,,,,,,,,,,,,,,,,,,,,,,,,,,,,,,,,,,,,
1720525049,33,0,4234.743652,4257.179688,4292.692383,4299.487305,4262.307617,4261.025879,4267.307617,4300.641113,4249.487305,4264.871582,4480.641113,4474.743652,4361.794922,4384.743652,,,,,,,,,,,,,,,,,,,,,,,,,,,,,,,,,,,,,,,,,,,,,,,,,,,,,,,,,,,,,,,,,,,,,,
1720525049,34,0,4231.282227,4263.333496,4293.205078,4302.692383,4263.974121,4262.179688,4264.358887,4303.717773,4249.615234,4264.358887,4476.794922,4476.922852,4359.615234,4383.077148,,,,,,,,,,,,,,,,,,,,,,,,,,,,,,,,,,,,,,,,,,,,,,,,,,,,,,,,,,,,,,,,,,,,,,
1720525049,35,0,4228.589844,4263.589844,4292.05127,4298.461426,4263.461426,4261.153809,4263.461426,4302.94873,4248.205078,4264.102539,4477.94873,4469.871582,4353.846191,4382.307617,,,,,,,,,,,,,,,,,,,,,,,,,,,,,,,,,,,,,,,,,,,,,,,,,,,,,,,,,,,,,,,,,,,,,,
1720525049,36,0,4233.846191,4257.820313,4293.589844,4298.461426,4260.256348,4260.128418,4261.794922,4298.846191,4246.410156,4271.153809,4478.333496,4475.769043,4360,4388.333496,10.939098,3.804827,2.016411,0.526683,0.177366,3.532158,1.749001,1.686281,0.412917,0.342918,6.136361,2.727823,2.026182,0.474724,0.197688,4.154088,1.733366,1.598051,0.736305,0.600945,0.92291,0.650827,0.455045,0.179267,0.179198,1.045868,0.720259,1.468288,0.173603,0.189919,8.722469,4.037626,1.868696,0.593412,0.270237,1.060802,0.439774,0.232217,0.0718,0.20385,2.808784,2.220683,1.493347,0.535019,0.189388,4.894674,3.386422,1.57023,0.920433,0.300256,8.319568,5.969196,4.567508,1.231992,0.450338,7.667886,4.595175,2.654202,0.752561,0.215586,9.882754,4.921971,3.530249,1.271811,0.270841,9.099549,6.859353,3.051898,1.067786,0.213833
1720525049,37,0,4233.461426,4251.538574,4295.512695,4296.282227,4260.512695,4264.615234,4258.461426,4302.05127,4243.333496,4266.538574,4476.666504,4483.205078,4362.820313,4387.179688,,,,,,,,,,,,,,,,,,,,,,,,,,,,,,,,,,,,,,,,,,,,,,,,,,,,,,,,,,,,,,,,,,,,,,
1720525049,38,0,4229.230957,4255.128418,4293.974121,4292.307617,4258.077148,4268.077148,4257.692383,4304.102539,4242.94873,4256.538574,4476.282227,4476.282227,4350.641113,4378.589844,,,,,,,,,,,,,,,,,,,,,,,,,,,,,,,,,,,,,,,,,,,,,,,,,,,,,,,,,,,,,,,,,,,,,,
1720525049,39,0,4234.487305,4262.307617,4293.846191,4295.512695,4255.256348,4263.717773,4255.384766,4299.615234,4247.05127,4260.512695,4476.666504,4472.179688,4345.128418,4380.384766,,,,,,,,,,,,,,,,,,,,,,,,,,,,,,,,,,,,,,,,,,,,,,,,,,,,,,,,,,,,,,,,,,,,,,
1720525049,40,0,4245.128418,4267.692383,4297.94873,4301.282227,4260.641113,4260.897461,4250.128418,4295.897461,4249.615234,4268.846191,4477.179688,4478.205078,4358.461426,4388.589844,,,,,,,,,,,,,,,,,,,,,,,,,,,,,,,,,,,,,,,,,,,,,,,,,,,,,,,,,,,,,,,,,,,,,,
1720525049,41,0,4247.692383,4262.436035,4300,4298.205078,4265.641113,4265.128418,4248.077148,4306.282227,4250.512695,4268.461426,4485.897461,4485.256348,4367.307617,4392.692383,,,,,,,,,,,,,,,,,,,,,,,,,,,,,,,,,,,,,,,,,,,,,,,,,,,,,,,,,,,,,,,,,,,,,,
1720525049,42,0,4244.358887,4252.820313,4297.563965,4290.897461,4257.436035,4265.512695,4248.846191,4314.358887,4249.743652,4262.820313,4489.358887,4487.05127,4358.974121,4389.743652,,,,,,,,,,,,,,,,,,,,,,,,,,,,,,,,,,,,,,,,,,,,,,,,,,,,,,,,,,,,,,,,,,,,,,
1720525049,43,0,4245.641113,4255.384766,4294.102539,4298.589844,4249.871582,4261.410156,4246.922852,4301.410156,4248.077148,4257.307617,4478.333496,4481.794922,4350.512695,4387.436035,,,,,,,,,,,,,,,,,,,,,,,,,,,,,,,,,,,,,,,,,,,,,,,,,,,,,,,,,,,,,,,,,,,,,,
1720525049,44,0,4251.153809,4267.692383,4299.743652,4311.538574,4256.410156,4262.820313,4250.897461,4302.94873,4248.846191,4261.153809,4483.974121,4486.666504,4357.05127,4394.743652,,,,,,,,,,,,,,,,,,,,,,,,,,,,,,,,,,,,,,,,,,,,,,,,,,,,,,,,,,,,,,,,,,,,,,
1720525049,45,0,4250.641113,4268.846191,4306.153809,4303.077148,4261.666504,4265.384766,4258.461426,4315.128418,4251.025879,4266.410156,4496.282227,4492.692383,4357.05127,4394.871582,,,,,,,,,,,,,,,,,,,,,,,,,,,,,,,,,,,,,,,,,,,,,,,,,,,,,,,,,,,,,,,,,,,,,,
1720525049,46,0,4245.128418,4257.94873,4298.974121,4287.563965,4258.333496,4264.102539,4254.230957,4308.333496,4250,4254.230957,4485,4483.846191,4346.282227,4384.487305,,,,,,,,,,,,,,,,,,,,,,,,,,,,,,,,,,,,,,,,,,,,,,,,,,,,,,,,,,,,,,,,,,,,,,
1720525049,47,0,4245.512695,4258.589844,4292.307617,4293.589844,4256.153809,4263.077148,4247.820313,4303.333496,4248.589844,4244.871582,4478.205078,4478.589844,4348.589844,4384.358887,,,,,,,,,,,,,,,,,,,,,,,,,,,,,,,,,,,,,,,,,,,,,,,,,,,,,,,,,,,,,,,,,,,,,,
1720525049,48,0,4247.692383,4267.94873,4294.743652,4306.153809,4260.128418,4263.205078,4249.487305,4307.94873,4253.461426,4256.538574,4491.794922,4485.256348,4354.871582,4392.820313,,,,,,,,,,,,,,,,,,,,,,,,,,,,,,,,,,,,,,,,,,,,,,,,,,,,,,,,,,,,,,,,,,,,,,
1720525049,49,0,4244.615234,4260,4296.282227,4301.025879,4261.282227,4264.102539,4254.358887,4305.897461,4260.128418,4266.153809,4504.358887,4489.358887,4356.666504,4396.922852,,,,,,,,,,,,,,,,,,,,,,,,,,,,,,,,,,,,,,,,,,,,,,,,,,,,,,,,,,,,,,,,,,,,,,
1720525049,50,0,4244.102539,4245.641113,4298.205078,4292.820313,4253.846191,4265.256348,4258.974121,4307.563965,4260.512695,4267.94873,4510.641113,4492.820313,4362.05127,4401.025879,,,,,,,,,,,,,,,,,,,,,,,,,,,,,,,,,,,,,,,,,,,,,,,,,,,,,,,,,,,,,,,,,,,,,,
1720525049,51,0,4249.230957,4257.307617,4301.922852,4300.769043,4250.897461,4265,4262.94873,4315.512695,4258.205078,4273.333496,4513.077148,4500.769043,4364.230957,4405.384766,,,,,,,,,,,,,,,,,,,,,,,,,,,,,,,,,,,,,,,,,,,,,,,,,,,,,,,,,,,,,,,,,,,,,,
1720525049,52,0,4249.871582,4273.461426,4298.846191,4312.692383,4259.102539,4266.153809,4262.179688,4311.282227,4260.641113,4272.820313,4507.563965,4495.641113,4358.717773,4402.94873,10.741305,3.332234,1.619257,0.528063,0.19472,3.291099,1.444222,1.415587,0.37407,0.338856,6.179743,2.475752,1.784589,0.478398,0.1964,3.957693,1.443867,1.377598,0.690478,0.577463,0.848107,0.603276,0.459671,0.178746,0.197531,1.064545,0.740361,1.426988,0.199048,0.196125,5.009487,2.375907,1.320287,0.395488,0.204001,1.018565,0.446761,0.230559,0.078175,0.196845,2.64476,2.546219,1.600605,0.499297,0.192818,4.327285,3.256274,1.469366,0.885323,0.333965,10.078218,6.081577,4.675775,1.269803,0.498033,7.706865,4.143625,2.488929,0.745828,0.217322,9.68529,4.508401,3.279386,1.308995,0.298332,9.269449,6.10004,2.625776,1.066881,0.228913
1720525049,53,0,4253.461426,4268.589844,4295.769043,4313.717773,4265,4267.307617,4256.282227,4310.256348,4258.846191,4262.94873,4508.077148,4488.717773,4356.025879,4401.666504,,,,,,,,,,,,,,,,,,,,,,,,,,,,,,,,,,,,,,,,,,,,,,,,,,,,,,,,,,,,,,,,,,,,,,
1720525049,54,0,4262.307617,4266.922852,4297.179688,4309.487305,4262.94873,4262.820313,4250,4311.025879,4250.897461,4262.307617,4510.641113,4491.538574,4355.384766,4405.128418,,,,,,,,,,,,,,,,,,,,,,,,,,,,,,,,,,,,,,,,,,,,,,,,,,,,,,,,,,,,,,,,,,,,,,
1720525049,55,0,4258.974121,4271.153809,4296.410156,4305.512695,4257.563965,4258.205078,4249.743652,4306.025879,4249.358887,4268.461426,4508.974121,4491.538574,4354.615234,4409.487305,,,,,,,,,,,,,,,,,,,,,,,,,,,,,,,,,,,,,,,,,,,,,,,,,,,,,,,,,,,,,,,,,,,,,,
1720525049,56,0,4245,4265,4289.615234,4296.282227,4251.538574,4260.256348,4250.256348,4302.563965,4251.153809,4262.436035,4503.846191,4483.461426,4352.820313,4406.025879,,,,,,,,,,,,,,,,,,,,,,,,,,,,,,,,,,,,,,,,,,,,,,,,,,,,,,,,,,,,,,,,,,,,,,
1720525049,57,0,4239.615234,4255.512695,4281.666504,4292.94873,4250.256348,4263.717773,4244.743652,4298.205078,4245.897461,4254.615234,4492.179688,4474.743652,4341.794922,4396.922852,,,,,,,,,,,,,,,,,,,,,,,,,,,,,,,,,,,,,,,,,,,,,,,,,,,,,,,,,,,,,,,,,,,,,,
1720525049,58,0,4242.05127,4254.487305,4283.974121,4298.205078,4251.282227,4267.05127,4250.512695,4304.743652,4246.538574,4260.384766,4494.487305,4479.871582,4341.153809,4403.205078,,,,,,,,,,,,,,,,,,,,,,,,,,,,,,,,,,,,,,,,,,,,,,,,,,,,,,,,,,,,,,,,,,,,,,
1720525049,59,0,4249.487305,4262.179688,4295.641113,4306.025879,4248.974121,4268.461426,4264.102539,4307.436035,4257.563965,4267.94873,4509.102539,4489.487305,4352.94873,4414.358887,,,,,,,,,,,,,,,,,,,,,,,,,,,,,,,,,,,,,,,,,,,,,,,,,,,,,,,,,,,,,,,,,,,,,,
1720525049,60,0,4260.128418,4267.820313,4301.282227,4311.922852,4249.487305,4265,4263.461426,4300.641113,4258.205078,4266.410156,4505.897461,4488.077148,4345.897461,4410.641113,,,,,,,,,,,,,,,,,,,,,,,,,,,,,,,,,,,,,,,,,,,,,,,,,,,,,,,,,,,,,,,,,,,,,,
1720525049,61,0,4256.282227,4262.436035,4295.256348,4308.461426,4252.05127,4265.641113,4258.717773,4303.205078,4249.615234,4259.102539,4490.256348,4480.769043,4329.487305,4402.94873,,,,,,,,,,,,,,,,,,,,,,,,,,,,,,,,,,,,,,,,,,,,,,,,,,,,,,,,,,,,,,,,,,,,,,
1720525049,62,0,4246.410156,4260,4289.871582,4302.179688,4249.743652,4270.128418,4261.666504,4305.897461,4246.666504,4249.102539,4486.410156,4478.205078,4329.871582,4400.769043,,,,,,,,,,,,,,,,,,,,,,,,,,,,,,,,,,,,,,,,,,,,,,,,,,,,,,,,,,,,,,,,,,,,,,
1720525049,63,0,4255.897461,4264.615234,4298.589844,4308.461426,4250,4266.410156,4260.897461,4303.974121,4245.897461,4244.743652,4493.461426,4486.153809,4337.820313,4408.974121,,,,,,,,,,,,,,,,,,,,,,,,,,,,,,,,,,,,,,,,,,,,,,,,,,,,,,,,,,,,,,,,,,,,,,
1720525049,64,0,4272.05127,4269.358887,4312.692383,4321.538574,4258.717773,4262.563965,4263.333496,4307.563965,4251.282227,4255.769043,4504.102539,4499.871582,4348.589844,4428.974121,,,,,,,,,,,,,,,,,,,,,,,,,,,,,,,,,,,,,,,,,,,,,,,,,,,,,,,,,,,,,,,,,,,,,,
1720525049,65,0,4273.589844,4275.128418,4315.128418,4319.487305,4264.871582,4267.436035,4276.794922,4313.717773,4265.641113,4267.179688,4518.717773,4508.205078,4365.128418,4441.922852,,,,,,,,,,,,,,,,,,,,,,,,,,,,,,,,,,,,,,,,,,,,,,,,,,,,,,,,,,,,,,,,,,,,,,
1720525049,66,0,4266.025879,4273.589844,4307.179688,4310.897461,4263.333496,4268.461426,4278.461426,4310.769043,4264.487305,4265.384766,4516.153809,4504.871582,4363.717773,4431.666504,,,,,,,,,,,,,,,,,,,,,,,,,,,,,,,,,,,,,,,,,,,,,,,,,,,,,,,,,,,,,,,,,,,,,,
1720525049,67,0,4266.794922,4274.487305,4306.153809,4319.230957,4262.692383,4262.94873,4267.563965,4307.436035,4249.358887,4261.410156,4496.666504,4498.333496,4347.563965,4416.794922,,,,,,,,,,,,,,,,,,,,,,,,,,,,,,,,,,,,,,,,,,,,,,,,,,,,,,,,,,,,,,,,,,,,,,
1720525049,68,0,4271.922852,4282.05127,4310.256348,4327.436035,4264.615234,4264.358887,4266.282227,4310.256348,4248.461426,4261.410156,4490.256348,4498.205078,4344.615234,4413.717773,9.637391,2.668716,1.359996,0.549841,0.213693,2.835584,1.133818,1.248099,0.355689,0.348841,5.609572,2.066042,1.61554,0.50457,0.19646,3.476182,1.128706,1.194915,0.625154,0.539686,0.721534,0.548929,0.453342,0.184389,0.211283,1.029599,0.717882,1.298081,0.220832,0.191528,2.962081,1.537233,1.033307,0.32164,0.183922,0.838457,0.409159,0.227931,0.089447,0.190615,2.30309,2.692104,1.667806,0.480668,0.18572,3.497542,3.082011,1.488996,0.825459,0.368093,11.694195,6.178306,4.860974,1.28772,0.53977,7.094875,3.373721,2.291216,0.744169,0.225085,8.709776,3.90411,2.885298,1.280989,0.334203,8.74491,4.879239,2.186027,1.017239,0.250967
1720525049,69,0,4268.077148,4271.794922,4305.897461,4316.794922,4265.512695,4274.743652,4270.897461,4312.94873,4253.077148,4254.487305,4494.230957,4497.436035,4346.025879,4408.461426,,,,,,,,,,,,,,,,,,,,,,,,,,,,,,,,,,,,,,,,,,,,,,,,,,,,,,,,,,,,,,,,,,,,,,
1720525049,70,0,4262.820313,4257.436035,4303.974121,4306.794922,4264.358887,4279.487305,4269.743652,4313.333496,4257.820313,4248.077148,4491.025879,4495.256348,4343.846191,4402.820313,,,,,,,,,,,,,,,,,,,,,,,,,,,,,,,,,,,,,,,,,,,,,,,,,,,,,,,,,,,,,,,,,,,,,,
1720525049,71,0,4268.205078,4268.589844,4305.769043,4310.384766,4261.666504,4270.897461,4266.153809,4306.282227,4264.102539,4255.512695,4489.358887,4495.512695,4351.922852,4407.05127,,,,,,,,,,,,,,,,,,,,,,,,,,,,,,,,,,,,,,,,,,,,,,,,,,,,,,,,,,,,,,,,,,,,,,
1720525049,72,0,4270,4275.641113,4300.384766,4311.282227,4260.256348,4263.974121,4263.974121,4305.256348,4254.615234,4260.384766,4494.230957,4494.358887,4353.846191,4406.282227,,,,,,,,,,,,,,,,,,,,,,,,,,,,,,,,,,,,,,,,,,,,,,,,,,,,,,,,,,,,,,,,,,,,,,
1720525049,73,0,4261.794922,4263.974121,4298.461426,4309.487305,4259.743652,4267.563965,4264.871582,4314.102539,4247.307617,4258.205078,4492.692383,4494.615234,4346.922852,4398.589844,,,,,,,,,,,,,,,,,,,,,,,,,,,,,,,,,,,,,,,,,,,,,,,,,,,,,,,,,,,,,,,,,,,,,,
1720525049,74,0,4257.563965,4259.230957,4300,4309.230957,4256.282227,4267.820313,4266.153809,4313.205078,4255.769043,4263.974121,4483.205078,4496.410156,4350.641113,4397.94873,,,,,,,,,,,,,,,,,,,,,,,,,,,,,,,,,,,,,,,,,,,,,,,,,,,,,,,,,,,,,,,,,,,,,,
1720525049,75,0,4262.05127,4266.794922,4299.615234,4308.077148,4257.307617,4262.179688,4265.128418,4304.102539,4258.461426,4270.641113,4482.563965,4491.922852,4356.666504,4402.05127,,,,,,,,,,,,,,,,,,,,,,,,,,,,,,,,,,,,,,,,,,,,,,,,,,,,,,,,,,,,,,,,,,,,,,
1720525049,76,0,4268.205078,4274.358887,4305.384766,4312.820313,4262.94873,4261.410156,4265.256348,4318.589844,4252.692383,4268.077148,4500.512695,4499.487305,4362.307617,4409.230957,,,,,,,,,,,,,,,,,,,,,,,,,,,,,,,,,,,,,,,,,,,,,,,,,,,,,,,,,,,,,,,,,,,,,,
1720525049,77,0,4268.461426,4276.538574,4306.794922,4318.589844,4260.384766,4264.230957,4266.666504,4326.794922,4253.589844,4265.769043,4507.179688,4510.769043,4367.307617,4409.358887,,,,,,,,,,,,,,,,,,,,,,,,,,,,,,,,,,,,,,,,,,,,,,,,,,,,,,,,,,,,,,,,,,,,,,
1720525049,78,0,4261.410156,4275.128418,4297.307617,4318.974121,4256.922852,4265.384766,4264.102539,4305.512695,4253.589844,4264.743652,4483.846191,4493.461426,4359.615234,4395.897461,,,,,,,,,,,,,,,,,,,,,,,,,,,,,,,,,,,,,,,,,,,,,,,,,,,,,,,,,,,,,,,,,,,,,,
1720525049,79,0,4262.692383,4273.717773,4301.282227,4320.256348,4261.282227,4264.871582,4258.333496,4308.974121,4248.333496,4260.128418,4478.333496,4485.641113,4355.769043,4390.769043,,,,,,,,,,,,,,,,,,,,,,,,,,,,,,,,,,,,,,,,,,,,,,,,,,,,,,,,,,,,,,,,,,,,,,
1720525049,80,0,4269.102539,4268.974121,4306.538574,4321.025879,4259.102539,4264.102539,4256.538574,4312.307617,4250.769043,4262.05127,4495.384766,4495.512695,4365.384766,4392.692383,,,,,,,,,,,,,,,,,,,,,,,,,,,,,,,,,,,,,,,,,,,,,,,,,,,,,,,,,,,,,,,,,,,,,,
1720525049,81,0,4263.717773,4257.820313,4293.205078,4308.461426,4252.307617,4267.692383,4258.461426,4305.128418,4254.615234,4271.666504,4495.897461,4491.282227,4370,4390.384766,,,,,,,,,,,,,,,,,,,,,,,,,,,,,,,,,,,,,,,,,,,,,,,,,,,,,,,,,,,,,,,,,,,,,,
1720525049,82,0,4259.615234,4254.358887,4288.077148,4295.384766,4252.307617,4269.743652,4260.256348,4312.563965,4251.922852,4275.384766,4483.461426,4488.717773,4363.846191,4390.384766,,,,,,,,,,,,,,,,,,,,,,,,,,,,,,,,,,,,,,,,,,,,,,,,,,,,,,,,,,,,,,,,,,,,,,
1720525049,83,0,4270.256348,4263.461426,4296.922852,4301.922852,4254.487305,4266.666504,4258.974121,4309.615234,4249.358887,4270,4481.282227,4489.102539,4360.384766,4391.410156,,,,,,,,,,,,,,,,,,,,,,,,,,,,,,,,,,,,,,,,,,,,,,,,,,,,,,,,,,,,,,,,,,,,,,
1720525049,84,0,4280.897461,4270.384766,4298.589844,4319.358887,4256.538574,4268.846191,4260.769043,4308.461426,4248.077148,4263.717773,4487.692383,4488.461426,4362.436035,4393.717773,7.988489,2.046088,1.37133,0.604601,0.228013,2.286563,0.924772,1.260546,0.373809,0.365864,4.664344,1.685073,1.635085,0.572655,0.194906,2.840239,0.890352,1.153071,0.578191,0.501471,0.584354,0.517683,0.459623,0.193373,0.215457,0.982156,0.670071,1.120603,0.228326,0.175466,2.183827,1.2436,0.903947,0.330852,0.184278,0.661215,0.336555,0.224003,0.106392,0.18934,1.960997,2.633536,1.707053,0.510149,0.169529,2.67254,2.991487,1.736014,0.799866,0.39221,12.814214,6.368776,5.156538,1.319357,0.559868,6.159409,2.565903,2.194162,0.777597,0.232865,7.471544,3.394943,2.536784,1.227908,0.36862,7.747579,3.611569,1.883488,0.949823,0.267886
1720525049,85,0,4280.641113,4268.461426,4296.538574,4324.871582,4261.153809,4276.410156,4263.461426,4310.128418,4248.333496,4260.641113,4492.307617,4488.717773,4365.641113,4398.077148,,,,,,,,,,,,,,,,,,,,,,,,,,,,,,,,,,,,,,,,,,,,,,,,,,,,,,,,,,,,,,,,,,,,,,
1720525049,86,0,4277.94873,4262.94873,4300.384766,4312.179688,4260.512695,4276.153809,4254.615234,4309.871582,4247.692383,4253.205078,4487.94873,4488.461426,4364.743652,4403.846191,,,,,,,,,,,,,,,,,,,,,,,,,,,,,,,,,,,,,,,,,,,,,,,,,,,,,,,,,,,,,,,,,,,,,,
1720525049,87,0,4280.769043,4267.563965,4307.179688,4312.05127,4258.333496,4272.820313,4247.563965,4311.666504,4248.717773,4246.922852,4478.974121,4487.94873,4368.077148,4412.307617,,,,,,,,,,,,,,,,,,,,,,,,,,,,,,,,,,,,,,,,,,,,,,,,,,,,,,,,,,,,,,,,,,,,,,
1720525049,88,0,4282.436035,4274.230957,4310,4325.897461,4262.436035,4275.384766,4256.666504,4309.358887,4247.94873,4251.025879,4480.512695,4489.358887,4380.897461,4420.641113,,,,,,,,,,,,,,,,,,,,,,,,,,,,,,,,,,,,,,,,,,,,,,,,,,,,,,,,,,,,,,,,,,,,,,
1720525049,89,0,4281.666504,4266.922852,4308.589844,4320.128418,4260.128418,4274.743652,4262.05127,4311.153809,4246.410156,4252.179688,4488.974121,4493.461426,4386.410156,4427.94873,,,,,,,,,,,,,,,,,,,,,,,,,,,,,,,,,,,,,,,,,,,,,,,,,,,,,,,,,,,,,,,,,,,,,,
1720525049,90,0,4290.256348,4261.153809,4309.230957,4310.384766,4257.436035,4275.641113,4256.794922,4313.461426,4249.230957,4245.769043,4493.717773,4493.974121,4384.615234,4430.769043,,,,,,,,,,,,,,,,,,,,,,,,,,,,,,,,,,,,,,,,,,,,,,,,,,,,,,,,,,,,,,,,,,,,,,
1720525049,91,0,4304.487305,4271.794922,4310.512695,4320.897461,4263.717773,4280.128418,4255.641113,4310.512695,4251.282227,4245.384766,4492.563965,4492.179688,4384.871582,4429.487305,,,,,,,,,,,,,,,,,,,,,,,,,,,,,,,,,,,,,,,,,,,,,,,,,,,,,,,,,,,,,,,,,,,,,,
1720525049,92,0,4303.846191,4275.256348,4308.333496,4326.666504,4262.307617,4275,4258.717773,4310.256348,4248.461426,4250.641113,4492.05127,4494.358887,4386.153809,4428.717773,,,,,,,,,,,,,,,,,,,,,,,,,,,,,,,,,,,,,,,,,,,,,,,,,,,,,,,,,,,,,,,,,,,,,,
1720525049,93,0,4296.025879,4263.717773,4306.025879,4316.538574,4257.563965,4271.666504,4255.897461,4312.692383,4246.666504,4250.256348,4493.077148,4495.256348,4382.820313,4422.692383,,,,,,,,,,,,,,,,,,,,,,,,,,,,,,,,,,,,,,,,,,,,,,,,,,,,,,,,,,,,,,,,,,,,,,
1720525049,94,0,4296.282227,4264.615234,4306.538574,4317.94873,4262.179688,4281.025879,4252.179688,4311.538574,4246.153809,4243.077148,4487.307617,4490.641113,4379.743652,4417.436035,,,,,,,,,,,,,,,,,,,,,,,,,,,,,,,,,,,,,,,,,,,,,,,,,,,,,,,,,,,,,,,,,,,,,,
1720525049,95,0,4300.384766,4274.487305,4310.641113,4324.487305,4267.436035,4284.230957,4255.897461,4310.128418,4245.256348,4244.487305,4479.230957,4492.94873,4385.128418,4427.563965,,,,,,,,,,,,,,,,,,,,,,,,,,,,,,,,,,,,,,,,,,,,,,,,,,,,,,,,,,,,,,,,,,,,,,
1720525049,96,0,4301.922852,4270.512695,4309.102539,4322.692383,4265.384766,4276.794922,4259.871582,4310.641113,4245.256348,4246.538574,4476.538574,4493.846191,4387.05127,4430.128418,,,,,,,,,,,,,,,,,,,,,,,,,,,,,,,,,,,,,,,,,,,,,,,,,,,,,,,,,,,,,,,,,,,,,,
1720525049,97,0,4298.205078,4260.641113,4299.615234,4320,4263.974121,4275.641113,4257.307617,4310.128418,4240.256348,4235.897461,4474.358887,4479.743652,4375.256348,4413.846191,,,,,,,,,,,,,,,,,,,,,,,,,,,,,,,,,,,,,,,,,,,,,,,,,,,,,,,,,,,,,,,,,,,,,,
1720525049,98,0,4297.563965,4264.487305,4296.666504,4322.179688,4264.615234,4279.358887,4259.358887,4312.820313,4236.666504,4232.563965,4469.102539,4475.256348,4368.846191,4409.615234,,,,,,,,,,,,,,,,,,,,,,,,,,,,,,,,,,,,,,,,,,,,,,,,,,,,,,,,,,,,,,,,,,,,,,
1720525049,99,0,4306.538574,4270.897461,4306.538574,4328.846191,4264.487305,4280.641113,4267.820313,4316.538574,4243.846191,4245.256348,4470.897461,4489.871582,4375.641113,4424.615234,,,,,,,,,,,,,,,,,,,,,,,,,,,,,,,,,,,,,,,,,,,,,,,,,,,,,,,,,,,,,,,,,,,,,,
1720525049,100,0,4312.820313,4266.282227,4314.871582,4326.025879,4264.102539,4274.358887,4267.94873,4322.563965,4251.410156,4252.94873,4482.94873,4497.692383,4374.102539,4432.436035,6.37358,1.64108,1.635358,0.688983,0.23296,1.806063,0.867452,1.423193,0.432057,0.380619,3.659358,1.470905,1.841623,0.6793,0.190148,2.222161,0.78852,1.265139,0.567234,0.472302,0.490925,0.526352,0.489861,0.203136,0.20692,0.955575,0.620636,0.946892,0.218526,0.15111,2.023538,1.176778,0.854441,0.375069,0.18152,0.483672,0.253174,0.22886,0.126361,0.194569,1.781546,2.418938,1.751693,0.601128,0.148543,2.014291,3.056885,2.232328,0.850128,0.397337,13.083202,6.61124,5.474182,1.386454,0.550051,5.169546,1.967171,2.265676,0.853993,0.236726,6.439296,3.172884,2.379172,1.197748,0.391169,6.546173,2.665326,1.793735,0.899039,0.272147
1720525049,101,0,4306.538574,4260.256348,4311.025879,4318.846191,4260.897461,4267.05127,4261.410156,4323.077148,4246.666504,4250.384766,4486.153809,4490.897461,4366.666504,4424.615234,,,,,,,,,,,,,,,,,,,,,,,,,,,,,,,,,,,,,,,,,,,,,,,,,,,,,,,,,,,,,,,,,,,,,,
1720525049,102,0,4298.846191,4259.743652,4303.589844,4315.384766,4257.94873,4269.358887,4258.461426,4313.461426,4240.384766,4251.282227,4477.179688,4487.179688,4371.410156,4422.94873,,,,,,,,,,,,,,,,,,,,,,,,,,,,,,,,,,,,,,,,,,,,,,,,,,,,,,,,,,,,,,,,,,,,,,
1720525049,103,0,4301.025879,4263.333496,4304.743652,4314.615234,4258.846191,4272.820313,4260.256348,4316.282227,4243.589844,4254.615234,4482.94873,4493.589844,4383.461426,4437.820313,,,,,,,,,,,,,,,,,,,,,,,,,,,,,,,,,,,,,,,,,,,,,,,,,,,,,,,,,,,,,,,,,,,,,,
1720525049,104,0,4306.538574,4264.487305,4307.05127,4316.410156,4259.230957,4267.05127,4262.820313,4324.487305,4249.102539,4249.871582,4491.666504,4496.666504,4385.128418,4440.641113,,,,,,,,,,,,,,,,,,,,,,,,,,,,,,,,,,,,,,,,,,,,,,,,,,,,,,,,,,,,,,,,,,,,,,
1720525049,105,0,4305.769043,4262.820313,4301.666504,4318.589844,4257.820313,4262.94873,4256.282227,4315.512695,4247.05127,4239.487305,4479.358887,4486.282227,4375.384766,4425.769043,,,,,,,,,,,,,,,,,,,,,,,,,,,,,,,,,,,,,,,,,,,,,,,,,,,,,,,,,,,,,,,,,,,,,,
1720525049,106,0,4297.307617,4265.256348,4297.307617,4317.436035,4260.897461,4266.153809,4248.717773,4306.153809,4236.282227,4230.769043,4471.410156,4477.436035,4371.410156,4420.897461,,,,,,,,,,,,,,,,,,,,,,,,,,,,,,,,,,,,,,,,,,,,,,,,,,,,,,,,,,,,,,,,,,,,,,
1720525049,107,0,4293.333496,4264.102539,4299.102539,4312.94873,4262.307617,4266.282227,4252.692383,4313.717773,4232.05127,4232.94873,4481.025879,4478.589844,4374.358887,4425.641113,,,,,,,,,,,,,,,,,,,,,,,,,,,,,,,,,,,,,,,,,,,,,,,,,,,,,,,,,,,,,,,,,,,,,,
1720525049,108,0,4295.897461,4260.384766,4297.179688,4309.230957,4260.512695,4269.615234,4261.922852,4320,4239.358887,4236.666504,4477.05127,4477.179688,4366.794922,4421.922852,,,,,,,,,,,,,,,,,,,,,,,,,,,,,,,,,,,,,,,,,,,,,,,,,,,,,,,,,,,,,,,,,,,,,,
1720525049,109,0,4295.769043,4259.743652,4294.230957,4309.358887,4262.563965,4276.025879,4266.794922,4319.743652,4246.538574,4232.563965,4467.179688,4479.615234,4362.436035,4421.025879,,,,,,,,,,,,,,,,,,,,,,,,,,,,,,,,,,,,,,,,,,,,,,,,,,,,,,,,,,,,,,,,,,,,,,
1720525049,110,0,4293.333496,4255.769043,4297.307617,4310.512695,4260.128418,4271.666504,4268.205078,4322.05127,4250,4235.256348,4481.153809,4488.974121,4377.307617,4429.871582,,,,,,,,,,,,,,,,,,,,,,,,,,,,,,,,,,,,,,,,,,,,,,,,,,,,,,,,,,,,,,,,,,,,,,
1720525049,111,0,4293.205078,4247.820313,4296.410156,4302.05127,4254.487305,4264.230957,4266.153809,4317.820313,4245,4240,4491.410156,4491.794922,4383.077148,4432.692383,,,,,,,,,,,,,,,,,,,,,,,,,,,,,,,,,,,,,,,,,,,,,,,,,,,,,,,,,,,,,,,,,,,,,,
1720525049,112,0,4295.256348,4247.692383,4292.692383,4289.615234,4254.615234,4263.974121,4263.077148,4317.820313,4239.743652,4234.230957,4481.794922,4489.871582,4372.94873,4432.307617,,,,,,,,,,,,,,,,,,,,,,,,,,,,,,,,,,,,,,,,,,,,,,,,,,,,,,,,,,,,,,,,,,,,,,
1720525049,113,0,4295.128418,4252.94873,4295.384766,4293.717773,4253.205078,4263.077148,4263.205078,4320.769043,4244.871582,4236.410156,4474.487305,4488.205078,4371.282227,4431.794922,,,,,,,,,,,,,,,,,,,,,,,,,,,,,,,,,,,,,,,,,,,,,,,,,,,,,,,,,,,,,,,,,,,,,,
1720525049,114,0,4288.333496,4249.487305,4293.077148,4301.282227,4248.846191,4258.846191,4262.307617,4313.717773,4247.94873,4243.333496,4478.205078,4479.615234,4375.897461,4428.717773,,,,,,,,,,,,,,,,,,,,,,,,,,,,,,,,,,,,,,,,,,,,,,,,,,,,,,,,,,,,,,,,,,,,,,
1720525049,115,0,4289.743652,4247.179688,4291.025879,4301.666504,4253.717773,4260,4261.410156,4310.256348,4242.307617,4238.717773,4475.897461,4474.743652,4373.461426,4428.846191,,,,,,,,,,,,,,,,,,,,,,,,,,,,,,,,,,,,,,,,,,,,,,,,,,,,,,,,,,,,,,,,,,,,,,
1720525049,116,0,4304.358887,4256.922852,4303.205078,4308.717773,4262.307617,4262.94873,4264.615234,4318.974121,4246.666504,4237.94873,4477.179688,4487.563965,4373.589844,4432.05127,5.125679,1.500786,1.998149,0.777973,0.22807,1.47836,0.940299,1.624539,0.513087,0.386509,2.859056,1.45201,2.107145,0.790961,0.183231,1.759636,0.825994,1.454206,0.583017,0.453976,0.466436,0.569636,0.53282,0.210251,0.186134,0.960564,0.582496,0.809181,0.193808,0.124691,2.100824,1.185632,0.856789,0.423553,0.169609,0.398055,0.184996,0.245471,0.143945,0.204593,1.817102,2.117651,1.803165,0.72965,0.128851,1.647445,3.223593,2.850209,0.96644,0.380534,12.395519,6.718482,5.608112,1.471035,0.51461,4.427581,1.686578,2.449388,0.944669,0.235813,5.875602,3.233443,2.403779,1.20766,0.394947,5.470804,2.200844,1.863021,0.879824,0.262619
1720525049,117,0,4306.538574,4263.974121,4307.820313,4309.615234,4261.666504,4261.538574,4266.538574,4320.128418,4250.897461,4237.436035,4488.846191,4491.410156,4371.666504,4431.538574,,,,,,,,,,,,,,,,,,,,,,,,,,,,,,,,,,,,,,,,,,,,,,,,,,,,,,,,,,,,,,,,,,,,,,
1720525049,118,0,4295.641113,4262.436035,4299.743652,4301.282227,4259.871582,4259.358887,4263.846191,4311.410156,4237.563965,4227.820313,4483.333496,4478.589844,4362.05127,4428.077148,,,,,,,,,,,,,,,,,,,,,,,,,,,,,,,,,,,,,,,,,,,,,,,,,,,,,,,,,,,,,,,,,,,,,,
1720525049,119,0,4295,4263.077148,4303.846191,4308.077148,4262.94873,4259.102539,4262.820313,4314.487305,4233.589844,4236.538574,4475,4479.871582,4364.358887,4435.769043,,,,,,,,,,,,,,,,,,,,,,,,,,,,,,,,,,,,,,,,,,,,,,,,,,,,,,,,,,,,,,,,,,,,,,
1720525049,120,0,4299.230957,4266.922852,4313.461426,4312.820313,4266.794922,4260.769043,4265.256348,4321.410156,4246.282227,4254.358887,4487.692383,4494.743652,4373.974121,4447.179688,,,,,,,,,,,,,,,,,,,,,,,,,,,,,,,,,,,,,,,,,,,,,,,,,,,,,,,,,,,,,,,,,,,,,,
1720525049,121,0,4294.487305,4262.436035,4307.05127,4300.512695,4268.205078,4264.102539,4267.05127,4320.512695,4248.846191,4252.179688,4497.94873,4495.256348,4368.205078,4444.743652,,,,,,,,,,,,,,,,,,,,,,,,,,,,,,,,,,,,,,,,,,,,,,,,,,,,,,,,,,,,,,,,,,,,,,
1720525049,122,0,4293.205078,4259.743652,4301.666504,4302.05127,4265.641113,4263.846191,4266.666504,4321.025879,4247.05127,4254.743652,4495,4489.871582,4366.410156,4441.794922,,,,,,,,,,,,,,,,,,,,,,,,,,,,,,,,,,,,,,,,,,,,,,,,,,,,,,,,,,,,,,,,,,,,,,
1720525049,123,0,4296.410156,4265.512695,4307.820313,4318.077148,4264.871582,4260.256348,4266.666504,4322.05127,4251.922852,4267.179688,4494.358887,4493.846191,4378.846191,4446.410156,,,,,,,,,,,,,,,,,,,,,,,,,,,,,,,,,,,,,,,,,,,,,,,,,,,,,,,,,,,,,,,,,,,,,,
1720525049,124,0,4294.230957,4266.282227,4311.794922,4316.025879,4273.717773,4264.230957,4269.615234,4321.025879,4253.717773,4263.461426,4496.922852,4499.871582,4381.025879,4453.333496,,,,,,,,,,,,,,,,,,,,,,,,,,,,,,,,,,,,,,,,,,,,,,,,,,,,,,,,,,,,,,,,,,,,,,
1720525049,125,0,4297.307617,4266.153809,4313.461426,4312.179688,4279.230957,4264.615234,4272.307617,4321.025879,4248.974121,4253.846191,4501.666504,4508.589844,4374.743652,4459.743652,,,,,,,,,,,,,,,,,,,,,,,,,,,,,,,,,,,,,,,,,,,,,,,,,,,,,,,,,,,,,,,,,,,,,,
1720525049,126,0,4292.307617,4264.871582,4303.205078,4313.461426,4268.205078,4253.333496,4265,4316.794922,4237.05127,4239.487305,4496.538574,4499.615234,4366.153809,4451.282227,,,,,,,,,,,,,,,,,,,,,,,,,,,,,,,,,,,,,,,,,,,,,,,,,,,,,,,,,,,,,,,,,,,,,,
1720525049,127,0,4265.769043,4248.461426,4278.846191,4296.666504,4254.615234,4245.256348,4249.743652,4306.538574,4222.436035,4211.025879,4466.922852,4461.666504,4341.538574,4422.563965,,,,,,,,,,,,,,,,,,,,,,,,,,,,,,,,,,,,,,,,,,,,,,,,,,,,,,,,,,,,,,,,,,,,,,
1720525049,0,0,4242.179688,4223.077148,4263.077148,4269.102539,4250,4239.230957,4237.307617,4306.410156,4211.922852,4184.230957,4441.538574,4437.692383,4311.410156,4398.974121,,,,,,,,,,,,,,,,,,,,,,,,,,,,,,,,,,,,,,,,,,,,,,,,,,,,,,,,,,,,,,,,,,,,,,
1720525049,1,0,4237.94873,4215.641113,4262.05127,4257.05127,4244.230957,4229.871582,4228.846191,4310.384766,4203.077148,4174.358887,4435.897461,4443.333496,4301.282227,4394.871582,,,,,,,,,,,,,,,,,,,,,,,,,,,,,,,,,,,,,,,,,,,,,,,,,,,,,,,,,,,,,,,,,,,,,,
1720525049,2,0,4249.487305,4232.307617,4268.205078,4272.563965,4245.128418,4236.666504,4235.641113,4305.128418,4215.128418,4191.153809,4448.077148,4452.05127,4319.871582,4405.512695,,,,,,,,,,,,,,,,,,,,,,,,,,,,,,,,,,,,,,,,,,,,,,,,,,,,,,,,,,,,,,,,,,,,,,
1720525049,3,0,4269.102539,4253.974121,4284.615234,4297.563965,4256.922852,4254.743652,4257.436035,4315.641113,4242.307617,4223.077148,4476.410156,4470.128418,4350.897461,4431.922852,,,,,,,,,,,,,,,,,,,,,,,,,,,,,,,,,,,,,,,,,,,,,,,,,,,,,,,,,,,,,,,,,,,,,,
1720525049,4,0,4281.794922,4263.333496,4307.436035,4308.846191,4263.974121,4260.384766,4269.102539,4330.512695,4253.077148,4237.94873,4495,4494.743652,4365.641113,4452.94873,4.327324,1.541801,2.259841,0.838099,0.217495,1.304855,1.06846,1.74456,0.586726,0.38202,2.354977,1.544477,2.258146,0.859588,0.177081,1.469158,0.945031,1.61048,0.601821,0.442861,0.508278,0.620594,0.560926,0.211007,0.158048,0.969533,0.550509,0.707258,0.160877,0.103317,2.14413,1.207082,0.889809,0.457132,0.153483,0.377423,0.147943,0.268322,0.15319,0.215187,1.979439,1.7881,1.821999,0.842936,0.115899,1.52559,3.331058,3.375474,1.089198,0.34564,10.778633,6.456403,5.355682,1.522644,0.46803,3.922495,1.651834,2.599562,0.999725,0.231626,5.615926,3.401351,2.479243,1.233376,0.378729,4.650964,2.147128,1.954412,0.882662,0.244223
1720525049,5,0,4281.025879,4258.974121,4311.538574,4306.666504,4265.384766,4262.307617,4265.769043,4323.589844,4252.563965,4233.589844,4492.563965,4490.256348,4358.717773,4449.743652,,,,,,,,,,,,,,,,,,,,,,,,,,,,,,,,,,,,,,,,,,,,,,,,,,,,,,,,,,,,,,,,,,,,,,
1720525049,6,0,4279.230957,4257.563965,4301.666504,4307.307617,4265,4264.358887,4266.025879,4319.230957,4256.410156,4231.538574,4491.025879,4476.153809,4355.769043,4448.846191,,,,,,,,,,,,,,,,,,,,,,,,,,,,,,,,,,,,,,,,,,,,,,,,,,,,,,,,,,,,,,,,,,,,,,
1720525049,7,0,4279.743652,4262.436035,4300.512695,4308.974121,4264.230957,4257.820313,4267.820313,4329.358887,4253.461426,4234.230957,4489.871582,4486.410156,4362.820313,4459.871582,,,,,,,,,,,,,,,,,,,,,,,,,,,,,,,,,,,,,,,,,,,,,,,,,,,,,,,,,,,,,,,,,,,,,,
1720525049,8,0,4282.307617,4265,4309.743652,4309.487305,4266.282227,4256.153809,4264.615234,4328.077148,4248.717773,4232.307617,4492.820313,4495.897461,4369.743652,4464.871582,,,,,,,,,,,,,,,,,,,,,,,,,,,,,,,,,,,,,,,,,,,,,,,,,,,,,,,,,,,,,,,,,,,,,,
1720525049,9,0,4285.256348,4265.256348,4316.538574,4317.563965,4269.230957,4263.205078,4272.05127,4322.179688,4250.384766,4235.128418,4505.128418,4490.384766,4371.538574,4468.974121,,,,,,,,,,,,,,,,,,,,,,,,,,,,,,,,,,,,,,,,,,,,,,,,,,,,,,,,,,,,,,,,,,,,,,
1720525049,10,0,4280.897461,4263.974121,4313.717773,4319.487305,4267.692383,4265.256348,4280,4326.922852,4250,4243.717773,4500.384766,4489.871582,4367.692383,4473.589844,,,,,,,,,,,,,,,,,,,,,,,,,,,,,,,,,,,,,,,,,,,,,,,,,,,,,,,,,,,,,,,,,,,,,,
1720525049,11,0,4276.794922,4260.769043,4306.794922,4311.666504,4265.897461,4262.307617,4271.538574,4326.666504,4249.871582,4246.794922,4484.358887,4491.794922,4365.384766,4467.436035,,,,,,,,,,,,,,,,,,,,,,,,,,,,,,,,,,,,,,,,,,,,,,,,,,,,,,,,,,,,,,,,,,,,,,
1720525049,12,0,4278.461426,4257.436035,4306.922852,4304.871582,4265.512695,4262.05127,4263.846191,4325.769043,4251.410156,4243.333496,4487.692383,4491.538574,4368.333496,4464.358887,,,,,,,,,,,,,,,,,,,,,,,,,,,,,,,,,,,,,,,,,,,,,,,,,,,,,,,,,,,,,,,,,,,,,,
1720525049,13,0,4280.641113,4260,4313.846191,4303.205078,4264.615234,4261.153809,4266.794922,4325.897461,4249.615234,4241.410156,4498.205078,4496.025879,4369.358887,4474.487305,,,,,,,,,,,,,,,,,,,,,,,,,,,,,,,,,,,,,,,,,,,,,,,,,,,,,,,,,,,,,,,,,,,,,,
1720525049,14,0,4284.102539,4265,4318.077148,4306.025879,4264.743652,4258.205078,4266.922852,4320,4251.410156,4243.974121,4490.384766,4494.743652,4365.256348,4475.769043,,,,,,,,,,,,,,,,,,,,,,,,,,,,,,,,,,,,,,,,,,,,,,,,,,,,,,,,,,,,,,,,,,,,,,
1720525049,15,0,4278.717773,4263.333496,4309.358887,4311.666504,4263.846191,4258.589844,4263.461426,4317.307617,4252.05127,4245.641113,4476.025879,4488.333496,4363.205078,4466.410156,,,,,,,,,,,,,,,,,,,,,,,,,,,,,,,,,,,,,,,,,,,,,,,,,,,,,,,,,,,,,,,,,,,,,,
1720525049,16,0,4271.794922,4259.871582,4302.820313,4313.461426,4269.615234,4261.666504,4265.512695,4318.589844,4250.769043,4248.974121,4481.153809,4490.128418,4366.666504,4470.897461,,,,,,,,,,,,,,,,,,,,,,,,,,,,,,,,,,,,,,,,,,,,,,,,,,,,,,,,,,,,,,,,,,,,,,
1720525049,17,0,4273.205078,4258.974121,4303.717773,4306.666504,4275.256348,4263.717773,4266.025879,4322.05127,4250.384766,4247.436035,4491.410156,4488.077148,4366.666504,4474.743652,,,,,,,,,,,,,,,,,,,,,,,,,,,,,,,,,,,,,,,,,,,,,,,,,,,,,,,,,,,,,,,,,,,,,,
1720525049,18,0,4267.179688,4257.563965,4298.589844,4303.333496,4269.487305,4265.256348,4265,4321.666504,4247.820313,4240.641113,4482.820313,4475.512695,4368.077148,4462.563965,,,,,,,,,,,,,,,,,,,,,,,,,,,,,,,,,,,,,,,,,,,,,,,,,,,,,,,,,,,,,,,,,,,,,,
1720525049,19,0,4262.820313,4262.436035,4297.94873,4309.102539,4264.230957,4261.153809,4270.128418,4317.94873,4251.282227,4245.384766,4471.025879,4477.179688,4378.461426,4460.641113,,,,,,,,,,,,,,,,,,,,,,,,,,,,,,,,,,,,,,,,,,,,,,,,,,,,,,,,,,,,,,,,,,,,,,
1720525049,20,0,4274.871582,4269.230957,4308.589844,4318.589844,4266.794922,4254.743652,4276.282227,4320.384766,4258.717773,4256.025879,4476.538574,4494.358887,4385.641113,4472.563965,3.805663,1.589881,2.275792,0.840039,0.208054,1.198484,1.158592,1.7045,0.622814,0.369775,2.082363,1.603006,2.162858,0.84749,0.174834,1.289677,1.052587,1.645578,0.602538,0.433199,0.581436,0.64397,0.547864,0.202292,0.129723,0.944399,0.511769,0.617811,0.127682,0.091366,2.101485,1.183491,0.900479,0.460102,0.138253,0.400446,0.143465,0.28498,0.150527,0.221441,2.084177,1.462075,1.761309,0.88723,0.112468,1.586451,3.215286,3.621903,1.143198,0.301147,8.613888,5.712543,4.643235,1.48087,0.428614,3.525203,1.682151,2.573813,0.97723,0.227785,5.296417,3.432719,2.440601,1.222556,0.348467,4.14171,2.276772,1.929582,0.877483,0.22635
1720525049,21,0,4274.743652,4260.512695,4305.512695,4309.743652,4266.025879,4257.179688,4273.974121,4323.589844,4254.358887,4252.307617,4477.563965,4494.871582,4379.743652,4466.794922,,,,,,,,,,,,,,,,,,,,,,,,,,,,,,,,,,,,,,,,,,,,,,,,,,,,,,,,,,,,,,,,,,,,,,
1720525050,22,0,4261.025879,4253.333496,4292.820313,4296.538574,4263.461426,4265.128418,4273.461426,4321.922852,4244.487305,4243.461426,4472.436035,4485.512695,4381.282227,4459.358887,,,,,,,,,,,,,,,,,,,,,,,,,,,,,,,,,,,,,,,,,,,,,,,,,,,,,,,,,,,,,,,,,,,,,,
1720525050,23,0,4262.692383,4262.05127,4295.769043,4303.974121,4265.512695,4266.282227,4280.256348,4322.563965,4247.692383,4244.871582,4480.897461,4492.94873,4394.230957,4471.922852,,,,,,,,,,,,,,,,,,,,,,,,,,,,,,,,,,,,,,,,,,,,,,,,,,,,,,,,,,,,,,,,,,,,,,
1720525050,24,0,4267.94873,4265.641113,4300.897461,4308.077148,4263.846191,4261.794922,4275.512695,4321.538574,4251.025879,4245.384766,4484.743652,4494.487305,4390.384766,4471.282227,,,,,,,,,,,,,,,,,,,,,,,,,,,,,,,,,,,,,,,,,,,,,,,,,,,,,,,,,,,,,,,,,,,,,,
1720525050,25,0,4263.974121,4260.128418,4291.922852,4294.743652,4259.487305,4261.666504,4262.436035,4313.077148,4244.102539,4242.436035,4464.358887,4473.846191,4373.077148,4452.692383,,,,,,,,,,,,,,,,,,,,,,,,,,,,,,,,,,,,,,,,,,,,,,,,,,,,,,,,,,,,,,,,,,,,,,
1720525050,26,0,4264.871582,4261.025879,4285,4293.974121,4261.922852,4262.563965,4260.769043,4313.205078,4246.666504,4247.307617,4449.615234,4464.358887,4371.025879,4445.769043,,,,,,,,,,,,,,,,,,,,,,,,,,,,,,,,,,,,,,,,,,,,,,,,,,,,,,,,,,,,,,,,,,,,,,
1720525050,27,0,4262.94873,4259.743652,4280.128418,4303.974121,4260.256348,4258.974121,4263.205078,4314.102539,4255.256348,4245.128418,4452.436035,4465,4373.974121,4440.128418,,,,,,,,,,,,,,,,,,,,,,,,,,,,,,,,,,,,,,,,,,,,,,,,,,,,,,,,,,,,,,,,,,,,,,
1720525050,28,0,4258.974121,4253.205078,4276.410156,4300.512695,4251.922852,4258.077148,4260.128418,4308.077148,4253.333496,4236.922852,4453.461426,4458.077148,4368.205078,4435.128418,,,,,,,,,,,,,,,,,,,,,,,,,,,,,,,,,,,,,,,,,,,,,,,,,,,,,,,,,,,,,,,,,,,,,,
1720525050,29,0,4264.102539,4251.666504,4278.846191,4294.102539,4252.05127,4262.179688,4259.230957,4315.512695,4245.641113,4238.333496,4451.666504,4463.333496,4369.743652,4440.769043,,,,,,,,,,,,,,,,,,,,,,,,,,,,,,,,,,,,,,,,,,,,,,,,,,,,,,,,,,,,,,,,,,,,,,
1720525050,30,0,4264.743652,4247.820313,4279.102539,4293.589844,4260,4263.589844,4262.436035,4314.230957,4244.871582,4237.94873,4449.615234,4470.384766,4377.179688,4443.589844,,,,,,,,,,,,,,,,,,,,,,,,,,,,,,,,,,,,,,,,,,,,,,,,,,,,,,,,,,,,,,,,,,,,,,
1720525050,31,0,4260,4248.589844,4277.692383,4293.333496,4258.461426,4263.589844,4269.102539,4307.94873,4248.205078,4229.358887,4449.743652,4467.563965,4383.974121,4445.512695,,,,,,,,,,,,,,,,,,,,,,,,,,,,,,,,,,,,,,,,,,,,,,,,,,,,,,,,,,,,,,,,,,,,,,
1720525050,32,0,4264.230957,4255.128418,4281.153809,4296.922852,4249.487305,4266.025879,4275.769043,4318.077148,4251.025879,4233.461426,4460.384766,4478.717773,4393.333496,4454.743652,,,,,,,,,,,,,,,,,,,,,,,,,,,,,,,,,,,,,,,,,,,,,,,,,,,,,,,,,,,,,,,,,,,,,,
1720525050,33,0,4274.871582,4251.922852,4287.436035,4295.641113,4249.871582,4261.666504,4273.846191,4318.589844,4253.717773,4246.282227,4475.897461,4493.333496,4402.563965,4463.333496,,,,,,,,,,,,,,,,,,,,,,,,,,,,,,,,,,,,,,,,,,,,,,,,,,,,,,,,,,,,,,,,,,,,,,
1720525050,34,0,4278.461426,4249.487305,4293.333496,4292.563965,4252.692383,4256.538574,4271.794922,4313.205078,4255.512695,4249.102539,4473.974121,4490.897461,4405.769043,4464.743652,,,,,,,,,,,,,,,,,,,,,,,,,,,,,,,,,,,,,,,,,,,,,,,,,,,,,,,,,,,,,,,,,,,,,,
1720525050,35,0,4275.641113,4261.410156,4300.897461,4301.025879,4251.922852,4261.410156,4274.358887,4318.717773,4258.333496,4250.897461,4465.512695,4487.94873,4407.820313,4461.153809,,,,,,,,,,,,,,,,,,,,,,,,,,,,,,,,,,,,,,,,,,,,,,,,,,,,,,,,,,,,,,,,,,,,,,
1720525050,36,0,4281.666504,4272.179688,4309.230957,4315.897461,4260.512695,4266.153809,4277.94873,4320.897461,4261.025879,4263.846191,4474.743652,4496.153809,4422.436035,4467.820313,3.413009,1.518072,2.027275,0.783935,0.205399,1.109395,1.176153,1.505417,0.613718,0.352541,1.947794,1.554078,1.817276,0.759142,0.177884,1.169698,1.098393,1.547206,0.586384,0.419845,0.654064,0.625786,0.489224,0.18597,0.107222,0.872193,0.470076,0.521232,0.104753,0.08914,1.89223,1.095824,0.856009,0.435232,0.127147,0.425328,0.166627,0.286204,0.137582,0.220839,2.013026,1.167916,1.60523,0.841502,0.118528,1.745337,2.870405,3.555892,1.095154,0.257655,6.321447,4.632029,3.611954,1.334938,0.411073,3.069753,1.664837,2.318529,0.882964,0.229927,4.660063,3.226108,2.201938,1.150111,0.31548,3.775404,2.417666,1.716431,0.849517,0.217837
1720525050,37,0,4280.769043,4263.461426,4305.128418,4312.436035,4264.615234,4266.410156,4276.410156,4317.179688,4264.102539,4268.846191,4480.641113,4495.897461,4429.358887,4473.077148,,,,,,,,,,,,,,,,,,,,,,,,,,,,,,,,,,,,,,,,,,,,,,,,,,,,,,,,,,,,,,,,,,,,,,
1720525050,38,0,4262.307617,4248.974121,4293.077148,4296.538574,4252.692383,4266.153809,4267.436035,4323.589844,4258.717773,4251.410156,4463.333496,4480.128418,4409.102539,4456.922852,,,,,,,,,,,,,,,,,,,,,,,,,,,,,,,,,,,,,,,,,,,,,,,,,,,,,,,,,,,,,,,,,,,,,,
1720525050,39,0,4263.205078,4247.94873,4291.282227,4294.487305,4250.512695,4263.205078,4264.743652,4325.384766,4250.897461,4238.461426,4455.256348,4471.538574,4396.666504,4446.410156,,,,,,,,,,,,,,,,,,,,,,,,,,,,,,,,,,,,,,,,,,,,,,,,,,,,,,,,,,,,,,,,,,,,,,
1720525050,40,0,4280.641113,4256.410156,4297.436035,4298.589844,4264.871582,4266.410156,4277.563965,4323.077148,4256.410156,4240.897461,4469.487305,4480.128418,4407.436035,4457.05127,,,,,,,,,,,,,,,,,,,,,,,,,,,,,,,,,,,,,,,,,,,,,,,,,,,,,,,,,,,,,,,,,,,,,,
1720525050,41,0,4276.538574,4261.410156,4297.307617,4296.794922,4266.410156,4274.743652,4286.282227,4329.230957,4262.94873,4239.358887,4466.922852,4486.922852,4404.358887,4456.282227,,,,,,,,,,,,,,,,,,,,,,,,,,,,,,,,,,,,,,,,,,,,,,,,,,,,,,,,,,,,,,,,,,,,,,
1720525050,42,0,4268.333496,4262.563965,4295.128418,4302.436035,4258.205078,4271.410156,4282.563965,4328.077148,4259.743652,4238.974121,4457.563965,4483.846191,4393.846191,4447.692383,,,,,,,,,,,,,,,,,,,,,,,,,,,,,,,,,,,,,,,,,,,,,,,,,,,,,,,,,,,,,,,,,,,,,,
1720525050,43,0,4280,4266.410156,4304.615234,4313.974121,4260.256348,4261.666504,4282.820313,4327.05127,4258.717773,4249.102539,4472.307617,4490.128418,4408.589844,4458.205078,,,,,,,,,,,,,,,,,,,,,,,,,,,,,,,,,,,,,,,,,,,,,,,,,,,,,,,,,,,,,,,,,,,,,,
1720525050,44,0,4287.692383,4268.333496,4315.256348,4313.846191,4263.333496,4260.128418,4284.230957,4328.589844,4262.179688,4253.589844,4482.820313,4497.05127,4419.102539,4465.384766,,,,,,,,,,,,,,,,,,,,,,,,,,,,,,,,,,,,,,,,,,,,,,,,,,,,,,,,,,,,,,,,,,,,,,
1720525050,45,0,4284.871582,4264.743652,4310.897461,4307.692383,4261.922852,4263.333496,4275.384766,4324.871582,4257.563965,4250.512695,4469.487305,4492.179688,4404.615234,4455.897461,,,,,,,,,,,,,,,,,,,,,,,,,,,,,,,,,,,,,,,,,,,,,,,,,,,,,,,,,,,,,,,,,,,,,,
1720525050,46,0,4284.743652,4266.794922,4298.589844,4307.94873,4262.05127,4264.102539,4264.743652,4320.897461,4249.487305,4248.589844,4457.179688,4486.410156,4394.487305,4445.641113,,,,,,,,,,,,,,,,,,,,,,,,,,,,,,,,,,,,,,,,,,,,,,,,,,,,,,,,,,,,,,,,,,,,,,
1720525050,47,0,4281.922852,4273.205078,4296.666504,4310.128418,4261.666504,4263.077148,4261.794922,4320.384766,4247.563965,4246.410156,4461.410156,4487.307617,4405.256348,4445.769043,,,,,,,,,,,,,,,,,,,,,,,,,,,,,,,,,,,,,,,,,,,,,,,,,,,,,,,,,,,,,,,,,,,,,,
1720525050,48,0,4276.282227,4272.563965,4300.512695,4312.94873,4260.897461,4261.410156,4263.846191,4322.94873,4249.358887,4254.102539,4468.717773,4487.94873,4412.94873,4450.512695,,,,,,,,,,,,,,,,,,,,,,,,,,,,,,,,,,,,,,,,,,,,,,,,,,,,,,,,,,,,,,,,,,,,,,
1720525050,49,0,4275,4266.666504,4296.794922,4313.077148,4261.922852,4263.846191,4264.615234,4323.333496,4252.307617,4260.897461,4464.743652,4484.358887,4402.179688,4447.692383,,,,,,,,,,,,,,,,,,,,,,,,,,,,,,,,,,,,,,,,,,,,,,,,,,,,,,,,,,,,,,,,,,,,,,
1720525050,50,0,4273.974121,4265.512695,4292.820313,4310.256348,4264.743652,4269.358887,4268.205078,4323.333496,4250.769043,4252.307617,4458.205078,4478.717773,4391.410156,4442.179688,,,,,,,,,,,,,,,,,,,,,,,,,,,,,,,,,,,,,,,,,,,,,,,,,,,,,,,,,,,,,,,,,,,,,,
1720525050,51,0,4269.743652,4265.897461,4290.384766,4308.205078,4264.871582,4271.153809,4269.871582,4323.205078,4244.871582,4242.820313,4456.538574,4476.922852,4388.333496,4438.077148,,,,,,,,,,,,,,,,,,,,,,,,,,,,,,,,,,,,,,,,,,,,,,,,,,,,,,,,,,,,,,,,,,,,,,
1720525050,52,0,4269.358887,4263.717773,4291.282227,4307.692383,4264.615234,4269.743652,4269.358887,4322.692383,4240.128418,4245.128418,4453.461426,4478.717773,4384.487305,4430.384766,3.077757,1.335263,1.634425,0.706783,0.21061,1.03702,1.161787,1.226753,0.582325,0.331722,1.933181,1.448838,1.352313,0.644399,0.185354,1.110747,1.109804,1.380782,0.581563,0.4004,0.711203,0.585936,0.406728,0.169435,0.092901,0.765819,0.452124,0.423875,0.101587,0.093306,1.573329,0.989015,0.763192,0.402461,0.121,0.424611,0.21549,0.272372,0.119769,0.214347,1.771554,0.966818,1.41098,0.732637,0.131526,2.065358,2.484223,3.327878,0.982959,0.223962,4.42711,3.561141,2.58187,1.140282,0.420975,2.573618,1.625463,1.940115,0.773267,0.243399,3.78929,2.901736,1.843618,1.042965,0.290893,3.617462,2.550769,1.389955,0.814152,0.223235
1720525050,53,0,4278.461426,4266.410156,4302.307617,4305.384766,4266.538574,4268.717773,4275.641113,4324.871582,4247.94873,4256.922852,4463.461426,4486.922852,4391.794922,4437.179688,,,,,,,,,,,,,,,,,,,,,,,,,,,,,,,,,,,,,,,,,,,,,,,,,,,,,,,,,,,,,,,,,,,,,,
1720525050,54,0,4284.487305,4267.307617,4314.358887,4303.589844,4264.487305,4266.410156,4278.717773,4327.563965,4258.333496,4265.512695,4482.179688,4502.436035,4406.794922,4459.615234,,,,,,,,,,,,,,,,,,,,,,,,,,,,,,,,,,,,,,,,,,,,,,,,,,,,,,,,,,,,,,,,,,,,,,
1720525050,55,0,4280.641113,4266.282227,4317.436035,4311.666504,4259.615234,4261.282227,4272.05127,4320,4255.512695,4263.077148,4483.589844,4505.128418,4405.512695,4460.384766,,,,,,,,,,,,,,,,,,,,,,,,,,,,,,,,,,,,,,,,,,,,,,,,,,,,,,,,,,,,,,,,,,,,,,
1720525050,56,0,4279.230957,4276.025879,4318.846191,4321.282227,4262.692383,4265,4276.282227,4314.615234,4257.307617,4261.666504,4477.436035,4494.871582,4399.487305,4446.282227,,,,,,,,,,,,,,,,,,,,,,,,,,,,,,,,,,,,,,,,,,,,,,,,,,,,,,,,,,,,,,,,,,,,,,
1720525050,57,0,4282.692383,4278.974121,4319.102539,4317.820313,4266.794922,4270.641113,4281.794922,4328.205078,4266.153809,4266.025879,4480.384766,4493.589844,4398.846191,4441.538574,,,,,,,,,,,,,,,,,,,,,,,,,,,,,,,,,,,,,,,,,,,,,,,,,,,,,,,,,,,,,,,,,,,,,,
1720525050,58,0,4278.589844,4266.666504,4307.436035,4305.769043,4264.230957,4269.615234,4272.692383,4324.487305,4263.077148,4260.897461,4475.641113,4488.333496,4391.025879,4430.897461,,,,,,,,,,,,,,,,,,,,,,,,,,,,,,,,,,,,,,,,,,,,,,,,,,,,,,,,,,,,,,,,,,,,,,
1720525050,59,0,4267.05127,4258.717773,4298.461426,4303.589844,4262.820313,4271.794922,4271.282227,4311.794922,4257.692383,4257.307617,4461.666504,4478.461426,4381.153809,4416.538574,,,,,,,,,,,,,,,,,,,,,,,,,,,,,,,,,,,,,,,,,,,,,,,,,,,,,,,,,,,,,,,,,,,,,,
1720525050,60,0,4267.94873,4265,4302.179688,4310.769043,4262.820313,4276.538574,4278.846191,4325,4262.179688,4264.743652,4458.461426,4480.384766,4379.230957,4413.333496,,,,,,,,,,,,,,,,,,,,,,,,,,,,,,,,,,,,,,,,,,,,,,,,,,,,,,,,,,,,,,,,,,,,,,
1720525050,61,0,4277.05127,4268.333496,4301.410156,4313.846191,4261.153809,4276.666504,4278.974121,4328.205078,4261.538574,4265.641113,4470.769043,4482.05127,4380.641113,4413.077148,,,,,,,,,,,,,,,,,,,,,,,,,,,,,,,,,,,,,,,,,,,,,,,,,,,,,,,,,,,,,,,,,,,,,,
1720525050,62,0,4269.230957,4258.461426,4297.94873,4308.461426,4259.743652,4278.333496,4277.692383,4318.974121,4251.410156,4261.282227,4478.077148,4478.077148,4380.641113,4408.717773,,,,,,,,,,,,,,,,,,,,,,,,,,,,,,,,,,,,,,,,,,,,,,,,,,,,,,,,,,,,,,,,,,,,,,
1720525050,63,0,4260.897461,4254.871582,4303.589844,4304.487305,4260.641113,4279.615234,4274.743652,4322.94873,4245.128418,4262.94873,4467.436035,4485.384766,4380.256348,4411.538574,,,,,,,,,,,,,,,,,,,,,,,,,,,,,,,,,,,,,,,,,,,,,,,,,,,,,,,,,,,,,,,,,,,,,,
1720525050,64,0,4273.717773,4262.94873,4310.512695,4311.025879,4263.333496,4271.025879,4267.307617,4321.282227,4245.769043,4263.717773,4458.205078,4492.05127,4376.794922,4414.230957,,,,,,,,,,,,,,,,,,,,,,,,,,,,,,,,,,,,,,,,,,,,,,,,,,,,,,,,,,,,,,,,,,,,,,
1720525050,65,0,4287.179688,4264.871582,4312.563965,4312.820313,4265.641113,4264.871582,4264.743652,4311.666504,4247.436035,4258.461426,4458.717773,4487.436035,4374.230957,4409.102539,,,,,,,,,,,,,,,,,,,,,,,,,,,,,,,,,,,,,,,,,,,,,,,,,,,,,,,,,,,,,,,,,,,,,,
1720525050,66,0,4286.666504,4261.410156,4319.743652,4311.025879,4264.358887,4264.743652,4265.128418,4316.666504,4244.743652,4260.512695,4459.743652,4490.512695,4384.871582,4416.922852,,,,,,,,,,,,,,,,,,,,,,,,,,,,,,,,,,,,,,,,,,,,,,,,,,,,,,,,,,,,,,,,,,,,,,
1720525050,67,0,4284.230957,4267.05127,4324.487305,4316.794922,4263.333496,4265.897461,4263.589844,4319.487305,4245.769043,4267.563965,4462.692383,4497.179688,4397.820313,4430.512695,,,,,,,,,,,,,,,,,,,,,,,,,,,,,,,,,,,,,,,,,,,,,,,,,,,,,,,,,,,,,,,,,,,,,,
1720525050,68,0,4280,4263.589844,4315.769043,4317.692383,4266.922852,4273.717773,4268.974121,4317.307617,4250.128418,4267.563965,4458.846191,4490.256348,4392.179688,4423.461426,2.878398,1.157073,1.289009,0.654438,0.220239,1.036635,1.189218,0.981948,0.562073,0.306923,2.102412,1.409443,0.964765,0.564884,0.19429,1.147667,1.158819,1.242868,0.617837,0.375401,0.76021,0.560112,0.336018,0.160984,0.086006,0.670126,0.491752,0.348296,0.120798,0.099071,1.258006,0.950619,0.663076,0.385841,0.118529,0.429816,0.290786,0.249901,0.103796,0.204142,1.491346,0.929385,1.261418,0.613947,0.146886,2.644259,2.336269,3.165952,0.881657,0.203077,3.205749,2.905319,1.885663,0.976383,0.452935,2.198215,1.702671,1.643292,0.714384,0.269179,3.018174,2.753875,1.567493,0.954698,0.280795,3.625907,2.797304,1.129549,0.79901,0.240779
1720525050,69,0,4279.871582,4252.05127,4312.94873,4312.179688,4268.077148,4280.384766,4276.794922,4326.282227,4247.692383,4261.282227,4447.307617,4482.563965,4377.307617,4411.922852,,,,,,,,,,,,,,,,,,,,,,,,,,,,,,,,,,,,,,,,,,,,,,,,,,,,,,,,,,,,,,,,,,,,,,
1720525050,70,0,4281.922852,4254.230957,4311.282227,4311.922852,4266.025879,4280.897461,4281.153809,4327.179688,4253.077148,4256.794922,4445.769043,4480.128418,4372.307617,4408.846191,,,,,,,,,,,,,,,,,,,,,,,,,,,,,,,,,,,,,,,,,,,,,,,,,,,,,,,,,,,,,,,,,,,,,,
1720525050,71,0,4268.333496,4255.384766,4298.974121,4308.974121,4267.692383,4280,4283.717773,4326.538574,4261.282227,4257.692383,4446.410156,4476.666504,4372.563965,4398.205078,,,,,,,,,,,,,,,,,,,,,,,,,,,,,,,,,,,,,,,,,,,,,,,,,,,,,,,,,,,,,,,,,,,,,,
1720525050,72,0,4259.615234,4251.025879,4296.922852,4302.94873,4268.205078,4280.512695,4281.538574,4328.974121,4254.102539,4262.05127,4443.846191,4477.05127,4372.692383,4393.333496,,,,,,,,,,,,,,,,,,,,,,,,,,,,,,,,,,,,,,,,,,,,,,,,,,,,,,,,,,,,,,,,,,,,,,
1720525050,73,0,4275.512695,4257.05127,4310.897461,4308.717773,4267.820313,4278.974121,4279.487305,4325.384766,4247.05127,4266.666504,4455,4487.307617,4380.641113,4409.615234,,,,,,,,,,,,,,,,,,,,,,,,,,,,,,,,,,,,,,,,,,,,,,,,,,,,,,,,,,,,,,,,,,,,,,
1720525050,74,0,4286.922852,4267.05127,4316.153809,4316.666504,4269.615234,4275.512695,4280.897461,4327.436035,4251.666504,4265,4463.077148,4494.230957,4382.436035,4418.077148,,,,,,,,,,,,,,,,,,,,,,,,,,,,,,,,,,,,,,,,,,,,,,,,,,,,,,,,,,,,,,,,,,,,,,
1720525050,75,0,4281.153809,4265.384766,4311.153809,4312.692383,4267.692383,4272.820313,4278.717773,4329.230957,4250.641113,4258.333496,4455,4491.666504,4373.461426,4412.436035,,,,,,,,,,,,,,,,,,,,,,,,,,,,,,,,,,,,,,,,,,,,,,,,,,,,,,,,,,,,,,,,,,,,,,
1720525050,76,0,4281.410156,4264.743652,4316.282227,4312.820313,4265.641113,4274.871582,4275.897461,4327.179688,4246.410156,4258.461426,4455.384766,4494.102539,4376.025879,4416.794922,,,,,,,,,,,,,,,,,,,,,,,,,,,,,,,,,,,,,,,,,,,,,,,,,,,,,,,,,,,,,,,,,,,,,,
1720525050,77,0,4286.666504,4273.589844,4322.563965,4325.512695,4270.256348,4277.820313,4281.025879,4330.641113,4252.436035,4265.512695,4459.871582,4498.205078,4385.512695,4421.666504,,,,,,,,,,,,,,,,,,,,,,,,,,,,,,,,,,,,,,,,,,,,,,,,,,,,,,,,,,,,,,,,,,,,,,
1720525050,78,0,4281.538574,4270.384766,4318.205078,4330,4274.615234,4282.307617,4287.692383,4335.256348,4253.077148,4260.641113,4451.410156,4492.179688,4380.128418,4413.846191,,,,,,,,,,,,,,,,,,,,,,,,,,,,,,,,,,,,,,,,,,,,,,,,,,,,,,,,,,,,,,,,,,,,,,
1720525050,79,0,4275.256348,4262.179688,4315.128418,4317.94873,4275.256348,4287.692383,4291.025879,4335.897461,4248.333496,4257.436035,4449.615234,4489.230957,4379.615234,4412.94873,,,,,,,,,,,,,,,,,,,,,,,,,,,,,,,,,,,,,,,,,,,,,,,,,,,,,,,,,,,,,,,,,,,,,,
1720525050,80,0,4278.846191,4268.717773,4317.05127,4311.410156,4278.974121,4286.794922,4296.410156,4339.230957,4257.94873,4275,4461.025879,4500.641113,4395.641113,4426.025879,,,,,,,,,,,,,,,,,,,,,,,,,,,,,,,,,,,,,,,,,,,,,,,,,,,,,,,,,,,,,,,,,,,,,,
1720525050,81,0,4278.846191,4274.487305,4311.025879,4313.589844,4277.94873,4281.153809,4293.846191,4339.487305,4266.794922,4279.615234,4460.384766,4504.487305,4396.410156,4428.461426,,,,,,,,,,,,,,,,,,,,,,,,,,,,,,,,,,,,,,,,,,,,,,,,,,,,,,,,,,,,,,,,,,,,,,
1720525050,82,0,4270.256348,4263.846191,4301.922852,4310,4269.487305,4277.94873,4281.922852,4335.128418,4257.307617,4264.230957,4448.333496,4494.358887,4380.384766,4420.256348,,,,,,,,,,,,,,,,,,,,,,,,,,,,,,,,,,,,,,,,,,,,,,,,,,,,,,,,,,,,,,,,,,,,,,
1720525050,83,0,4272.436035,4260.256348,4307.05127,4311.410156,4266.025879,4274.487305,4278.205078,4331.153809,4247.436035,4262.94873,4451.666504,4492.307617,4378.974121,4424.615234,,,,,,,,,,,,,,,,,,,,,,,,,,,,,,,,,,,,,,,,,,,,,,,,,,,,,,,,,,,,,,,,,,,,,,
1720525050,84,0,4281.538574,4266.153809,4309.743652,4318.333496,4265.256348,4266.282227,4280.897461,4326.666504,4247.820313,4270.384766,4457.179688,4494.871582,4383.589844,4432.05127,2.875123,1.061564,1.123197,0.650639,0.22923,1.14497,1.282665,0.84756,0.576147,0.27764,2.483287,1.501032,0.800332,0.556239,0.200799,1.297578,1.277275,1.193299,0.703234,0.346831,0.811089,0.569166,0.29845,0.164748,0.084501,0.620439,0.592105,0.311818,0.157612,0.102756,1.061056,1.037984,0.595911,0.396165,0.117838,0.443956,0.381689,0.226201,0.093448,0.191968,1.326574,1.065131,1.212462,0.528402,0.159632,3.430269,2.541407,3.200043,0.844587,0.192543,2.692069,2.777199,1.624981,0.888273,0.493857,2.079362,1.960871,1.574601,0.736751,0.30233,2.619029,2.949548,1.499594,0.917496,0.285668,3.8679,3.173912,1.063188,0.817201,0.263972
1720525050,85,0,4283.589844,4268.846191,4307.05127,4313.333496,4267.179688,4263.717773,4279.871582,4331.666504,4251.025879,4271.025879,4448.461426,4497.436035,4380.641113,4435.256348,,,,,,,,,,,,,,,,,,,,,,,,,,,,,,,,,,,,,,,,,,,,,,,,,,,,,,,,,,,,,,,,,,,,,,
1720525050,86,0,4289.615234,4277.820313,4314.743652,4311.922852,4275.256348,4272.436035,4284.487305,4333.717773,4259.615234,4279.102539,4452.94873,4506.410156,4385.256348,4444.358887,,,,,,,,,,,,,,,,,,,,,,,,,,,,,,,,,,,,,,,,,,,,,,,,,,,,,,,,,,,,,,,,,,,,,,
1720525050,87,0,4297.563965,4281.922852,4316.666504,4323.205078,4276.025879,4275.512695,4290.128418,4325,4259.871582,4283.974121,4461.153809,4505.512695,4386.153809,4448.974121,,,,,,,,,,,,,,,,,,,,,,,,,,,,,,,,,,,,,,,,,,,,,,,,,,,,,,,,,,,,,,,,,,,,,,
1720525050,88,0,4289.102539,4271.282227,4310.641113,4324.487305,4267.179688,4266.794922,4285,4331.666504,4247.692383,4273.461426,4449.358887,4496.153809,4376.282227,4445.256348,,,,,,,,,,,,,,,,,,,,,,,,,,,,,,,,,,,,,,,,,,,,,,,,,,,,,,,,,,,,,,,,,,,,,,
1720525050,89,0,4276.538574,4264.102539,4307.692383,4309.743652,4264.358887,4266.666504,4281.282227,4337.436035,4248.846191,4269.102539,4443.589844,4493.461426,4374.487305,4439.358887,,,,,,,,,,,,,,,,,,,,,,,,,,,,,,,,,,,,,,,,,,,,,,,,,,,,,,,,,,,,,,,,,,,,,,
1720525050,90,0,4273.717773,4260.769043,4300.641113,4296.025879,4266.922852,4274.615234,4281.153809,4328.205078,4251.666504,4265.128418,4446.282227,4487.05127,4373.717773,4429.487305,,,,,,,,,,,,,,,,,,,,,,,,,,,,,,,,,,,,,,,,,,,,,,,,,,,,,,,,,,,,,,,,,,,,,,
1720525050,91,0,4275.128418,4263.846191,4298.077148,4302.692383,4270,4276.282227,4284.230957,4329.615234,4246.153809,4261.666504,4432.307617,4482.05127,4367.179688,4425.769043,,,,,,,,,,,,,,,,,,,,,,,,,,,,,,,,,,,,,,,,,,,,,,,,,,,,,,,,,,,,,,,,,,,,,,
1720525050,92,0,4279.102539,4275.512695,4308.461426,4318.077148,4276.922852,4279.615234,4292.307617,4336.410156,4257.179688,4272.307617,4427.05127,4490.384766,4363.974121,4429.487305,,,,,,,,,,,,,,,,,,,,,,,,,,,,,,,,,,,,,,,,,,,,,,,,,,,,,,,,,,,,,,,,,,,,,,
1720525050,93,0,4279.487305,4278.205078,4312.563965,4319.487305,4280.512695,4279.102539,4289.743652,4331.538574,4266.025879,4280.641113,4442.563965,4492.563965,4365.512695,4426.794922,,,,,,,,,,,,,,,,,,,,,,,,,,,,,,,,,,,,,,,,,,,,,,,,,,,,,,,,,,,,,,,,,,,,,,
1720525050,94,0,4277.307617,4277.05127,4309.358887,4313.589844,4274.358887,4264.615234,4278.717773,4330.897461,4251.153809,4278.077148,4443.846191,4491.153809,4368.589844,4426.794922,,,,,,,,,,,,,,,,,,,,,,,,,,,,,,,,,,,,,,,,,,,,,,,,,,,,,,,,,,,,,,,,,,,,,,
1720525050,95,0,4279.102539,4278.974121,4311.794922,4314.615234,4270,4256.410156,4278.974121,4332.94873,4246.666504,4277.94873,4435.256348,4495.128418,4374.102539,4432.436035,,,,,,,,,,,,,,,,,,,,,,,,,,,,,,,,,,,,,,,,,,,,,,,,,,,,,,,,,,,,,,,,,,,,,,
1720525050,96,0,4279.487305,4272.179688,4311.025879,4312.307617,4268.077148,4261.153809,4282.436035,4330,4258.846191,4282.05127,4438.974121,4491.666504,4377.820313,4429.871582,,,,,,,,,,,,,,,,,,,,,,,,,,,,,,,,,,,,,,,,,,,,,,,,,,,,,,,,,,,,,,,,,,,,,,
1720525050,97,0,4278.974121,4268.461426,4311.025879,4309.358887,4267.563965,4262.05127,4283.077148,4336.025879,4261.282227,4289.102539,4449.871582,4495.256348,4386.410156,4432.692383,,,,,,,,,,,,,,,,,,,,,,,,,,,,,,,,,,,,,,,,,,,,,,,,,,,,,,,,,,,,,,,,,,,,,,
1720525050,98,0,4282.563965,4281.538574,4314.487305,4316.794922,4271.153809,4262.563965,4289.230957,4338.846191,4261.922852,4298.717773,4451.666504,4508.846191,4398.333496,4445.256348,,,,,,,,,,,,,,,,,,,,,,,,,,,,,,,,,,,,,,,,,,,,,,,,,,,,,,,,,,,,,,,,,,,,,,
1720525050,99,0,4280.897461,4279.615234,4309.230957,4315,4268.846191,4263.974121,4287.692383,4333.333496,4264.102539,4284.743652,4445.128418,4504.358887,4393.461426,4441.025879,,,,,,,,,,,,,,,,,,,,,,,,,,,,,,,,,,,,,,,,,,,,,,,,,,,,,,,,,,,,,,,,,,,,,,
1720525050,100,0,4275.128418,4267.94873,4304.871582,4311.282227,4268.846191,4262.436035,4279.230957,4330.128418,4259.230957,4260.256348,4447.436035,4492.692383,4386.922852,4427.563965,2.997238,1.070873,1.159576,0.684217,0.235347,1.325939,1.404329,0.833789,0.621299,0.246057,2.995594,1.715822,0.899612,0.609419,0.202798,1.502532,1.436177,1.230941,0.813427,0.317191,0.857255,0.604788,0.29213,0.177307,0.086752,0.614794,0.719986,0.32106,0.200404,0.10261,1.043754,1.233198,0.589084,0.422954,0.117762,0.495992,0.464595,0.210335,0.087899,0.17937,1.348315,1.307953,1.260821,0.491412,0.166189,4.197911,2.998249,3.400694,0.876135,0.188082,2.665055,3.002069,1.688153,0.87444,0.529378,2.208749,2.360167,1.757726,0.818285,0.333356,2.634705,3.446151,1.643059,0.932121,0.301694,4.228383,3.597882,1.217653,0.86403,0.285464
1720525050,101,0,4274.615234,4270,4307.307617,4316.794922,4277.05127,4268.846191,4281.538574,4327.307617,4257.436035,4261.666504,4442.820313,4489.230957,4383.461426,4423.846191,,,,,,,,,,,,,,,,,,,,,,,,,,,,,,,,,,,,,,,,,,,,,,,,,,,,,,,,,,,,,,,,,,,,,,
1720525050,102,0,4276.666504,4270.897461,4311.282227,4316.282227,4281.025879,4280.641113,4288.205078,4328.333496,4261.282227,4269.615234,4425.769043,4488.205078,4373.333496,4425.384766,,,,,,,,,,,,,,,,,,,,,,,,,,,,,,,,,,,,,,,,,,,,,,,,,,,,,,,,,,,,,,,,,,,,,,
1720525050,103,0,4281.153809,4273.589844,4313.333496,4311.282227,4280,4281.025879,4292.307617,4328.717773,4260.641113,4262.820313,4431.153809,4491.922852,4376.153809,4436.025879,,,,,,,,,,,,,,,,,,,,,,,,,,,,,,,,,,,,,,,,,,,,,,,,,,,,,,,,,,,,,,,,,,,,,,
1720525050,104,0,4282.179688,4280,4311.282227,4311.410156,4280.897461,4278.461426,4291.666504,4327.563965,4255.512695,4260.897461,4444.871582,4493.846191,4384.230957,4441.025879,,,,,,,,,,,,,,,,,,,,,,,,,,,,,,,,,,,,,,,,,,,,,,,,,,,,,,,,,,,,,,,,,,,,,,
1720525050,105,0,4277.179688,4275.641113,4312.692383,4316.025879,4279.102539,4279.743652,4285.256348,4327.05127,4249.230957,4272.692383,4433.589844,4490.512695,4381.153809,4434.871582,,,,,,,,,,,,,,,,,,,,,,,,,,,,,,,,,,,,,,,,,,,,,,,,,,,,,,,,,,,,,,,,,,,,,,
1720525050,106,0,4284.358887,4274.102539,4322.563965,4325.897461,4278.717773,4273.077148,4283.077148,4324.743652,4249.358887,4285.512695,4433.589844,4497.692383,4388.846191,4443.717773,,,,,,,,,,,,,,,,,,,,,,,,,,,,,,,,,,,,,,,,,,,,,,,,,,,,,,,,,,,,,,,,,,,,,,
1720525050,107,0,4300.128418,4286.794922,4325.512695,4331.153809,4282.179688,4264.230957,4283.846191,4324.871582,4255.384766,4291.538574,4455.384766,4503.461426,4401.666504,4457.179688,,,,,,,,,,,,,,,,,,,,,,,,,,,,,,,,,,,,,,,,,,,,,,,,,,,,,,,,,,,,,,,,,,,,,,
1720525050,108,0,4287.94873,4279.871582,4307.436035,4314.615234,4268.974121,4259.358887,4273.205078,4326.666504,4243.589844,4284.358887,4438.589844,4484.743652,4376.538574,4437.94873,,,,,,,,,,,,,,,,,,,,,,,,,,,,,,,,,,,,,,,,,,,,,,,,,,,,,,,,,,,,,,,,,,,,,,
1720525050,109,0,4248.333496,4251.282227,4280,4292.307617,4247.94873,4247.307617,4254.230957,4319.615234,4217.820313,4263.205078,4383.974121,4452.820313,4328.974121,4395.128418,,,,,,,,,,,,,,,,,,,,,,,,,,,,,,,,,,,,,,,,,,,,,,,,,,,,,,,,,,,,,,,,,,,,,,
1720525050,110,0,4224.615234,4239.487305,4262.563965,4278.077148,4242.05127,4240.641113,4245,4311.538574,4206.538574,4240.128418,4352.179688,4429.102539,4304.230957,4366.666504,,,,,,,,,,,,,,,,,,,,,,,,,,,,,,,,,,,,,,,,,,,,,,,,,,,,,,,,,,,,,,,,,,,,,,
1720525050,111,0,4230.897461,4244.487305,4264.615234,4274.615234,4251.666504,4253.205078,4254.487305,4316.666504,4218.077148,4237.692383,4366.922852,4430.897461,4313.846191,4369.358887,,,,,,,,,,,,,,,,,,,,,,,,,,,,,,,,,,,,,,,,,,,,,,,,,,,,,,,,,,,,,,,,,,,,,,
1720525050,112,0,4244.743652,4250.256348,4282.436035,4287.692383,4261.153809,4267.94873,4276.794922,4323.589844,4241.410156,4261.666504,4403.205078,4460.641113,4345.384766,4397.307617,,,,,,,,,,,,,,,,,,,,,,,,,,,,,,,,,,,,,,,,,,,,,,,,,,,,,,,,,,,,,,,,,,,,,,
1720525050,113,0,4260.128418,4255.128418,4300,4301.410156,4263.077148,4271.025879,4287.436035,4332.179688,4255.128418,4278.205078,4425,4488.461426,4366.282227,4421.282227,,,,,,,,,,,,,,,,,,,,,,,,,,,,,,,,,,,,,,,,,,,,,,,,,,,,,,,,,,,,,,,,,,,,,,
1720525050,114,0,4277.94873,4268.717773,4308.974121,4308.205078,4270.769043,4275.641113,4283.717773,4335.769043,4249.615234,4275.512695,4426.794922,4493.205078,4368.717773,4428.077148,,,,,,,,,,,,,,,,,,,,,,,,,,,,,,,,,,,,,,,,,,,,,,,,,,,,,,,,,,,,,,,,,,,,,,
1720525050,115,0,4286.410156,4282.94873,4308.461426,4314.358887,4282.179688,4279.615234,4286.025879,4326.153809,4246.153809,4279.615234,4427.94873,4491.153809,4374.615234,4437.307617,,,,,,,,,,,,,,,,,,,,,,,,,,,,,,,,,,,,,,,,,,,,,,,,,,,,,,,,,,,,,,,,,,,,,,
1720525050,116,0,4282.563965,4279.358887,4309.487305,4315.384766,4276.410156,4272.563965,4288.333496,4331.282227,4254.871582,4284.487305,4432.179688,4496.025879,4381.153809,4442.94873,3.084912,1.142541,1.324582,0.714949,0.239772,1.490301,1.478182,0.892816,0.669807,0.21708,3.456164,1.977702,1.190178,0.675138,0.200209,1.66107,1.558957,1.300694,0.90059,0.289062,0.882426,0.637808,0.297248,0.191828,0.091715,0.627119,0.826152,0.376904,0.235481,0.098682,1.175661,1.448174,0.645558,0.443825,0.117591,0.55682,0.512536,0.207763,0.083099,0.167477,1.506295,1.54259,1.332791,0.486402,0.165579,4.655693,3.416072,3.583649,0.934126,0.187548,2.884881,3.272391,1.861483,0.89248,0.549383,2.440255,2.768981,2.085958,0.894405,0.351639,2.865327,4.01501,1.880347,0.965652,0.323129,4.524406,3.92537,1.51865,0.908785,0.3
1720525050,117,0,4277.436035,4263.846191,4309.871582,4309.358887,4263.974121,4264.230957,4281.025879,4337.307617,4251.922852,4270.512695,4426.538574,4490.897461,4373.589844,4432.692383,,,,,,,,,,,,,,,,,,,,,,,,,,,,,,,,,,,,,,,,,,,,,,,,,,,,,,,,,,,,,,,,,,,,,,
1720525050,118,0,4276.153809,4263.717773,4301.153809,4310.641113,4267.692383,4264.743652,4280.897461,4329.615234,4243.333496,4256.666504,4420,4483.077148,4369.230957,4429.102539,,,,,,,,,,,,,,,,,,,,,,,,,,,,,,,,,,,,,,,,,,,,,,,,,,,,,,,,,,,,,,,,,,,,,,
1720525050,119,0,4278.974121,4278.589844,4300.384766,4315,4271.666504,4263.974121,4290.256348,4331.538574,4249.102539,4259.230957,4424.230957,4493.461426,4378.974121,4441.794922,,,,,,,,,,,,,,,,,,,,,,,,,,,,,,,,,,,,,,,,,,,,,,,,,,,,,,,,,,,,,,,,,,,,,,
1720525050,120,0,4283.333496,4281.025879,4311.666504,4311.794922,4266.666504,4261.410156,4289.358887,4332.563965,4252.692383,4260.256348,4432.436035,4500.641113,4384.358887,4450.128418,,,,,,,,,,,,,,,,,,,,,,,,,,,,,,,,,,,,,,,,,,,,,,,,,,,,,,,,,,,,,,,,,,,,,,
1720525050,121,0,4280.769043,4279.487305,4311.538574,4309.871582,4265.769043,4269.358887,4282.05127,4325,4252.307617,4255.769043,4438.077148,4493.846191,4382.436035,4445.512695,,,,,,,,,,,,,,,,,,,,,,,,,,,,,,,,,,,,,,,,,,,,,,,,,,,,,,,,,,,,,,,,,,,,,,
1720525050,122,0,4263.974121,4277.563965,4295.897461,4312.05127,4265.512695,4273.846191,4279.615234,4328.589844,4250.512695,4247.436035,4431.153809,4486.922852,4373.717773,4429.871582,,,,,,,,,,,,,,,,,,,,,,,,,,,,,,,,,,,,,,,,,,,,,,,,,,,,,,,,,,,,,,,,,,,,,,
1720525050,123,0,4252.05127,4268.461426,4287.436035,4306.794922,4263.461426,4265.769043,4276.922852,4331.794922,4238.333496,4234.487305,4410.769043,4477.563965,4360.512695,4410.769043,,,,,,,,,,,,,,,,,,,,,,,,,,,,,,,,,,,,,,,,,,,,,,,,,,,,,,,,,,,,,,,,,,,,,,
1720525050,124,0,4253.077148,4262.94873,4290.641113,4298.205078,4265,4268.589844,4278.717773,4322.05127,4237.05127,4235.256348,4401.538574,4471.153809,4357.179688,4406.282227,,,,,,,,,,,,,,,,,,,,,,,,,,,,,,,,,,,,,,,,,,,,,,,,,,,,,,,,,,,,,,,,,,,,,,
1720525050,125,0,4251.282227,4268.974121,4292.05127,4302.692383,4264.615234,4278.717773,4286.282227,4325.256348,4251.922852,4245.897461,4410,4477.563965,4364.102539,4413.461426,,,,,,,,,,,,,,,,,,,,,,,,,,,,,,,,,,,,,,,,,,,,,,,,,,,,,,,,,,,,,,,,,,,,,,
1720525050,126,0,4252.820313,4276.025879,4297.307617,4316.025879,4262.820313,4274.102539,4289.358887,4329.871582,4250.512695,4243.974121,4420.897461,4487.05127,4372.436035,4417.05127,,,,,,,,,,,,,,,,,,,,,,,,,,,,,,,,,,,,,,,,,,,,,,,,,,,,,,,,,,,,,,,,,,,,,,
1720525050,127,0,4267.179688,4279.871582,4310.256348,4321.410156,4265.512695,4263.846191,4289.615234,4324.615234,4245.512695,4243.077148,4431.410156,4495.256348,4380,4425.641113,,,,,,,,,,,,,,,,,,,,,,,,,,,,,,,,,,,,,,,,,,,,,,,,,,,,,,,,,,,,,,,,,,,,,,
1720525050,0,0,4272.94873,4281.153809,4316.153809,4317.436035,4267.820313,4265.128418,4294.230957,4327.05127,4257.307617,4250.897461,4439.102539,4501.025879,4385.769043,4432.436035,,,,,,,,,,,,,,,,,,,,,,,,,,,,,,,,,,,,,,,,,,,,,,,,,,,,,,,,,,,,,,,,,,,,,,
1720525050,1,0,4264.487305,4279.102539,4310.897461,4316.025879,4266.666504,4268.333496,4296.666504,4326.410156,4257.94873,4246.666504,4429.487305,4492.820313,4375.256348,4421.794922,,,,,,,,,,,,,,,,,,,,,,,,,,,,,,,,,,,,,,,,,,,,,,,,,,,,,,,,,,,,,,,,,,,,,,
1720525050,2,0,4265.256348,4282.692383,4313.077148,4321.410156,4265.256348,4263.717773,4291.922852,4325.128418,4247.05127,4238.846191,4414.487305,4487.692383,4359.230957,4411.153809,,,,,,,,,,,,,,,,,,,,,,,,,,,,,,,,,,,,,,,,,,,,,,,,,,,,,,,,,,,,,,,,,,,,,,
1720525050,3,0,4267.307617,4279.615234,4315.128418,4314.743652,4264.358887,4262.436035,4284.871582,4327.179688,4244.358887,4241.410156,4410.128418,4491.922852,4357.05127,4411.282227,,,,,,,,,,,,,,,,,,,,,,,,,,,,,,,,,,,,,,,,,,,,,,,,,,,,,,,,,,,,,,,,,,,,,,
1720525050,4,0,4259.230957,4265,4307.820313,4299.358887,4262.94873,4272.563965,4286.538574,4324.102539,4246.410156,4241.794922,4418.589844,4491.666504,4367.05127,4418.077148,3.000487,1.20621,1.513617,0.706195,0.245607,1.544123,1.434569,0.957158,0.690092,0.196461,3.687873,2.174458,1.533277,0.698224,0.194743,1.695722,1.567512,1.329081,0.925231,0.266599,0.867944,0.645867,0.288962,0.202451,0.097598,0.625519,0.891115,0.472031,0.251697,0.092892,1.353285,1.589312,0.740076,0.438786,0.117408,0.617496,0.507909,0.216443,0.074742,0.156867,1.670009,1.678057,1.326459,0.486374,0.160936,4.574113,3.512288,3.544316,0.966853,0.191707,3.130892,3.34388,1.98588,0.891699,0.551297,2.588707,3.019784,2.387084,0.903236,0.350205,3.081354,4.375215,2.057148,0.974728,0.343486,4.643313,4.026889,1.846285,0.917387,0.306137
1720525050,5,0,4260.384766,4264.871582,4306.410156,4301.282227,4264.358887,4282.05127,4295.384766,4325.769043,4258.333496,4242.692383,4430.769043,4494.743652,4375,4425.769043,,,,,,,,,,,,,,,,,,,,,,,,,,,,,,,,,,,,,,,,,,,,,,,,,,,,,,,,,,,,,,,,,,,,,,
1720525050,6,0,4272.94873,4277.436035,4314.358887,4314.743652,4268.846191,4281.282227,4297.820313,4334.487305,4265.769043,4245,4430.769043,4502.692383,4368.589844,4429.743652,,,,,,,,,,,,,,,,,,,,,,,,,,,,,,,,,,,,,,,,,,,,,,,,,,,,,,,,,,,,,,,,,,,,,,
1720525050,7,0,4274.743652,4275.384766,4312.820313,4314.615234,4273.974121,4279.615234,4293.205078,4335.128418,4255.128418,4236.794922,4428.333496,4500.641113,4360.256348,4429.102539,,,,,,,,,,,,,,,,,,,,,,,,,,,,,,,,,,,,,,,,,,,,,,,,,,,,,,,,,,,,,,,,,,,,,,
1720525050,8,0,4265.384766,4261.282227,4300.384766,4303.205078,4282.692383,4282.436035,4290.256348,4327.820313,4246.410156,4220.384766,4427.820313,4493.461426,4356.922852,4422.692383,,,,,,,,,,,,,,,,,,,,,,,,,,,,,,,,,,,,,,,,,,,,,,,,,,,,,,,,,,,,,,,,,,,,,,
1720525050,9,0,4268.846191,4262.05127,4295.128418,4299.615234,4294.102539,4276.794922,4285.897461,4324.615234,4242.94873,4214.358887,4418.461426,4486.410156,4350.769043,4412.692383,,,,,,,,,,,,,,,,,,,,,,,,,,,,,,,,,,,,,,,,,,,,,,,,,,,,,,,,,,,,,,,,,,,,,,
1720525050,10,0,4278.974121,4267.692383,4299.615234,4301.794922,4297.692383,4264.615234,4279.871582,4324.615234,4237.94873,4218.077148,4406.538574,4478.974121,4343.205078,4408.846191,,,,,,,,,,,,,,,,,,,,,,,,,,,,,,,,,,,,,,,,,,,,,,,,,,,,,,,,,,,,,,,,,,,,,,
1720525050,11,0,4278.717773,4265.256348,4307.179688,4303.205078,4296.282227,4262.05127,4281.794922,4328.205078,4243.589844,4221.538574,4411.025879,4484.487305,4346.922852,4414.358887,,,,,,,,,,,,,,,,,,,,,,,,,,,,,,,,,,,,,,,,,,,,,,,,,,,,,,,,,,,,,,,,,,,,,,
1720525050,12,0,4271.025879,4263.589844,4302.692383,4301.666504,4298.077148,4264.615234,4281.410156,4323.717773,4244.358887,4218.589844,4420.128418,4486.410156,4350.512695,4407.94873,,,,,,,,,,,,,,,,,,,,,,,,,,,,,,,,,,,,,,,,,,,,,,,,,,,,,,,,,,,,,,,,,,,,,,
1720525050,13,0,4267.692383,4259.487305,4291.538574,4295.769043,4296.153809,4258.846191,4274.102539,4314.230957,4227.436035,4212.94873,4409.102539,4472.307617,4338.461426,4393.205078,,,,,,,,,,,,,,,,,,,,,,,,,,,,,,,,,,,,,,,,,,,,,,,,,,,,,,,,,,,,,,,,,,,,,,
1720525050,14,0,4281.922852,4261.666504,4300.897461,4301.410156,4299.743652,4256.922852,4276.282227,4320.512695,4230.641113,4222.820313,4404.230957,4480.384766,4341.282227,4401.025879,,,,,,,,,,,,,,,,,,,,,,,,,,,,,,,,,,,,,,,,,,,,,,,,,,,,,,,,,,,,,,,,,,,,,,
1720525050,15,0,4295.128418,4277.94873,4310.641113,4313.717773,4311.025879,4265.641113,4283.461426,4323.974121,4251.538574,4237.307617,4421.282227,4495.512695,4357.692383,4414.743652,,,,,,,,,,,,,,,,,,,,,,,,,,,,,,,,,,,,,,,,,,,,,,,,,,,,,,,,,,,,,,,,,,,,,,
1720525050,16,0,4285.641113,4280.128418,4298.077148,4313.846191,4305,4267.563965,4280,4324.487305,4245.256348,4230.256348,4421.538574,4483.205078,4347.563965,4403.846191,,,,,,,,,,,,,,,,,,,,,,,,,,,,,,,,,,,,,,,,,,,,,,,,,,,,,,,,,,,,,,,,,,,,,,
1720525050,17,0,4285.384766,4265.641113,4292.436035,4308.589844,4296.922852,4265.512695,4277.820313,4327.563965,4237.563965,4220.769043,4409.102539,4477.436035,4331.922852,4391.794922,,,,,,,,,,,,,,,,,,,,,,,,,,,,,,,,,,,,,,,,,,,,,,,,,,,,,,,,,,,,,,,,,,,,,,
1720525050,18,0,4296.410156,4261.794922,4301.410156,4304.871582,4303.461426,4268.461426,4281.153809,4321.153809,4245.641113,4229.487305,4415.641113,4484.487305,4341.794922,4401.666504,,,,,,,,,,,,,,,,,,,,,,,,,,,,,,,,,,,,,,,,,,,,,,,,,,,,,,,,,,,,,,,,,,,,,,
1720525050,19,0,4286.153809,4258.974121,4293.974121,4293.205078,4301.922852,4265.256348,4277.05127,4320,4241.153809,4229.871582,4418.589844,4479.230957,4346.153809,4409.102539,,,,,,,,,,,,,,,,,,,,,,,,,,,,,,,,,,,,,,,,,,,,,,,,,,,,,,,,,,,,,,,,,,,,,,
1720525050,20,0,4282.563965,4259.102539,4289.871582,4295.384766,4295.897461,4261.153809,4277.820313,4323.461426,4238.717773,4227.436035,4412.820313,4480.641113,4340.641113,4407.94873,2.685728,1.240925,1.680676,0.66124,0.255233,1.439652,1.259809,0.991956,0.672224,0.1884,3.581659,2.236246,1.838692,0.662828,0.18877,1.569905,1.432586,1.285755,0.883972,0.253298,0.816805,0.64054,0.262647,0.209966,0.102324,0.589247,0.952378,0.606399,0.248956,0.088259,1.459389,1.614323,0.839802,0.408982,0.117659,0.645101,0.452336,0.231965,0.062778,0.14773,1.746179,1.686184,1.18259,0.479097,0.158865,3.96809,3.178039,3.229351,0.945682,0.202248,3.232514,3.117454,2.035938,0.878615,0.543801,2.564497,3.021387,2.567287,0.846166,0.329716,3.223488,4.350578,2.13804,0.959137,0.359018,4.494944,3.895965,2.16797,0.899042,0.307772
1720525050,21,0,4301.153809,4276.410156,4309.871582,4317.820313,4301.153809,4266.025879,4287.05127,4322.563965,4255,4242.179688,4428.974121,4495.641113,4350,4416.282227,,,,,,,,,,,,,,,,,,,,,,,,,,,,,,,,,,,,,,,,,,,,,,,,,,,,,,,,,,,,,,,,,,,,,,
1720525051,22,0,4300.641113,4276.794922,4312.436035,4318.461426,4300.769043,4265.256348,4286.025879,4320.641113,4255,4243.077148,4435.641113,4490.256348,4350,4412.692383,,,,,,,,,,,,,,,,,,,,,,,,,,,,,,,,,,,,,,,,,,,,,,,,,,,,,,,,,,,,,,,,,,,,,,
1720525051,23,0,4288.333496,4261.410156,4295.897461,4303.846191,4292.179688,4257.307617,4278.461426,4320.897461,4239.871582,4231.538574,4415.384766,4475.769043,4329.871582,4392.307617,,,,,,,,,,,,,,,,,,,,,,,,,,,,,,,,,,,,,,,,,,,,,,,,,,,,,,,,,,,,,,,,,,,,,,
1720525051,24,0,4298.205078,4270.641113,4300.384766,4310.769043,4294.615234,4260.128418,4281.410156,4318.846191,4248.461426,4240,4419.871582,4482.94873,4330.897461,4391.666504,,,,,,,,,,,,,,,,,,,,,,,,,,,,,,,,,,,,,,,,,,,,,,,,,,,,,,,,,,,,,,,,,,,,,,
1720525051,25,0,4307.179688,4279.102539,4310.769043,4315.769043,4298.974121,4267.563965,4286.794922,4326.410156,4263.717773,4252.179688,4448.846191,4494.487305,4350.769043,4407.563965,,,,,,,,,,,,,,,,,,,,,,,,,,,,,,,,,,,,,,,,,,,,,,,,,,,,,,,,,,,,,,,,,,,,,,
1720525051,26,0,4298.333496,4264.615234,4300.641113,4300.641113,4296.410156,4262.05127,4282.05127,4331.538574,4261.025879,4249.102539,4445.256348,4488.461426,4348.461426,4404.743652,,,,,,,,,,,,,,,,,,,,,,,,,,,,,,,,,,,,,,,,,,,,,,,,,,,,,,,,,,,,,,,,,,,,,,
1720525051,27,0,4289.358887,4258.333496,4288.589844,4293.077148,4292.94873,4261.666504,4279.487305,4323.205078,4258.077148,4243.717773,4416.922852,4473.205078,4330.512695,4390.384766,,,,,,,,,,,,,,,,,,,,,,,,,,,,,,,,,,,,,,,,,,,,,,,,,,,,,,,,,,,,,,,,,,,,,,
1720525051,28,0,4294.871582,4267.436035,4295.769043,4304.615234,4293.461426,4274.615234,4285.512695,4328.077148,4262.820313,4248.846191,4421.025879,4476.794922,4334.743652,4395.769043,,,,,,,,,,,,,,,,,,,,,,,,,,,,,,,,,,,,,,,,,,,,,,,,,,,,,,,,,,,,,,,,,,,,,,
1720525051,29,0,4296.410156,4267.820313,4298.589844,4306.794922,4291.922852,4274.615234,4285.769043,4331.153809,4260.641113,4247.179688,4433.846191,4483.205078,4339.743652,4399.487305,,,,,,,,,,,,,,,,,,,,,,,,,,,,,,,,,,,,,,,,,,,,,,,,,,,,,,,,,,,,,,,,,,,,,,
1720525051,30,0,4284.871582,4258.974121,4290.641113,4295.128418,4284.615234,4264.230957,4276.922852,4323.461426,4245.897461,4232.94873,4411.794922,4472.820313,4320.128418,4385.128418,,,,,,,,,,,,,,,,,,,,,,,,,,,,,,,,,,,,,,,,,,,,,,,,,,,,,,,,,,,,,,,,,,,,,,
1720525051,31,0,4293.461426,4260.641113,4298.974121,4297.692383,4283.589844,4264.230957,4276.794922,4321.922852,4245.769043,4236.922852,4405,4474.230957,4316.153809,4388.077148,,,,,,,,,,,,,,,,,,,,,,,,,,,,,,,,,,,,,,,,,,,,,,,,,,,,,,,,,,,,,,,,,,,,,,
1720525051,32,0,4315.769043,4272.563965,4314.230957,4310.256348,4291.410156,4269.102539,4281.794922,4324.230957,4257.563965,4261.666504,4429.358887,4488.717773,4334.615234,4408.461426,,,,,,,,,,,,,,,,,,,,,,,,,,,,,,,,,,,,,,,,,,,,,,,,,,,,,,,,,,,,,,,,,,,,,,
1720525051,33,0,4319.871582,4284.743652,4320,4319.871582,4299.487305,4271.025879,4283.461426,4326.153809,4256.153809,4270.512695,4438.974121,4499.871582,4342.692383,4421.794922,,,,,,,,,,,,,,,,,,,,,,,,,,,,,,,,,,,,,,,,,,,,,,,,,,,,,,,,,,,,,,,,,,,,,,
1720525051,34,0,4303.461426,4277.179688,4308.846191,4312.307617,4292.563965,4269.230957,4278.846191,4319.615234,4243.974121,4255.256348,4427.05127,4493.717773,4333.333496,4413.077148,,,,,,,,,,,,,,,,,,,,,,,,,,,,,,,,,,,,,,,,,,,,,,,,,,,,,,,,,,,,,,,,,,,,,,
1720525051,35,0,4287.692383,4258.589844,4291.922852,4293.589844,4279.743652,4262.692383,4266.666504,4309.871582,4238.461426,4241.666504,4416.922852,4476.922852,4322.563965,4393.205078,,,,,,,,,,,,,,,,,,,,,,,,,,,,,,,,,,,,,,,,,,,,,,,,,,,,,,,,,,,,,,,,,,,,,,
1720525051,36,0,4298.333496,4262.820313,4297.563965,4301.153809,4284.102539,4264.615234,4266.794922,4313.717773,4245.897461,4248.974121,4426.794922,4482.692383,4333.077148,4402.05127,2.241188,1.324276,1.856951,0.631885,0.268289,1.220814,1.028115,1.010988,0.638662,0.193532,3.172204,2.222737,2.092615,0.60644,0.184309,1.336454,1.22197,1.210637,0.812853,0.248716,0.769711,0.663319,0.23946,0.221198,0.104955,0.530552,1.084951,0.786495,0.23501,0.087804,1.455874,1.556838,0.926244,0.378191,0.11882,0.64344,0.36385,0.25177,0.052027,0.140133,1.747904,1.610729,0.943324,0.481893,0.166717,3.042994,2.557087,2.787426,0.892743,0.220959,3.229898,2.717305,2.098516,0.931664,0.539366,2.436813,2.840258,2.656703,0.796696,0.297798,3.396375,4.006262,2.222677,0.979905,0.368644,4.177833,3.690408,2.532882,0.915808,0.310343
1720525051,37,0,4316.025879,4280.641113,4315.512695,4319.358887,4291.922852,4271.794922,4280,4326.025879,4261.282227,4265.384766,4451.025879,4504.487305,4354.871582,4429.230957,,,,,,,,,,,,,,,,,,,,,,,,,,,,,,,,,,,,,,,,,,,,,,,,,,,,,,,,,,,,,,,,,,,,,,
1720525051,38,0,4307.820313,4281.153809,4312.307617,4311.538574,4283.589844,4267.179688,4279.743652,4325.512695,4270.769043,4262.820313,4451.025879,4503.333496,4348.077148,4421.282227,,,,,,,,,,,,,,,,,,,,,,,,,,,,,,,,,,,,,,,,,,,,,,,,,,,,,,,,,,,,,,,,,,,,,,
1720525051,39,0,4298.846191,4266.282227,4301.025879,4301.538574,4275,4267.436035,4271.282227,4320,4264.230957,4247.436035,4426.922852,4486.922852,4326.410156,4398.589844,,,,,,,,,,,,,,,,,,,,,,,,,,,,,,,,,,,,,,,,,,,,,,,,,,,,,,,,,,,,,,,,,,,,,,
1720525051,40,0,4307.692383,4262.820313,4306.794922,4308.717773,4282.94873,4276.794922,4275.512695,4322.820313,4257.179688,4247.436035,4421.282227,4487.94873,4331.794922,4403.974121,,,,,,,,,,,,,,,,,,,,,,,,,,,,,,,,,,,,,,,,,,,,,,,,,,,,,,,,,,,,,,,,,,,,,,
1720525051,41,0,4307.563965,4272.179688,4312.307617,4311.794922,4286.538574,4276.025879,4282.692383,4326.282227,4257.179688,4250.897461,4434.102539,4493.846191,4342.563965,4409.487305,,,,,,,,,,,,,,,,,,,,,,,,,,,,,,,,,,,,,,,,,,,,,,,,,,,,,,,,,,,,,,,,,,,,,,
1720525051,42,0,4306.153809,4282.179688,4312.94873,4315.512695,4281.666504,4268.974121,4282.307617,4324.102539,4253.077148,4248.589844,4443.717773,4494.230957,4344.102539,4407.05127,,,,,,,,,,,,,,,,,,,,,,,,,,,,,,,,,,,,,,,,,,,,,,,,,,,,,,,,,,,,,,,,,,,,,,
1720525051,43,0,4312.820313,4280.641113,4310.641113,4321.282227,4281.153809,4268.589844,4281.282227,4314.615234,4248.717773,4250.256348,4443.717773,4491.282227,4344.743652,4409.871582,,,,,,,,,,,,,,,,,,,,,,,,,,,,,,,,,,,,,,,,,,,,,,,,,,,,,,,,,,,,,,,,,,,,,,
1720525051,44,0,4303.205078,4267.563965,4297.820313,4306.666504,4280.897461,4266.153809,4279.358887,4315.256348,4246.282227,4247.820313,4432.307617,4483.205078,4332.94873,4399.871582,,,,,,,,,,,,,,,,,,,,,,,,,,,,,,,,,,,,,,,,,,,,,,,,,,,,,,,,,,,,,,,,,,,,,,
1720525051,45,0,4290.512695,4267.436035,4295.641113,4295.641113,4280.256348,4264.743652,4279.743652,4322.563965,4246.153809,4248.461426,4426.410156,4483.589844,4325.641113,4386.794922,,,,,,,,,,,,,,,,,,,,,,,,,,,,,,,,,,,,,,,,,,,,,,,,,,,,,,,,,,,,,,,,,,,,,,
1720525051,46,0,4297.820313,4279.615234,4310.641113,4306.794922,4283.589844,4270.256348,4281.538574,4316.794922,4255,4262.94873,4436.025879,4492.05127,4343.205078,4400.641113,,,,,,,,,,,,,,,,,,,,,,,,,,,,,,,,,,,,,,,,,,,,,,,,,,,,,,,,,,,,,,,,,,,,,,
1720525051,47,0,4303.205078,4279.871582,4312.692383,4311.666504,4283.846191,4271.794922,4280.769043,4318.717773,4262.692383,4269.230957,4445,4496.282227,4351.666504,4413.974121,,,,,,,,,,,,,,,,,,,,,,,,,,,,,,,,,,,,,,,,,,,,,,,,,,,,,,,,,,,,,,,,,,,,,,
1720525051,48,0,4298.717773,4275.384766,4301.153809,4307.820313,4278.717773,4270,4281.153809,4323.717773,4261.282227,4266.025879,4449.230957,4491.538574,4342.05127,4402.436035,,,,,,,,,,,,,,,,,,,,,,,,,,,,,,,,,,,,,,,,,,,,,,,,,,,,,,,,,,,,,,,,,,,,,,
1720525051,49,0,4294.230957,4276.282227,4296.025879,4308.974121,4279.743652,4271.922852,4281.538574,4314.871582,4260.641113,4264.358887,4442.436035,4485.256348,4338.717773,4391.922852,,,,,,,,,,,,,,,,,,,,,,,,,,,,,,,,,,,,,,,,,,,,,,,,,,,,,,,,,,,,,,,,,,,,,,
1720525051,50,0,4292.820313,4271.025879,4295.256348,4304.102539,4282.05127,4275.384766,4280.512695,4314.358887,4260.128418,4256.922852,4428.077148,4485.512695,4336.282227,4391.666504,,,,,,,,,,,,,,,,,,,,,,,,,,,,,,,,,,,,,,,,,,,,,,,,,,,,,,,,,,,,,,,,,,,,,,
1720525051,51,0,4292.94873,4268.461426,4295.256348,4301.153809,4280,4276.025879,4279.230957,4320.897461,4256.025879,4248.461426,4431.410156,4486.153809,4331.538574,4391.153809,,,,,,,,,,,,,,,,,,,,,,,,,,,,,,,,,,,,,,,,,,,,,,,,,,,,,,,,,,,,,,,,,,,,,,
1720525051,52,0,4293.205078,4279.102539,4298.461426,4310.256348,4281.794922,4277.94873,4280.641113,4313.846191,4256.666504,4249.615234,4445.641113,4482.692383,4331.922852,4391.410156,1.826777,1.564849,2.064012,0.67017,0.282232,0.991276,0.851914,1.026191,0.622512,0.210133,2.604434,2.24482,2.279465,0.579208,0.183988,1.103384,1.056923,1.1532,0.757086,0.250762,0.774766,0.751391,0.241221,0.242051,0.106063,0.476114,1.335125,1.007696,0.218801,0.09337,1.373992,1.490704,0.985288,0.371123,0.121261,0.61469,0.270103,0.27278,0.048299,0.134012,1.760939,1.517567,0.704033,0.519756,0.189466,2.102537,1.912656,2.419549,0.848163,0.248173,3.245332,2.372122,2.257133,1.127655,0.549336,2.342588,2.632975,2.713156,0.833365,0.266911,3.755828,3.557919,2.411407,1.101936,0.374805,3.869253,3.624373,2.964139,1.031816,0.318579
1720525051,53,0,4294.871582,4282.820313,4300.256348,4313.333496,4281.282227,4280,4285.512695,4312.05127,4261.153809,4251.153809,4446.666504,4484.487305,4330,4395.769043,,,,,,,,,,,,,,,,,,,,,,,,,,,,,,,,,,,,,,,,,,,,,,,,,,,,,,,,,,,,,,,,,,,,,,
1720525051,54,0,4294.743652,4283.333496,4302.436035,4309.615234,4277.179688,4277.94873,4286.794922,4319.487305,4262.179688,4247.436035,4441.153809,4491.282227,4327.307617,4397.94873,,,,,,,,,,,,,,,,,,,,,,,,,,,,,,,,,,,,,,,,,,,,,,,,,,,,,,,,,,,,,,,,,,,,,,
1720525051,55,0,4294.487305,4291.025879,4305.897461,4317.692383,4281.282227,4279.615234,4282.94873,4313.333496,4259.487305,4247.563965,4443.974121,4488.846191,4331.666504,4399.102539,,,,,,,,,,,,,,,,,,,,,,,,,,,,,,,,,,,,,,,,,,,,,,,,,,,,,,,,,,,,,,,,,,,,,,
1720525051,56,0,4297.179688,4288.077148,4302.820313,4317.179688,4286.666504,4278.717773,4279.358887,4310.384766,4258.717773,4251.538574,4441.794922,4483.077148,4331.794922,4396.025879,,,,,,,,,,,,,,,,,,,,,,,,,,,,,,,,,,,,,,,,,,,,,,,,,,,,,,,,,,,,,,,,,,,,,,
1720525051,57,0,4293.717773,4275.512695,4294.615234,4301.538574,4277.436035,4270,4279.615234,4313.333496,4260.128418,4247.94873,4429.871582,4477.436035,4322.307617,4383.589844,,,,,,,,,,,,,,,,,,,,,,,,,,,,,,,,,,,,,,,,,,,,,,,,,,,,,,,,,,,,,,,,,,,,,,
1720525051,58,0,4282.179688,4271.153809,4289.871582,4291.666504,4265,4263.461426,4278.205078,4308.461426,4254.871582,4236.794922,4424.615234,4466.794922,4313.077148,4373.589844,,,,,,,,,,,,,,,,,,,,,,,,,,,,,,,,,,,,,,,,,,,,,,,,,,,,,,,,,,,,,,,,,,,,,,
1720525051,59,0,4278.717773,4273.205078,4291.410156,4294.102539,4269.358887,4266.922852,4273.461426,4306.538574,4245.384766,4230.769043,4423.077148,4465,4308.205078,4373.974121,,,,,,,,,,,,,,,,,,,,,,,,,,,,,,,,,,,,,,,,,,,,,,,,,,,,,,,,,,,,,,,,,,,,,,
1720525051,60,0,4285.384766,4276.282227,4295.512695,4304.615234,4280.897461,4271.794922,4273.205078,4311.025879,4245.384766,4232.94873,4427.436035,4474.743652,4310,4379.871582,,,,,,,,,,,,,,,,,,,,,,,,,,,,,,,,,,,,,,,,,,,,,,,,,,,,,,,,,,,,,,,,,,,,,,
1720525051,61,0,4282.436035,4270.512695,4291.025879,4303.974121,4280,4274.743652,4277.307617,4314.487305,4248.846191,4229.102539,4430.641113,4472.94873,4304.358887,4375,,,,,,,,,,,,,,,,,,,,,,,,,,,,,,,,,,,,,,,,,,,,,,,,,,,,,,,,,,,,,,,,,,,,,,
1720525051,62,0,4275.897461,4263.077148,4286.025879,4293.846191,4274.871582,4279.615234,4280.897461,4311.922852,4248.589844,4227.05127,4425.256348,4466.025879,4297.692383,4367.692383,,,,,,,,,,,,,,,,,,,,,,,,,,,,,,,,,,,,,,,,,,,,,,,,,,,,,,,,,,,,,,,,,,,,,,
1720525051,63,0,4277.307617,4263.077148,4290.512695,4292.94873,4273.461426,4276.153809,4273.974121,4311.025879,4245.384766,4233.077148,4422.436035,4471.410156,4304.487305,4371.153809,,,,,,,,,,,,,,,,,,,,,,,,,,,,,,,,,,,,,,,,,,,,,,,,,,,,,,,,,,,,,,,,,,,,,,
1720525051,64,0,4277.94873,4264.102539,4292.820313,4296.282227,4269.358887,4268.333496,4264.487305,4313.077148,4240.897461,4232.436035,4422.307617,4474.358887,4310.512695,4373.461426,,,,,,,,,,,,,,,,,,,,,,,,,,,,,,,,,,,,,,,,,,,,,,,,,,,,,,,,,,,,,,,,,,,,,,
1720525051,65,0,4281.282227,4272.94873,4294.743652,4302.94873,4270.641113,4268.717773,4265.512695,4311.410156,4242.563965,4229.358887,4430.256348,4478.974121,4313.717773,4375.256348,,,,,,,,,,,,,,,,,,,,,,,,,,,,,,,,,,,,,,,,,,,,,,,,,,,,,,,,,,,,,,,,,,,,,,
1720525051,66,0,4293.589844,4279.871582,4307.820313,4308.846191,4277.05127,4268.333496,4270.512695,4311.282227,4249.487305,4235.256348,4441.666504,4490,4319.102539,4384.358887,,,,,,,,,,,,,,,,,,,,,,,,,,,,,,,,,,,,,,,,,,,,,,,,,,,,,,,,,,,,,,,,,,,,,,
1720525051,67,0,4295.769043,4266.410156,4312.563965,4303.333496,4269.615234,4262.307617,4265.897461,4312.820313,4245,4236.538574,4438.461426,4483.974121,4313.589844,4383.717773,,,,,,,,,,,,,,,,,,,,,,,,,,,,,,,,,,,,,,,,,,,,,,,,,,,,,,,,,,,,,,,,,,,,,,
1720525051,68,0,4288.974121,4260.384766,4303.461426,4299.615234,4264.487305,4262.179688,4261.410156,4309.615234,4240,4229.871582,4430.897461,4474.487305,4303.846191,4376.538574,1.578704,2.001852,2.272587,0.795567,0.297447,0.83782,0.810421,1.036805,0.647158,0.237871,2.059896,2.377358,2.371603,0.612653,0.193254,0.958485,1.032546,1.139967,0.747805,0.260071,0.873921,0.904358,0.274259,0.272498,0.108059,0.447699,1.681507,1.236929,0.206744,0.104992,1.274193,1.472308,0.999224,0.3987,0.125178,0.577249,0.198994,0.290187,0.054614,0.129345,1.862549,1.462651,0.548815,0.601879,0.227189,1.431405,1.488054,2.238206,0.845351,0.282854,3.40961,2.25264,2.504306,1.480211,0.582138,2.36675,2.541813,2.749227,0.987709,0.250904,4.302238,3.209898,2.700731,1.341902,0.384796,3.668065,3.829085,3.389246,1.267003,0.337862
1720525051,69,0,4302.05127,4278.589844,4307.05127,4311.794922,4274.358887,4267.692383,4270.512695,4309.102539,4252.307617,4237.179688,4437.820313,4489.615234,4310,4386.922852,,,,,,,,,,,,,,,,,,,,,,,,,,,,,,,,,,,,,,,,,,,,,,,,,,,,,,,,,,,,,,,,,,,,,,
1720525051,70,0,4317.05127,4284.358887,4317.563965,4317.436035,4275.128418,4267.820313,4278.589844,4317.05127,4259.487305,4245,4447.307617,4503.461426,4317.436035,4395.256348,,,,,,,,,,,,,,,,,,,,,,,,,,,,,,,,,,,,,,,,,,,,,,,,,,,,,,,,,,,,,,,,,,,,,,
1720525051,71,0,4301.538574,4273.974121,4308.205078,4311.410156,4266.410156,4265.512695,4273.461426,4313.077148,4248.974121,4227.820313,4446.153809,4484.615234,4306.282227,4377.179688,,,,,,,,,,,,,,,,,,,,,,,,,,,,,,,,,,,,,,,,,,,,,,,,,,,,,,,,,,,,,,,,,,,,,,
1720525051,72,0,4289.358887,4276.410156,4299.358887,4310.128418,4267.692383,4266.922852,4272.563965,4311.410156,4244.230957,4216.666504,4446.410156,4474.102539,4298.077148,4363.461426,,,,,,,,,,,,,,,,,,,,,,,,,,,,,,,,,,,,,,,,,,,,,,,,,,,,,,,,,,,,,,,,,,,,,,
1720525051,73,0,4301.922852,4277.436035,4311.282227,4306.922852,4270.512695,4267.692383,4279.487305,4321.666504,4250,4230.769043,4447.692383,4495,4305.897461,4375.512695,,,,,,,,,,,,,,,,,,,,,,,,,,,,,,,,,,,,,,,,,,,,,,,,,,,,,,,,,,,,,,,,,,,,,,
1720525051,74,0,4308.077148,4279.230957,4316.794922,4307.307617,4266.794922,4264.358887,4276.666504,4311.794922,4249.615234,4241.922852,4447.307617,4501.025879,4316.410156,4388.846191,,,,,,,,,,,,,,,,,,,,,,,,,,,,,,,,,,,,,,,,,,,,,,,,,,,,,,,,,,,,,,,,,,,,,,
1720525051,75,0,4304.102539,4287.436035,4306.282227,4314.102539,4264.102539,4258.974121,4264.615234,4304.230957,4244.615234,4233.461426,4444.743652,4484.358887,4314.102539,4385,,,,,,,,,,,,,,,,,,,,,,,,,,,,,,,,,,,,,,,,,,,,,,,,,,,,,,,,,,,,,,,,,,,,,,
1720525051,76,0,4306.025879,4284.487305,4304.358887,4314.487305,4264.871582,4261.666504,4262.05127,4314.230957,4243.974121,4228.974121,4443.333496,4483.974121,4305.897461,4375.256348,,,,,,,,,,,,,,,,,,,,,,,,,,,,,,,,,,,,,,,,,,,,,,,,,,,,,,,,,,,,,,,,,,,,,,
1720525051,77,0,4312.563965,4281.025879,4314.743652,4314.743652,4268.589844,4264.487305,4267.94873,4316.282227,4248.717773,4242.563965,4461.282227,4501.025879,4313.974121,4380.769043,,,,,,,,,,,,,,,,,,,,,,,,,,,,,,,,,,,,,,,,,,,,,,,,,,,,,,,,,,,,,,,,,,,,,,
1720525051,78,0,4308.333496,4280.256348,4308.205078,4312.179688,4266.153809,4253.589844,4263.077148,4310,4246.282227,4246.153809,4467.94873,4495.769043,4316.153809,4382.179688,,,,,,,,,,,,,,,,,,,,,,,,,,,,,,,,,,,,,,,,,,,,,,,,,,,,,,,,,,,,,,,,,,,,,,
1720525051,79,0,4280.641113,4262.692383,4278.846191,4296.282227,4252.179688,4241.794922,4248.333496,4306.538574,4227.05127,4220.512695,4428.205078,4459.615234,4283.077148,4346.666504,,,,,,,,,,,,,,,,,,,,,,,,,,,,,,,,,,,,,,,,,,,,,,,,,,,,,,,,,,,,,,,,,,,,,,
1720525051,80,0,4247.563965,4241.794922,4256.538574,4270.769043,4243.846191,4243.205078,4240.512695,4301.794922,4209.358887,4194.102539,4389.102539,4429.743652,4242.692383,4306.410156,,,,,,,,,,,,,,,,,,,,,,,,,,,,,,,,,,,,,,,,,,,,,,,,,,,,,,,,,,,,,,,,,,,,,,
1720525051,81,0,4236.666504,4240.128418,4253.461426,4261.153809,4247.692383,4246.922852,4245.256348,4302.94873,4209.743652,4197.563965,4393.077148,4429.358887,4237.05127,4305.897461,,,,,,,,,,,,,,,,,,,,,,,,,,,,,,,,,,,,,,,,,,,,,,,,,,,,,,,,,,,,,,,,,,,,,,
1720525051,82,0,4249.487305,4247.94873,4261.153809,4274.615234,4249.102539,4246.282227,4256.666504,4315.769043,4223.846191,4221.410156,4410.256348,4447.563965,4256.794922,4327.692383,,,,,,,,,,,,,,,,,,,,,,,,,,,,,,,,,,,,,,,,,,,,,,,,,,,,,,,,,,,,,,,,,,,,,,
1720525051,83,0,4263.717773,4253.333496,4272.307617,4288.974121,4249.615234,4251.282227,4265.512695,4316.282227,4234.487305,4232.692383,4419.102539,4459.871582,4273.717773,4339.230957,,,,,,,,,,,,,,,,,,,,,,,,,,,,,,,,,,,,,,,,,,,,,,,,,,,,,,,,,,,,,,,,,,,,,,
1720525051,84,0,4274.615234,4259.743652,4285.128418,4290.128418,4256.538574,4260.512695,4267.563965,4313.077148,4235.384766,4227.94873,4435.128418,4469.358887,4289.743652,4349.230957,1.53713,2.549357,2.401467,0.979091,0.318083,0.805421,0.907345,1.025435,0.710513,0.277518,1.674876,2.602946,2.335371,0.701293,0.218798,0.931221,1.161073,1.155711,0.786105,0.280089,1.057278,1.075354,0.325997,0.304709,0.114163,0.449602,2.031103,1.414201,0.200214,0.120747,1.214156,1.500536,0.953301,0.450517,0.131064,0.544478,0.164665,0.297491,0.069749,0.126702,2.059051,1.454834,0.512336,0.713473,0.27403,1.127826,1.371576,2.215271,0.88975,0.322195,3.655153,2.370223,2.731171,1.9149,0.640857,2.497081,2.60158,2.718307,1.216977,0.25939,4.850861,3.040522,2.973507,1.645391,0.407513,3.612105,4.254583,3.655689,1.572359,0.37369
1720525051,85,0,4296.538574,4277.692383,4302.94873,4300,4265.897461,4261.794922,4266.538574,4313.205078,4240.512695,4234.871582,4460.769043,4490.641113,4314.230957,4371.794922,,,,,,,,,,,,,,,,,,,,,,,,,,,,,,,,,,,,,,,,,,,,,,,,,,,,,,,,,,,,,,,,,,,,,,
1720525051,86,0,4316.153809,4301.153809,4321.794922,4325.128418,4270.256348,4258.846191,4268.846191,4310.897461,4252.436035,4251.025879,4481.282227,4510,4330.769043,4390.512695,,,,,,,,,,,,,,,,,,,,,,,,,,,,,,,,,,,,,,,,,,,,,,,,,,,,,,,,,,,,,,,,,,,,,,
1720525051,87,0,4304.743652,4293.077148,4316.922852,4323.461426,4265.512695,4254.871582,4265.769043,4311.538574,4251.282227,4247.179688,4478.205078,4503.846191,4321.922852,4383.717773,,,,,,,,,,,,,,,,,,,,,,,,,,,,,,,,,,,,,,,,,,,,,,,,,,,,,,,,,,,,,,,,,,,,,,
1720525051,88,0,4288.589844,4271.025879,4300.641113,4303.717773,4263.717773,4251.922852,4263.333496,4311.538574,4240.641113,4239.743652,4463.461426,4489.871582,4313.077148,4373.974121,,,,,,,,,,,,,,,,,,,,,,,,,,,,,,,,,,,,,,,,,,,,,,,,,,,,,,,,,,,,,,,,,,,,,,
1720525051,89,0,4298.461426,4276.153809,4303.717773,4306.025879,4273.333496,4256.666504,4271.025879,4312.563965,4242.179688,4250.128418,4466.538574,4496.153809,4319.871582,4384.871582,,,,,,,,,,,,,,,,,,,,,,,,,,,,,,,,,,,,,,,,,,,,,,,,,,,,,,,,,,,,,,,,,,,,,,
1720525051,90,0,4305.256348,4287.563965,4307.179688,4314.615234,4275.769043,4263.589844,4276.282227,4315.256348,4250.897461,4256.025879,4472.563965,4500,4319.871582,4391.282227,,,,,,,,,,,,,,,,,,,,,,,,,,,,,,,,,,,,,,,,,,,,,,,,,,,,,,,,,,,,,,,,,,,,,,
1720525051,91,0,4289.871582,4281.410156,4296.410156,4310.256348,4266.538574,4262.436035,4274.615234,4316.794922,4246.153809,4248.205078,4456.794922,4486.153809,4306.538574,4376.538574,,,,,,,,,,,,,,,,,,,,,,,,,,,,,,,,,,,,,,,,,,,,,,,,,,,,,,,,,,,,,,,,,,,,,,
1720525051,92,0,4279.487305,4275.128418,4293.077148,4305.769043,4261.794922,4262.179688,4275.512695,4317.436035,4234.102539,4243.333496,4446.922852,4477.563965,4299.102539,4364.871582,,,,,,,,,,,,,,,,,,,,,,,,,,,,,,,,,,,,,,,,,,,,,,,,,,,,,,,,,,,,,,,,,,,,,,
1720525051,93,0,4288.333496,4280.256348,4300.256348,4311.538574,4262.820313,4266.538574,4278.846191,4319.358887,4235.641113,4246.794922,4454.615234,4485.128418,4302.94873,4371.538574,,,,,,,,,,,,,,,,,,,,,,,,,,,,,,,,,,,,,,,,,,,,,,,,,,,,,,,,,,,,,,,,,,,,,,
1720525051,94,0,4299.230957,4284.230957,4304.358887,4314.871582,4264.102539,4265.641113,4279.358887,4320.769043,4245.256348,4248.974121,4462.436035,4496.153809,4308.846191,4379.615234,,,,,,,,,,,,,,,,,,,,,,,,,,,,,,,,,,,,,,,,,,,,,,,,,,,,,,,,,,,,,,,,,,,,,,
1720525051,95,0,4299.743652,4278.205078,4308.717773,4310,4265.256348,4260.512695,4280.256348,4317.94873,4247.94873,4248.717773,4470.641113,4501.410156,4317.820313,4382.692383,,,,,,,,,,,,,,,,,,,,,,,,,,,,,,,,,,,,,,,,,,,,,,,,,,,,,,,,,,,,,,,,,,,,,,
1720525051,96,0,4301.153809,4275.897461,4313.589844,4308.846191,4264.102539,4257.307617,4274.615234,4315.641113,4248.717773,4256.153809,4478.717773,4502.94873,4324.102539,4385.384766,,,,,,,,,,,,,,,,,,,,,,,,,,,,,,,,,,,,,,,,,,,,,,,,,,,,,,,,,,,,,,,,,,,,,,
1720525051,97,0,4312.820313,4288.333496,4314.230957,4320.512695,4262.05127,4251.666504,4263.846191,4313.589844,4254.102539,4260.769043,4479.871582,4504.871582,4327.563965,4390.641113,,,,,,,,,,,,,,,,,,,,,,,,,,,,,,,,,,,,,,,,,,,,,,,,,,,,,,,,,,,,,,,,,,,,,,
1720525051,98,0,4316.538574,4293.333496,4316.410156,4327.563965,4263.846191,4246.410156,4260.384766,4314.358887,4251.922852,4254.230957,4473.846191,4504.615234,4326.153809,4392.820313,,,,,,,,,,,,,,,,,,,,,,,,,,,,,,,,,,,,,,,,,,,,,,,,,,,,,,,,,,,,,,,,,,,,,,
1720525051,99,0,4301.410156,4282.563965,4311.666504,4310.897461,4264.102539,4248.974121,4262.692383,4305.769043,4239.102539,4248.077148,4466.025879,4493.333496,4320.128418,4382.94873,,,,,,,,,,,,,,,,,,,,,,,,,,,,,,,,,,,,,,,,,,,,,,,,,,,,,,,,,,,,,,,,,,,,,,
1720525051,100,0,4283.333496,4274.743652,4296.538574,4290.128418,4260.641113,4255.897461,4267.05127,4300.897461,4234.102539,4244.743652,4453.974121,4478.461426,4311.025879,4369.102539,1.661415,3.035046,2.370582,1.150066,0.347164,0.8692,1.070986,0.977567,0.784129,0.326742,1.50492,2.820685,2.157418,0.803591,0.262451,0.99468,1.364646,1.161645,0.845273,0.312435,1.261749,1.189912,0.368764,0.325192,0.126392,0.473797,2.259519,1.476668,0.195256,0.137015,1.203084,1.5211,0.847372,0.496747,0.139217,0.51524,0.164745,0.290128,0.088932,0.126824,2.290017,1.456554,0.562856,0.817626,0.319331,1.152008,1.467014,2.221061,0.951821,0.361569,3.908155,2.602547,2.792981,2.291214,0.717409,2.665149,2.734425,2.555215,1.421936,0.293568,5.168833,2.99806,3.075639,1.898563,0.445819,3.669328,4.69847,3.622639,1.843599,0.426652
1720525051,101,0,4284.358887,4275.641113,4294.487305,4295.256348,4259.871582,4260.128418,4276.666504,4318.974121,4236.282227,4239.743652,4446.025879,4481.794922,4301.282227,4365.384766,,,,,,,,,,,,,,,,,,,,,,,,,,,,,,,,,,,,,,,,,,,,,,,,,,,,,,,,,,,,,,,,,,,,,,
1720525051,102,0,4291.410156,4280.769043,4304.871582,4310.256348,4266.025879,4263.974121,4284.743652,4318.717773,4237.05127,4237.307617,4453.717773,4491.794922,4305.128418,4370.769043,,,,,,,,,,,,,,,,,,,,,,,,,,,,,,,,,,,,,,,,,,,,,,,,,,,,,,,,,,,,,,,,,,,,,,
1720525051,103,0,4288.461426,4279.102539,4300.512695,4304.871582,4264.743652,4261.410156,4282.307617,4307.436035,4240.384766,4237.820313,4468.974121,4493.974121,4320.897461,4381.025879,,,,,,,,,,,,,,,,,,,,,,,,,,,,,,,,,,,,,,,,,,,,,,,,,,,,,,,,,,,,,,,,,,,,,,
1720525051,104,0,4286.666504,4269.102539,4290.128418,4293.205078,4251.538574,4249.615234,4279.743652,4313.589844,4241.666504,4234.102539,4467.94873,4493.846191,4324.743652,4386.794922,,,,,,,,,,,,,,,,,,,,,,,,,,,,,,,,,,,,,,,,,,,,,,,,,,,,,,,,,,,,,,,,,,,,,,
1720525051,105,0,4288.077148,4268.589844,4290,4294.102539,4250.641113,4244.871582,4279.743652,4311.153809,4237.563965,4231.538574,4459.102539,4487.436035,4314.871582,4381.282227,,,,,,,,,,,,,,,,,,,,,,,,,,,,,,,,,,,,,,,,,,,,,,,,,,,,,,,,,,,,,,,,,,,,,,
1720525051,106,0,4292.179688,4281.282227,4295.256348,4299.102539,4258.333496,4246.922852,4271.025879,4305,4235.769043,4238.333496,4468.589844,4485,4315.128418,4377.820313,,,,,,,,,,,,,,,,,,,,,,,,,,,,,,,,,,,,,,,,,,,,,,,,,,,,,,,,,,,,,,,,,,,,,,
1720525051,107,0,4302.307617,4287.820313,4301.410156,4302.436035,4253.205078,4244.358887,4260.512695,4307.692383,4238.846191,4249.871582,4473.717773,4496.153809,4324.358887,4384.743652,,,,,,,,,,,,,,,,,,,,,,,,,,,,,,,,,,,,,,,,,,,,,,,,,,,,,,,,,,,,,,,,,,,,,,
1720525051,108,0,4302.179688,4284.358887,4299.743652,4300.512695,4246.794922,4243.205078,4260.641113,4302.94873,4240.641113,4253.717773,4462.179688,4497.05127,4324.743652,4386.153809,,,,,,,,,,,,,,,,,,,,,,,,,,,,,,,,,,,,,,,,,,,,,,,,,,,,,,,,,,,,,,,,,,,,,,
1720525051,109,0,4291.666504,4278.846191,4290.384766,4294.615234,4249.743652,4249.615234,4268.846191,4303.333496,4244.871582,4248.333496,4456.410156,4485.256348,4317.563965,4377.692383,,,,,,,,,,,,,,,,,,,,,,,,,,,,,,,,,,,,,,,,,,,,,,,,,,,,,,,,,,,,,,,,,,,,,,
1720525051,110,0,4292.94873,4276.922852,4292.436035,4299.102539,4252.307617,4258.077148,4280.512695,4320.128418,4251.666504,4245.641113,4461.153809,4487.692383,4315.769043,4374.743652,,,,,,,,,,,,,,,,,,,,,,,,,,,,,,,,,,,,,,,,,,,,,,,,,,,,,,,,,,,,,,,,,,,,,,
1720525051,111,0,4299.230957,4281.794922,4296.025879,4306.666504,4251.282227,4263.333496,4289.102539,4315.384766,4248.974121,4241.922852,4465.384766,4495.512695,4323.846191,4374.615234,,,,,,,,,,,,,,,,,,,,,,,,,,,,,,,,,,,,,,,,,,,,,,,,,,,,,,,,,,,,,,,,,,,,,,
1720525051,112,0,4291.410156,4280.512695,4283.461426,4297.94873,4251.922852,4261.282227,4285.256348,4302.436035,4238.333496,4230.512695,4464.487305,4484.615234,4322.563965,4363.333496,,,,,,,,,,,,,,,,,,,,,,,,,,,,,,,,,,,,,,,,,,,,,,,,,,,,,,,,,,,,,,,,,,,,,,
1720525051,113,0,4281.666504,4273.205078,4274.487305,4289.487305,4254.871582,4259.358887,4276.282227,4310,4235.769043,4226.922852,4460.256348,4474.230957,4311.282227,4354.102539,,,,,,,,,,,,,,,,,,,,,,,,,,,,,,,,,,,,,,,,,,,,,,,,,,,,,,,,,,,,,,,,,,,,,,
1720525051,114,0,4284.871582,4275,4284.487305,4296.794922,4262.563965,4263.205078,4277.94873,4311.282227,4246.410156,4239.743652,4457.436035,4481.666504,4315.384766,4362.179688,,,,,,,,,,,,,,,,,,,,,,,,,,,,,,,,,,,,,,,,,,,,,,,,,,,,,,,,,,,,,,,,,,,,,,
1720525051,115,0,4295,4281.410156,4295,4303.974121,4261.538574,4259.358887,4280.256348,4306.666504,4251.922852,4247.94873,4461.282227,4491.282227,4327.436035,4371.025879,,,,,,,,,,,,,,,,,,,,,,,,,,,,,,,,,,,,,,,,,,,,,,,,,,,,,,,,,,,,,,,,,,,,,,
1720525051,116,0,4300.256348,4282.692383,4293.077148,4303.333496,4252.692383,4250.128418,4271.153809,4305,4242.820313,4241.410156,4465.384766,4487.563965,4326.153809,4369.358887,1.939384,3.316623,2.19736,1.238755,0.385569,1.002517,1.219149,0.906627,0.830845,0.379795,1.582518,2.926671,1.895566,0.867635,0.319297,1.133493,1.536572,1.132028,0.888006,0.354623,1.403903,1.190882,0.37636,0.323168,0.144464,0.509235,2.280695,1.403739,0.188094,0.149455,1.222846,1.470226,0.702111,0.507844,0.148981,0.481334,0.18407,0.26808,0.106401,0.129801,2.466266,1.421323,0.638642,0.874649,0.352682,1.321467,1.577101,2.136994,0.986843,0.398993,4.068584,2.799642,2.656233,2.48011,0.794793,2.847458,2.828088,2.267809,1.508436,0.350318,5.159562,2.990452,2.9678,1.993827,0.495828,3.806155,4.941803,3.290512,1.97937,0.494198
1720525051,117,0,4298.461426,4277.692383,4291.538574,4303.461426,4252.692383,4247.179688,4259.743652,4304.743652,4237.692383,4234.358887,4469.102539,4486.410156,4323.846191,4369.358887,,,,,,,,,,,,,,,,,,,,,,,,,,,,,,,,,,,,,,,,,,,,,,,,,,,,,,,,,,,,,,,,,,,,,,
1720525051,118,0,4298.974121,4281.666504,4297.436035,4305.256348,4259.615234,4246.794922,4260.128418,4307.563965,4242.820313,4235.256348,4472.94873,4494.102539,4325.769043,4371.794922,,,,,,,,,,,,,,,,,,,,,,,,,,,,,,,,,,,,,,,,,,,,,,,,,,,,,,,,,,,,,,,,,,,,,,
1720525051,119,0,4303.461426,4292.436035,4299.358887,4307.563965,4262.05127,4250.384766,4270.512695,4309.358887,4249.230957,4243.205078,4473.974121,4496.410156,4327.307617,4374.871582,,,,,,,,,,,,,,,,,,,,,,,,,,,,,,,,,,,,,,,,,,,,,,,,,,,,,,,,,,,,,,,,,,,,,,
1720525051,120,0,4302.94873,4289.487305,4295.384766,4309.230957,4261.410156,4257.94873,4282.05127,4311.153809,4251.666504,4251.538574,4470.256348,4492.179688,4326.538574,4374.615234,,,,,,,,,,,,,,,,,,,,,,,,,,,,,,,,,,,,,,,,,,,,,,,,,,,,,,,,,,,,,,,,,,,,,,
1720525051,121,0,4298.846191,4283.974121,4302.05127,4312.563965,4263.717773,4262.692383,4290.897461,4313.846191,4249.743652,4249.102539,4470.512695,4492.94873,4324.871582,4371.922852,,,,,,,,,,,,,,,,,,,,,,,,,,,,,,,,,,,,,,,,,,,,,,,,,,,,,,,,,,,,,,,,,,,,,,
1720525051,122,0,4294.871582,4289.358887,4308.205078,4308.077148,4264.230957,4264.102539,4295.641113,4315.897461,4249.743652,4242.692383,4475.384766,4496.922852,4323.717773,4373.333496,,,,,,,,,,,,,,,,,,,,,,,,,,,,,,,,,,,,,,,,,,,,,,,,,,,,,,,,,,,,,,,,,,,,,,
1720525051,123,0,4293.461426,4286.025879,4302.179688,4298.077148,4262.820313,4266.410156,4294.487305,4318.333496,4255.512695,4246.410156,4478.461426,4498.589844,4322.94873,4376.153809,,,,,,,,,,,,,,,,,,,,,,,,,,,,,,,,,,,,,,,,,,,,,,,,,,,,,,,,,,,,,,,,,,,,,,
1720525051,124,0,4294.871582,4278.974121,4298.589844,4300.641113,4261.794922,4263.974121,4286.922852,4314.487305,4253.717773,4245.128418,4474.102539,4492.94873,4319.487305,4371.666504,,,,,,,,,,,,,,,,,,,,,,,,,,,,,,,,,,,,,,,,,,,,,,,,,,,,,,,,,,,,,,,,,,,,,,
1720525051,125,0,4293.589844,4284.230957,4297.436035,4302.307617,4259.230957,4258.077148,4276.025879,4301.922852,4240.256348,4231.922852,4464.102539,4480,4309.487305,4360.512695,,,,,,,,,,,,,,,,,,,,,,,,,,,,,,,,,,,,,,,,,,,,,,,,,,,,,,,,,,,,,,,,,,,,,,
1720525051,126,0,4294.358887,4285.256348,4301.410156,4295.641113,4258.974121,4253.717773,4273.589844,4307.692383,4239.358887,4232.820313,4468.205078,4486.666504,4311.025879,4364.230957,,,,,,,,,,,,,,,,,,,,,,,,,,,,,,,,,,,,,,,,,,,,,,,,,,,,,,,,,,,,,,,,,,,,,,
1720525051,127,0,4305.512695,4284.615234,4312.05127,4296.794922,4261.666504,4251.025879,4273.717773,4316.538574,4252.436035,4248.589844,4481.282227,4505.512695,4324.358887,4375.641113,,,,,,,,,,,,,,,,,,,,,,,,,,,,,,,,,,,,,,,,,,,,,,,,,,,,,,,,,,,,,,,,,,,,,,
1720525051,0,0,4313.974121,4291.794922,4314.102539,4303.974121,4264.487305,4253.717773,4267.820313,4303.333496,4253.846191,4252.307617,4481.666504,4498.717773,4322.436035,4371.025879,,,,,,,,,,,,,,,,,,,,,,,,,,,,,,,,,,,,,,,,,,,,,,,,,,,,,,,,,,,,,,,,,,,,,,
1720525051,1,0,4309.102539,4292.94873,4312.563965,4307.179688,4263.461426,4258.333496,4266.922852,4310,4246.410156,4246.538574,4465.512695,4490.384766,4307.692383,4363.589844,,,,,,,,,,,,,,,,,,,,,,,,,,,,,,,,,,,,,,,,,,,,,,,,,,,,,,,,,,,,,,,,,,,,,,
1720525051,2,0,4301.538574,4290.897461,4317.179688,4306.922852,4263.717773,4261.538574,4281.153809,4324.615234,4249.230957,4250.769043,4456.538574,4496.153809,4306.153809,4366.922852,,,,,,,,,,,,,,,,,,,,,,,,,,,,,,,,,,,,,,,,,,,,,,,,,,,,,,,,,,,,,,,,,,,,,,
1720525051,3,0,4293.974121,4284.871582,4307.820313,4301.538574,4266.794922,4265.256348,4289.871582,4319.102539,4251.025879,4247.94873,4467.692383,4490.256348,4314.230957,4364.487305,,,,,,,,,,,,,,,,,,,,,,,,,,,,,,,,,,,,,,,,,,,,,,,,,,,,,,,,,,,,,,,,,,,,,,
1720525051,4,0,4286.538574,4275.897461,4291.025879,4294.230957,4266.666504,4265.897461,4283.974121,4317.563965,4246.666504,4233.589844,4474.615234,4480.384766,4309.487305,4356.153809,2.388282,3.363599,2.023351,1.217068,0.430588,1.188864,1.32309,0.853469,0.828894,0.428232,1.935286,2.895558,1.675859,0.862355,0.378122,1.374019,1.614965,1.086664,0.890769,0.40007,1.430339,1.075303,0.342709,0.297822,0.165517,0.545859,2.082598,1.235697,0.17953,0.154583,1.249444,1.319546,0.575883,0.47353,0.157949,0.437087,0.203742,0.239828,0.118121,0.135023,2.525682,1.341334,0.695351,0.864961,0.367579,1.498037,1.557241,1.935242,0.968421,0.434323,4.166404,2.902192,2.456798,2.427917,0.852812,3.104013,2.828339,1.976611,1.441101,0.423062,4.913657,2.990547,2.789742,1.893718,0.547272,4.126,4.882374,2.841748,1.934977,0.568777
1720525051,5,0,4284.743652,4275.769043,4291.794922,4296.922852,4265.256348,4264.615234,4280.384766,4314.743652,4246.794922,4231.153809,4461.666504,4474.615234,4296.922852,4357.307617,,,,,,,,,,,,,,,,,,,,,,,,,,,,,,,,,,,,,,,,,,,,,,,,,,,,,,,,,,,,,,,,,,,,,,
1720525051,6,0,4282.436035,4279.102539,4295.384766,4295.769043,4265.512695,4262.436035,4282.563965,4310.128418,4247.692383,4236.025879,4454.487305,4471.666504,4294.358887,4360.641113,,,,,,,,,,,,,,,,,,,,,,,,,,,,,,,,,,,,,,,,,,,,,,,,,,,,,,,,,,,,,,,,,,,,,,
1720525051,7,0,4276.794922,4276.794922,4292.820313,4290.641113,4264.871582,4255.384766,4276.922852,4310.769043,4245.641113,4234.615234,4467.820313,4477.05127,4306.282227,4358.974121,,,,,,,,,,,,,,,,,,,,,,,,,,,,,,,,,,,,,,,,,,,,,,,,,,,,,,,,,,,,,,,,,,,,,,
1720525051,8,0,4281.153809,4277.820313,4290.641113,4292.692383,4261.153809,4243.589844,4267.820313,4305.128418,4241.794922,4230.897461,4473.717773,4480.128418,4315.769043,4360.897461,,,,,,,,,,,,,,,,,,,,,,,,,,,,,,,,,,,,,,,,,,,,,,,,,,,,,,,,,,,,,,,,,,,,,,
1720525051,9,0,4290.512695,4280.384766,4289.743652,4291.922852,4256.794922,4236.666504,4258.846191,4300.897461,4234.871582,4228.846191,4462.692383,4474.102539,4308.461426,4359.487305,,,,,,,,,,,,,,,,,,,,,,,,,,,,,,,,,,,,,,,,,,,,,,,,,,,,,,,,,,,,,,,,,,,,,,
1720525051,10,0,4288.974121,4275.897461,4292.179688,4288.077148,4251.922852,4232.05127,4248.333496,4308.589844,4232.179688,4235.512695,4458.333496,4476.153809,4304.871582,4359.358887,,,,,,,,,,,,,,,,,,,,,,,,,,,,,,,,,,,,,,,,,,,,,,,,,,,,,,,,,,,,,,,,,,,,,,
1720525051,11,0,4283.589844,4276.922852,4294.102539,4288.205078,4249.743652,4232.05127,4244.615234,4305.769043,4238.077148,4250.769043,4467.307617,4481.922852,4317.05127,4370.512695,,,,,,,,,,,,,,,,,,,,,,,,,,,,,,,,,,,,,,,,,,,,,,,,,,,,,,,,,,,,,,,,,,,,,,
1720525051,12,0,4283.717773,4287.436035,4292.307617,4295.897461,4255.641113,4241.282227,4256.922852,4304.230957,4238.333496,4250,4474.871582,4480.641113,4317.692383,4372.05127,,,,,,,,,,,,,,,,,,,,,,,,,,,,,,,,,,,,,,,,,,,,,,,,,,,,,,,,,,,,,,,,,,,,,,
1720525051,13,0,4281.538574,4288.974121,4291.922852,4300.512695,4262.436035,4251.153809,4273.461426,4319.102539,4232.307617,4234.102539,4475.512695,4482.94873,4303.461426,4360.769043,,,,,,,,,,,,,,,,,,,,,,,,,,,,,,,,,,,,,,,,,,,,,,,,,,,,,,,,,,,,,,,,,,,,,,
1720525051,14,0,4276.282227,4275.384766,4290.897461,4288.589844,4261.153809,4257.307617,4279.358887,4315,4230.128418,4231.538574,4475.384766,4479.102539,4299.358887,4355.512695,,,,,,,,,,,,,,,,,,,,,,,,,,,,,,,,,,,,,,,,,,,,,,,,,,,,,,,,,,,,,,,,,,,,,,
1720525051,15,0,4276.025879,4268.589844,4289.358887,4282.692383,4258.205078,4262.563965,4278.461426,4311.410156,4229.871582,4232.563965,4471.282227,4471.666504,4300,4352.05127,,,,,,,,,,,,,,,,,,,,,,,,,,,,,,,,,,,,,,,,,,,,,,,,,,,,,,,,,,,,,,,,,,,,,,
1720525051,16,0,4280.769043,4279.230957,4297.05127,4294.487305,4261.025879,4266.410156,4283.205078,4323.589844,4239.487305,4228.846191,4466.794922,4479.358887,4296.410156,4347.692383,,,,,,,,,,,,,,,,,,,,,,,,,,,,,,,,,,,,,,,,,,,,,,,,,,,,,,,,,,,,,,,,,,,,,,
