Timestamp,EEG.Counter,EEG.Interpolated,EEG.AF3,EEG.F7,EEG.F3,EEG.FC5,EEG.T7,EEG.P7,EEG.O1,EEG.O2,EEG.P8,EEG.T8,EEG.FC6,EEG.F4,EEG.F8,EEG.AF4,POW.AF3.Theta,POW.AF3.Alpha,POW.AF3.BetaL,POW.AF3.BetaH,POW.AF3.Gamma,POW.F7.Theta,POW.F7.Alpha,POW.F7.BetaL,POW.F7.BetaH,POW.F7.Gamma,POW.F3.Theta,POW.F3.Alpha,POW.F3.BetaL,POW.F3.BetaH,POW.F3.Gamma,POW.FC5.Theta,POW.FC5.Alpha,POW.FC5.BetaL,POW.FC5.BetaH,POW.FC5.Gamma,POW.T7.Theta,POW.T7.Alpha,POW.T7.BetaL,POW.T7.BetaH,POW.T7.Gamma,POW.P7.Theta,POW.P7.Alpha,POW.P7.BetaL,POW.P7.BetaH,POW.P7.Gamma,POW.O1.Theta,POW.O1.Alpha,POW.O1.BetaL,POW.O1.BetaH,POW.O1.Gamma,POW.O2.Theta,POW.O2.Alpha,POW.O2.BetaL,POW.O2.BetaH,POW.O2.Gamma,POW.P8.Theta,POW.P8.Alpha,POW.P8.BetaL,POW.P8.BetaH,POW.P8.Gamma,POW.T8.Theta,POW.T8.Alpha,POW.T8.BetaL,POW.T8.BetaH,POW.T8.Gamma,POW.FC6.Theta,POW.FC6.Alpha,POW.FC6.BetaL,POW.FC6.BetaH,POW.FC6.Gamma,POW.F4.Theta,POW.F4.Alpha,POW.F4.BetaL,POW.F4.BetaH,POW.F4.Gamma,POW.F8.Theta,POW.F8.Alpha,POW.F8.BetaL,POW.F8.BetaH,POW.F8.Gamma,POW.AF4.Theta,POW.AF4.Alpha,POW.AF4.BetaL,POW.AF4.BetaH,POW.AF4.Gamma
1720526688,10,0,4349.102539,4251.666504,4264.615234,4299.102539,4174.230957,4315.897461,4246.794922,4215.128418,4201.538574,3880.512939,4430.897461,4378.333496,4293.333496,4398.717773,,,,,,,,,,,,,,,,,,,,,,,,,,,,,,,,,,,,,,,,,,,,,,,,,,,,,,,,,,,,,,,,,,,,,,
1720526688,11,0,4373.205078,4267.692383,4286.794922,4298.077148,4175.256348,4326.410156,4269.230957,4243.846191,4218.205078,3936.281982,4471.922852,4395.128418,4330.512695,4428.461426,,,,,,,,,,,,,,,,,,,,,,,,,,,,,,,,,,,,,,,,,,,,,,,,,,,,,,,,,,,,,,,,,,,,,,
1720526688,12,0,4366.282227,4260,4280.769043,4295.641113,4169.102539,4321.025879,4267.820313,4245.641113,4218.077148,3949.358887,4478.461426,4398.077148,4326.153809,4424.615234,,,,,,,,,,,,,,,,,,,,,,,,,,,,,,,,,,,,,,,,,,,,,,,,,,,,,,,,,,,,,,,,,,,,,,
1720526688,13,0,4354.487305,4250.897461,4273.589844,4295,4170.769043,4313.589844,4261.282227,4235.897461,4208.717773,3939.102539,4465.256348,4389.230957,4310.256348,4412.94873,11.859158,4.665876,2.323662,1.103224,0.430838,4.377694,2.224555,1.093269,0.58936,0.23005,5.566162,4.436529,0.836114,0.729428,0.283626,3.248577,1.805514,0.458582,0.176833,0.081885,110.336494,42.575161,11.099039,4.600047,1.032305,40.39106,8.38591,2.837765,1.571362,0.534897,7.006742,3.626292,1.694167,0.458623,0.169399,7.036863,4.787241,1.639429,0.371976,0.219605,2.118572,1.285316,0.604398,0.239757,0.177819,154.717239,70.262939,14.857178,7.846322,2.338398,13.333889,4.972452,1.73801,1.35572,0.883861,5.980374,3.54811,0.642091,0.374482,0.48224,6.902553,3.019183,3.113836,0.912548,0.284091,6.630272,4.388191,2.279472,0.835193,0.32138
1720526688,14,0,4359.487305,4250.256348,4277.94873,4292.436035,4164.871582,4313.974121,4264.102539,4234.743652,4209.358887,3946.923096,4465,4393.717773,4315,4414.743652,,,,,,,,,,,,,,,,,,,,,,,,,,,,,,,,,,,,,,,,,,,,,,,,,,,,,,,,,,,,,,,,,,,,,,
1720526688,15,0,4364.487305,4252.179688,4280.384766,4291.153809,4160.897461,4313.589844,4266.666504,4237.94873,4217.563965,3963.461426,4476.025879,4404.102539,4320.512695,4421.025879,,,,,,,,,,,,,,,,,,,,,,,,,,,,,,,,,,,,,,,,,,,,,,,,,,,,,,,,,,,,,,,,,,,,,,
1720526688,16,0,4362.94873,4253.333496,4278.333496,4293.077148,4168.205078,4307.179688,4266.153809,4236.282227,4222.563965,3971.410156,4480,4390.256348,4313.846191,4418.717773,,,,,,,,,,,,,,,,,,,,,,,,,,,,,,,,,,,,,,,,,,,,,,,,,,,,,,,,,,,,,,,,,,,,,,
1720526688,17,0,4360.769043,4250.128418,4281.794922,4291.282227,4158.461426,4301.025879,4263.333496,4232.05127,4226.538574,3976.410156,4472.436035,4381.282227,4310.897461,4412.820313,,,,,,,,,,,,,,,,,,,,,,,,,,,,,,,,,,,,,,,,,,,,,,,,,,,,,,,,,,,,,,,,,,,,,,
1720526688,18,0,4358.461426,4248.589844,4290.384766,4295.256348,4182.692383,4296.538574,4254.871582,4228.974121,4229.871582,3982.94873,4466.025879,4391.794922,4313.846191,4413.333496,,,,,,,,,,,,,,,,,,,,,,,,,,,,,,,,,,,,,,,,,,,,,,,,,,,,,,,,,,,,,,,,,,,,,,
1720526688,19,0,4352.692383,4250,4288.846191,4311.153809,4277.307617,4287.563965,4246.282227,4222.820313,4230.384766,3991.794922,4468.589844,4382.307617,4307.94873,4412.436035,,,,,,,,,,,,,,,,,,,,,,,,,,,,,,,,,,,,,,,,,,,,,,,,,,,,,,,,,,,,,,,,,,,,,,
1720526688,20,0,4341.153809,4244.358887,4276.538574,4321.922852,4341.153809,4276.666504,4242.05127,4216.922852,4231.538574,4004.230713,4469.615234,4375.256348,4297.94873,4402.436035,,,,,,,,,,,,,,,,,,,,,,,,,,,,,,,,,,,,,,,,,,,,,,,,,,,,,,,,,,,,,,,,,,,,,,
1720526688,21,0,4329.102539,4236.153809,4265.512695,4318.077148,4334.358887,4274.615234,4242.820313,4215.897461,4230.641113,4014.487061,4461.666504,4370.641113,4291.794922,4391.794922,,,,,,,,,,,,,,,,,,,,,,,,,,,,,,,,,,,,,,,,,,,,,,,,,,,,,,,,,,,,,,,,,,,,,,
1720526688,22,0,4325.512695,4233.589844,4260.769043,4316.538574,4324.230957,4281.282227,4246.666504,4218.589844,4228.846191,4020.128174,4452.307617,4363.717773,4283.974121,4386.282227,,,,,,,,,,,,,,,,,,,,,,,,,,,,,,,,,,,,,,,,,,,,,,,,,,,,,,,,,,,,,,,,,,,,,,
1720526688,23,0,4324.358887,4232.05127,4261.666504,4322.563965,4324.871582,4280.897461,4250,4223.333496,4230.897461,4018.333252,4454.871582,4371.153809,4277.820313,4379.871582,,,,,,,,,,,,,,,,,,,,,,,,,,,,,,,,,,,,,,,,,,,,,,,,,,,,,,,,,,,,,,,,,,,,,,
1720526688,24,0,4323.717773,4230.641113,4263.333496,4322.692383,4323.461426,4278.717773,4251.282227,4227.692383,4230.641113,4031.666748,4465.256348,4371.153809,4281.282227,4376.538574,,,,,,,,,,,,,,,,,,,,,,,,,,,,,,,,,,,,,,,,,,,,,,,,,,,,,,,,,,,,,,,,,,,,,,
1720526688,25,0,4323.846191,4232.436035,4261.666504,4321.666504,4326.025879,4281.794922,4251.922852,4230.384766,4229.230957,4047.94873,4461.410156,4372.820313,4285.769043,4381.666504,,,,,,,,,,,,,,,,,,,,,,,,,,,,,,,,,,,,,,,,,,,,,,,,,,,,,,,,,,,,,,,,,,,,,,
1720526688,26,0,4317.563965,4232.436035,4261.410156,4320,4318.333496,4281.922852,4251.025879,4228.717773,4231.410156,4005.128174,4451.538574,4374.615234,4287.436035,4378.589844,,,,,,,,,,,,,,,,,,,,,,,,,,,,,,,,,,,,,,,,,,,,,,,,,,,,,,,,,,,,,,,,,,,,,,
1720526688,27,0,4313.589844,4229.871582,4261.410156,4318.974121,4304.358887,4277.563965,4246.922852,4223.333496,4228.974121,3942.820557,4460.128418,4370.641113,4296.666504,4369.102539,,,,,,,,,,,,,,,,,,,,,,,,,,,,,,,,,,,,,,,,,,,,,,,,,,,,,,,,,,,,,,,,,,,,,,
1720526688,28,0,4322.94873,4231.282227,4263.205078,4320.641113,4298.333496,4275.641113,4245.769043,4220.256348,4223.589844,3951.923096,4474.871582,4377.307617,4309.487305,4372.692383,,,,,,,,,,,,,,,,,,,,,,,,,,,,,,,,,,,,,,,,,,,,,,,,,,,,,,,,,,,,,,,,,,,,,,
1720526688,29,0,4331.025879,4236.025879,4270.641113,4318.077148,4291.666504,4275.128418,4247.563965,4221.410156,4221.666504,3989.743652,4474.230957,4382.563965,4312.05127,4382.179688,9.716071,3.911031,1.583946,0.745797,0.304178,4.621861,2.642845,1.147901,0.493879,0.228963,6.406445,5.81406,0.858313,0.640269,0.271008,3.049069,1.983552,0.591867,0.213624,0.096427,115.050873,51.663406,13.931143,5.578278,1.25476,47.145409,9.770452,3.159999,1.700671,0.61777,7.288126,4.805692,1.749767,0.39637,0.163462,7.169534,6.187087,1.524988,0.338276,0.218817,2.822986,1.444005,0.623723,0.225715,0.173001,223.03714,87.7789,25.179073,10.954777,3.206704,14.885643,6.365408,1.697458,1.314218,0.862887,5.710429,4.613513,0.713294,0.306552,0.429328,5.817073,3.614266,3.284719,0.792161,0.281023,6.452389,5.545812,2.305952,0.688632,0.307176
1720526688,30,0,4326.538574,4236.153809,4270,4315.769043,4291.794922,4274.358887,4246.153809,4219.102539,4222.563965,3989.871826,4467.05127,4377.307617,4309.743652,4380.384766,,,,,,,,,,,,,,,,,,,,,,,,,,,,,,,,,,,,,,,,,,,,,,,,,,,,,,,,,,,,,,,,,,,,,,
1720526688,31,0,4325.897461,4234.615234,4263.589844,4318.333496,4296.025879,4271.282227,4244.487305,4215.769043,4220.897461,4002.820557,4466.538574,4378.974121,4313.077148,4375,,,,,,,,,,,,,,,,,,,,,,,,,,,,,,,,,,,,,,,,,,,,,,,,,,,,,,,,,,,,,,,,,,,,,,
1720526688,32,0,4335.897461,4240.256348,4269.487305,4318.461426,4297.05127,4266.922852,4246.922852,4222.692383,4217.05127,4044.102539,4470.897461,4381.282227,4320.769043,4377.563965,,,,,,,,,,,,,,,,,,,,,,,,,,,,,,,,,,,,,,,,,,,,,,,,,,,,,,,,,,,,,,,,,,,,,,
1720526688,33,0,4344.743652,4250.769043,4281.922852,4315.897461,4295.384766,4290.641113,4247.563965,4232.563965,4217.179688,4049.743652,4477.820313,4380,4326.794922,4385.641113,,,,,,,,,,,,,,,,,,,,,,,,,,,,,,,,,,,,,,,,,,,,,,,,,,,,,,,,,,,,,,,,,,,,,,
1720526688,34,0,4342.820313,4246.922852,4282.307617,4316.410156,4285,4341.666504,4244.487305,4233.846191,4218.846191,4027.179443,4479.743652,4397.179688,4329.358887,4388.205078,,,,,,,,,,,,,,,,,,,,,,,,,,,,,,,,,,,,,,,,,,,,,,,,,,,,,,,,,,,,,,,,,,,,,,
1720526688,35,0,4329.102539,4234.871582,4269.871582,4314.615234,4277.563965,4362.94873,4243.974121,4231.794922,4216.025879,4025.897461,4474.358887,4394.102539,4328.717773,4382.179688,,,,,,,,,,,,,,,,,,,,,,,,,,,,,,,,,,,,,,,,,,,,,,,,,,,,,,,,,,,,,,,,,,,,,,
1720526688,36,0,4325.256348,4238.333496,4260.384766,4313.461426,4282.179688,4346.666504,4246.538574,4233.589844,4215,4037.94873,4475.384766,4374.487305,4327.820313,4381.282227,,,,,,,,,,,,,,,,,,,,,,,,,,,,,,,,,,,,,,,,,,,,,,,,,,,,,,,,,,,,,,,,,,,,,,
1720526688,37,0,4336.794922,4249.102539,4268.077148,4317.94873,4280.256348,4341.153809,4249.102539,4235.897461,4216.410156,4048.718018,4486.410156,4387.563965,4330.256348,4387.436035,,,,,,,,,,,,,,,,,,,,,,,,,,,,,,,,,,,,,,,,,,,,,,,,,,,,,,,,,,,,,,,,,,,,,,
1720526688,38,0,4338.333496,4248.589844,4279.871582,4317.563965,4271.922852,4349.358887,4249.871582,4233.333496,4210.769043,4075,4493.717773,4394.615234,4331.794922,4386.538574,,,,,,,,,,,,,,,,,,,,,,,,,,,,,,,,,,,,,,,,,,,,,,,,,,,,,,,,,,,,,,,,,,,,,,
1720526688,39,0,4329.871582,4241.282227,4274.487305,4312.692383,4265.641113,4345.128418,4248.461426,4230.256348,4201.666504,4105,4485.512695,4383.717773,4328.717773,4382.94873,,,,,,,,,,,,,,,,,,,,,,,,,,,,,,,,,,,,,,,,,,,,,,,,,,,,,,,,,,,,,,,,,,,,,,
1720526688,40,0,4327.436035,4239.358887,4267.563965,4310.256348,4255.641113,4336.025879,4246.153809,4229.358887,4199.358887,4107.820313,4472.563965,4384.230957,4325.512695,4383.461426,,,,,,,,,,,,,,,,,,,,,,,,,,,,,,,,,,,,,,,,,,,,,,,,,,,,,,,,,,,,,,,,,,,,,,
1720526688,41,0,4331.922852,4244.743652,4274.358887,4309.487305,4246.666504,4337.94873,4246.666504,4230.384766,4199.230957,4108.077148,4478.461426,4390.897461,4325.897461,4384.230957,,,,,,,,,,,,,,,,,,,,,,,,,,,,,,,,,,,,,,,,,,,,,,,,,,,,,,,,,,,,,,,,,,,,,,
1720526688,42,0,4337.179688,4247.692383,4280,4306.666504,4241.794922,4342.820313,4249.615234,4229.230957,4198.333496,4126.410156,4489.358887,4392.692383,4328.205078,4382.563965,,,,,,,,,,,,,,,,,,,,,,,,,,,,,,,,,,,,,,,,,,,,,,,,,,,,,,,,,,,,,,,,,,,,,,
1720526688,43,0,4338.974121,4246.282227,4281.794922,4305.897461,4235,4335.384766,4248.589844,4230.897461,4201.666504,4125.384766,4482.692383,4395.128418,4327.563965,4380.384766,,,,,,,,,,,,,,,,,,,,,,,,,,,,,,,,,,,,,,,,,,,,,,,,,,,,,,,,,,,,,,,,,,,,,,
1720526688,44,0,4335.512695,4247.692383,4290.769043,4309.487305,4228.205078,4327.307617,4248.717773,4242.692383,4210,4097.307617,4477.692383,4396.410156,4333.461426,4385.897461,,,,,,,,,,,,,,,,,,,,,,,,,,,,,,,,,,,,,,,,,,,,,,,,,,,,,,,,,,,,,,,,,,,,,,
1720526688,45,0,4334.102539,4251.282227,4297.05127,4310.128418,4227.436035,4328.461426,4256.794922,4250.897461,4216.922852,4084.102539,4491.025879,4402.820313,4346.410156,4396.922852,8.901194,3.652601,1.103599,0.551385,0.236814,4.723925,2.995495,1.136914,0.424028,0.226595,7.078895,6.958137,0.84775,0.571912,0.268817,2.731006,2.036343,0.729205,0.25082,0.111663,109.847214,57.60368,16.809673,6.467155,1.489808,48.057976,10.028932,3.174685,1.654285,0.635543,7.180299,5.786458,1.71754,0.348364,0.162147,7.029297,7.221036,1.377475,0.33781,0.223371,3.524209,1.643488,0.629663,0.215952,0.163204,309.859436,111.622986,41.258682,14.643408,4.272888,15.564071,7.614533,1.668676,1.322222,0.819464,5.171383,5.413918,0.770472,0.267019,0.395783,4.837319,4.069627,3.204644,0.701816,0.28211,6.134132,6.472212,2.208549,0.580269,0.298901
1720526688,46,0,4336.153809,4251.538574,4293.846191,4305.256348,4221.538574,4327.05127,4262.820313,4249.871582,4218.846191,4097.94873,4495.897461,4415.128418,4346.794922,4400,,,,,,,,,,,,,,,,,,,,,,,,,,,,,,,,,,,,,,,,,,,,,,,,,,,,,,,,,,,,,,,,,,,,,,
1720526688,47,0,4335.769043,4253.461426,4297.820313,4297.820313,4204.615234,4322.563965,4260,4254.615234,4217.179688,4113.077148,4492.05127,4412.179688,4342.179688,4400.128418,,,,,,,,,,,,,,,,,,,,,,,,,,,,,,,,,,,,,,,,,,,,,,,,,,,,,,,,,,,,,,,,,,,,,,
1720526688,48,0,4346.282227,4266.794922,4311.538574,4298.461426,4198.846191,4326.153809,4263.205078,4266.025879,4218.974121,4128.461426,4514.102539,4430.128418,4355.128418,4415.128418,,,,,,,,,,,,,,,,,,,,,,,,,,,,,,,,,,,,,,,,,,,,,,,,,,,,,,,,,,,,,,,,,,,,,,
1720526688,49,0,4361.025879,4283.974121,4316.282227,4301.282227,4206.666504,4334.615234,4273.205078,4266.922852,4218.846191,4155.641113,4537.94873,4449.358887,4369.615234,4427.563965,,,,,,,,,,,,,,,,,,,,,,,,,,,,,,,,,,,,,,,,,,,,,,,,,,,,,,,,,,,,,,,,,,,,,,
1720526688,50,0,4359.230957,4291.666504,4314.102539,4297.05127,4203.461426,4338.205078,4275.512695,4262.94873,4214.871582,4184.358887,4532.563965,4439.230957,4369.102539,4426.282227,,,,,,,,,,,,,,,,,,,,,,,,,,,,,,,,,,,,,,,,,,,,,,,,,,,,,,,,,,,,,,,,,,,,,,
1720526689,51,0,4354.487305,4290.641113,4318.461426,4295.128418,4187.436035,4338.589844,4276.025879,4261.153809,4214.487305,4203.461426,4523.717773,4440.256348,4369.871582,4429.102539,,,,,,,,,,,,,,,,,,,,,,,,,,,,,,,,,,,,,,,,,,,,,,,,,,,,,,,,,,,,,,,,,,,,,,
1720526689,52,0,4352.179688,4290.512695,4318.205078,4295.769043,4182.692383,4339.358887,4279.743652,4253.333496,4213.974121,4210.641113,4525.897461,4436.794922,4372.563965,4431.282227,,,,,,,,,,,,,,,,,,,,,,,,,,,,,,,,,,,,,,,,,,,,,,,,,,,,,,,,,,,,,,,,,,,,,,
1720526689,53,0,4344.743652,4287.436035,4310,4292.820313,4187.436035,4336.538574,4279.102539,4249.487305,4213.333496,4206.025879,4528.589844,4428.589844,4366.666504,4424.871582,,,,,,,,,,,,,,,,,,,,,,,,,,,,,,,,,,,,,,,,,,,,,,,,,,,,,,,,,,,,,,,,,,,,,,
1720526689,54,0,4340.128418,4282.05127,4310,4288.717773,4180,4328.589844,4275.641113,4256.410156,4214.230957,4200.512695,4530.769043,4432.307617,4364.487305,4422.179688,,,,,,,,,,,,,,,,,,,,,,,,,,,,,,,,,,,,,,,,,,,,,,,,,,,,,,,,,,,,,,,,,,,,,,
1720526689,55,0,4340.512695,4285.897461,4312.307617,4287.436035,4169.615234,4323.333496,4277.692383,4266.025879,4217.179688,4207.179688,4539.615234,4439.230957,4368.974121,4428.717773,,,,,,,,,,,,,,,,,,,,,,,,,,,,,,,,,,,,,,,,,,,,,,,,,,,,,,,,,,,,,,,,,,,,,,
1720526689,56,0,4335.512695,4288.589844,4308.974121,4288.589844,4169.743652,4326.666504,4281.794922,4273.589844,4222.436035,4217.820313,4538.846191,4446.282227,4368.846191,4428.589844,,,,,,,,,,,,,,,,,,,,,,,,,,,,,,,,,,,,,,,,,,,,,,,,,,,,,,,,,,,,,,,,,,,,,,
1720526689,57,0,4326.666504,4281.666504,4307.563965,4284.102539,4171.025879,4326.794922,4280.897461,4272.563965,4226.025879,4222.179688,4525.128418,4441.025879,4364.615234,4418.077148,,,,,,,,,,,,,,,,,,,,,,,,,,,,,,,,,,,,,,,,,,,,,,,,,,,,,,,,,,,,,,,,,,,,,,
1720526689,58,0,4325.384766,4278.461426,4306.666504,4276.794922,4165.256348,4318.077148,4277.94873,4265.641113,4227.307617,4222.179688,4524.871582,4431.410156,4364.102539,4414.487305,,,,,,,,,,,,,,,,,,,,,,,,,,,,,,,,,,,,,,,,,,,,,,,,,,,,,,,,,,,,,,,,,,,,,,
1720526689,59,0,4327.307617,4283.589844,4304.230957,4279.487305,4166.538574,4316.794922,4276.794922,4267.307617,4229.230957,4227.436035,4537.820313,4435.897461,4365.641113,4416.153809,,,,,,,,,,,,,,,,,,,,,,,,,,,,,,,,,,,,,,,,,,,,,,,,,,,,,,,,,,,,,,,,,,,,,,
1720526689,60,0,4325.384766,4290.769043,4306.666504,4284.743652,4173.077148,4323.205078,4279.487305,4277.563965,4229.743652,4242.05127,4539.871582,4443.333496,4365.384766,4413.846191,,,,,,,,,,,,,,,,,,,,,,,,,,,,,,,,,,,,,,,,,,,,,,,,,,,,,,,,,,,,,,,,,,,,,,
1720526689,61,0,4325.512695,4293.461426,4315.384766,4282.563965,4165.897461,4318.333496,4281.282227,4279.871582,4230.384766,4254.102539,4537.436035,4444.102539,4365.512695,4416.410156,8.786604,3.502738,0.839107,0.467515,0.214621,4.569431,3.147199,1.028202,0.384396,0.222096,7.288238,7.490135,0.788212,0.532792,0.272506,2.317233,1.944985,0.82145,0.277278,0.122173,95.351654,58.501759,18.722361,6.982191,1.642768,42.846462,9.04339,2.860402,1.439457,0.581045,6.612374,6.331645,1.588309,0.323107,0.167172,6.522284,7.551712,1.222427,0.387244,0.230927,3.968483,1.857668,0.622659,0.217811,0.151554,400.463501,138.812912,59.353115,18.232302,5.350831,15.466291,8.505792,1.579733,1.413633,0.768755,4.463854,5.692716,0.789064,0.265076,0.382308,4.0561,4.312907,2.857555,0.672628,0.289976,5.688691,6.891718,1.993641,0.527983,0.29772
1720526689,62,0,4331.666504,4293.461426,4322.820313,4280.128418,4153.205078,4305.256348,4278.717773,4276.922852,4234.358887,4281.025879,4543.077148,4461.025879,4370.641113,4426.153809,,,,,,,,,,,,,,,,,,,,,,,,,,,,,,,,,,,,,,,,,,,,,,,,,,,,,,,,,,,,,,,,,,,,,,
1720526689,63,0,4337.05127,4298.589844,4325.897461,4280.256348,4152.94873,4306.538574,4280.128418,4277.820313,4234.358887,4348.846191,4540.384766,4465,4376.666504,4431.282227,,,,,,,,,,,,,,,,,,,,,,,,,,,,,,,,,,,,,,,,,,,,,,,,,,,,,,,,,,,,,,,,,,,,,,
1720526689,64,0,4340.512695,4308.077148,4329.743652,4280.769043,4156.666504,4313.333496,4286.794922,4280.256348,4231.025879,4416.153809,4539.615234,4451.410156,4380.897461,4435.769043,,,,,,,,,,,,,,,,,,,,,,,,,,,,,,,,,,,,,,,,,,,,,,,,,,,,,,,,,,,,,,,,,,,,,,
1720526689,65,0,4343.846191,4310,4337.94873,4280.384766,4154.871582,4309.230957,4292.94873,4282.179688,4235.384766,4429.102539,4554.230957,4463.717773,4385.128418,4442.179688,,,,,,,,,,,,,,,,,,,,,,,,,,,,,,,,,,,,,,,,,,,,,,,,,,,,,,,,,,,,,,,,,,,,,,
1720526689,66,0,4337.436035,4302.692383,4337.05127,4276.410156,4151.282227,4307.563965,4289.102539,4277.94873,4236.410156,4414.230957,4553.333496,4465.128418,4381.025879,4437.692383,,,,,,,,,,,,,,,,,,,,,,,,,,,,,,,,,,,,,,,,,,,,,,,,,,,,,,,,,,,,,,,,,,,,,,
1720526689,67,0,4325.512695,4296.922852,4325.512695,4274.487305,4152.307617,4309.102539,4282.179688,4271.410156,4229.487305,4416.282227,4543.717773,4446.922852,4373.205078,4429.615234,,,,,,,,,,,,,,,,,,,,,,,,,,,,,,,,,,,,,,,,,,,,,,,,,,,,,,,,,,,,,,,,,,,,,,
1720526689,68,0,4326.538574,4300.769043,4325.897461,4275.897461,4155.769043,4307.307617,4286.538574,4276.025879,4236.282227,4427.820313,4553.974121,4448.461426,4380,4429.743652,,,,,,,,,,,,,,,,,,,,,,,,,,,,,,,,,,,,,,,,,,,,,,,,,,,,,,,,,,,,,,,,,,,,,,
1720526689,69,0,4330.256348,4307.820313,4334.743652,4273.461426,4147.820313,4304.230957,4295.897461,4290.769043,4248.974121,4435.512695,4561.922852,4456.666504,4388.974121,4431.794922,,,,,,,,,,,,,,,,,,,,,,,,,,,,,,,,,,,,,,,,,,,,,,,,,,,,,,,,,,,,,,,,,,,,,,
1720526689,70,0,4329.615234,4311.538574,4336.282227,4272.563965,4138.333496,4300,4295.897461,4296.666504,4249.743652,4435.897461,4554.358887,4458.077148,4384.871582,4434.743652,,,,,,,,,,,,,,,,,,,,,,,,,,,,,,,,,,,,,,,,,,,,,,,,,,,,,,,,,,,,,,,,,,,,,,
1720526689,71,0,4340.641113,4312.692383,4335.769043,4275.256348,4146.794922,4293.461426,4292.307617,4294.230957,4251.410156,4432.94873,4561.410156,4462.05127,4386.794922,4439.102539,,,,,,,,,,,,,,,,,,,,,,,,,,,,,,,,,,,,,,,,,,,,,,,,,,,,,,,,,,,,,,,,,,,,,,
1720526689,72,0,4366.282227,4314.743652,4337.436035,4276.794922,4152.05127,4291.153809,4299.358887,4299.358887,4262.179688,4438.077148,4577.820313,4464.743652,4396.922852,4440.256348,,,,,,,,,,,,,,,,,,,,,,,,,,,,,,,,,,,,,,,,,,,,,,,,,,,,,,,,,,,,,,,,,,,,,,
1720526689,73,0,4398.589844,4319.743652,4340.384766,4276.282227,4139.358887,4294.102539,4304.615234,4305,4266.025879,4443.589844,4573.717773,4465.641113,4399.358887,4440.769043,,,,,,,,,,,,,,,,,,,,,,,,,,,,,,,,,,,,,,,,,,,,,,,,,,,,,,,,,,,,,,,,,,,,,,
1720526689,74,0,4426.410156,4324.615234,4344.102539,4271.538574,4124.230957,4293.077148,4296.922852,4302.179688,4263.717773,4444.102539,4564.743652,4470.769043,4400.897461,4445.897461,,,,,,,,,,,,,,,,,,,,,,,,,,,,,,,,,,,,,,,,,,,,,,,,,,,,,,,,,,,,,,,,,,,,,,
1720526689,75,0,4438.846191,4324.230957,4345.128418,4267.692383,4121.922852,4290.384766,4294.615234,4300.897461,4268.974121,4448.333496,4575.512695,4462.179688,4407.05127,4451.025879,,,,,,,,,,,,,,,,,,,,,,,,,,,,,,,,,,,,,,,,,,,,,,,,,,,,,,,,,,,,,,,,,,,,,,
1720526689,76,0,4441.153809,4325.512695,4347.94873,4271.666504,4132.179688,4287.820313,4303.589844,4307.563965,4277.94873,4463.077148,4595.897461,4468.717773,4417.179688,4456.666504,,,,,,,,,,,,,,,,,,,,,,,,,,,,,,,,,,,,,,,,,,,,,,,,,,,,,,,,,,,,,,,,,,,,,,
1720526689,77,0,4447.05127,4336.666504,4359.615234,4275.512695,4136.153809,4287.05127,4310.384766,4312.563965,4280.512695,4482.820313,4602.05127,4490.512695,4427.692383,4467.05127,8.530397,3.135584,0.680136,0.430126,0.214683,4.100043,3.012308,0.833215,0.37273,0.217633,6.866242,7.245677,0.691656,0.52976,0.279747,1.864936,1.731851,0.828916,0.28335,0.124596,75.936325,54.248283,18.904074,6.964825,1.657707,33.506084,7.202444,2.345158,1.132953,0.476847,5.635022,6.314422,1.38086,0.31806,0.176196,5.612986,7.081671,1.087051,0.486513,0.237575,4.003083,2.04349,0.60836,0.236169,0.141458,470.703949,161.731308,73.921951,20.744942,6.167573,14.825266,8.940482,1.399185,1.585758,0.725718,3.69798,5.382648,0.761829,0.300228,0.382303,3.547923,4.325714,2.32562,0.714705,0.308072,5.268972,6.690201,1.709326,0.532431,0.305815
1720526689,78,0,4449.871582,4344.743652,4371.282227,4271.922852,4124.358887,4291.666504,4314.102539,4312.820313,4278.974121,4491.282227,4597.05127,4488.461426,4429.871582,4475.769043,,,,,,,,,,,,,,,,,,,,,,,,,,,,,,,,,,,,,,,,,,,,,,,,,,,,,,,,,,,,,,,,,,,,,,
1720526689,79,0,4442.563965,4343.077148,4371.666504,4270.384766,4118.205078,4294.102539,4322.692383,4315.128418,4282.692383,4491.922852,4594.871582,4490.384766,4426.666504,4477.436035,,,,,,,,,,,,,,,,,,,,,,,,,,,,,,,,,,,,,,,,,,,,,,,,,,,,,,,,,,,,,,,,,,,,,,
1720526689,80,0,4433.205078,4338.205078,4365.769043,4273.717773,4124.615234,4295.641113,4329.615234,4321.666504,4292.563965,4499.615234,4594.102539,4493.333496,4429.487305,4471.025879,,,,,,,,,,,,,,,,,,,,,,,,,,,,,,,,,,,,,,,,,,,,,,,,,,,,,,,,,,,,,,,,,,,,,,
1720526689,81,0,4422.820313,4335.769043,4355.897461,4273.717773,4116.666504,4295.897461,4331.153809,4325.769043,4304.102539,4512.692383,4590,4482.563965,4427.307617,4460.512695,,,,,,,,,,,,,,,,,,,,,,,,,,,,,,,,,,,,,,,,,,,,,,,,,,,,,,,,,,,,,,,,,,,,,,
1720526689,82,0,4412.307617,4338.333496,4347.692383,4270,4102.692383,4288.077148,4331.538574,4324.871582,4314.102539,4511.410156,4589.743652,4476.922852,4420.512695,4450.512695,,,,,,,,,,,,,,,,,,,,,,,,,,,,,,,,,,,,,,,,,,,,,,,,,,,,,,,,,,,,,,,,,,,,,,
1720526689,83,0,4404.615234,4342.307617,4347.692383,4269.230957,4102.820313,4277.307617,4327.179688,4327.563965,4320.769043,4513.461426,4601.025879,4478.846191,4424.871582,4450.897461,,,,,,,,,,,,,,,,,,,,,,,,,,,,,,,,,,,,,,,,,,,,,,,,,,,,,,,,,,,,,,,,,,,,,,
1720526689,84,0,4398.077148,4340.128418,4345,4270.897461,4105.512695,4275.128418,4321.666504,4333.205078,4323.717773,4541.666504,4607.692383,4483.333496,4431.794922,4458.589844,,,,,,,,,,,,,,,,,,,,,,,,,,,,,,,,,,,,,,,,,,,,,,,,,,,,,,,,,,,,,,,,,,,,,,
1720526689,85,0,4395.128418,4338.717773,4345.512695,4270.384766,4106.025879,4278.333496,4326.922852,4340.897461,4329.230957,4516.153809,4606.153809,4487.436035,4435.641113,4462.05127,,,,,,,,,,,,,,,,,,,,,,,,,,,,,,,,,,,,,,,,,,,,,,,,,,,,,,,,,,,,,,,,,,,,,,
1720526689,86,0,4393.974121,4345.128418,4358.333496,4272.692383,4107.563965,4274.743652,4333.846191,4347.820313,4334.871582,4415.512695,4611.794922,4491.922852,4442.307617,4463.205078,,,,,,,,,,,,,,,,,,,,,,,,,,,,,,,,,,,,,,,,,,,,,,,,,,,,,,,,,,,,,,,,,,,,,,
1720526689,87,0,4390,4351.282227,4365.512695,4279.358887,4111.153809,4266.153809,4330,4346.025879,4333.077148,4353.846191,4618.974121,4495.256348,4448.077148,4464.230957,,,,,,,,,,,,,,,,,,,,,,,,,,,,,,,,,,,,,,,,,,,,,,,,,,,,,,,,,,,,,,,,,,,,,,
1720526689,88,0,4383.974121,4355.769043,4362.436035,4277.94873,4117.820313,4259.487305,4323.846191,4341.794922,4333.333496,4370.128418,4614.615234,4494.358887,4445.512695,4465.897461,,,,,,,,,,,,,,,,,,,,,,,,,,,,,,,,,,,,,,,,,,,,,,,,,,,,,,,,,,,,,,,,,,,,,,
1720526689,89,0,4381.410156,4368.717773,4367.563965,4277.179688,4118.974121,4256.666504,4323.974121,4342.436035,4335.897461,4378.717773,4614.871582,4495.897461,4443.461426,4467.307617,,,,,,,,,,,,,,,,,,,,,,,,,,,,,,,,,,,,,,,,,,,,,,,,,,,,,,,,,,,,,,,,,,,,,,
1720526689,90,0,4385.512695,4373.589844,4383.846191,4283.205078,4112.820313,4258.589844,4330.897461,4344.102539,4333.974121,4359.487305,4629.358887,4508.077148,4453.205078,4469.487305,,,,,,,,,,,,,,,,,,,,,,,,,,,,,,,,,,,,,,,,,,,,,,,,,,,,,,,,,,,,,,,,,,,,,,
1720526689,91,0,4389.102539,4375.769043,4394.743652,4280.512695,4112.436035,4262.179688,4346.153809,4345.128418,4326.666504,4360.128418,4637.94873,4512.05127,4462.436035,4474.487305,,,,,,,,,,,,,,,,,,,,,,,,,,,,,,,,,,,,,,,,,,,,,,,,,,,,,,,,,,,,,,,,,,,,,,
1720526689,92,0,4386.538574,4404.358887,4393.846191,4276.153809,4115.128418,4264.102539,4362.563965,4349.487305,4326.794922,4365.128418,4641.538574,4510,4465.256348,4480.128418,,,,,,,,,,,,,,,,,,,,,,,,,,,,,,,,,,,,,,,,,,,,,,,,,,,,,,,,,,,,,,,,,,,,,,
1720526689,93,0,4382.436035,4347.94873,4386.922852,4281.538574,4104.358887,4265.256348,4364.358887,4356.538574,4337.05127,4360.256348,4642.820313,4524.358887,4468.205078,4478.846191,7.980056,2.563821,0.545641,0.405582,0.221362,3.372087,2.611539,0.60573,0.38112,0.214935,5.911044,6.34391,0.580456,0.557309,0.288014,1.526052,1.450416,0.744299,0.265427,0.11877,57.56601,46.363396,17.21142,6.427237,1.539863,23.071718,5.195086,1.827526,0.843393,0.363831,4.416558,5.761923,1.125852,0.321435,0.184332,4.392341,5.998228,0.983095,0.614083,0.239411,3.641887,2.161891,0.588795,0.267485,0.134595,493.707886,171.195587,80.061195,21.305038,6.466603,13.906524,8.921908,1.148823,1.790592,0.69758,2.966938,4.641384,0.694664,0.362119,0.385644,3.275476,4.150003,1.75141,0.805983,0.333563,4.867977,5.977376,1.418878,0.57293,0.321641
1720526689,94,0,4377.563965,4163.846191,4383.589844,4277.436035,4091.923096,4268.333496,4361.794922,4362.563965,4340.512695,4356.410156,4640.256348,4521.282227,4470.641113,4474.487305,,,,,,,,,,,,,,,,,,,,,,,,,,,,,,,,,,,,,,,,,,,,,,,,,,,,,,,,,,,,,,,,,,,,,,
1720526689,95,0,4368.846191,4053.461426,4383.589844,4266.153809,4089.102539,4268.205078,4368.077148,4365.512695,4341.538574,4362.436035,4644.102539,4515.128418,4470,4477.05127,,,,,,,,,,,,,,,,,,,,,,,,,,,,,,,,,,,,,,,,,,,,,,,,,,,,,,,,,,,,,,,,,,,,,,
1720526689,96,0,4361.922852,4091.410156,4383.461426,4267.94873,4088.974365,4263.461426,4375.641113,4369.871582,4350.384766,4377.179688,4652.436035,4531.025879,4471.538574,4477.436035,,,,,,,,,,,,,,,,,,,,,,,,,,,,,,,,,,,,,,,,,,,,,,,,,,,,,,,,,,,,,,,,,,,,,,
1720526689,97,0,4363.461426,4125.897461,4389.871582,4270.641113,4092.435791,4261.794922,4377.563965,4381.666504,4359.487305,4380.769043,4657.05127,4534.615234,4477.307617,4477.179688,,,,,,,,,,,,,,,,,,,,,,,,,,,,,,,,,,,,,,,,,,,,,,,,,,,,,,,,,,,,,,,,,,,,,,
1720526689,98,0,4366.538574,4121.922852,4406.153809,4268.333496,4087.05127,4263.846191,4380,4396.025879,4364.358887,4379.487305,4665.897461,4537.179688,4482.94873,4484.102539,,,,,,,,,,,,,,,,,,,,,,,,,,,,,,,,,,,,,,,,,,,,,,,,,,,,,,,,,,,,,,,,,,,,,,
1720526689,99,0,4366.922852,4147.307617,4419.358887,4270.384766,4075,4260.256348,4386.410156,4407.05127,4368.974121,4388.846191,4683.589844,4553.461426,4495.641113,4492.307617,,,,,,,,,,,,,,,,,,,,,,,,,,,,,,,,,,,,,,,,,,,,,,,,,,,,,,,,,,,,,,,,,,,,,,
1720526689,100,0,4364.871582,4169.743652,4420,4272.563965,4079.871826,4252.563965,4390,4412.307617,4370.128418,4400.512695,4692.179688,4558.461426,4507.436035,4494.615234,,,,,,,,,,,,,,,,,,,,,,,,,,,,,,,,,,,,,,,,,,,,,,,,,,,,,,,,,,,,,,,,,,,,,,
1720526689,101,0,4357.94873,4167.820313,4419.615234,4270,4086.410156,4249.615234,4387.94873,4411.410156,4368.077148,4407.563965,4688.077148,4553.717773,4506.025879,4495.641113,,,,,,,,,,,,,,,,,,,,,,,,,,,,,,,,,,,,,,,,,,,,,,,,,,,,,,,,,,,,,,,,,,,,,,
1720526689,102,0,4356.025879,4168.717773,4430.897461,4270.384766,4079.743652,4247.563965,4391.025879,4410.512695,4367.179688,4418.974121,4688.205078,4562.05127,4502.179688,4501.666504,,,,,,,,,,,,,,,,,,,,,,,,,,,,,,,,,,,,,,,,,,,,,,,,,,,,,,,,,,,,,,,,,,,,,,
1720526689,103,0,4365.897461,4196.538574,4446.410156,4273.846191,4083.461426,4248.717773,4403.077148,4411.794922,4362.563965,4430,4697.307617,4568.589844,4512.05127,4507.436035,,,,,,,,,,,,,,,,,,,,,,,,,,,,,,,,,,,,,,,,,,,,,,,,,,,,,,,,,,,,,,,,,,,,,,
1720526689,104,0,4373.461426,4258.333496,4453.846191,4277.436035,4098.333496,4257.307617,4412.692383,4413.846191,4362.692383,4435.256348,4711.153809,4574.871582,4530.384766,4514.102539,,,,,,,,,,,,,,,,,,,,,,,,,,,,,,,,,,,,,,,,,,,,,,,,,,,,,,,,,,,,,,,,,,,,,,
1720526689,105,0,4370.128418,4309.358887,4452.307617,4281.538574,4089.743652,4262.94873,4419.743652,4421.282227,4375.512695,4444.358887,4727.820313,4588.974121,4542.05127,4523.077148,,,,,,,,,,,,,,,,,,,,,,,,,,,,,,,,,,,,,,,,,,,,,,,,,,,,,,,,,,,,,,,,,,,,,,
1720526689,106,0,4362.436035,4324.743652,4448.846191,4277.563965,4075.769287,4260.641113,4429.487305,4433.333496,4387.307617,4453.461426,4740.769043,4586.153809,4546.794922,4525.384766,,,,,,,,,,,,,,,,,,,,,,,,,,,,,,,,,,,,,,,,,,,,,,,,,,,,,,,,,,,,,,,,,,,,,,
1720526689,107,0,4357.179688,4331.153809,4453.974121,4276.666504,4076.923096,4262.436035,4432.05127,4441.410156,4396.666504,4466.794922,4748.461426,4589.615234,4555.512695,4525.897461,,,,,,,,,,,,,,,,,,,,,,,,,,,,,,,,,,,,,,,,,,,,,,,,,,,,,,,,,,,,,,,,,,,,,,
1720526689,108,0,4355.769043,4347.692383,4460.897461,4280.897461,4062.179443,4263.974121,4431.922852,4450.384766,4408.205078,4484.743652,4760.897461,4597.307617,4565.384766,4527.307617,,,,,,,,,,,,,,,,,,,,,,,,,,,,,,,,,,,,,,,,,,,,,,,,,,,,,,,,,,,,,,,,,,,,,,
1720526689,109,0,4353.589844,4361.025879,4457.820313,4273.846191,4024.743652,4255.128418,4438.077148,4466.153809,4420.897461,4493.974121,4771.794922,4597.179688,4566.794922,4526.794922,7.624141,2.157518,0.446831,0.386286,0.230587,2.603098,2.10495,0.438165,0.40587,0.217829,4.672569,5.1407,0.472844,0.594417,0.293837,1.289394,1.151085,0.598351,0.227927,0.107016,43.862267,36.827675,14.199693,5.51832,1.335111,14.518145,3.691594,1.464229,0.659723,0.280592,3.275742,4.841277,0.856683,0.319344,0.187258,3.127414,4.664734,0.910835,0.73154,0.234493,3.043552,2.198642,0.563326,0.299341,0.130151,457.601654,161.500168,75.870552,19.622278,6.133669,12.791021,8.512328,0.888399,1.94762,0.680148,2.364871,3.775773,0.606848,0.433377,0.384751,3.192544,3.875504,1.26479,0.89879,0.356237,4.50035,5.043804,1.168247,0.61636,0.337972
1720526689,110,0,4347.436035,4363.333496,4456.282227,4265.769043,3995.512939,4247.820313,4439.358887,4477.692383,4430.512695,4492.692383,4770.128418,4605,4564.871582,4523.077148,,,,,,,,,,,,,,,,,,,,,,,,,,,,,,,,,,,,,,,,,,,,,,,,,,,,,,,,,,,,,,,,,,,,,,
1720526689,111,0,4341.538574,4363.717773,4459.102539,4270,4005.128174,4246.025879,4431.794922,4477.179688,4429.358887,4492.820313,4766.794922,4607.692383,4569.102539,4520.641113,,,,,,,,,,,,,,,,,,,,,,,,,,,,,,,,,,,,,,,,,,,,,,,,,,,,,,,,,,,,,,,,,,,,,,
1720526689,112,0,4338.846191,4370.128418,4459.871582,4281.282227,4043.974365,4239.615234,4427.820313,4473.846191,4425.512695,4500.769043,4770.128418,4608.717773,4570.512695,4520,,,,,,,,,,,,,,,,,,,,,,,,,,,,,,,,,,,,,,,,,,,,,,,,,,,,,,,,,,,,,,,,,,,,,,
1720526689,113,0,4335.897461,4376.794922,4463.717773,4282.05127,4065.128174,4228.333496,4428.077148,4476.794922,4427.05127,4504.871582,4773.205078,4611.538574,4567.436035,4517.563965,,,,,,,,,,,,,,,,,,,,,,,,,,,,,,,,,,,,,,,,,,,,,,,,,,,,,,,,,,,,,,,,,,,,,,
1720526689,114,0,4344.615234,4386.922852,4478.077148,4277.692383,4056.025635,4228.974121,4438.333496,4491.410156,4427.94873,4508.717773,4784.615234,4624.230957,4581.282227,4528.717773,,,,,,,,,,,,,,,,,,,,,,,,,,,,,,,,,,,,,,,,,,,,,,,,,,,,,,,,,,,,,,,,,,,,,,
1720526689,115,0,4366.153809,4406.410156,4497.94873,4281.410156,4054.487061,4238.077148,4460,4513.333496,4428.717773,4535.897461,4805.897461,4647.179688,4610.128418,4552.307617,,,,,,,,,,,,,,,,,,,,,,,,,,,,,,,,,,,,,,,,,,,,,,,,,,,,,,,,,,,,,,,,,,,,,,
1720526689,116,0,4377.179688,4418.589844,4508.717773,4283.077148,4067.692383,4238.846191,4476.794922,4523.974121,4436.410156,4561.794922,4820.769043,4655,4621.666504,4560,,,,,,,,,,,,,,,,,,,,,,,,,,,,,,,,,,,,,,,,,,,,,,,,,,,,,,,,,,,,,,,,,,,,,,
1720526689,117,0,4374.102539,4418.974121,4508.461426,4278.077148,4058.205078,4236.794922,4479.743652,4523.205078,4445.256348,4544.102539,4828.333496,4651.025879,4618.461426,4553.205078,,,,,,,,,,,,,,,,,,,,,,,,,,,,,,,,,,,,,,,,,,,,,,,,,,,,,,,,,,,,,,,,,,,,,,
1720526689,118,0,4368.589844,4416.922852,4506.410156,4279.871582,4036.794922,4231.282227,4476.153809,4523.589844,4446.538574,4514.871582,4831.025879,4658.846191,4621.153809,4551.410156,,,,,,,,,,,,,,,,,,,,,,,,,,,,,,,,,,,,,,,,,,,,,,,,,,,,,,,,,,,,,,,,,,,,,,
1720526689,119,0,4364.358887,4419.102539,4512.179688,4280.384766,4031.025635,4224.358887,4479.358887,4531.153809,4448.205078,4522.692383,4838.205078,4665.641113,4633.717773,4558.974121,,,,,,,,,,,,,,,,,,,,,,,,,,,,,,,,,,,,,,,,,,,,,,,,,,,,,,,,,,,,,,,,,,,,,,
1720526689,120,0,4368.205078,4428.461426,4524.743652,4271.538574,4039.871826,4230.512695,4494.487305,4547.820313,4461.153809,4547.436035,4858.974121,4669.871582,4652.05127,4571.666504,,,,,,,,,,,,,,,,,,,,,,,,,,,,,,,,,,,,,,,,,,,,,,,,,,,,,,,,,,,,,,,,,,,,,,
1720526689,121,0,4364.743652,4430.641113,4525.256348,4273.077148,4052.05127,4234.487305,4497.563965,4560.384766,4477.307617,4541.794922,4865.256348,4685.897461,4656.666504,4570.256348,,,,,,,,,,,,,,,,,,,,,,,,,,,,,,,,,,,,,,,,,,,,,,,,,,,,,,,,,,,,,,,,,,,,,,
1720526689,122,0,4334.871582,4410.256348,4503.461426,4273.846191,4051.666748,4217.05127,4477.436035,4552.563965,4476.282227,4503.846191,4839.487305,4665.512695,4632.307617,4535.769043,,,,,,,,,,,,,,,,,,,,,,,,,,,,,,,,,,,,,,,,,,,,,,,,,,,,,,,,,,,,,,,,,,,,,,
1720526689,123,0,4315,4395.641113,4490.512695,4265.641113,4042.435791,4204.743652,4468.974121,4548.333496,4474.230957,4487.692383,4827.563965,4640.384766,4621.538574,4519.358887,,,,,,,,,,,,,,,,,,,,,,,,,,,,,,,,,,,,,,,,,,,,,,,,,,,,,,,,,,,,,,,,,,,,,,
1720526689,124,0,4337.05127,4415,4513.333496,4267.692383,4040.897461,4213.846191,4489.615234,4570.256348,4491.538574,4512.94873,4859.358887,4674.102539,4657.05127,4553.846191,,,,,,,,,,,,,,,,,,,,,,,,,,,,,,,,,,,,,,,,,,,,,,,,,,,,,,,,,,,,,,,,,,,,,,
1720526689,125,0,4357.563965,4440.641113,4538.461426,4271.410156,4047.94873,4226.025879,4506.794922,4592.94873,4504.871582,4540.256348,4893.846191,4702.05127,4691.794922,4580.256348,8.014985,2.287972,0.42642,0.372185,0.238793,3.381633,2.081603,0.613708,0.569372,0.253738,3.588998,4.045189,0.383868,0.619119,0.294521,1.138574,0.87097,0.436938,0.180943,0.092939,35.229439,27.456572,10.743321,4.450677,1.104828,9.378751,3.00719,1.305363,0.60679,0.244121,2.39553,3.789887,0.610671,0.306654,0.183348,2.059438,3.456908,0.864669,0.799947,0.223099,2.461063,2.154926,0.538787,0.316784,0.125811,369.993591,134.316345,63.137386,16.146675,5.257868,11.564487,7.753686,0.680031,1.983883,0.662715,1.979475,3.051381,0.516914,0.497434,0.375997,3.297524,3.559002,0.927014,0.943461,0.363728,4.246204,4.177484,0.966987,0.634727,0.344497
1720526689,126,0,4344.743652,4445.256348,4541.666504,4271.282227,4048.333252,4230.128418,4507.94873,4598.333496,4502.692383,4541.922852,4897.307617,4697.05127,4691.025879,4569.615234,,,,,,,,,,,,,,,,,,,,,,,,,,,,,,,,,,,,,,,,,,,,,,,,,,,,,,,,,,,,,,,,,,,,,,
1720526689,127,0,4330.641113,4441.666504,4541.922852,4273.205078,4039.743652,4224.487305,4511.410156,4598.589844,4499.871582,4523.461426,4887.94873,4694.871582,4689.743652,4561.282227,,,,,,,,,,,,,,,,,,,,,,,,,,,,,,,,,,,,,,,,,,,,,,,,,,,,,,,,,,,,,,,,,,,,,,
1720526689,0,0,4334.743652,4442.563965,4549.615234,4274.230957,4045.128174,4218.205078,4519.743652,4602.820313,4501.153809,4507.307617,4891.153809,4701.153809,4702.563965,4570.897461,,,,,,,,,,,,,,,,,,,,,,,,,,,,,,,,,,,,,,,,,,,,,,,,,,,,,,,,,,,,,,,,,,,,,,
1720526689,1,0,4344.230957,4446.153809,4556.922852,4274.230957,4059.102539,4220.769043,4524.230957,4606.410156,4502.692383,4508.077148,4893.717773,4711.025879,4705.512695,4573.589844,,,,,,,,,,,,,,,,,,,,,,,,,,,,,,,,,,,,,,,,,,,,,,,,,,,,,,,,,,,,,,,,,,,,,,
1720526689,2,0,4344.102539,4447.179688,4558.717773,4278.077148,4051.666748,4220.641113,4524.358887,4607.179688,4507.436035,4510.128418,4890.897461,4722.94873,4698.974121,4566.282227,,,,,,,,,,,,,,,,,,,,,,,,,,,,,,,,,,,,,,,,,,,,,,,,,,,,,,,,,,,,,,,,,,,,,,
1720526689,3,0,4329.230957,4436.922852,4558.461426,4276.153809,4033.846191,4212.436035,4525.256348,4609.487305,4511.666504,4503.589844,4901.282227,4718.077148,4701.922852,4567.307617,,,,,,,,,,,,,,,,,,,,,,,,,,,,,,,,,,,,,,,,,,,,,,,,,,,,,,,,,,,,,,,,,,,,,,
1720526689,4,0,4318.974121,4425.641113,4561.538574,4274.102539,4039.358887,4213.077148,4532.307617,4613.461426,4515.897461,4511.025879,4910.512695,4719.871582,4708.205078,4568.077148,,,,,,,,,,,,,,,,,,,,,,,,,,,,,,,,,,,,,,,,,,,,,,,,,,,,,,,,,,,,,,,,,,,,,,
1720526689,5,0,4322.563965,4428.461426,4567.05127,4281.025879,4056.794922,4216.153809,4536.794922,4616.666504,4527.563965,4524.871582,4905.769043,4743.333496,4709.358887,4560.897461,,,,,,,,,,,,,,,,,,,,,,,,,,,,,,,,,,,,,,,,,,,,,,,,,,,,,,,,,,,,,,,,,,,,,,
1720526689,6,0,4318.205078,4433.589844,4565.384766,4279.743652,4063.718018,4207.820313,4529.871582,4618.717773,4537.436035,4524.743652,4908.333496,4742.94873,4712.307617,4557.307617,,,,,,,,,,,,,,,,,,,,,,,,,,,,,,,,,,,,,,,,,,,,,,,,,,,,,,,,,,,,,,,,,,,,,,
1720526689,7,0,4306.922852,4426.538574,4555.897461,4277.94873,4065.897461,4199.743652,4522.436035,4623.974121,4538.846191,4526.282227,4918.205078,4740,4717.436035,4559.102539,,,,,,,,,,,,,,,,,,,,,,,,,,,,,,,,,,,,,,,,,,,,,,,,,,,,,,,,,,,,,,,,,,,,,,
1720526689,8,0,4306.153809,4422.179688,4555.256348,4282.05127,4061.666748,4204.230957,4525.641113,4627.94873,4538.205078,4536.538574,4922.692383,4750.256348,4723.717773,4556.025879,,,,,,,,,,,,,,,,,,,,,,,,,,,,,,,,,,,,,,,,,,,,,,,,,,,,,,,,,,,,,,,,,,,,,,
1720526689,9,0,4306.794922,4426.922852,4563.589844,4280,4050.769287,4207.563965,4532.563965,4629.743652,4546.282227,4531.410156,4926.282227,4753.333496,4730.512695,4550.769043,,,,,,,,,,,,,,,,,,,,,,,,,,,,,,,,,,,,,,,,,,,,,,,,,,,,,,,,,,,,,,,,,,,,,,
1720526689,10,0,4305.641113,4427.307617,4570.641113,4278.205078,4049.358887,4201.410156,4537.179688,4636.410156,4556.025879,4509.358887,4932.05127,4765.769043,4736.794922,4554.102539,,,,,,,,,,,,,,,,,,,,,,,,,,,,,,,,,,,,,,,,,,,,,,,,,,,,,,,,,,,,,,,,,,,,,,
1720526689,11,0,4311.538574,4430.256348,4573.974121,4283.077148,4049.230713,4198.461426,4539.487305,4644.230957,4556.922852,4498.333496,4941.794922,4775.897461,4744.102539,4562.05127,,,,,,,,,,,,,,,,,,,,,,,,,,,,,,,,,,,,,,,,,,,,,,,,,,,,,,,,,,,,,,,,,,,,,,
1720526689,12,0,4318.461426,4440.512695,4577.692383,4284.615234,4040,4200.128418,4543.461426,4648.205078,4563.846191,4507.94873,4954.102539,4779.743652,4756.922852,4569.230957,,,,,,,,,,,,,,,,,,,,,,,,,,,,,,,,,,,,,,,,,,,,,,,,,,,,,,,,,,,,,,,,,,,,,,
1720526689,13,0,4319.102539,4444.487305,4583.461426,4282.307617,4038.076904,4201.410156,4551.666504,4653.974121,4573.589844,4520.897461,4957.307617,4786.282227,4772.820313,4574.102539,9.799544,3.105482,0.506286,0.364343,0.241339,10.031658,3.737315,1.586132,1.163438,0.378248,2.906359,3.32417,0.322219,0.621053,0.287321,1.016253,0.638176,0.299858,0.136275,0.080421,30.025448,19.495972,7.636133,3.430784,0.901885,7.347806,2.991952,1.281942,0.639682,0.244511,1.984496,2.834402,0.416281,0.288957,0.17335,1.442119,2.588529,0.821458,0.798635,0.206208,2.212815,2.064247,0.516603,0.308577,0.119486,258.563324,98.162292,46.470734,11.915305,4.106993,9.95887,6.665909,0.565033,1.869629,0.63435,1.854112,2.572728,0.436411,0.544587,0.357945,3.40398,3.206346,0.726446,0.912549,0.349698,4.05993,3.539754,0.800818,0.617281,0.332191
1720526689,14,0,4316.153809,4443.461426,4583.333496,4282.563965,4045.256348,4200.256348,4553.974121,4658.974121,4570.128418,4525.897461,4953.589844,4788.461426,4781.282227,4582.563965,,,,,,,,,,,,,,,,,,,,,,,,,,,,,,,,,,,,,,,,,,,,,,,,,,,,,,,,,,,,,,,,,,,,,,
1720526689,15,0,4319.871582,4451.025879,4585.256348,4284.487305,4048.589844,4201.794922,4554.743652,4661.922852,4568.846191,4533.461426,4959.230957,4794.102539,4789.743652,4602.820313,,,,,,,,,,,,,,,,,,,,,,,,,,,,,,,,,,,,,,,,,,,,,,,,,,,,,,,,,,,,,,,,,,,,,,
1720526689,16,0,4333.846191,4467.692383,4597.05127,4287.692383,4054.743652,4212.05127,4566.922852,4674.230957,4580.769043,4552.179688,4971.794922,4811.666504,4805.384766,4621.410156,,,,,,,,,,,,,,,,,,,,,,,,,,,,,,,,,,,,,,,,,,,,,,,,,,,,,,,,,,,,,,,,,,,,,,
1720526689,17,0,4342.692383,4478.846191,4608.333496,4293.974121,4065.128174,4220,4577.563965,4683.717773,4588.205078,4569.743652,4982.179688,4823.205078,4818.461426,4628.333496,,,,,,,,,,,,,,,,,,,,,,,,,,,,,,,,,,,,,,,,,,,,,,,,,,,,,,,,,,,,,,,,,,,,,,
1720526689,18,0,4339.487305,4482.179688,4609.487305,4297.307617,4064.358887,4216.538574,4569.358887,4673.461426,4584.487305,4573.205078,4985.256348,4821.410156,4823.461426,4627.179688,,,,,,,,,,,,,,,,,,,,,,,,,,,,,,,,,,,,,,,,,,,,,,,,,,,,,,,,,,,,,,,,,,,,,,
1720526689,19,0,4333.205078,4482.307617,4599.615234,4293.589844,4057.94873,4212.692383,4557.179688,4663.974121,4582.820313,4569.358887,4977.436035,4812.94873,4825.384766,4626.282227,,,,,,,,,,,,,,,,,,,,,,,,,,,,,,,,,,,,,,,,,,,,,,,,,,,,,,,,,,,,,,,,,,,,,,
1720526689,20,0,4329.487305,4486.282227,4590.128418,4292.179688,4061.666748,4215.769043,4555.256348,4669.358887,4590.384766,4570.384766,4976.282227,4807.436035,4831.025879,4626.410156,,,,,,,,,,,,,,,,,,,,,,,,,,,,,,,,,,,,,,,,,,,,,,,,,,,,,,,,,,,,,,,,,,,,,,
1720526689,21,0,4325.897461,4490.897461,4588.717773,4298.205078,4068.974365,4217.820313,4555.897461,4675.769043,4601.153809,4575.769043,4982.05127,4818.589844,4830.384766,4622.179688,,,,,,,,,,,,,,,,,,,,,,,,,,,,,,,,,,,,,,,,,,,,,,,,,,,,,,,,,,,,,,,,,,,,,,
1720526689,22,0,4325.641113,4495.256348,4586.538574,4294.743652,4063.589844,4217.307617,4559.871582,4677.563965,4603.846191,4582.820313,4977.94873,4815.897461,4816.922852,4614.230957,,,,,,,,,,,,,,,,,,,,,,,,,,,,,,,,,,,,,,,,,,,,,,,,,,,,,,,,,,,,,,,,,,,,,,
1720526689,23,0,4327.05127,4497.179688,4576.666504,4285.769043,4052.05127,4211.666504,4565.128418,4679.102539,4601.282227,4583.461426,4976.538574,4803.974121,4808.974121,4605.641113,,,,,,,,,,,,,,,,,,,,,,,,,,,,,,,,,,,,,,,,,,,,,,,,,,,,,,,,,,,,,,,,,,,,,,
1720526689,24,0,4320.384766,4493.717773,4567.94873,4289.615234,4052.05127,4203.333496,4559.871582,4678.974121,4607.563965,4574.487305,4982.05127,4816.666504,4809.358887,4603.589844,,,,,,,,,,,,,,,,,,,,,,,,,,,,,,,,,,,,,,,,,,,,,,,,,,,,,,,,,,,,,,,,,,,,,,
1720526689,25,0,4311.922852,4497.692383,4561.025879,4295,4060,4202.05127,4554.743652,4677.820313,4616.794922,4566.922852,4975.384766,4815.897461,4804.358887,4601.025879,,,,,,,,,,,,,,,,,,,,,,,,,,,,,,,,,,,,,,,,,,,,,,,,,,,,,,,,,,,,,,,,,,,,,,
1720526689,26,0,4310.128418,4504.487305,4555.128418,4296.538574,4073.205078,4203.846191,4561.794922,4676.410156,4620,4566.410156,4963.846191,4802.05127,4799.743652,4591.666504,,,,,,,,,,,,,,,,,,,,,,,,,,,,,,,,,,,,,,,,,,,,,,,,,,,,,,,,,,,,,,,,,,,,,,
1720526689,27,0,4307.563965,4503.205078,4558.205078,4295.897461,4055.128174,4205.897461,4571.410156,4679.487305,4622.179688,4572.179688,4968.205078,4806.922852,4808.974121,4588.461426,,,,,,,,,,,,,,,,,,,,,,,,,,,,,,,,,,,,,,,,,,,,,,,,,,,,,,,,,,,,,,,,,,,,,,
1720526689,28,0,4311.666504,4510.128418,4569.230957,4283.846191,3974.230713,4213.846191,4583.717773,4694.102539,4627.307617,4585,4983.333496,4818.461426,4820.384766,4601.922852,,,,,,,,,,,,,,,,,,,,,,,,,,,,,,,,,,,,,,,,,,,,,,,,,,,,,,,,,,,,,,,,,,,,,,
1720526689,29,0,4328.717773,4526.410156,4581.666504,4271.025879,3899.871826,4221.282227,4598.846191,4704.358887,4633.333496,4595.512695,5001.666504,4830.256348,4830.256348,4613.846191,12.362881,4.474299,0.681474,0.365051,0.239204,26.082392,7.996958,3.652641,2.432676,0.63678,2.482923,3.065844,0.294689,0.604351,0.272916,0.900935,0.474077,0.209332,0.102747,0.072242,26.113018,13.563241,5.370385,2.585107,0.754245,6.848428,3.201012,1.270793,0.678644,0.2562,1.69326,2.148863,0.295434,0.276854,0.162286,0.988305,2.067019,0.767389,0.735136,0.187238,2.088141,1.995455,0.491958,0.273212,0.111296,155.049622,64.270073,31.004158,8.100248,3.010887,8.026022,5.333238,0.564791,1.632237,0.590696,1.725847,2.295197,0.368974,0.573128,0.335171,3.354325,2.834555,0.625913,0.818033,0.321148,3.786655,3.186488,0.667758,0.57655,0.304684
1720526689,30,0,4335.256348,4528.333496,4588.717773,4268.205078,3900,4219.487305,4597.436035,4700.897461,4629.871582,4596.666504,5011.025879,4841.922852,4840.128418,4610.256348,,,,,,,,,,,,,,,,,,,,,,,,,,,,,,,,,,,,,,,,,,,,,,,,,,,,,,,,,,,,,,,,,,,,,,
1720526689,31,0,4326.282227,4528.717773,4587.692383,4269.615234,3922.692383,4213.717773,4587.436035,4696.025879,4626.794922,4602.436035,5004.102539,4838.333496,4842.692383,4603.846191,,,,,,,,,,,,,,,,,,,,,,,,,,,,,,,,,,,,,,,,,,,,,,,,,,,,,,,,,,,,,,,,,,,,,,
1720526689,32,0,4328.846191,4542.94873,4590.512695,4270.256348,3925.641113,4211.025879,4587.94873,4693.974121,4633.461426,4607.692383,5002.692383,4835.897461,4849.230957,4596.538574,,,,,,,,,,,,,,,,,,,,,,,,,,,,,,,,,,,,,,,,,,,,,,,,,,,,,,,,,,,,,,,,,,,,,,
1720526689,33,0,4321.153809,4530.256348,4580.641113,4271.410156,3923.718018,4195.897461,4574.487305,4677.179688,4626.410156,4588.846191,4994.102539,4836.666504,4840.512695,4570,,,,,,,,,,,,,,,,,,,,,,,,,,,,,,,,,,,,,,,,,,,,,,,,,,,,,,,,,,,,,,,,,,,,,,
1720526689,34,0,4282.436035,4494.358887,4540.256348,4264.230957,3905.128174,4163.974121,4542.179688,4648.589844,4603.717773,4556.410156,4959.230957,4802.179688,4803.333496,4529.230957,,,,,,,,,,,,,,,,,,,,,,,,,,,,,,,,,,,,,,,,,,,,,,,,,,,,,,,,,,,,,,,,,,,,,,
1720526689,35,0,4256.666504,4483.077148,4512.563965,4259.615234,3892.179443,4140.512695,4530.384766,4636.922852,4601.794922,4538.077148,4935.128418,4778.589844,4778.717773,4506.153809,,,,,,,,,,,,,,,,,,,,,,,,,,,,,,,,,,,,,,,,,,,,,,,,,,,,,,,,,,,,,,,,,,,,,,
1720526689,36,0,4260.256348,4492.179688,4521.153809,4264.871582,3906.538574,4138.589844,4539.615234,4644.358887,4615,4543.461426,4937.179688,4792.820313,4780.897461,4507.820313,,,,,,,,,,,,,,,,,,,,,,,,,,,,,,,,,,,,,,,,,,,,,,,,,,,,,,,,,,,,,,,,,,,,,,
1720526689,37,0,4262.692383,4493.589844,4528.205078,4264.102539,3915.256348,4138.717773,4539.743652,4648.589844,4609.487305,4552.179688,4941.794922,4795.512695,4788.846191,4518.333496,,,,,,,,,,,,,,,,,,,,,,,,,,,,,,,,,,,,,,,,,,,,,,,,,,,,,,,,,,,,,,,,,,,,,,
1720526689,38,0,4260.512695,4492.94873,4522.820313,4265.384766,3917.94873,4130.256348,4532.820313,4646.538574,4602.94873,4555.897461,4942.563965,4794.871582,4794.615234,4523.205078,,,,,,,,,,,,,,,,,,,,,,,,,,,,,,,,,,,,,,,,,,,,,,,,,,,,,,,,,,,,,,,,,,,,,,
1720526689,39,0,4260.897461,4499.871582,4521.538574,4269.487305,3936.025635,4121.410156,4533.333496,4651.410156,4611.538574,4560.128418,4942.05127,4795.897461,4794.102539,4512.179688,,,,,,,,,,,,,,,,,,,,,,,,,,,,,,,,,,,,,,,,,,,,,,,,,,,,,,,,,,,,,,,,,,,,,,
1720526689,40,0,4254.230957,4505.256348,4525,4266.922852,3943.846191,4116.922852,4537.820313,4659.871582,4616.410156,4561.025879,4939.487305,4794.230957,4784.358887,4505.641113,,,,,,,,,,,,,,,,,,,,,,,,,,,,,,,,,,,,,,,,,,,,,,,,,,,,,,,,,,,,,,,,,,,,,,
1720526689,41,0,4248.717773,4507.05127,4525,4266.410156,3935,4113.717773,4540.769043,4657.563965,4609.743652,4551.153809,4938.077148,4797.94873,4778.205078,4508.717773,,,,,,,,,,,,,,,,,,,,,,,,,,,,,,,,,,,,,,,,,,,,,,,,,,,,,,,,,,,,,,,,,,,,,,
1720526689,42,0,4252.179688,4507.179688,4516.666504,4269.102539,3941.153809,4108.846191,4540,4648.717773,4602.563965,4541.666504,4935,4797.05127,4774.358887,4494.615234,,,,,,,,,,,,,,,,,,,,,,,,,,,,,,,,,,,,,,,,,,,,,,,,,,,,,,,,,,,,,,,,,,,,,,
1720526689,43,0,4248.077148,4504.871582,4507.307617,4268.461426,3945.128174,4106.922852,4538.077148,4644.871582,4601.794922,4556.794922,4929.871582,4795.128418,4768.333496,4472.436035,,,,,,,,,,,,,,,,,,,,,,,,,,,,,,,,,,,,,,,,,,,,,,,,,,,,,,,,,,,,,,,,,,,,,,
1720526689,44,0,4237.563965,4506.025879,4504.743652,4268.333496,3937.435791,4106.538574,4540.897461,4643.461426,4603.205078,4540.512695,4926.666504,4796.794922,4765,4470,,,,,,,,,,,,,,,,,,,,,,,,,,,,,,,,,,,,,,,,,,,,,,,,,,,,,,,,,,,,,,,,,,,,,,
1720526689,45,0,4226.922852,4503.205078,4495.897461,4268.974121,3946.281982,4099.871582,4536.538574,4635.897461,4601.025879,4518.846191,4920.128418,4785.512695,4756.794922,4464.871582,15.207228,6.012871,0.917459,0.376566,0.24107,52.67062,14.667895,6.651145,4.339287,1.021577,2.420442,3.204005,0.306942,0.58378,0.256834,0.779104,0.390763,0.160815,0.083085,0.069135,22.105864,9.889159,3.998974,1.964493,0.661907,6.340221,3.217832,1.174071,0.660696,0.257067,1.658977,1.822887,0.255922,0.280304,0.157838,0.967329,1.780264,0.718522,0.639927,0.171784,2.254129,2.019099,0.469874,0.220021,0.104445,83.432259,41.033398,19.966316,5.516208,2.214725,5.996748,3.929683,0.688912,1.3505,0.538723,1.779276,2.112422,0.327864,0.588296,0.319847,3.288708,2.482011,0.61943,0.702577,0.295925,3.648301,3.082884,0.587782,0.540002,0.27965
1720526689,46,0,4214.358887,4494.615234,4481.794922,4271.666504,3959.871826,4091.923096,4526.282227,4629.102539,4605,4644.358887,4913.333496,4772.820313,4748.461426,4447.692383,,,,,,,,,,,,,,,,,,,,,,,,,,,,,,,,,,,,,,,,,,,,,,,,,,,,,,,,,,,,,,,,,,,,,,
1720526689,47,0,4203.077148,4491.794922,4472.692383,4274.487305,3954.743652,4086.538574,4522.179688,4629.230957,4612.820313,4796.538574,4909.230957,4770.384766,4748.205078,4437.692383,,,,,,,,,,,,,,,,,,,,,,,,,,,,,,,,,,,,,,,,,,,,,,,,,,,,,,,,,,,,,,,,,,,,,,
1720526689,48,0,4194.230957,4493.717773,4462.94873,4271.666504,3955.128174,4084.615479,4514.743652,4628.077148,4610,4759.743652,4903.077148,4759.487305,4742.05127,4431.922852,,,,,,,,,,,,,,,,,,,,,,,,,,,,,,,,,,,,,,,,,,,,,,,,,,,,,,,,,,,,,,,,,,,,,,
1720526689,49,0,4189.358887,4492.05127,4455.897461,4274.102539,3970.384521,4088.461426,4505.256348,4625.384766,4607.179688,4668.333496,4905.128418,4759.102539,4731.410156,4427.820313,,,,,,,,,,,,,,,,,,,,,,,,,,,,,,,,,,,,,,,,,,,,,,,,,,,,,,,,,,,,,,,,,,,,,,
1720526689,50,0,4187.179688,4488.974121,4458.974121,4278.205078,3975.384521,4090.256348,4510.512695,4628.589844,4612.05127,4688.461426,4908.846191,4762.436035,4733.333496,4423.333496,,,,,,,,,,,,,,,,,,,,,,,,,,,,,,,,,,,,,,,,,,,,,,,,,,,,,,,,,,,,,,,,,,,,,,
1720526690,51,0,4176.410156,4492.307617,4460.512695,4272.94873,3971.923096,4082.05127,4522.563965,4633.461426,4616.410156,4706.153809,4899.871582,4751.794922,4736.282227,4416.922852,,,,,,,,,,,,,,,,,,,,,,,,,,,,,,,,,,,,,,,,,,,,,,,,,,,,,,,,,,,,,,,,,,,,,,
1720526690,52,0,4168.077148,4493.205078,4453.077148,4272.436035,3971.538574,4074.615479,4523.717773,4634.102539,4616.922852,4672.179688,4890.256348,4759.871582,4731.282227,4415,,,,,,,,,,,,,,,,,,,,,,,,,,,,,,,,,,,,,,,,,,,,,,,,,,,,,,,,,,,,,,,,,,,,,,
1720526690,53,0,4155,4483.846191,4444.871582,4275.897461,3973.974365,4074.358887,4520.769043,4631.410156,4609.743652,4667.563965,4889.102539,4764.871582,4726.922852,4414.615234,,,,,,,,,,,,,,,,,,,,,,,,,,,,,,,,,,,,,,,,,,,,,,,,,,,,,,,,,,,,,,,,,,,,,,
1720526690,54,0,4092.820557,4480,4445,4274.102539,3975.128174,4073.589844,4528.205078,4633.077148,4601.922852,4667.436035,4893.717773,4757.94873,4725.128418,4413.205078,,,,,,,,,,,,,,,,,,,,,,,,,,,,,,,,,,,,,,,,,,,,,,,,,,,,,,,,,,,,,,,,,,,,,,
1720526690,55,0,4015.256348,4490.384766,4450.897461,4273.333496,3974.615479,4072.820557,4536.410156,4632.94873,4601.794922,4652.307617,4892.179688,4758.333496,4721.153809,4410.641113,,,,,,,,,,,,,,,,,,,,,,,,,,,,,,,,,,,,,,,,,,,,,,,,,,,,,,,,,,,,,,,,,,,,,,
1720526690,56,0,3996.538574,4492.436035,4450.256348,4275.128418,3982.435791,4074.102539,4533.077148,4624.871582,4596.794922,4659.358887,4880.512695,4753.205078,4711.794922,4402.179688,,,,,,,,,,,,,,,,,,,,,,,,,,,,,,,,,,,,,,,,,,,,,,,,,,,,,,,,,,,,,,,,,,,,,,
1720526690,57,0,4004.102539,4478.974121,4438.717773,4272.820313,3989.615479,4072.692383,4525.256348,4613.974121,4585.897461,4647.563965,4871.282227,4745.769043,4701.025879,4389.871582,,,,,,,,,,,,,,,,,,,,,,,,,,,,,,,,,,,,,,,,,,,,,,,,,,,,,,,,,,,,,,,,,,,,,,
1720526690,58,0,3990.512939,4473.974121,4429.102539,4270.256348,3985.897461,4068.589844,4517.94873,4607.05127,4585.512695,4554.743652,4871.410156,4741.282227,4694.487305,4383.205078,,,,,,,,,,,,,,,,,,,,,,,,,,,,,,,,,,,,,,,,,,,,,,,,,,,,,,,,,,,,,,,,,,,,,,
1720526690,59,0,3983.333252,4473.589844,4423.205078,4271.025879,3989.102539,4065.769287,4509.743652,4603.717773,4589.871582,4455.128418,4863.461426,4733.974121,4689.102539,4375.512695,,,,,,,,,,,,,,,,,,,,,,,,,,,,,,,,,,,,,,,,,,,,,,,,,,,,,,,,,,,,,,,,,,,,,,
1720526690,60,0,3988.589844,4462.692383,4412.307617,4274.102539,3998.589844,4066.410156,4506.794922,4606.922852,4593.077148,4443.461426,4845.512695,4728.589844,4684.615234,4369.230957,,,,,,,,,,,,,,,,,,,,,,,,,,,,,,,,,,,,,,,,,,,,,,,,,,,,,,,,,,,,,,,,,,,,,,
1720526690,61,0,3986.153809,4456.025879,4402.307617,4278.461426,4003.333252,4071.794922,4510,4611.794922,4601.153809,4461.922852,4842.05127,4733.846191,4686.153809,4375.897461,16.739471,7.297714,1.192801,0.401299,0.258992,83.182137,22.17371,9.852636,6.481822,1.455649,2.170721,3.617574,0.380666,0.57621,0.247381,0.681605,0.371154,0.137497,0.076204,0.070398,16.922577,7.93566,3.384765,1.603032,0.616146,5.162967,2.990221,1.008058,0.577531,0.242965,1.474921,1.895685,0.29218,0.304785,0.166345,0.819969,1.61006,0.688126,0.549495,0.165598,2.233123,2.141491,0.445999,0.163943,0.103855,48.308662,29.956964,13.999674,4.294112,1.794823,4.058838,2.704285,0.950684,1.110456,0.491883,1.587648,1.966298,0.327208,0.599022,0.324683,2.913813,2.235742,0.741779,0.611048,0.293108,3.368097,3.190163,0.614818,0.533076,0.27898
1720526690,62,0,3988.205078,4460.384766,4405.384766,4276.666504,4003.589844,4075.769287,4508.846191,4607.820313,4598.717773,4455.384766,4852.692383,4727.436035,4688.333496,4382.563965,,,,,,,,,,,,,,,,,,,,,,,,,,,,,,,,,,,,,,,,,,,,,,,,,,,,,,,,,,,,,,,,,,,,,,
1720526690,63,0,3998.974365,4463.461426,4412.692383,4277.436035,3997.05127,4069.871826,4508.205078,4605.641113,4588.846191,4453.333496,4859.230957,4726.410156,4689.871582,4386.794922,,,,,,,,,,,,,,,,,,,,,,,,,,,,,,,,,,,,,,,,,,,,,,,,,,,,,,,,,,,,,,,,,,,,,,
1720526690,64,0,4006.666748,4461.025879,4409.615234,4281.282227,3992.564209,4063.461426,4510.256348,4609.615234,4588.846191,4458.589844,4855.641113,4740.128418,4692.563965,4396.025879,,,,,,,,,,,,,,,,,,,,,,,,,,,,,,,,,,,,,,,,,,,,,,,,,,,,,,,,,,,,,,,,,,,,,,
1720526690,65,0,4006.153809,4459.615234,4400.128418,4278.461426,4005.641113,4065.128174,4508.205078,4606.282227,4585.384766,4461.282227,4847.307617,4731.282227,4688.333496,4394.102539,,,,,,,,,,,,,,,,,,,,,,,,,,,,,,,,,,,,,,,,,,,,,,,,,,,,,,,,,,,,,,,,,,,,,,
1720526690,66,0,4006.538574,4459.487305,4396.794922,4279.102539,4017.179443,4063.076904,4506.282227,4598.461426,4569.871582,4460.128418,4839.615234,4724.871582,4684.358887,4382.820313,,,,,,,,,,,,,,,,,,,,,,,,,,,,,,,,,,,,,,,,,,,,,,,,,,,,,,,,,,,,,,,,,,,,,,
1720526690,67,0,4013.205078,4460.384766,4397.179688,4281.666504,4015.769287,4059.358887,4506.153809,4597.05127,4556.153809,4439.743652,4837.05127,4729.871582,4687.94873,4381.794922,,,,,,,,,,,,,,,,,,,,,,,,,,,,,,,,,,,,,,,,,,,,,,,,,,,,,,,,,,,,,,,,,,,,,,
1720526690,68,0,4014.487061,4460,4396.794922,4282.307617,4018.076904,4061.153809,4507.692383,4598.589844,4552.179688,4416.922852,4838.077148,4728.077148,4682.436035,4384.743652,,,,,,,,,,,,,,,,,,,,,,,,,,,,,,,,,,,,,,,,,,,,,,,,,,,,,,,,,,,,,,,,,,,,,,
1720526690,69,0,4021.923096,4456.922852,4396.410156,4282.436035,4015.769287,4057.564209,4511.282227,4596.025879,4553.589844,4416.153809,4839.871582,4729.102539,4670.769043,4384.615234,,,,,,,,,,,,,,,,,,,,,,,,,,,,,,,,,,,,,,,,,,,,,,,,,,,,,,,,,,,,,,,,,,,,,,
1720526690,70,0,4027.307617,4456.794922,4396.794922,4279.358887,4010.769287,4048.333252,4507.820313,4594.358887,4550.384766,4423.333496,4840.512695,4729.102539,4671.282227,4389.102539,,,,,,,,,,,,,,,,,,,,,,,,,,,,,,,,,,,,,,,,,,,,,,,,,,,,,,,,,,,,,,,,,,,,,,
1720526690,71,0,3986.666748,4459.358887,4397.436035,4281.538574,4030.256348,4045.128174,4500.512695,4594.615234,4543.077148,4430.128418,4835.384766,4726.922852,4678.333496,4398.205078,,,,,,,,,,,,,,,,,,,,,,,,,,,,,,,,,,,,,,,,,,,,,,,,,,,,,,,,,,,,,,,,,,,,,,
1720526690,72,0,3933.205078,4460.256348,4397.94873,4290.384766,4047.307617,4047.307617,4503.461426,4594.102539,4539.615234,4438.717773,4836.922852,4730.256348,4678.077148,4405.512695,,,,,,,,,,,,,,,,,,,,,,,,,,,,,,,,,,,,,,,,,,,,,,,,,,,,,,,,,,,,,,,,,,,,,,
1720526690,73,0,3928.589844,4459.743652,4397.692383,4291.025879,4029.871826,4047.820557,4506.282227,4590.512695,4542.05127,4440.641113,4844.230957,4733.077148,4675.769043,4406.794922,,,,,,,,,,,,,,,,,,,,,,,,,,,,,,,,,,,,,,,,,,,,,,,,,,,,,,,,,,,,,,,,,,,,,,
1720526690,74,0,3944.102539,4457.820313,4392.94873,4296.153809,4060.256348,4040.641113,4494.487305,4584.102539,4534.871582,4430.128418,4837.563965,4726.153809,4672.820313,4398.974121,,,,,,,,,,,,,,,,,,,,,,,,,,,,,,,,,,,,,,,,,,,,,,,,,,,,,,,,,,,,,,,,,,,,,,
1720526690,75,0,3945.769287,4455.897461,4392.820313,4301.538574,4071.538574,4031.794922,4485,4580.384766,4522.436035,4424.743652,4827.692383,4721.538574,4663.974121,4391.922852,,,,,,,,,,,,,,,,,,,,,,,,,,,,,,,,,,,,,,,,,,,,,,,,,,,,,,,,,,,,,,,,,,,,,,
1720526690,76,0,3960.769287,4463.461426,4405.256348,4261.410156,3857.820557,4041.281982,4496.025879,4590.256348,4526.410156,4436.410156,4843.333496,4726.153809,4667.563965,4400.256348,,,,,,,,,,,,,,,,,,,,,,,,,,,,,,,,,,,,,,,,,,,,,,,,,,,,,,,,,,,,,,,,,,,,,,
1720526690,77,0,3985.897461,4475.769043,4416.410156,4208.717773,3593.461426,4058.974365,4506.666504,4602.307617,4537.692383,4446.410156,4862.692383,4740.897461,4686.153809,4417.436035,16.791744,8.042917,1.521516,0.449252,0.301189,110.439125,28.245697,12.313739,8.227283,1.815441,1.939407,4.218254,0.557798,0.593423,0.251022,0.631208,0.382751,0.125479,0.080918,0.074565,13.193739,7.036671,3.359502,1.568744,0.617049,3.712017,2.661765,0.854068,0.465037,0.22156,1.37103,2.349121,0.406488,0.349355,0.189383,0.90278,1.55386,0.7296,0.490189,0.171168,2.232323,2.311584,0.430575,0.120073,0.113749,39.142258,26.214067,11.564816,3.914107,1.695741,2.812073,1.880153,1.36418,0.965774,0.461081,1.511243,1.907215,0.397,0.614127,0.355007,2.93035,2.227587,1.057114,0.578514,0.319796,3.377074,3.549439,0.821899,0.569375,0.313548
1720526690,78,0,3992.94873,4478.205078,4416.282227,4205.897461,3566.025635,4062.179443,4507.179688,4602.436035,4538.077148,4444.102539,4853.974121,4740.769043,4685.384766,4422.179688,,,,,,,,,,,,,,,,,,,,,,,,,,,,,,,,,,,,,,,,,,,,,,,,,,,,,,,,,,,,,,,,,,,,,,
1720526690,79,0,3990,4471.538574,4408.333496,4217.820313,3631.666748,4060.512939,4506.794922,4601.282227,4537.563965,4442.05127,4837.563965,4719.743652,4660,4409.487305,,,,,,,,,,,,,,,,,,,,,,,,,,,,,,,,,,,,,,,,,,,,,,,,,,,,,,,,,,,,,,,,,,,,,,
1720526690,80,0,3989.871826,4464.487305,4398.846191,4211.922852,3602.564209,4062.307617,4500.256348,4599.487305,4541.153809,4442.179688,4830.769043,4721.025879,4649.230957,4404.487305,,,,,,,,,,,,,,,,,,,,,,,,,,,,,,,,,,,,,,,,,,,,,,,,,,,,,,,,,,,,,,,,,,,,,,
1720526690,81,0,3999.743652,4460.512695,4393.205078,4207.307617,3584.102539,4059.871826,4489.230957,4589.487305,4532.692383,4441.666504,4832.436035,4725.897461,4659.615234,4420,,,,,,,,,,,,,,,,,,,,,,,,,,,,,,,,,,,,,,,,,,,,,,,,,,,,,,,,,,,,,,,,,,,,,,
1720526690,82,0,4016.410156,4465.384766,4395.384766,4213.205078,3620.641113,4059.871826,4490.256348,4584.102539,4521.538574,4450.384766,4839.743652,4721.025879,4662.307617,4430.897461,,,,,,,,,,,,,,,,,,,,,,,,,,,,,,,,,,,,,,,,,,,,,,,,,,,,,,,,,,,,,,,,,,,,,,
1720526690,83,0,4027.307617,4475.641113,4397.692383,4220.256348,3641.923096,4069.871826,4498.589844,4588.974121,4522.94873,4465.897461,4844.102539,4729.615234,4657.05127,4429.743652,,,,,,,,,,,,,,,,,,,,,,,,,,,,,,,,,,,,,,,,,,,,,,,,,,,,,,,,,,,,,,,,,,,,,,
1720526690,84,0,4032.564209,4477.05127,4394.230957,4222.563965,3658.974365,4076.281982,4495,4588.974121,4523.205078,4471.922852,4846.153809,4729.615234,4660.128418,4424.871582,,,,,,,,,,,,,,,,,,,,,,,,,,,,,,,,,,,,,,,,,,,,,,,,,,,,,,,,,,,,,,,,,,,,,,
1720526690,85,0,4041.153809,4464.871582,4397.563965,4224.615234,3666.281982,4074.615479,4488.974121,4586.794922,4524.743652,4485.769043,4845,4723.461426,4667.05127,4419.102539,,,,,,,,,,,,,,,,,,,,,,,,,,,,,,,,,,,,,,,,,,,,,,,,,,,,,,,,,,,,,,,,,,,,,,
1720526690,86,0,4047.692383,4449.358887,4403.333496,4226.538574,3662.307617,4073.589844,4490,4589.358887,4528.077148,4505,4835.256348,4724.230957,4660.641113,4408.846191,,,,,,,,,,,,,,,,,,,,,,,,,,,,,,,,,,,,,,,,,,,,,,,,,,,,,,,,,,,,,,,,,,,,,,
1720526690,87,0,4047.692383,4448.846191,4398.205078,4227.563965,3680,4080.897461,4490.769043,4584.487305,4522.179688,4482.05127,4825.256348,4720.512695,4649.487305,4400.641113,,,,,,,,,,,,,,,,,,,,,,,,,,,,,,,,,,,,,,,,,,,,,,,,,,,,,,,,,,,,,,,,,,,,,,
1720526690,88,0,4054.487061,4459.102539,4392.307617,4233.461426,3710.512939,4089.487061,4486.538574,4576.282227,4517.692383,4428.974121,4828.974121,4715.769043,4647.820313,4402.563965,,,,,,,,,,,,,,,,,,,,,,,,,,,,,,,,,,,,,,,,,,,,,,,,,,,,,,,,,,,,,,,,,,,,,,
1720526690,89,0,4064.102539,4465.256348,4397.307617,4239.487305,3713.461426,4091.666748,4481.282227,4575.384766,4521.410156,4415,4831.410156,4724.102539,4647.307617,4411.794922,,,,,,,,,,,,,,,,,,,,,,,,,,,,,,,,,,,,,,,,,,,,,,,,,,,,,,,,,,,,,,,,,,,,,,
1720526690,90,0,4053.846191,4464.102539,4401.410156,4234.230957,3694.615479,4093.205078,4478.461426,4575,4517.94873,4437.307617,4819.871582,4724.102539,4644.487305,4415.897461,,,,,,,,,,,,,,,,,,,,,,,,,,,,,,,,,,,,,,,,,,,,,,,,,,,,,,,,,,,,,,,,,,,,,,
1720526690,91,0,4037.692383,4461.666504,4395.256348,4228.205078,3694.743652,4096.153809,4475.897461,4570.256348,4508.846191,4441.282227,4810.512695,4714.615234,4639.358887,4410.128418,,,,,,,,,,,,,,,,,,,,,,,,,,,,,,,,,,,,,,,,,,,,,,,,,,,,,,,,,,,,,,,,,,,,,,
1720526690,92,0,4044.871826,4462.179688,4395.512695,4235.512695,3713.205078,4094.487061,4474.871582,4568.846191,4508.205078,4431.025879,4811.794922,4723.077148,4636.282227,4415,,,,,,,,,,,,,,,,,,,,,,,,,,,,,,,,,,,,,,,,,,,,,,,,,,,,,,,,,,,,,,,,,,,,,,
1720526690,93,0,4057.94873,4461.922852,4402.94873,4242.179688,3733.589844,4095.384521,4476.025879,4570,4508.717773,4439.358887,4814.230957,4724.102539,4637.307617,4425.256348,16.263975,8.238483,1.950771,0.547836,0.368113,123.881844,30.859171,13.224851,8.981024,1.983521,1.575891,4.958412,0.852982,0.635391,0.268795,0.701113,0.407052,0.125144,0.097355,0.078916,12.400346,7.211229,3.905605,1.928463,0.662898,2.776049,2.4075,0.795948,0.364935,0.201667,1.292249,3.130112,0.587425,0.405745,0.222496,0.928535,1.68413,0.864059,0.469477,0.186175,2.137284,2.439692,0.427243,0.09611,0.135008,42.487778,23.48263,11.113804,3.833287,1.866711,2.016901,1.603011,1.90393,0.919424,0.449522,1.254022,2.03827,0.546323,0.635696,0.403419,2.940789,2.568871,1.562599,0.609064,0.366532,3.607685,4.219748,1.236345,0.642833,0.375693
1720526690,94,0,4062.564209,4461.794922,4402.179688,4243.461426,3743.076904,4103.077148,4475.256348,4568.461426,4504.743652,4446.538574,4814.487305,4721.410156,4637.94873,4422.820313,,,,,,,,,,,,,,,,,,,,,,,,,,,,,,,,,,,,,,,,,,,,,,,,,,,,,,,,,,,,,,,,,,,,,,
1720526690,95,0,4071.794922,4463.461426,4403.205078,4243.717773,3740.256348,4106.666504,4476.282227,4570.897461,4504.487305,4432.563965,4812.179688,4726.282227,4631.282227,4416.794922,,,,,,,,,,,,,,,,,,,,,,,,,,,,,,,,,,,,,,,,,,,,,,,,,,,,,,,,,,,,,,,,,,,,,,
1720526690,96,0,4077.435791,4463.974121,4410.769043,4244.358887,3750,4104.743652,4478.333496,4570,4508.461426,4427.179688,4802.05127,4721.922852,4622.05127,4415.512695,,,,,,,,,,,,,,,,,,,,,,,,,,,,,,,,,,,,,,,,,,,,,,,,,,,,,,,,,,,,,,,,,,,,,,
1720526690,97,0,4078.076904,4461.538574,4412.692383,4251.025879,3768.205078,4106.538574,4470.897461,4561.153809,4505.128418,4442.94873,4796.538574,4721.025879,4621.282227,4417.563965,,,,,,,,,,,,,,,,,,,,,,,,,,,,,,,,,,,,,,,,,,,,,,,,,,,,,,,,,,,,,,,,,,,,,,
1720526690,98,0,4087.307617,4460.384766,4405,4253.589844,3772.820557,4109.487305,4461.282227,4556.922852,4496.410156,4446.538574,4796.666504,4717.179688,4620.384766,4416.153809,,,,,,,,,,,,,,,,,,,,,,,,,,,,,,,,,,,,,,,,,,,,,,,,,,,,,,,,,,,,,,,,,,,,,,
1720526690,99,0,4094.230713,4461.153809,4398.461426,4250.769043,3781.410156,4108.205078,4461.153809,4552.307617,4489.615234,4428.589844,4788.461426,4705.897461,4608.589844,4409.230957,,,,,,,,,,,,,,,,,,,,,,,,,,,,,,,,,,,,,,,,,,,,,,,,,,,,,,,,,,,,,,,,,,,,,,
1720526690,100,0,4091.025635,4459.102539,4396.794922,4255.512695,3798.718018,4108.461426,4459.102539,4545.256348,4481.922852,4414.230957,4783.461426,4697.692383,4593.846191,4402.436035,,,,,,,,,,,,,,,,,,,,,,,,,,,,,,,,,,,,,,,,,,,,,,,,,,,,,,,,,,,,,,,,,,,,,,
1720526690,101,0,4086.153809,4449.358887,4386.153809,4259.871582,3801.538574,4108.205078,4448.205078,4542.05127,4476.538574,4408.846191,4778.589844,4691.410156,4582.692383,4398.461426,,,,,,,,,,,,,,,,,,,,,,,,,,,,,,,,,,,,,,,,,,,,,,,,,,,,,,,,,,,,,,,,,,,,,,
1720526690,102,0,4072.179443,4428.846191,4362.692383,4256.794922,3807.435791,4099.487305,4434.358887,4529.230957,4470.641113,4410.512695,4752.179688,4678.717773,4559.615234,4383.717773,,,,,,,,,,,,,,,,,,,,,,,,,,,,,,,,,,,,,,,,,,,,,,,,,,,,,,,,,,,,,,,,,,,,,,
1720526690,103,0,4056.794922,4418.205078,4347.179688,4257.307617,3832.692383,4090.641113,4419.615234,4506.410156,4459.102539,4424.743652,4725.384766,4659.102539,4535.128418,4365.384766,,,,,,,,,,,,,,,,,,,,,,,,,,,,,,,,,,,,,,,,,,,,,,,,,,,,,,,,,,,,,,,,,,,,,,
1720526690,104,0,4066.153809,4423.205078,4355.769043,4262.179688,3853.333252,4095.512939,4415.128418,4507.05127,4455.384766,4449.230957,4732.820313,4654.871582,4539.871582,4374.487305,,,,,,,,,,,,,,,,,,,,,,,,,,,,,,,,,,,,,,,,,,,,,,,,,,,,,,,,,,,,,,,,,,,,,,
1720526690,105,0,4090.769287,4419.871582,4369.102539,4266.922852,3865.897461,4103.333496,4424.615234,4522.692383,4463.461426,4471.153809,4747.563965,4675.897461,4559.230957,4401.538574,,,,,,,,,,,,,,,,,,,,,,,,,,,,,,,,,,,,,,,,,,,,,,,,,,,,,,,,,,,,,,,,,,,,,,
1720526690,106,0,4098.846191,4404.230957,4370,4269.871582,3879.743652,4102.94873,4427.307617,4517.94873,4464.230957,4480.384766,4734.102539,4680.256348,4561.153809,4407.436035,,,,,,,,,,,,,,,,,,,,,,,,,,,,,,,,,,,,,,,,,,,,,,,,,,,,,,,,,,,,,,,,,,,,,,
1720526690,107,0,4084.871826,4391.025879,4359.743652,4266.538574,3883.461426,4104.871582,4419.102539,4507.563965,4457.307617,4475.769043,4712.307617,4651.410156,4547.05127,4392.94873,,,,,,,,,,,,,,,,,,,,,,,,,,,,,,,,,,,,,,,,,,,,,,,,,,,,,,,,,,,,,,,,,,,,,,
1720526690,108,0,4078.333252,4385.641113,4346.410156,4267.563965,3883.461426,4108.461426,4413.589844,4504.615234,4457.94873,4462.179688,4710.256348,4649.743652,4539.487305,4390.769043,,,,,,,,,,,,,,,,,,,,,,,,,,,,,,,,,,,,,,,,,,,,,,,,,,,,,,,,,,,,,,,,,,,,,,
1720526690,109,0,4087.94873,4389.871582,4340.384766,4273.205078,3898.461426,4105.641113,4410.128418,4498.077148,4456.025879,4457.307617,4712.179688,4659.487305,4541.410156,4400.769043,15.683384,8.176326,2.585992,0.736004,0.452565,120.239098,29.167072,12.311339,8.474203,1.901722,1.284502,5.743894,1.215779,0.688344,0.293937,0.941766,0.472694,0.160656,0.133251,0.083988,18.921427,9.626466,5.38981,2.854094,0.827113,2.516004,2.33608,0.85201,0.307082,0.188589,1.393398,4.082205,0.781045,0.45994,0.255925,1.21096,2.024974,1.071728,0.476084,0.203368,2.199335,2.447902,0.446132,0.09034,0.163749,54.140553,19.439398,12.20101,3.984351,2.3056,1.985887,1.852241,2.449019,0.932684,0.450509,1.15352,2.396801,0.741022,0.657214,0.451299,3.361593,3.225827,2.132312,0.675833,0.412284,4.016562,5.144646,1.797939,0.729914,0.441642
1720526690,110,0,4094.487061,4395.641113,4343.333496,4269.358887,3911.666748,4098.717773,4405.641113,4488.589844,4448.974121,4470.128418,4700.128418,4642.307617,4543.077148,4402.307617,,,,,,,,,,,,,,,,,,,,,,,,,,,,,,,,,,,,,,,,,,,,,,,,,,,,,,,,,,,,,,,,,,,,,,
1720526690,111,0,4092.179443,4391.538574,4343.077148,4268.589844,3916.281982,4095.512939,4401.794922,4481.282227,4443.205078,4480.128418,4691.922852,4640.128418,4537.820313,4398.333496,,,,,,,,,,,,,,,,,,,,,,,,,,,,,,,,,,,,,,,,,,,,,,,,,,,,,,,,,,,,,,,,,,,,,,
1720526690,112,0,4089.358887,4384.358887,4331.666504,4276.025879,3929.102539,4096.025879,4398.717773,4475.384766,4440,4476.538574,4689.358887,4641.410156,4525.641113,4395.256348,,,,,,,,,,,,,,,,,,,,,,,,,,,,,,,,,,,,,,,,,,,,,,,,,,,,,,,,,,,,,,,,,,,,,,
1720526690,113,0,4094.871826,4384.871582,4329.487305,4283.333496,3948.974365,4095,4395.256348,4473.717773,4441.025879,4473.333496,4681.538574,4633.846191,4519.487305,4399.871582,,,,,,,,,,,,,,,,,,,,,,,,,,,,,,,,,,,,,,,,,,,,,,,,,,,,,,,,,,,,,,,,,,,,,,
1720526690,114,0,4100.512695,4387.692383,4336.666504,4287.307617,3967.179443,4099.487305,4394.102539,4475.641113,4439.230957,4474.102539,4672.563965,4634.615234,4525.128418,4406.410156,,,,,,,,,,,,,,,,,,,,,,,,,,,,,,,,,,,,,,,,,,,,,,,,,,,,,,,,,,,,,,,,,,,,,,
1720526690,115,0,4097.563965,4382.179688,4333.974121,4288.077148,3976.281982,4103.974121,4397.179688,4471.666504,4433.077148,4475.769043,4658.974121,4632.94873,4525.384766,4406.922852,,,,,,,,,,,,,,,,,,,,,,,,,,,,,,,,,,,,,,,,,,,,,,,,,,,,,,,,,,,,,,,,,,,,,,
1720526690,116,0,4097.563965,4373.461426,4328.717773,4287.179688,3972.692383,4100.256348,4397.94873,4463.589844,4428.974121,4483.461426,4643.846191,4627.820313,4510.256348,4406.025879,,,,,,,,,,,,,,,,,,,,,,,,,,,,,,,,,,,,,,,,,,,,,,,,,,,,,,,,,,,,,,,,,,,,,,
1720526690,117,0,4107.563965,4373.461426,4331.153809,4288.461426,3970.128174,4098.974121,4391.153809,4458.205078,4428.717773,4491.794922,4638.717773,4629.102539,4503.846191,4409.871582,,,,,,,,,,,,,,,,,,,,,,,,,,,,,,,,,,,,,,,,,,,,,,,,,,,,,,,,,,,,,,,,,,,,,,
1720526690,118,0,4113.205078,4373.974121,4329.487305,4287.692383,3979.102539,4106.410156,4387.692383,4456.153809,4430,4493.461426,4637.307617,4618.589844,4509.358887,4411.410156,,,,,,,,,,,,,,,,,,,,,,,,,,,,,,,,,,,,,,,,,,,,,,,,,,,,,,,,,,,,,,,,,,,,,,
1720526690,119,0,4114.871582,4368.846191,4323.333496,4285.897461,3985.512939,4108.461426,4390.769043,4459.230957,4426.025879,4486.538574,4635,4603.589844,4506.410156,4410.897461,,,,,,,,,,,,,,,,,,,,,,,,,,,,,,,,,,,,,,,,,,,,,,,,,,,,,,,,,,,,,,,,,,,,,,
1720526690,120,0,4122.436035,4367.307617,4324.871582,4292.436035,3989.487061,4105.128418,4385.512695,4459.230957,4418.717773,4476.153809,4636.025879,4611.153809,4498.333496,4416.025879,,,,,,,,,,,,,,,,,,,,,,,,,,,,,,,,,,,,,,,,,,,,,,,,,,,,,,,,,,,,,,,,,,,,,,
1720526690,121,0,4125.384766,4367.05127,4321.410156,4296.282227,4000,4104.615234,4371.794922,4449.230957,4412.436035,4473.974121,4628.846191,4604.871582,4495.256348,4412.179688,,,,,,,,,,,,,,,,,,,,,,,,,,,,,,,,,,,,,,,,,,,,,,,,,,,,,,,,,,,,,,,,,,,,,,
1720526690,122,0,4119.615234,4357.94873,4312.179688,4293.846191,4006.923096,4097.94873,4363.205078,4439.102539,4408.077148,4475.384766,4612.94873,4587.563965,4491.666504,4398.717773,,,,,,,,,,,,,,,,,,,,,,,,,,,,,,,,,,,,,,,,,,,,,,,,,,,,,,,,,,,,,,,,,,,,,,
1720526690,123,0,4118.461426,4354.871582,4310,4294.487305,4009.743652,4093.846191,4363.974121,4440.897461,4407.307617,4472.179688,4608.717773,4594.487305,4488.461426,4400.256348,,,,,,,,,,,,,,,,,,,,,,,,,,,,,,,,,,,,,,,,,,,,,,,,,,,,,,,,,,,,,,,,,,,,,,
1720526690,124,0,4127.94873,4361.410156,4311.538574,4291.922852,3999.743652,4102.307617,4364.487305,4444.230957,4410.256348,4477.179688,4621.410156,4602.436035,4497.94873,4415.641113,,,,,,,,,,,,,,,,,,,,,,,,,,,,,,,,,,,,,,,,,,,,,,,,,,,,,,,,,,,,,,,,,,,,,,
1720526690,125,0,4137.179688,4360.769043,4314.615234,4288.205078,3976.538574,4106.794922,4359.487305,4443.205078,4409.615234,4488.205078,4630.897461,4603.461426,4510.256348,4420,17.289743,8.293976,3.464115,1.037051,0.54016,99.713104,23.833187,9.927917,6.895426,1.598677,1.036917,6.394686,1.551068,0.730455,0.314589,1.48917,0.650317,0.265461,0.200848,0.095267,35.612926,16.110756,8.39275,4.571101,1.258772,3.246475,2.416173,0.965833,0.29899,0.181511,1.602422,4.97275,0.924626,0.498008,0.278662,1.489637,2.492293,1.275394,0.488564,0.21355,2.362763,2.306381,0.48831,0.095804,0.192607,69.450974,15.353586,15.018981,4.506431,3.000492,2.072769,2.402169,2.839545,0.960056,0.451388,0.951453,2.899586,0.919987,0.668281,0.477589,3.653035,4.02739,2.574361,0.741784,0.436087,4.461123,6.103348,2.357701,0.803807,0.483704
1720526690,126,0,4137.692383,4354.743652,4302.436035,4289.230957,3971.153809,4105.384766,4354.102539,4442.436035,4406.282227,4490.769043,4614.230957,4598.589844,4504.358887,4409.615234,,,,,,,,,,,,,,,,,,,,,,,,,,,,,,,,,,,,,,,,,,,,,,,,,,,,,,,,,,,,,,,,,,,,,,
1720526690,127,0,4142.692383,4359.102539,4266.922852,4290.641113,3985.256348,4110.512695,4355.128418,4440,4410.256348,4500.769043,4595.128418,4594.743652,4496.153809,4412.94873,,,,,,,,,,,,,,,,,,,,,,,,,,,,,,,,,,,,,,,,,,,,,,,,,,,,,,,,,,,,,,,,,,,,,,
1720526690,0,0,4157.94873,4369.615234,4244.358887,4291.922852,3993.205078,4122.692383,4362.307617,4446.025879,4413.974121,4519.487305,4608.461426,4599.743652,4503.205078,4430.769043,,,,,,,,,,,,,,,,,,,,,,,,,,,,,,,,,,,,,,,,,,,,,,,,,,,,,,,,,,,,,,,,,,,,,,
1720526690,1,0,4166.153809,4370.384766,4255.256348,4297.179688,4001.538574,4132.436035,4369.230957,4461.666504,4412.94873,4528.205078,4626.922852,4604.230957,4507.820313,4440.897461,,,,,,,,,,,,,,,,,,,,,,,,,,,,,,,,,,,,,,,,,,,,,,,,,,,,,,,,,,,,,,,,,,,,,,
1720526690,2,0,4166.794922,4366.282227,4263.205078,4301.282227,4017.307617,4136.538574,4370.641113,4460.384766,4412.820313,4524.615234,4613.333496,4600.897461,4503.333496,4444.230957,,,,,,,,,,,,,,,,,,,,,,,,,,,,,,,,,,,,,,,,,,,,,,,,,,,,,,,,,,,,,,,,,,,,,,
1720526690,3,0,4176.666504,4370.384766,4258.205078,4299.102539,4022.564209,4143.333496,4369.358887,4447.820313,4404.615234,4516.666504,4594.615234,4594.871582,4505,4450.256348,,,,,,,,,,,,,,,,,,,,,,,,,,,,,,,,,,,,,,,,,,,,,,,,,,,,,,,,,,,,,,,,,,,,,,
1720526690,4,0,4190.897461,4375.897461,4265.897461,4295.897461,4022.179443,4154.871582,4372.692383,4453.077148,4394.615234,4504.615234,4604.615234,4593.077148,4504.615234,4454.230957,,,,,,,,,,,,,,,,,,,,,,,,,,,,,,,,,,,,,,,,,,,,,,,,,,,,,,,,,,,,,,,,,,,,,,
1720526690,5,0,4200.128418,4374.487305,4278.717773,4299.487305,4031.794922,4160,4377.820313,4460.641113,4396.666504,4494.743652,4624.102539,4598.589844,4502.179688,4457.307617,,,,,,,,,,,,,,,,,,,,,,,,,,,,,,,,,,,,,,,,,,,,,,,,,,,,,,,,,,,,,,,,,,,,,,
1720526690,6,0,4201.922852,4372.436035,4277.563965,4304.615234,4042.435791,4158.333496,4371.025879,4448.717773,4399.743652,4490,4618.717773,4597.179688,4504.358887,4459.487305,,,,,,,,,,,,,,,,,,,,,,,,,,,,,,,,,,,,,,,,,,,,,,,,,,,,,,,,,,,,,,,,,,,,,,
1720526690,7,0,4202.563965,4370,4270.128418,4301.282227,4047.435791,4162.05127,4359.102539,4440.384766,4394.487305,4488.205078,4601.410156,4582.436035,4500.512695,4457.692383,,,,,,,,,,,,,,,,,,,,,,,,,,,,,,,,,,,,,,,,,,,,,,,,,,,,,,,,,,,,,,,,,,,,,,
1720526690,8,0,4210,4371.282227,4272.94873,4303.589844,4049.743652,4170.512695,4361.025879,4444.615234,4394.230957,4496.794922,4601.153809,4594.230957,4493.205078,4464.102539,,,,,,,,,,,,,,,,,,,,,,,,,,,,,,,,,,,,,,,,,,,,,,,,,,,,,,,,,,,,,,,,,,,,,,
1720526690,9,0,4218.077148,4375.897461,4284.230957,4311.538574,4054.230713,4175.897461,4371.794922,4446.538574,4399.871582,4506.410156,4610.384766,4609.871582,4492.692383,4472.05127,,,,,,,,,,,,,,,,,,,,,,,,,,,,,,,,,,,,,,,,,,,,,,,,,,,,,,,,,,,,,,,,,,,,,,
1720526690,10,0,4220.641113,4376.025879,4290.512695,4309.743652,4065.512939,4182.692383,4373.717773,4446.025879,4400.128418,4504.102539,4614.871582,4592.692383,4494.871582,4468.205078,,,,,,,,,,,,,,,,,,,,,,,,,,,,,,,,,,,,,,,,,,,,,,,,,,,,,,,,,,,,,,,,,,,,,,
1720526690,11,0,4225.256348,4375.641113,4292.692383,4307.307617,4072.820557,4186.666504,4369.871582,4446.025879,4399.358887,4502.94873,4615.641113,4593.077148,4498.589844,4466.666504,,,,,,,,,,,,,,,,,,,,,,,,,,,,,,,,,,,,,,,,,,,,,,,,,,,,,,,,,,,,,,,,,,,,,,
1720526690,12,0,4238.333496,4384.615234,4297.692383,4308.333496,4073.589844,4187.179688,4371.538574,4445.384766,4399.743652,4509.871582,4615,4606.410156,4504.358887,4483.589844,,,,,,,,,,,,,,,,,,,,,,,,,,,,,,,,,,,,,,,,,,,,,,,,,,,,,,,,,,,,,,,,,,,,,,
1720526690,13,0,4247.05127,4388.717773,4300.256348,4309.615234,4078.589844,4193.846191,4374.230957,4446.666504,4400.384766,4513.333496,4620.897461,4604.487305,4507.820313,4500.256348,20.583054,8.859613,4.509843,1.427816,0.613552,70.252327,16.727421,6.884898,4.801828,1.177132,0.961965,6.67822,1.76287,0.746795,0.320886,2.446775,1.010278,0.460485,0.303576,0.118572,65.386566,27.980522,13.240935,7.088094,2.062694,4.319123,2.507349,1.052692,0.323868,0.174945,1.843726,5.545527,0.976583,0.513286,0.283579,1.791698,2.921068,1.390353,0.4921,0.211441,2.713526,2.050691,0.550746,0.107582,0.213655,93.113464,12.151837,18.875299,5.39611,3.811445,2.289055,2.942161,2.92508,0.97883,0.443192,0.889836,3.356298,1.022809,0.660027,0.470255,3.872154,4.712555,2.728331,0.785955,0.428986,4.643702,6.793411,2.750102,0.850511,0.485758
1720526690,14,0,4246.666504,4380.897461,4296.025879,4310.128418,4075.512939,4201.666504,4375.256348,4446.410156,4395.512695,4510.897461,4625,4602.436035,4507.179688,4496.025879,,,,,,,,,,,,,,,,,,,,,,,,,,,,,,,,,,,,,,,,,,,,,,,,,,,,,,,,,,,,,,,,,,,,,,
1720526690,15,0,4251.025879,4380.512695,4295.512695,4306.666504,4054.358887,4202.179688,4374.615234,4444.487305,4385.769043,4507.179688,4619.358887,4599.743652,4502.436035,4492.179688,,,,,,,,,,,,,,,,,,,,,,,,,,,,,,,,,,,,,,,,,,,,,,,,,,,,,,,,,,,,,,,,,,,,,,
1720526690,16,0,4259.743652,4384.102539,4301.538574,4305.769043,4050.384521,4204.743652,4368.205078,4445,4384.615234,4501.666504,4619.871582,4598.077148,4498.846191,4505.512695,,,,,,,,,,,,,,,,,,,,,,,,,,,,,,,,,,,,,,,,,,,,,,,,,,,,,,,,,,,,,,,,,,,,,,
1720526690,17,0,4263.974121,4382.436035,4301.410156,4312.307617,4079.487061,4215.897461,4360.256348,4440.256348,4385.769043,4501.282227,4625,4600.512695,4501.794922,4516.794922,,,,,,,,,,,,,,,,,,,,,,,,,,,,,,,,,,,,,,,,,,,,,,,,,,,,,,,,,,,,,,,,,,,,,,
1720526690,18,0,4268.974121,4383.077148,4297.563965,4314.743652,4092.692383,4222.05127,4357.692383,4433.589844,4380.256348,4506.025879,4620.641113,4599.230957,4505.769043,4517.307617,,,,,,,,,,,,,,,,,,,,,,,,,,,,,,,,,,,,,,,,,,,,,,,,,,,,,,,,,,,,,,,,,,,,,,
1720526690,19,0,4278.974121,4382.436035,4301.282227,4311.666504,4079.358887,4217.307617,4355.897461,4428.717773,4371.410156,4510.897461,4612.05127,4591.794922,4504.358887,4521.538574,,,,,,,,,,,,,,,,,,,,,,,,,,,,,,,,,,,,,,,,,,,,,,,,,,,,,,,,,,,,,,,,,,,,,,
1720526690,20,0,4284.358887,4379.358887,4302.563965,4317.179688,4088.333252,4215.897461,4347.307617,4419.615234,4364.743652,4507.692383,4606.922852,4590.769043,4493.461426,4520,,,,,,,,,,,,,,,,,,,,,,,,,,,,,,,,,,,,,,,,,,,,,,,,,,,,,,,,,,,,,,,,,,,,,,
1720526690,21,0,4276.922852,4373.974121,4293.461426,4321.025879,4111.794922,4218.333496,4340.769043,4409.358887,4356.025879,4492.436035,4601.153809,4580.897461,4477.563965,4507.05127,,,,,,,,,,,,,,,,,,,,,,,,,,,,,,,,,,,,,,,,,,,,,,,,,,,,,,,,,,,,,,,,,,,,,,
1720526690,22,0,4272.307617,4367.692383,4292.94873,4316.282227,4112.436035,4215.641113,4341.538574,4405.384766,4348.589844,4489.358887,4596.794922,4570.897461,4474.615234,4508.077148,,,,,,,,,,,,,,,,,,,,,,,,,,,,,,,,,,,,,,,,,,,,,,,,,,,,,,,,,,,,,,,,,,,,,,
1720526690,23,0,4278.974121,4364.487305,4296.410156,4315.897461,4113.974121,4214.358887,4341.410156,4403.974121,4348.205078,4506.666504,4591.153809,4575.128418,4480.384766,4513.717773,,,,,,,,,,,,,,,,,,,,,,,,,,,,,,,,,,,,,,,,,,,,,,,,,,,,,,,,,,,,,,,,,,,,,,
1720526690,24,0,4280.641113,4357.94873,4286.538574,4319.615234,4135.897461,4218.846191,4338.205078,4396.666504,4347.563965,4508.589844,4577.307617,4566.410156,4472.820313,4507.563965,,,,,,,,,,,,,,,,,,,,,,,,,,,,,,,,,,,,,,,,,,,,,,,,,,,,,,,,,,,,,,,,,,,,,,
1720526690,25,0,4274.743652,4344.230957,4272.692383,4320.384766,4144.230957,4220.384766,4336.282227,4390.512695,4344.743652,4496.282227,4570.384766,4556.666504,4459.871582,4506.153809,,,,,,,,,,,,,,,,,,,,,,,,,,,,,,,,,,,,,,,,,,,,,,,,,,,,,,,,,,,,,,,,,,,,,,
1720526690,26,0,4275.384766,4338.205078,4268.333496,4316.794922,4134.487305,4217.307617,4331.666504,4388.205078,4340,4493.333496,4571.538574,4551.025879,4453.333496,4505,,,,,,,,,,,,,,,,,,,,,,,,,,,,,,,,,,,,,,,,,,,,,,,,,,,,,,,,,,,,,,,,,,,,,,
1720526690,27,0,4280.641113,4337.820313,4268.717773,4318.717773,4140.128418,4214.487305,4326.025879,4382.563965,4338.333496,4485,4566.538574,4540.512695,4441.410156,4493.589844,,,,,,,,,,,,,,,,,,,,,,,,,,,,,,,,,,,,,,,,,,,,,,,,,,,,,,,,,,,,,,,,,,,,,,
1720526690,28,0,4279.487305,4329.102539,4266.794922,4326.153809,4161.153809,4211.922852,4324.102539,4371.538574,4338.333496,4483.077148,4555.897461,4535.641113,4426.666504,4486.538574,,,,,,,,,,,,,,,,,,,,,,,,,,,,,,,,,,,,,,,,,,,,,,,,,,,,,,,,,,,,,,,,,,,,,,
1720526690,29,0,4276.794922,4323.974121,4263.589844,4326.538574,4174.358887,4211.538574,4319.487305,4366.025879,4332.436035,4511.666504,4548.717773,4531.794922,4424.487305,4490.256348,25.244812,9.744868,5.485394,1.828555,0.657769,40.730423,10.035725,4.075106,2.847766,0.764606,1.107499,6.448847,1.814907,0.736929,0.31175,3.74878,1.551467,0.727938,0.428254,0.154525,104.389755,44.415394,19.465622,10.039582,3.183987,5.06714,2.439745,1.03993,0.354154,0.16358,2.011466,5.613686,0.933312,0.505321,0.270349,1.912606,3.144369,1.370084,0.481245,0.199301,3.026494,1.768476,0.622002,0.121104,0.221207,112.703903,10.220531,22.481003,6.399127,4.48605,2.330585,3.2553,2.666452,0.983786,0.430278,0.833931,3.5808,1.037252,0.627033,0.433837,3.716614,5.066731,2.568553,0.803132,0.399522,4.418695,6.96162,2.866419,0.866967,0.452529
1720526690,30,0,4279.743652,4328.077148,4264.743652,4327.179688,4185.641113,4215.897461,4313.205078,4367.307617,4330.897461,4538.846191,4544.230957,4530.128418,4430.897461,4493.077148,,,,,,,,,,,,,,,,,,,,,,,,,,,,,,,,,,,,,,,,,,,,,,,,,,,,,,,,,,,,,,,,,,,,,,
1720526690,31,0,4287.820313,4328.589844,4267.05127,4331.666504,4202.436035,4222.94873,4312.179688,4361.282227,4333.846191,4539.358887,4537.820313,4528.846191,4427.436035,4493.974121,,,,,,,,,,,,,,,,,,,,,,,,,,,,,,,,,,,,,,,,,,,,,,,,,,,,,,,,,,,,,,,,,,,,,,
1720526690,32,0,4294.487305,4324.358887,4266.666504,4330.256348,4201.666504,4229.358887,4313.077148,4356.025879,4332.692383,4537.05127,4537.179688,4525.641113,4418.077148,4494.743652,,,,,,,,,,,,,,,,,,,,,,,,,,,,,,,,,,,,,,,,,,,,,,,,,,,,,,,,,,,,,,,,,,,,,,
1720526690,33,0,4293.717773,4316.025879,4267.05127,4325.384766,4181.666504,4231.538574,4311.282227,4355.897461,4328.205078,4542.436035,4541.666504,4524.743652,4414.358887,4493.333496,,,,,,,,,,,,,,,,,,,,,,,,,,,,,,,,,,,,,,,,,,,,,,,,,,,,,,,,,,,,,,,,,,,,,,
1720526690,34,0,4292.692383,4308.717773,4268.077148,4327.94873,4178.205078,4231.153809,4308.846191,4349.743652,4326.410156,4544.871582,4535.769043,4523.205078,4415.128418,4493.333496,,,,,,,,,,,,,,,,,,,,,,,,,,,,,,,,,,,,,,,,,,,,,,,,,,,,,,,,,,,,,,,,,,,,,,
1720526690,35,0,4295.897461,4309.487305,4266.153809,4330.384766,4192.436035,4233.077148,4303.717773,4343.077148,4325.897461,4543.589844,4524.487305,4506.922852,4413.461426,4493.077148,,,,,,,,,,,,,,,,,,,,,,,,,,,,,,,,,,,,,,,,,,,,,,,,,,,,,,,,,,,,,,,,,,,,,,
1720526690,36,0,4299.230957,4310.256348,4264.743652,4331.922852,4198.461426,4234.358887,4294.487305,4340.256348,4327.179688,4538.205078,4529.358887,4502.05127,4407.05127,4492.820313,,,,,,,,,,,,,,,,,,,,,,,,,,,,,,,,,,,,,,,,,,,,,,,,,,,,,,,,,,,,,,,,,,,,,,
1720526690,37,0,4301.410156,4304.358887,4262.94873,4337.179688,4203.461426,4232.05127,4291.538574,4333.077148,4326.794922,4539.487305,4536.153809,4507.307617,4399.358887,4486.410156,,,,,,,,,,,,,,,,,,,,,,,,,,,,,,,,,,,,,,,,,,,,,,,,,,,,,,,,,,,,,,,,,,,,,,
1720526690,38,0,4305.512695,4299.487305,4260.384766,4334.358887,4211.282227,4231.538574,4292.307617,4326.025879,4317.692383,4542.692383,4526.538574,4488.974121,4392.05127,4479.487305,,,,,,,,,,,,,,,,,,,,,,,,,,,,,,,,,,,,,,,,,,,,,,,,,,,,,,,,,,,,,,,,,,,,,,
1720526690,39,0,4309.102539,4296.922852,4261.666504,4333.077148,4213.205078,4229.487305,4286.410156,4327.820313,4310.769043,4538.077148,4516.666504,4483.589844,4383.333496,4481.666504,,,,,,,,,,,,,,,,,,,,,,,,,,,,,,,,,,,,,,,,,,,,,,,,,,,,,,,,,,,,,,,,,,,,,,
1720526690,40,0,4310.256348,4295.128418,4262.436035,4336.538574,4217.05127,4221.410156,4279.871582,4322.820313,4307.692383,4540.256348,4519.230957,4486.666504,4378.717773,4481.153809,,,,,,,,,,,,,,,,,,,,,,,,,,,,,,,,,,,,,,,,,,,,,,,,,,,,,,,,,,,,,,,,,,,,,,
1720526690,41,0,4314.743652,4295.897461,4255,4337.94873,4219.358887,4218.333496,4279.358887,4312.05127,4301.282227,4550.384766,4523.333496,4477.179688,4382.05127,4481.666504,,,,,,,,,,,,,,,,,,,,,,,,,,,,,,,,,,,,,,,,,,,,,,,,,,,,,,,,,,,,,,,,,,,,,,
1720526690,42,0,4318.974121,4289.615234,4248.717773,4341.025879,4219.358887,4218.846191,4275.769043,4308.077148,4297.692383,4564.871582,4512.307617,4476.282227,4379.743652,4485.641113,,,,,,,,,,,,,,,,,,,,,,,,,,,,,,,,,,,,,,,,,,,,,,,,,,,,,,,,,,,,,,,,,,,,,,
1720526690,43,0,4318.333496,4279.358887,4247.563965,4342.179688,4226.410156,4206.282227,4267.307617,4302.820313,4295.384766,4582.563965,4493.205078,4470.769043,4368.717773,4480.128418,,,,,,,,,,,,,,,,,,,,,,,,,,,,,,,,,,,,,,,,,,,,,,,,,,,,,,,,,,,,,,,,,,,,,,
1720526690,44,0,4322.692383,4277.94873,4249.487305,4344.102539,4234.871582,4196.282227,4264.487305,4300.897461,4293.717773,4586.666504,4493.846191,4467.820313,4366.538574,4479.743652,,,,,,,,,,,,,,,,,,,,,,,,,,,,,,,,,,,,,,,,,,,,,,,,,,,,,,,,,,,,,,,,,,,,,,
1720526690,45,0,4333.717773,4282.179688,4256.025879,4345.256348,4235.128418,4207.436035,4268.974121,4308.333496,4293.333496,4568.205078,4506.538574,4475.641113,4370,4493.077148,28.946993,10.478908,6.10896,2.131131,0.664319,19.004826,5.254825,2.079519,1.488999,0.456118,1.605578,5.726956,1.738057,0.715109,0.294935,5.113727,2.154656,1.008934,0.54541,0.196189,144.617447,61.442986,25.720949,12.738469,4.377682,5.157411,2.154448,0.926462,0.368806,0.146491,2.013645,5.147154,0.823299,0.477862,0.244391,1.788903,3.068467,1.219546,0.456719,0.184349,3.143722,1.541509,0.687753,0.133172,0.21335,124.783928,9.240056,24.399679,7.10625,4.764353,2.231685,3.225774,2.138488,0.976143,0.427294,0.926353,3.460927,0.974198,0.569297,0.386153,3.364217,4.96191,2.168663,0.797825,0.363939,3.949513,6.51494,2.67987,0.857232,0.403636
1720526690,46,0,4340.128418,4281.025879,4262.05127,4343.205078,4231.666504,4217.94873,4266.538574,4306.282227,4291.153809,4550.769043,4500.512695,4475,4367.307617,4498.461426,,,,,,,,,,,,,,,,,,,,,,,,,,,,,,,,,,,,,,,,,,,,,,,,,,,,,,,,,,,,,,,,,,,,,,
1720526690,47,0,4340.512695,4276.153809,4258.077148,4340.512695,4228.717773,4214.102539,4254.743652,4295.512695,4290.128418,4551.538574,4488.077148,4470.256348,4357.94873,4491.410156,,,,,,,,,,,,,,,,,,,,,,,,,,,,,,,,,,,,,,,,,,,,,,,,,,,,,,,,,,,,,,,,,,,,,,
1720526690,48,0,4346.410156,4275.769043,4253.333496,4343.846191,4235.256348,4215,4247.05127,4295.256348,4291.666504,4556.025879,4487.307617,4478.333496,4349.871582,4493.077148,,,,,,,,,,,,,,,,,,,,,,,,,,,,,,,,,,,,,,,,,,,,,,,,,,,,,,,,,,,,,,,,,,,,,,
1720526690,49,0,4355.769043,4277.692383,4257.05127,4349.358887,4247.179688,4223.205078,4249.230957,4296.922852,4290.384766,4549.487305,4491.025879,4474.615234,4348.717773,4502.436035,,,,,,,,,,,,,,,,,,,,,,,,,,,,,,,,,,,,,,,,,,,,,,,,,,,,,,,,,,,,,,,,,,,,,,
1720526690,50,0,4359.743652,4277.94873,4257.94873,4348.589844,4247.05127,4229.487305,4247.05127,4287.94873,4290.256348,4541.922852,4491.282227,4463.974121,4347.692383,4507.94873,,,,,,,,,,,,,,,,,,,,,,,,,,,,,,,,,,,,,,,,,,,,,,,,,,,,,,,,,,,,,,,,,,,,,,
1720526691,51,0,4362.820313,4272.05127,4255,4349.487305,4246.794922,4230.897461,4233.589844,4280.384766,4293.461426,4555,4481.410156,4467.179688,4341.410156,4508.461426,,,,,,,,,,,,,,,,,,,,,,,,,,,,,,,,,,,,,,,,,,,,,,,,,,,,,,,,,,,,,,,,,,,,,,
1720526691,52,0,4373.846191,4271.025879,4256.794922,4353.333496,4260,4229.358887,4228.846191,4279.230957,4290.256348,4579.230957,4470,4459.743652,4339.871582,4511.153809,,,,,,,,,,,,,,,,,,,,,,,,,,,,,,,,,,,,,,,,,,,,,,,,,,,,,,,,,,,,,,,,,,,,,,
1720526691,53,0,4396.410156,4289.615234,4270.256348,4358.974121,4274.871582,4239.102539,4245.897461,4288.846191,4290.512695,4587.563965,4480.256348,4466.922852,4352.563965,4529.487305,,,,,,,,,,,,,,,,,,,,,,,,,,,,,,,,,,,,,,,,,,,,,,,,,,,,,,,,,,,,,,,,,,,,,,
1720526691,54,0,4418.974121,4312.94873,4295,4361.922852,4291.153809,4264.743652,4266.282227,4310.384766,4306.153809,4587.307617,4503.205078,4490.897461,4371.794922,4557.307617,,,,,,,,,,,,,,,,,,,,,,,,,,,,,,,,,,,,,,,,,,,,,,,,,,,,,,,,,,,,,,,,,,,,,,
1720526691,55,0,4431.153809,4316.538574,4311.153809,4363.333496,4304.871582,4283.205078,4270.769043,4323.333496,4317.820313,4588.974121,4514.743652,4495.256348,4383.589844,4572.436035,,,,,,,,,,,,,,,,,,,,,,,,,,,,,,,,,,,,,,,,,,,,,,,,,,,,,,,,,,,,,,,,,,,,,,
1720526691,56,0,4431.025879,4302.563965,4303.077148,4365.897461,4301.538574,4276.153809,4259.743652,4315,4313.333496,4585,4514.358887,4487.820313,4379.102539,4572.692383,,,,,,,,,,,,,,,,,,,,,,,,,,,,,,,,,,,,,,,,,,,,,,,,,,,,,,,,,,,,,,,,,,,,,,
1720526691,57,0,4426.282227,4294.871582,4282.820313,4363.974121,4294.871582,4263.461426,4250.384766,4300.256348,4307.179688,4580.897461,4507.179688,4476.153809,4365.384766,4566.025879,,,,,,,,,,,,,,,,,,,,,,,,,,,,,,,,,,,,,,,,,,,,,,,,,,,,,,,,,,,,,,,,,,,,,,
1720526691,58,0,4425,4292.820313,4276.025879,4363.846191,4301.538574,4264.487305,4249.743652,4298.461426,4310.512695,4586.153809,4495.641113,4471.410156,4362.563965,4562.05127,,,,,,,,,,,,,,,,,,,,,,,,,,,,,,,,,,,,,,,,,,,,,,,,,,,,,,,,,,,,,,,,,,,,,,
1720526691,59,0,4431.282227,4288.461426,4286.025879,4368.717773,4316.025879,4270.897461,4248.333496,4301.794922,4315.897461,4590.769043,4486.282227,4474.871582,4365,4563.974121,,,,,,,,,,,,,,,,,,,,,,,,,,,,,,,,,,,,,,,,,,,,,,,,,,,,,,,,,,,,,,,,,,,,,,
1720526691,60,0,4440.128418,4286.922852,4294.358887,4371.538574,4326.538574,4274.487305,4246.153809,4298.589844,4315.128418,4590.641113,4485.769043,4473.333496,4360.641113,4567.307617,,,,,,,,,,,,,,,,,,,,,,,,,,,,,,,,,,,,,,,,,,,,,,,,,,,,,,,,,,,,,,,,,,,,,,
1720526691,61,0,4445.769043,4291.282227,4294.743652,4370.128418,4327.563965,4275.384766,4245.641113,4296.153809,4312.307617,4587.692383,4493.205078,4470.769043,4360.256348,4576.282227,29.859501,10.504144,6.147733,2.238035,0.631944,7.421205,2.707806,0.997594,0.814778,0.27954,2.538074,4.669671,1.598731,0.693616,0.280607,6.12782,2.633787,1.222928,0.619297,0.230758,173.55809,73.802292,30.141378,14.364908,5.282088,4.572038,1.734391,0.761391,0.362364,0.127865,1.922055,4.280756,0.695152,0.434958,0.213854,1.543101,2.719184,0.992133,0.421335,0.174057,3.029658,1.385066,0.731523,0.140682,0.192138,119.968864,8.758532,23.768127,7.143624,4.500505,2.007793,2.857564,1.497158,0.949172,0.446626,1.087579,3.016357,0.868426,0.493044,0.34727,2.997356,4.421303,1.677574,0.774977,0.334938,3.397775,5.566276,2.253432,0.82489,0.360553
1720526691,62,0,4453.333496,4297.563965,4295.769043,4373.077148,4338.974121,4275.128418,4239.615234,4295.512695,4311.666504,4577.692383,4493.974121,4471.666504,4362.179688,4583.846191,,,,,,,,,,,,,,,,,,,,,,,,,,,,,,,,,,,,,,,,,,,,,,,,,,,,,,,,,,,,,,,,,,,,,,
1720526691,63,0,4456.153809,4294.743652,4294.358887,4375.641113,4353.717773,4276.025879,4229.487305,4286.922852,4311.282227,4570.256348,4479.871582,4461.410156,4355.897461,4580.769043,,,,,,,,,,,,,,,,,,,,,,,,,,,,,,,,,,,,,,,,,,,,,,,,,,,,,,,,,,,,,,,,,,,,,,
1720526691,64,0,4454.871582,4288.461426,4292.692383,4372.436035,4341.025879,4278.077148,4227.307617,4277.692383,4310.641113,4569.230957,4471.282227,4458.333496,4350.512695,4578.077148,,,,,,,,,,,,,,,,,,,,,,,,,,,,,,,,,,,,,,,,,,,,,,,,,,,,,,,,,,,,,,,,,,,,,,
1720526691,65,0,4458.077148,4291.153809,4295.641113,4370.897461,4324.743652,4280.256348,4230,4278.461426,4309.102539,4562.436035,4479.102539,4467.05127,4351.666504,4583.333496,,,,,,,,,,,,,,,,,,,,,,,,,,,,,,,,,,,,,,,,,,,,,,,,,,,,,,,,,,,,,,,,,,,,,,
1720526691,66,0,4462.05127,4296.538574,4297.307617,4367.563965,4333.717773,4287.307617,4228.589844,4280.128418,4301.666504,4553.461426,4485.897461,4455.128418,4352.563965,4589.871582,,,,,,,,,,,,,,,,,,,,,,,,,,,,,,,,,,,,,,,,,,,,,,,,,,,,,,,,,,,,,,,,,,,,,,
1720526691,67,0,4468.461426,4294.615234,4298.717773,4367.820313,4339.615234,4297.05127,4224.743652,4278.205078,4294.743652,4549.871582,4480.384766,4455,4351.666504,4594.230957,,,,,,,,,,,,,,,,,,,,,,,,,,,,,,,,,,,,,,,,,,,,,,,,,,,,,,,,,,,,,,,,,,,,,,
1720526691,68,0,4472.05127,4293.717773,4301.666504,4373.846191,4332.820313,4297.563965,4223.461426,4276.922852,4292.692383,4563.589844,4467.436035,4462.563965,4344.358887,4591.282227,,,,,,,,,,,,,,,,,,,,,,,,,,,,,,,,,,,,,,,,,,,,,,,,,,,,,,,,,,,,,,,,,,,,,,
1720526691,69,0,4471.025879,4297.307617,4298.846191,4376.153809,4337.05127,4294.743652,4227.820313,4276.410156,4294.487305,4596.538574,4465.641113,4447.692383,4335.512695,4586.922852,,,,,,,,,,,,,,,,,,,,,,,,,,,,,,,,,,,,,,,,,,,,,,,,,,,,,,,,,,,,,,,,,,,,,,
1720526691,70,0,4472.436035,4293.846191,4295.641113,4376.794922,4345.641113,4301.025879,4231.794922,4280,4304.230957,4608.589844,4471.153809,4446.025879,4336.538574,4594.487305,,,,,,,,,,,,,,,,,,,,,,,,,,,,,,,,,,,,,,,,,,,,,,,,,,,,,,,,,,,,,,,,,,,,,,
1720526691,71,0,4471.025879,4285.641113,4296.794922,4376.922852,4345.897461,4308.205078,4226.666504,4279.743652,4307.436035,4584.487305,4467.179688,4450.769043,4333.077148,4598.589844,,,,,,,,,,,,,,,,,,,,,,,,,,,,,,,,,,,,,,,,,,,,,,,,,,,,,,,,,,,,,,,,,,,,,,
1720526691,72,0,4467.94873,4286.025879,4300.128418,4376.538574,4346.666504,4304.358887,4220.256348,4272.307617,4301.282227,4575.641113,4462.94873,4447.563965,4326.025879,4593.974121,,,,,,,,,,,,,,,,,,,,,,,,,,,,,,,,,,,,,,,,,,,,,,,,,,,,,,,,,,,,,,,,,,,,,,
1720526691,73,0,4469.102539,4287.307617,4302.692383,4376.538574,4348.333496,4295.641113,4219.487305,4265,4301.025879,4591.410156,4463.717773,4448.205078,4325.512695,4591.794922,,,,,,,,,,,,,,,,,,,,,,,,,,,,,,,,,,,,,,,,,,,,,,,,,,,,,,,,,,,,,,,,,,,,,,
1720526691,74,0,4466.153809,4280,4297.820313,4376.538574,4352.563965,4292.692383,4212.563965,4256.538574,4301.153809,4586.666504,4461.666504,4441.666504,4319.102539,4586.153809,,,,,,,,,,,,,,,,,,,,,,,,,,,,,,,,,,,,,,,,,,,,,,,,,,,,,,,,,,,,,,,,,,,,,,
1720526691,75,0,4461.794922,4277.94873,4294.230957,4376.025879,4352.94873,4293.461426,4202.05127,4243.717773,4294.230957,4570.641113,4456.922852,4433.717773,4309.871582,4583.333496,,,,,,,,,,,,,,,,,,,,,,,,,,,,,,,,,,,,,,,,,,,,,,,,,,,,,,,,,,,,,,,,,,,,,,
1720526691,76,0,4464.871582,4281.666504,4296.153809,4376.153809,4349.615234,4293.589844,4200.512695,4233.846191,4293.717773,4570,4447.94873,4437.692383,4311.025879,4590.128418,,,,,,,,,,,,,,,,,,,,,,,,,,,,,,,,,,,,,,,,,,,,,,,,,,,,,,,,,,,,,,,,,,,,,,
1720526691,77,0,4461.410156,4281.666504,4285.512695,4377.05127,4355.512695,4292.692383,4196.153809,4229.358887,4293.846191,4571.025879,4432.436035,4425.512695,4308.461426,4590.384766,26.960871,9.471558,5.553461,2.109209,0.566551,3.44471,1.682131,0.549115,0.602164,0.20258,3.814518,3.528243,1.477813,0.676863,0.274652,6.41713,2.817377,1.298202,0.623936,0.245371,181.609314,77.169731,31.146683,14.332999,5.579282,3.781324,1.2931,0.59775,0.337017,0.112679,1.77083,3.253737,0.592686,0.382376,0.186481,1.20156,2.202651,0.75504,0.380285,0.172457,2.687119,1.261519,0.737296,0.142001,0.162797,101.286728,8.43721,20.610786,6.392726,3.738788,1.745652,2.261522,0.912046,0.894232,0.489922,1.289521,2.381872,0.748083,0.41149,0.328191,2.709148,3.59392,1.2416,0.739155,0.316266,2.993568,4.35982,1.705382,0.774821,0.335114
1720526691,78,0,4453.333496,4286.153809,4273.077148,4377.563965,4366.153809,4292.563965,4186.666504,4228.077148,4284.871582,4561.794922,4427.563965,4415.128418,4294.358887,4581.794922,,,,,,,,,,,,,,,,,,,,,,,,,,,,,,,,,,,,,,,,,,,,,,,,,,,,,,,,,,,,,,,,,,,,,,
1720526691,79,0,4462.94873,4301.153809,4283.077148,4381.666504,4370,4300.128418,4192.307617,4230.384766,4282.820313,4562.94873,4430.384766,4434.743652,4294.743652,4587.05127,,,,,,,,,,,,,,,,,,,,,,,,,,,,,,,,,,,,,,,,,,,,,,,,,,,,,,,,,,,,,,,,,,,,,,
1720526691,80,0,4476.666504,4309.615234,4298.717773,4384.743652,4372.692383,4309.230957,4203.974121,4235.384766,4282.94873,4576.025879,4427.692383,4435.641113,4307.563965,4601.153809,,,,,,,,,,,,,,,,,,,,,,,,,,,,,,,,,,,,,,,,,,,,,,,,,,,,,,,,,,,,,,,,,,,,,,
1720526691,81,0,4471.025879,4303.717773,4293.205078,4383.717773,4377.307617,4309.615234,4201.666504,4235.512695,4277.692383,4569.487305,4424.102539,4422.820313,4303.974121,4599.871582,,,,,,,,,,,,,,,,,,,,,,,,,,,,,,,,,,,,,,,,,,,,,,,,,,,,,,,,,,,,,,,,,,,,,,
1720526691,82,0,4460.512695,4298.717773,4281.282227,4382.436035,4374.743652,4308.974121,4195.128418,4227.179688,4275,4552.436035,4412.307617,4421.794922,4288.974121,4587.563965,,,,,,,,,,,,,,,,,,,,,,,,,,,,,,,,,,,,,,,,,,,,,,,,,,,,,,,,,,,,,,,,,,,,,,
1720526691,83,0,4463.589844,4301.922852,4286.666504,4383.077148,4377.94873,4313.205078,4192.692383,4218.589844,4277.94873,4551.794922,4405,4417.563965,4288.205078,4587.05127,,,,,,,,,,,,,,,,,,,,,,,,,,,,,,,,,,,,,,,,,,,,,,,,,,,,,,,,,,,,,,,,,,,,,,
1720526691,84,0,4470.512695,4302.05127,4294.615234,4387.05127,4385.256348,4313.717773,4188.077148,4219.102539,4279.487305,4556.794922,4412.307617,4418.846191,4297.307617,4593.461426,,,,,,,,,,,,,,,,,,,,,,,,,,,,,,,,,,,,,,,,,,,,,,,,,,,,,,,,,,,,,,,,,,,,,,
1720526691,85,0,4469.615234,4294.871582,4286.153809,4383.846191,4370.641113,4309.358887,4182.820313,4218.846191,4270.769043,4553.205078,4413.077148,4414.615234,4295.897461,4590.256348,,,,,,,,,,,,,,,,,,,,,,,,,,,,,,,,,,,,,,,,,,,,,,,,,,,,,,,,,,,,,,,,,,,,,,
1720526691,86,0,4468.333496,4292.307617,4277.307617,4378.974121,4346.538574,4310.897461,4182.94873,4213.205078,4257.436035,4552.692383,4406.025879,4404.871582,4289.102539,4586.025879,,,,,,,,,,,,,,,,,,,,,,,,,,,,,,,,,,,,,,,,,,,,,,,,,,,,,,,,,,,,,,,,,,,,,,
1720526691,87,0,4472.307617,4296.538574,4281.538574,4380.128418,4340.641113,4320,4187.563965,4212.94873,4249.487305,4564.615234,4412.820313,4406.538574,4292.179688,4589.871582,,,,,,,,,,,,,,,,,,,,,,,,,,,,,,,,,,,,,,,,,,,,,,,,,,,,,,,,,,,,,,,,,,,,,,
1720526691,88,0,4472.436035,4293.205078,4286.025879,4378.077148,4345.512695,4327.307617,4188.974121,4218.717773,4249.871582,4571.410156,4419.615234,4412.05127,4295,4593.846191,,,,,,,,,,,,,,,,,,,,,,,,,,,,,,,,,,,,,,,,,,,,,,,,,,,,,,,,,,,,,,,,,,,,,,
1720526691,89,0,4462.436035,4280.897461,4277.563965,4374.487305,4340.384766,4325.512695,4184.871582,4217.94873,4251.153809,4562.692383,4400.769043,4409.487305,4283.589844,4587.179688,,,,,,,,,,,,,,,,,,,,,,,,,,,,,,,,,,,,,,,,,,,,,,,,,,,,,,,,,,,,,,,,,,,,,,
1720526691,90,0,4460.384766,4278.974121,4273.974121,4374.358887,4336.922852,4324.615234,4180.128418,4210.384766,4248.589844,4556.666504,4385.256348,4407.179688,4273.205078,4580.256348,,,,,,,,,,,,,,,,,,,,,,,,,,,,,,,,,,,,,,,,,,,,,,,,,,,,,,,,,,,,,,,,,,,,,,
1720526691,91,0,4473.077148,4288.205078,4284.230957,4375.897461,4351.794922,4328.333496,4175.769043,4205.128418,4247.179688,4555,4392.820313,4405.256348,4278.077148,4586.410156,,,,,,,,,,,,,,,,,,,,,,,,,,,,,,,,,,,,,,,,,,,,,,,,,,,,,,,,,,,,,,,,,,,,,,
1720526691,92,0,4478.846191,4289.102539,4289.871582,4379.871582,4367.692383,4326.282227,4170.256348,4201.666504,4247.563965,4539.230957,4397.179688,4403.461426,4279.358887,4587.563965,,,,,,,,,,,,,,,,,,,,,,,,,,,,,,,,,,,,,,,,,,,,,,,,,,,,,,,,,,,,,,,,,,,,,,
1720526691,93,0,4480.897461,4286.538574,4288.333496,4384.230957,4366.794922,4327.94873,4168.974121,4201.282227,4246.538574,4529.871582,4400.128418,4408.077148,4280.384766,4586.666504,21.040003,7.643467,4.464496,1.782754,0.478508,2.726427,1.208036,0.367184,0.540925,0.172205,5.216393,2.553274,1.413537,0.666851,0.275971,5.899691,2.625193,1.210009,0.555448,0.233314,166.23555,70.071053,28.274992,12.593837,5.149363,3.049086,0.958799,0.466077,0.304681,0.105168,1.645218,2.326263,0.527983,0.329107,0.167493,0.935992,1.679696,0.558637,0.341872,0.178188,2.353325,1.126569,0.699625,0.138306,0.13222,73.657913,8.057167,15.927066,5.0566,2.702657,1.610211,1.616926,0.498152,0.80981,0.54582,1.470381,1.741573,0.629642,0.34161,0.325462,2.614226,2.725749,0.942619,0.692686,0.302175,2.769872,3.212307,1.17872,0.713604,0.324805
1720526691,94,0,4492.307617,4290.128418,4292.563965,4380.641113,4368.205078,4338.461426,4176.153809,4210,4245.769043,4539.487305,4411.794922,4402.820313,4291.282227,4599.487305,,,,,,,,,,,,,,,,,,,,,,,,,,,,,,,,,,,,,,,,,,,,,,,,,,,,,,,,,,,,,,,,,,,,,,
1720526691,95,0,4496.538574,4290.897461,4298.846191,4382.179688,4385.641113,4344.615234,4185.128418,4216.922852,4249.615234,4539.871582,4412.436035,4408.333496,4297.436035,4606.666504,,,,,,,,,,,,,,,,,,,,,,,,,,,,,,,,,,,,,,,,,,,,,,,,,,,,,,,,,,,,,,,,,,,,,,
1720526691,96,0,4490.128418,4289.871582,4296.025879,4390.641113,4394.230957,4347.94873,4188.717773,4212.307617,4247.179688,4534.358887,4401.282227,4417.692383,4296.794922,4597.820313,,,,,,,,,,,,,,,,,,,,,,,,,,,,,,,,,,,,,,,,,,,,,,,,,,,,,,,,,,,,,,,,,,,,,,
1720526691,97,0,4487.692383,4290.384766,4288.077148,4385.769043,4386.153809,4349.871582,4184.230957,4204.358887,4235.769043,4535.384766,4398.461426,4399.615234,4291.282227,4588.974121,,,,,,,,,,,,,,,,,,,,,,,,,,,,,,,,,,,,,,,,,,,,,,,,,,,,,,,,,,,,,,,,,,,,,,
1720526691,98,0,4477.307617,4276.282227,4272.179688,4381.922852,4381.538574,4338.974121,4170,4190.384766,4231.025879,4521.922852,4386.794922,4382.94873,4270.512695,4573.461426,,,,,,,,,,,,,,,,,,,,,,,,,,,,,,,,,,,,,,,,,,,,,,,,,,,,,,,,,,,,,,,,,,,,,,
1720526691,99,0,4448.846191,4250.512695,4247.692383,4384.358887,4383.461426,4323.846191,4151.410156,4170.769043,4228.589844,4499.487305,4355.512695,4362.563965,4242.307617,4545.769043,,,,,,,,,,,,,,,,,,,,,,,,,,,,,,,,,,,,,,,,,,,,,,,,,,,,,,,,,,,,,,,,,,,,,,
1720526691,100,0,4436.922852,4244.743652,4242.05127,4383.077148,4377.436035,4321.410156,4148.589844,4168.333496,4226.538574,4501.410156,4343.077148,4350.384766,4233.333496,4538.077148,,,,,,,,,,,,,,,,,,,,,,,,,,,,,,,,,,,,,,,,,,,,,,,,,,,,,,,,,,,,,,,,,,,,,,
1720526691,101,0,4456.922852,4258.205078,4263.077148,4382.563965,4370.897461,4330.128418,4163.589844,4189.358887,4237.179688,4526.153809,4361.666504,4372.179688,4253.974121,4559.743652,,,,,,,,,,,,,,,,,,,,,,,,,,,,,,,,,,,,,,,,,,,,,,,,,,,,,,,,,,,,,,,,,,,,,,
1720526691,102,0,4477.692383,4267.436035,4281.282227,4385.512695,4376.025879,4341.153809,4172.179688,4203.974121,4250.256348,4540.641113,4387.436035,4389.102539,4277.307617,4582.94873,,,,,,,,,,,,,,,,,,,,,,,,,,,,,,,,,,,,,,,,,,,,,,,,,,,,,,,,,,,,,,,,,,,,,,
1720526691,103,0,4480.897461,4272.307617,4287.05127,4385.897461,4383.974121,4343.717773,4168.974121,4196.922852,4248.717773,4536.666504,4406.410156,4386.794922,4281.282227,4592.307617,,,,,,,,,,,,,,,,,,,,,,,,,,,,,,,,,,,,,,,,,,,,,,,,,,,,,,,,,,,,,,,,,,,,,,
1720526691,104,0,4480.256348,4275.256348,4292.436035,4388.077148,4394.487305,4343.717773,4168.589844,4188.205078,4240.897461,4535.641113,4410,4392.692383,4277.692383,4591.922852,,,,,,,,,,,,,,,,,,,,,,,,,,,,,,,,,,,,,,,,,,,,,,,,,,,,,,,,,,,,,,,,,,,,,,
1720526691,105,0,4479.358887,4268.717773,4289.743652,4391.410156,4413.461426,4348.333496,4171.282227,4180.897461,4232.692383,4540.256348,4399.102539,4392.820313,4280.128418,4590.512695,,,,,,,,,,,,,,,,,,,,,,,,,,,,,,,,,,,,,,,,,,,,,,,,,,,,,,,,,,,,,,,,,,,,,,
1720526691,106,0,4474.615234,4262.692383,4279.358887,4391.153809,4429.358887,4347.692383,4168.717773,4171.922852,4225.128418,4534.102539,4394.743652,4377.179688,4280.512695,4587.05127,,,,,,,,,,,,,,,,,,,,,,,,,,,,,,,,,,,,,,,,,,,,,,,,,,,,,,,,,,,,,,,,,,,,,,
1720526691,107,0,4476.025879,4265.897461,4279.487305,4392.179688,4430.256348,4341.794922,4166.153809,4173.974121,4228.333496,4532.307617,4398.717773,4382.307617,4278.461426,4582.05127,,,,,,,,,,,,,,,,,,,,,,,,,,,,,,,,,,,,,,,,,,,,,,,,,,,,,,,,,,,,,,,,,,,,,,
1720526691,108,0,4476.538574,4264.615234,4281.282227,4390.897461,4428.333496,4340.128418,4167.563965,4182.820313,4231.794922,4547.436035,4390.256348,4387.307617,4279.102539,4580.641113,,,,,,,,,,,,,,,,,,,,,,,,,,,,,,,,,,,,,,,,,,,,,,,,,,,,,,,,,,,,,,,,,,,,,,
1720526691,109,0,4474.871582,4261.794922,4276.410156,4391.410156,4436.410156,4339.871582,4167.820313,4190.641113,4231.410156,4554.743652,4385.256348,4383.205078,4278.205078,4581.153809,14.052048,5.493927,3.184947,1.358652,0.381137,2.482313,0.895911,0.293281,0.474473,0.15912,6.289083,1.890738,1.41187,0.666609,0.278715,4.661034,2.110197,0.99295,0.434449,0.197394,131.39389,54.667751,22.431053,9.669756,4.131123,2.735445,0.805154,0.378024,0.283135,0.107596,1.616174,1.684484,0.503641,0.288622,0.158479,0.822706,1.301752,0.436197,0.318308,0.185674,2.123011,0.966979,0.623761,0.132818,0.106625,45.674553,7.591143,11.144414,3.590852,1.693553,1.646772,1.08437,0.308019,0.710493,0.593024,1.564832,1.242189,0.533648,0.298077,0.325426,2.634798,2.013601,0.807546,0.64039,0.284152,2.747396,2.340133,0.794149,0.652259,0.317804
1720526691,110,0,4478.205078,4267.692383,4280.897461,4397.307617,4446.025879,4338.974121,4169.487305,4200.512695,4239.487305,4552.436035,4400.512695,4390.769043,4278.461426,4577.179688,,,,,,,,,,,,,,,,,,,,,,,,,,,,,,,,,,,,,,,,,,,,,,,,,,,,,,,,,,,,,,,,,,,,,,
1720526691,111,0,4473.205078,4266.282227,4281.410156,4396.666504,4446.025879,4343.333496,4172.820313,4207.436035,4248.077148,4551.410156,4403.974121,4389.230957,4277.307617,4571.153809,,,,,,,,,,,,,,,,,,,,,,,,,,,,,,,,,,,,,,,,,,,,,,,,,,,,,,,,,,,,,,,,,,,,,,
1720526691,112,0,4461.922852,4253.077148,4266.922852,4392.436035,4443.077148,4349.102539,4173.205078,4203.461426,4247.820313,4540.256348,4382.307617,4379.230957,4266.794922,4563.846191,,,,,,,,,,,,,,,,,,,,,,,,,,,,,,,,,,,,,,,,,,,,,,,,,,,,,,,,,,,,,,,,,,,,,,
1720526691,113,0,4457.563965,4247.820313,4261.410156,4392.692383,4445.128418,4351.794922,4170.256348,4198.717773,4249.358887,4517.94873,4368.333496,4370.128418,4253.846191,4554.487305,,,,,,,,,,,,,,,,,,,,,,,,,,,,,,,,,,,,,,,,,,,,,,,,,,,,,,,,,,,,,,,,,,,,,,
1720526691,114,0,4454.487305,4245.256348,4263.717773,4389.871582,4439.615234,4353.205078,4163.717773,4191.538574,4250.641113,4505,4371.538574,4366.538574,4247.94873,4551.410156,,,,,,,,,,,,,,,,,,,,,,,,,,,,,,,,,,,,,,,,,,,,,,,,,,,,,,,,,,,,,,,,,,,,,,
1720526691,115,0,4445.769043,4233.589844,4255.128418,4384.487305,4431.025879,4350.512695,4154.615234,4174.358887,4241.538574,4506.025879,4370.769043,4365,4246.922852,4553.589844,,,,,,,,,,,,,,,,,,,,,,,,,,,,,,,,,,,,,,,,,,,,,,,,,,,,,,,,,,,,,,,,,,,,,,
1720526691,116,0,4442.563965,4226.666504,4250.128418,4385,4429.358887,4345.897461,4152.179688,4166.025879,4229.871582,4507.94873,4363.461426,4362.436035,4247.692383,4552.692383,,,,,,,,,,,,,,,,,,,,,,,,,,,,,,,,,,,,,,,,,,,,,,,,,,,,,,,,,,,,,,,,,,,,,,
1720526691,117,0,4441.153809,4231.922852,4257.820313,4384.358887,4426.153809,4342.692383,4154.871582,4165.897461,4223.461426,4507.692383,4359.615234,4365.384766,4247.05127,4550.641113,,,,,,,,,,,,,,,,,,,,,,,,,,,,,,,,,,,,,,,,,,,,,,,,,,,,,,,,,,,,,,,,,,,,,,
1720526691,118,0,4432.692383,4233.974121,4256.538574,4383.717773,4424.871582,4341.282227,4153.717773,4166.282227,4221.666504,4515.128418,4360.769043,4364.487305,4249.358887,4550,,,,,,,,,,,,,,,,,,,,,,,,,,,,,,,,,,,,,,,,,,,,,,,,,,,,,,,,,,,,,,,,,,,,,,
1720526691,119,0,4422.692383,4228.333496,4245.769043,4385.897461,4428.333496,4340.256348,4149.487305,4172.563965,4224.230957,4531.794922,4365,4358.461426,4256.666504,4545.256348,,,,,,,,,,,,,,,,,,,,,,,,,,,,,,,,,,,,,,,,,,,,,,,,,,,,,,,,,,,,,,,,,,,,,,
1720526691,120,0,4420.897461,4228.205078,4246.538574,4385.256348,4428.077148,4342.05127,4151.153809,4184.102539,4229.487305,4537.307617,4367.05127,4361.922852,4262.820313,4543.974121,,,,,,,,,,,,,,,,,,,,,,,,,,,,,,,,,,,,,,,,,,,,,,,,,,,,,,,,,,,,,,,,,,,,,,
1720526691,121,0,4429.487305,4232.307617,4259.743652,4384.743652,4426.153809,4344.487305,4154.102539,4191.282227,4228.461426,4532.05127,4367.94873,4371.538574,4267.94873,4552.563965,,,,,,,,,,,,,,,,,,,,,,,,,,,,,,,,,,,,,,,,,,,,,,,,,,,,,,,,,,,,,,,,,,,,,,
1720526691,122,0,4433.461426,4234.743652,4263.717773,4385.384766,4430.256348,4342.820313,4148.077148,4186.410156,4219.230957,4534.102539,4364.615234,4358.205078,4275.128418,4554.871582,,,,,,,,,,,,,,,,,,,,,,,,,,,,,,,,,,,,,,,,,,,,,,,,,,,,,,,,,,,,,,,,,,,,,,
1720526691,123,0,4425.128418,4230.384766,4251.410156,4383.974121,4429.230957,4343.077148,4137.692383,4174.871582,4215.897461,4539.230957,4350.256348,4350.769043,4279.102539,4548.461426,,,,,,,,,,,,,,,,,,,,,,,,,,,,,,,,,,,,,,,,,,,,,,,,,,,,,,,,,,,,,,,,,,,,,,
1720526691,124,0,4416.794922,4220.512695,4241.666504,4379.230957,4424.487305,4346.025879,4134.743652,4168.717773,4219.487305,4539.871582,4341.282227,4359.358887,4277.05127,4548.333496,,,,,,,,,,,,,,,,,,,,,,,,,,,,,,,,,,,,,,,,,,,,,,,,,,,,,,,,,,,,,,,,,,,,,,
1720526691,125,0,4416.282227,4216.794922,4245.769043,4376.025879,4426.282227,4343.589844,4137.05127,4169.487305,4220.769043,4538.205078,4347.436035,4347.307617,4280.384766,4546.922852,7.91465,3.51528,2.044529,0.958005,0.28879,2.352419,0.827005,0.322875,0.409059,0.15648,6.829699,1.527941,1.445882,0.677383,0.277261,3.159569,1.444289,0.7213,0.29635,0.14882,89.160812,35.938568,15.438593,6.412331,2.858708,2.944731,0.836753,0.328154,0.286923,0.119117,1.597052,1.37965,0.509025,0.276727,0.157373,0.844561,1.137195,0.398023,0.328058,0.188341,2.053294,0.786715,0.529508,0.132906,0.089544,23.785528,7.079474,7.409635,2.386271,0.950573,1.903396,0.735899,0.327602,0.626602,0.611704,1.620518,0.939938,0.472557,0.291751,0.31483,2.723234,1.53461,0.805376,0.591707,0.258861,2.800167,1.795085,0.610747,0.604566,0.303477
1720526691,126,0,4415.256348,4217.436035,4247.94873,4378.333496,4431.153809,4335.384766,4137.307617,4162.94873,4218.205078,4528.205078,4344.102539,4338.717773,4280.769043,4523.333496,,,,,,,,,,,,,,,,,,,,,,,,,,,,,,,,,,,,,,,,,,,,,,,,,,,,,,,,,,,,,,,,,,,,,,
1720526691,127,0,4406.025879,4212.307617,4236.922852,4378.461426,4431.153809,4332.179688,4134.743652,4151.410156,4217.05127,4509.615234,4329.871582,4334.871582,4269.358887,4493.333496,,,,,,,,,,,,,,,,,,,,,,,,,,,,,,,,,,,,,,,,,,,,,,,,,,,,,,,,,,,,,,,,,,,,,,
1720526691,0,0,4398.077148,4210.897461,4233.846191,4373.205078,4420.897461,4337.179688,4133.589844,4151.922852,4218.717773,4500,4329.358887,4326.794922,4262.307617,4487.05127,,,,,,,,,,,,,,,,,,,,,,,,,,,,,,,,,,,,,,,,,,,,,,,,,,,,,,,,,,,,,,,,,,,,,,
1720526691,1,0,4398.589844,4210.897461,4241.794922,4372.563965,4416.153809,4341.922852,4135.641113,4157.05127,4217.94873,4504.487305,4345.897461,4336.666504,4264.743652,4495.256348,,,,,,,,,,,,,,,,,,,,,,,,,,,,,,,,,,,,,,,,,,,,,,,,,,,,,,,,,,,,,,,,,,,,,,
1720526691,2,0,4398.589844,4205.641113,4238.077148,4375.128418,4424.102539,4343.077148,4137.820313,4156.282227,4207.563965,4504.358887,4363.589844,4340.641113,4263.333496,4495.641113,,,,,,,,,,,,,,,,,,,,,,,,,,,,,,,,,,,,,,,,,,,,,,,,,,,,,,,,,,,,,,,,,,,,,,
1720526691,3,0,4397.307617,4203.717773,4233.717773,4376.282227,4433.717773,4342.820313,4136.538574,4154.230957,4197.94873,4492.692383,4373.205078,4333.589844,4258.205078,4495,,,,,,,,,,,,,,,,,,,,,,,,,,,,,,,,,,,,,,,,,,,,,,,,,,,,,,,,,,,,,,,,,,,,,,
1720526691,4,0,4397.692383,4206.538574,4239.743652,4377.692383,4441.410156,4344.743652,4137.05127,4154.358887,4199.358887,4488.589844,4373.333496,4340.512695,4261.282227,4503.974121,,,,,,,,,,,,,,,,,,,,,,,,,,,,,,,,,,,,,,,,,,,,,,,,,,,,,,,,,,,,,,,,,,,,,,
1720526691,5,0,4394.743652,4201.538574,4238.333496,4376.922852,4448.205078,4347.692383,4137.563965,4157.307617,4201.794922,4493.077148,4371.666504,4347.05127,4263.717773,4510.384766,,,,,,,,,,,,,,,,,,,,,,,,,,,,,,,,,,,,,,,,,,,,,,,,,,,,,,,,,,,,,,,,,,,,,,
1720526691,6,0,4393.205078,4197.563965,4234.487305,4375.512695,4449.871582,4352.179688,4136.282227,4162.692383,4201.666504,4491.153809,4367.436035,4340,4258.205078,4509.487305,,,,,,,,,,,,,,,,,,,,,,,,,,,,,,,,,,,,,,,,,,,,,,,,,,,,,,,,,,,,,,,,,,,,,,
1720526691,7,0,4400.384766,4208.461426,4247.307617,4374.871582,4444.871582,4355.897461,4136.922852,4162.94873,4200.897461,4491.025879,4362.563965,4347.692383,4258.205078,4511.666504,,,,,,,,,,,,,,,,,,,,,,,,,,,,,,,,,,,,,,,,,,,,,,,,,,,,,,,,,,,,,,,,,,,,,,
1720526691,8,0,4405.256348,4217.05127,4255.512695,4370.897461,4436.922852,4351.538574,4134.102539,4157.436035,4202.05127,4493.205078,4365.128418,4355.256348,4264.871582,4517.563965,,,,,,,,,,,,,,,,,,,,,,,,,,,,,,,,,,,,,,,,,,,,,,,,,,,,,,,,,,,,,,,,,,,,,,
1720526691,9,0,4401.410156,4212.692383,4247.692383,4366.666504,4422.436035,4344.230957,4129.358887,4155.256348,4209.615234,4489.487305,4365.384766,4354.358887,4266.538574,4518.846191,,,,,,,,,,,,,,,,,,,,,,,,,,,,,,,,,,,,,,,,,,,,,,,,,,,,,,,,,,,,,,,,,,,,,,
1720526691,10,0,4400,4211.025879,4245.512695,4367.436035,4410.512695,4343.333496,4128.461426,4156.922852,4212.307617,4498.846191,4353.077148,4362.307617,4264.358887,4513.333496,,,,,,,,,,,,,,,,,,,,,,,,,,,,,,,,,,,,,,,,,,,,,,,,,,,,,,,,,,,,,,,,,,,,,,
1720526691,11,0,4401.282227,4213.461426,4249.487305,4367.692383,4408.974121,4343.205078,4127.307617,4156.794922,4203.205078,4512.94873,4348.846191,4357.05127,4260.897461,4506.538574,,,,,,,,,,,,,,,,,,,,,,,,,,,,,,,,,,,,,,,,,,,,,,,,,,,,,,,,,,,,,,,,,,,,,,
1720526691,12,0,4399.358887,4207.436035,4249.487305,4366.025879,4408.461426,4341.922852,4130.641113,4158.077148,4207.94873,4497.820313,4359.230957,4351.538574,4255.897461,4508.077148,,,,,,,,,,,,,,,,,,,,,,,,,,,,,,,,,,,,,,,,,,,,,,,,,,,,,,,,,,,,,,,,,,,,,,
1720526691,13,0,4393.974121,4199.487305,4238.077148,4361.922852,4405.512695,4341.922852,4135.128418,4157.692383,4219.102539,4465.641113,4355.256348,4353.077148,4253.077148,4508.077148,3.94383,2.08128,1.27773,0.67543,0.21627,2.219133,0.964881,0.426384,0.374981,0.159609,6.457656,1.366628,1.49169,0.703773,0.270451,1.770893,0.830887,0.468788,0.17662,0.101858,50.248745,19.308355,9.138142,3.63485,1.702445,3.375726,0.978754,0.319333,0.320383,0.136081,1.614997,1.320609,0.540322,0.306731,0.160256,1.020405,1.149093,0.46804,0.389318,0.182891,2.198679,0.617488,0.465029,0.144158,0.081418,10.838554,6.481137,5.110984,1.635186,0.557713,2.185352,0.580121,0.545618,0.599815,0.595694,1.545221,0.811744,0.457251,0.333655,0.290871,2.760816,1.275969,0.901541,0.568021,0.232553,2.82251,1.519297,0.614125,0.590927,0.280492
1720526691,14,0,4387.05127,4198.974121,4221.410156,4357.94873,4402.820313,4337.94873,4128.205078,4147.436035,4211.025879,4449.743652,4335,4343.205078,4244.871582,4493.589844,,,,,,,,,,,,,,,,,,,,,,,,,,,,,,,,,,,,,,,,,,,,,,,,,,,,,,,,,,,,,,,,,,,,,,
1720526691,15,0,4379.615234,4192.05127,4213.077148,4360.769043,4405.641113,4331.922852,4121.282227,4134.487305,4197.179688,4443.589844,4334.615234,4333.589844,4232.94873,4477.820313,,,,,,,,,,,,,,,,,,,,,,,,,,,,,,,,,,,,,,,,,,,,,,,,,,,,,,,,,,,,,,,,,,,,,,
1720526691,16,0,4375.256348,4183.717773,4208.717773,4363.846191,4412.436035,4330.128418,4123.846191,4125.256348,4191.666504,4430.897461,4344.871582,4326.922852,4231.410156,4474.487305,,,,,,,,,,,,,,,,,,,,,,,,,,,,,,,,,,,,,,,,,,,,,,,,,,,,,,,,,,,,,,,,,,,,,,
1720526691,17,0,4375.897461,4186.282227,4202.307617,4362.820313,4411.538574,4324.743652,4118.077148,4115.256348,4186.282227,4424.487305,4335.128418,4319.358887,4238.333496,4476.282227,,,,,,,,,,,,,,,,,,,,,,,,,,,,,,,,,,,,,,,,,,,,,,,,,,,,,,,,,,,,,,,,,,,,,,
1720526691,18,0,4373.333496,4187.436035,4196.922852,4360.641113,4402.820313,4320.897461,4105.384766,4103.846191,4180.384766,4425.128418,4322.94873,4313.077148,4233.846191,4473.077148,,,,,,,,,,,,,,,,,,,,,,,,,,,,,,,,,,,,,,,,,,,,,,,,,,,,,,,,,,,,,,,,,,,,,,
1720526691,19,0,4364.871582,4179.615234,4193.974121,4358.205078,4398.461426,4322.563965,4105.641113,4098.974121,4179.743652,4416.410156,4323.974121,4310.512695,4215.384766,4467.436035,,,,,,,,,,,,,,,,,,,,,,,,,,,,,,,,,,,,,,,,,,,,,,,,,,,,,,,,,,,,,,,,,,,,,,
1720526691,20,0,4358.205078,4172.563965,4190.256348,4357.179688,4398.077148,4316.153809,4107.563965,4099.743652,4183.205078,4407.563965,4319.487305,4308.205078,4200.512695,4463.461426,,,,,,,,,,,,,,,,,,,,,,,,,,,,,,,,,,,,,,,,,,,,,,,,,,,,,,,,,,,,,,,,,,,,,,
1720526691,21,0,4356.794922,4168.461426,4186.282227,4356.538574,4390.512695,4308.205078,4098.077148,4100.128418,4185.128418,4415.128418,4304.871582,4306.666504,4197.307617,4460,,,,,,,,,,,,,,,,,,,,,,,,,,,,,,,,,,,,,,,,,,,,,,,,,,,,,,,,,,,,,,,,,,,,,,
1720526691,22,0,4352.05127,4162.563965,4178.846191,4351.153809,4381.922852,4308.077148,4091.794922,4098.846191,4184.102539,4422.307617,4296.410156,4296.538574,4195.384766,4450.769043,,,,,,,,,,,,,,,,,,,,,,,,,,,,,,,,,,,,,,,,,,,,,,,,,,,,,,,,,,,,,,,,,,,,,,
1720526691,23,0,4339.871582,4156.666504,4166.153809,4349.102539,4378.077148,4303.589844,4092.564209,4094.358887,4186.282227,4415.128418,4296.282227,4290.128418,4182.692383,4438.846191,,,,,,,,,,,,,,,,,,,,,,,,,,,,,,,,,,,,,,,,,,,,,,,,,,,,,,,,,,,,,,,,,,,,,,
1720526691,24,0,4342.563965,4147.692383,4156.538574,4354.487305,4374.615234,4296.025879,4085.512939,4088.589844,4184.615234,4411.538574,4292.179688,4294.615234,4171.538574,4430.384766,,,,,,,,,,,,,,,,,,,,,,,,,,,,,,,,,,,,,,,,,,,,,,,,,,,,,,,,,,,,,,,,,,,,,,
1720526691,25,0,4368.205078,4138.461426,4154.615234,4351.153809,4370.512695,4294.358887,4076.410156,4081.923096,4171.794922,4411.410156,4282.94873,4276.282227,4165,4420.512695,,,,,,,,,,,,,,,,,,,,,,,,,,,,,,,,,,,,,,,,,,,,,,,,,,,,,,,,,,,,,,,,,,,,,,
1720526691,26,0,4388.589844,4139.102539,4156.922852,4347.307617,4370.384766,4294.743652,4077.564209,4076.410156,4166.922852,4408.717773,4276.282227,4262.820313,4156.666504,4416.153809,,,,,,,,,,,,,,,,,,,,,,,,,,,,,,,,,,,,,,,,,,,,,,,,,,,,,,,,,,,,,,,,,,,,,,
1720526691,27,0,4388.974121,4145.256348,4157.05127,4351.538574,4376.794922,4292.05127,4081.410156,4075.641113,4165,4404.871582,4272.820313,4265,4154.743652,4420,,,,,,,,,,,,,,,,,,,,,,,,,,,,,,,,,,,,,,,,,,,,,,,,,,,,,,,,,,,,,,,,,,,,,,
1720526691,28,0,4383.974121,4142.94873,4154.230957,4350.512695,4383.589844,4285.641113,4076.025635,4071.410156,4150.641113,4398.333496,4268.205078,4253.205078,4158.333496,4419.615234,,,,,,,,,,,,,,,,,,,,,,,,,,,,,,,,,,,,,,,,,,,,,,,,,,,,,,,,,,,,,,,,,,,,,,
1720526691,29,0,4379.615234,4134.871582,4151.666504,4344.871582,4374.487305,4277.692383,4064.487061,4061.153809,4140.256348,4395.641113,4266.410156,4247.94873,4156.794922,4414.743652,2.060078,1.342702,0.962364,0.547043,0.173024,2.134118,1.229284,0.578312,0.387109,0.165508,5.536637,1.31937,1.560208,0.748329,0.262626,0.832396,0.415546,0.289963,0.096015,0.067057,23.794674,8.368771,4.766313,1.805185,0.904867,3.821499,1.117499,0.367429,0.373104,0.152116,1.536721,1.350756,0.603952,0.380995,0.162818,1.207797,1.260917,0.694326,0.508069,0.17032,2.256598,0.493862,0.482856,0.168975,0.080017,5.599112,5.87675,4.000202,1.290953,0.437869,2.560073,0.625772,0.951315,0.659734,0.553558,1.572513,0.806519,0.502056,0.427287,0.260099,2.73489,1.209866,1.080089,0.58971,0.21447,2.834943,1.459546,0.788347,0.630288,0.255095
1720526691,30,0,4378.205078,4138.461426,4156.410156,4343.717773,4362.563965,4274.743652,4060.641113,4057.94873,4133.974121,4397.05127,4267.179688,4253.333496,4156.666504,4417.307617,,,,,,,,,,,,,,,,,,,,,,,,,,,,,,,,,,,,,,,,,,,,,,,,,,,,,,,,,,,,,,,,,,,,,,
1720526691,31,0,4377.436035,4143.461426,4158.974121,4344.871582,4371.153809,4273.974121,4062.307617,4060.128174,4126.794922,4389.230957,4267.820313,4252.563965,4160.512695,4422.563965,,,,,,,,,,,,,,,,,,,,,,,,,,,,,,,,,,,,,,,,,,,,,,,,,,,,,,,,,,,,,,,,,,,,,,
1720526691,32,0,4361.538574,4125.256348,4144.102539,4343.077148,4373.333496,4264.358887,4051.153809,4047.820557,4127.820313,4367.563965,4263.717773,4242.692383,4146.153809,4410.897461,,,,,,,,,,,,,,,,,,,,,,,,,,,,,,,,,,,,,,,,,,,,,,,,,,,,,,,,,,,,,,,,,,,,,,
1720526691,33,0,4342.692383,4102.307617,4126.666504,4340.256348,4351.538574,4250.256348,4033.718018,4035.641113,4129.615234,4354.487305,4249.358887,4232.436035,4124.871582,4395.512695,,,,,,,,,,,,,,,,,,,,,,,,,,,,,,,,,,,,,,,,,,,,,,,,,,,,,,,,,,,,,,,,,,,,,,
1720526691,34,0,4335.897461,4097.692383,4121.025879,4337.94873,4337.436035,4245.512695,4026.794922,4036.666748,4122.94873,4358.589844,4231.794922,4224.743652,4120.897461,4388.205078,,,,,,,,,,,,,,,,,,,,,,,,,,,,,,,,,,,,,,,,,,,,,,,,,,,,,,,,,,,,,,,,,,,,,,
1720526691,35,0,4324.871582,4095.384521,4115.128418,4336.282227,4342.563965,4245,4023.076904,4029.358887,4119.230957,4356.538574,4221.282227,4220,4114.487305,4374.743652,,,,,,,,,,,,,,,,,,,,,,,,,,,,,,,,,,,,,,,,,,,,,,,,,,,,,,,,,,,,,,,,,,,,,,
1720526691,36,0,4313.974121,4087.564209,4106.410156,4335.512695,4344.102539,4236.922852,4017.307617,4019.358887,4122.692383,4345.512695,4217.05127,4209.615234,4101.153809,4360.256348,,,,,,,,,,,,,,,,,,,,,,,,,,,,,,,,,,,,,,,,,,,,,,,,,,,,,,,,,,,,,,,,,,,,,,
1720526691,37,0,4316.410156,4089.358887,4106.794922,4336.794922,4341.410156,4230.769043,4017.05127,4021.153809,4127.94873,4345,4209.358887,4201.282227,4100.128418,4361.410156,,,,,,,,,,,,,,,,,,,,,,,,,,,,,,,,,,,,,,,,,,,,,,,,,,,,,,,,,,,,,,,,,,,,,,
1720526691,38,0,4316.538574,4092.307617,4110.128418,4338.077148,4342.692383,4231.153809,4015.897461,4017.435791,4127.179688,4352.820313,4202.307617,4207.05127,4102.820313,4364.743652,,,,,,,,,,,,,,,,,,,,,,,,,,,,,,,,,,,,,,,,,,,,,,,,,,,,,,,,,,,,,,,,,,,,,,
1720526691,39,0,4311.025879,4090,4107.820313,4332.05127,4342.05127,4223.461426,4009.102539,4003.076904,4116.025879,4349.871582,4199.615234,4199.358887,4094.487061,4356.025879,,,,,,,,,,,,,,,,,,,,,,,,,,,,,,,,,,,,,,,,,,,,,,,,,,,,,,,,,,,,,,,,,,,,,,
1720526691,40,0,4315.512695,4090.256348,4105.769043,4331.410156,4341.153809,4214.487305,4007.05127,3997.94873,4110.384766,4343.974121,4188.589844,4191.153809,4091.538574,4351.410156,,,,,,,,,,,,,,,,,,,,,,,,,,,,,,,,,,,,,,,,,,,,,,,,,,,,,,,,,,,,,,,,,,,,,,
1720526691,41,0,4317.820313,4087.564209,4104.615234,4334.615234,4342.436035,4219.871582,4011.410156,4001.025635,4116.666504,4343.333496,4174.615234,4196.025879,4094.358887,4352.179688,,,,,,,,,,,,,,,,,,,,,,,,,,,,,,,,,,,,,,,,,,,,,,,,,,,,,,,,,,,,,,,,,,,,,,
